#kx 	ky 	kz 	real 	imag 	intensity
2.800000 2.800000 2.800000 -12.103745 0.938479 147.381393
2.800000 2.800000 2.840000 -12.337835 -2.369398 157.836227
2.800000 2.800000 2.880000 -12.194194 -5.752863 181.793793
2.800000 2.800000 2.920000 -10.870171 -10.309093 224.438019
2.800000 2.800000 2.960000 -6.181493 -15.178232 268.589600
2.800000 2.800000 3.000000 2.407711 -16.917988 292.015381
2.800000 2.800000 3.040000 11.684188 -12.383165 289.863037
2.800000 2.800000 3.080000 16.467339 -2.320057 276.555908
2.800000 2.800000 3.120000 13.968018 8.455030 266.593048
2.800000 2.800000 3.160000 6.180632 14.888830 259.877472
2.800000 2.800000 3.200000 -2.263566 15.642114 249.799454
2.800000 2.840000 2.800000 -12.238615 -10.092317 251.638550
2.800000 2.840000 2.840000 -9.684423 -12.029108 238.487503
2.800000 2.840000 2.880000 -7.677125 -14.072319 256.968414
2.800000 2.840000 2.920000 -4.134676 -16.616495 293.203461
2.800000 2.840000 2.960000 1.908432 -17.151527 297.817017
2.800000 2.840000 3.000000 7.938106 -13.254086 238.684326
2.800000 2.840000 3.040000 9.994946 -6.157898 137.818649
2.800000 2.840000 3.080000 7.039668 -0.264997 49.627151
2.800000 2.840000 3.120000 2.444963 1.313007 7.701834
2.800000 2.840000 3.160000 0.347027 0.148092 0.142359
2.800000 2.840000 3.200000 0.830721 0.525688 0.966445
2.800000 2.880000 2.800000 -3.139878 -19.774233 400.879120
2.800000 2.880000 2.840000 0.990148 -18.650244 348.811981
2.800000 2.880000 2.880000 3.854319 -17.837812 333.043335
2.800000 2.880000 2.920000 7.281591 -16.615503 329.096527
2.800000 2.880000 2.960000 10.240564 -13.196167 279.007996
2.800000 2.880000 3.000000 10.061781 -8.638239 175.858612
2.800000 2.880000 3.040000 6.835422 -6.726743 91.972061
2.800000 2.880000 3.080000 4.915136 -9.261644 109.936615
2.800000 2.880000 3.120000 8.501853 -12.416166 226.442688
2.800000 2.880000 3.160000 15.758300 -9.658592 341.612427
2.800000 2.880000 3.200000 18.835995 0.785265 355.411346
2.800000 2.920000 2.800000 12.082878 -20.181301 553.280884
2.800000 2.920000 2.840000 15.159031 -15.190855 460.558289
2.800000 2.920000 2.880000 16.153595 -11.253998 387.591095
2.800000 2.920000 2.920000 16.037498 -7.643750 315.628265
2.800000 2.920000 2.960000 13.795319 -4.824084 213.582611
2.800000 2.920000 3.000000 10.173368 -5.546669 134.262970
2.800000 2.920000 3.040000 9.767924 -10.753567 211.051544
2.800000 2.920000 3.080000 16.963596 -15.482142 527.460327
2.800000 2.920000 3.120000 29.240150 -11.481310 986.806885
2.800000 2.920000 3.160000 36.333054 4.198637 1337.719360
2.800000 2.920000 3.200000 28.533712 23.445967 1363.886108
2.800000 2.960000 2.800000 24.078960 -8.438251 651.000366
2.800000 2.960000 2.840000 22.944290 -1.127808 527.712402
2.800000 2.960000 2.880000 19.555262 3.305759 393.336304
2.800000 2.960000 2.920000 15.058972 4.918670 250.965958
2.800000 2.960000 2.960000 10.786895 2.503453 122.624374
2.800000 2.960000 3.000000 10.788435 -4.030778 132.637497
2.800000 2.960000 3.040000 19.169594 -9.666422 460.913025
2.800000 2.960000 3.080000 33.629040 -5.648498 1162.817871
2.800000 2.960000 3.120000 43.306747 12.220536 2024.815918
2.800000 2.960000 3.160000 36.273560 36.342705 2636.563477
2.800000 2.960000 3.200000 11.306907 50.375793 2665.566650
2.800000 3.000000 2.800000 23.978867 9.433352 663.974121
2.800000 3.000000 2.840000 17.291300 14.993851 523.804565
2.800000 3.000000 2.880000 10.160059 15.472700 342.631256
2.800000 3.000000 2.920000 4.996584 11.412400 155.208725
2.800000 3.000000 2.960000 4.963090 4.047483 41.014381
2.800000 3.000000 3.000000 13.046480 -1.929771 173.934662
2.800000 3.000000 3.040000 27.185162 1.369302 740.908020
2.800000 3.000000 3.080000 37.466202 18.536930 1747.334106
2.800000 3.000000 3.120000 31.655457 43.442455 2889.314941
2.800000 3.000000 3.160000 6.444721 60.158825 3660.618652
2.800000 3.000000 3.200000 -26.343891 54.542721 3668.909180
2.800000 3.040000 2.800000 10.851494 22.228420 611.857605
2.800000 3.040000 2.840000 0.996554 21.663790 470.312927
2.800000 3.040000 2.880000 -5.329206 15.519092 269.242645
2.800000 3.040000 2.920000 -5.298497 6.831316 74.740952
2.800000 3.040000 2.960000 2.476346 0.491943 6.374297
2.800000 3.040000 3.000000 15.392646 2.977824 245.800980
2.800000 3.040000 3.040000 24.856453 17.978672 941.075928
2.800000 3.040000 3.080000 20.051964 40.490257 2041.542236
2.800000 3.040000 3.120000 -2.932004 56.601852 3212.366455
2.800000 3.040000 3.160000 -34.663441 52.494621 3957.239258
2.800000 3.040000 3.200000 -56.669250 26.445869 3910.788086
2.800000 3.080000 2.800000 -7.115376 22.172640 542.254517
2.800000 3.080000 2.840000 -14.818892 14.116207 418.866852
2.800000 3.080000 2.880000 -14.798437 3.391406 230.495377
2.800000 3.080000 2.920000 -6.633205 -4.045529 60.365715
2.800000 3.080000 2.960000 5.869948 -2.410655 40.267555
2.800000 3.080000 3.000000 14.576397 10.534656 323.450317
2.800000 3.080000 3.040000 10.484179 29.754559 995.251709
2.800000 3.080000 3.080000 -9.381515 43.290512 1962.081299
2.800000 3.080000 3.120000 -37.036617 39.329853 2918.548340
2.800000 3.080000 3.160000 -56.697510 15.892003 3467.163330
2.800000 3.080000 3.200000 -55.674751 -15.559924 3341.789307
2.800000 3.120000 2.800000 -19.214973 10.781302 485.451691
2.800000 3.120000 2.840000 -19.931942 -1.683767 400.117401
2.800000 3.120000 2.880000 -11.416029 -11.093946 253.401337
2.800000 3.120000 2.920000 1.888898 -10.959965 123.688759
2.800000 3.120000 2.960000 11.271716 0.457961 127.261307
2.800000 3.120000 3.000000 8.390184 17.471752 375.657318
2.800000 3.120000 3.040000 -8.559165 28.793367 902.317261
2.800000 3.120000 3.080000 -31.663046 24.451826 1600.440186
2.800000 3.120000 3.120000 -47.087330 3.607970 2230.233887
2.800000 3.120000 3.160000 -44.459251 -23.329927 2520.910645
2.800000 3.120000 3.200000 -24.863022 -41.298210 2323.711914
2.800000 3.160000 2.800000 -20.577518 -3.367680 434.775543
2.800000 3.160000 2.840000 -13.262949 -14.738594 393.131958
2.800000 3.160000 2.880000 0.691224 -17.321953 300.527832
2.800000 3.160000 2.920000 12.236634 -7.923403 212.515533
2.800000 3.160000 2.960000 12.100937 8.129812 212.526520
2.800000 3.160000 3.000000 -1.868327 19.282028 375.287231
2.800000 3.160000 3.040000 -21.615852 15.713147 714.148071
2.800000 3.160000 3.080000 -33.692646 -2.710529 1142.541260
2.800000 3.160000 3.120000 -29.069468 -25.395115 1489.945801
2.800000 3.160000 3.160000 -10.164786 -38.485695 1584.471558
2.800000 3.160000 3.200000 10.997997 -35.164654 1357.508789
2.800000 3.200000 2.800000 -14.712725 -12.540331 373.724182
2.800000 3.200000 2.840000 -2.325086 -18.726967 356.105316
2.800000 3.200000 2.880000 11.283997 -13.207617 301.769714
2.800000 3.200000 2.920000 15.576796 1.402753 244.604279
2.800000 3.200000 2.960000 5.878673 14.076979 232.720123
2.800000 3.200000 3.000000 -11.315683 13.642561 314.164185
2.800000 3.200000 3.040000 -22.420757 -1.479985 504.880737
2.800000 3.200000 3.080000 -17.688536 -21.011038 754.348022
2.800000 3.200000 3.120000 0.461996 -30.785332 947.950073
2.800000 3.200000 3.160000 19.344189 -24.309435 965.146240
2.800000 3.200000 3.200000 26.573090 -7.696070 765.358582
2.840000 2.800000 2.800000 -14.890521 3.874778 236.741516
2.840000 2.800000 2.840000 -15.887963 -3.400961 263.993927
2.840000 2.800000 2.880000 -12.649884 -10.191618 263.888672
2.840000 2.800000 2.920000 -6.333083 -14.341890 245.797760
2.840000 2.800000 2.960000 1.268204 -14.856077 222.311371
2.840000 2.800000 3.000000 8.355888 -11.591936 204.193848
2.840000 2.800000 3.040000 13.172588 -5.040136 198.920059
2.840000 2.800000 3.080000 14.097868 3.419214 210.440903
2.840000 2.800000 3.120000 10.357887 11.416105 237.613281
2.840000 2.800000 3.160000 2.763395 16.267853 272.279388
2.840000 2.800000 3.200000 -6.280368 16.191072 301.593842
2.840000 2.840000 2.800000 -11.794274 -9.736848 233.911102
2.840000 2.840000 2.840000 -2.473966 -14.847260 226.561646
2.840000 2.840000 2.880000 8.271096 -11.179605 193.394623
2.840000 2.840000 2.920000 12.672981 -0.506681 160.861191
2.840000 2.840000 2.960000 7.455744 9.443213 144.762375
2.840000 2.840000 3.000000 -2.857388 11.360086 137.216217
2.840000 2.840000 3.040000 -9.679085 4.818165 116.899399
2.840000 2.840000 3.080000 -7.972523 -3.379488 74.982056
2.840000 2.840000 3.120000 -0.654678 -5.474094 30.394314
2.840000 2.840000 3.160000 4.299316 0.159353 18.509514
2.840000 2.840000 3.200000 1.355861 7.676798 60.771584
2.840000 2.880000 2.800000 2.237063 -16.947487 292.221771
2.840000 2.880000 2.840000 18.227203 -10.295038 438.218750
2.840000 2.880000 2.880000 24.475395 9.489939 689.103943
2.840000 2.880000 2.920000 11.740227 29.622990 1015.354492
2.840000 2.880000 2.960000 -14.279491 33.254799 1309.785400
2.840000 2.880000 3.000000 -35.039677 14.685055 1443.429810
2.840000 2.880000 3.040000 -34.135281 -13.708895 1353.151245
2.840000 2.880000 3.080000 -12.001341 -30.735508 1088.703613
2.840000 2.880000 3.120000 13.781154 -24.312332 781.009644
2.840000 2.880000 3.160000 23.488731 -1.660925 554.479187
2.840000 2.880000 3.200000 11.897628 17.644825 452.893372
2.840000 2.920000 2.800000 18.033409 -9.950085 424.208038
2.840000 2.920000 2.840000 28.695105 11.950494 966.223389
2.840000 2.920000 2.880000 16.476242 40.044006 1874.989014
2.840000 2.920000 2.920000 -18.373392 51.013443 2939.952881
2.840000 2.920000 2.960000 -53.828075 29.490364 3767.143311
2.840000 2.920000 3.000000 -61.693146 -14.774227 4024.322021
2.840000 2.920000 3.040000 -32.484375 -51.130585 3669.571289
2.840000 2.920000 3.080000 13.920809 -52.682304 2969.214111
2.840000 2.920000 3.120000 43.640003 -19.528013 2285.793213
2.840000 2.920000 3.160000 37.081963 21.261581 1827.126709
2.840000 2.920000 3.200000 4.374950 39.199463 1555.738037
2.840000 2.960000 2.800000 22.693811 8.054796 579.888855
2.840000 2.960000 2.840000 16.427559 36.741898 1619.831787
2.840000 2.960000 2.880000 -16.668051 54.994305 3302.197510
2.840000 2.960000 2.920000 -59.824738 39.724163 5157.008301
2.840000 2.960000 2.960000 -79.789169 -8.844997 6444.545410
2.840000 2.960000 3.000000 -54.776672 -60.442432 6653.771484
2.840000 2.960000 3.040000 2.848286 -76.598923 5875.507812
2.840000 2.960000 3.080000 52.941475 -43.692940 4711.873047
2.840000 2.960000 3.120000 60.050968 13.670290 3792.995605
2.840000 2.960000 3.160000 23.024036 52.840740 3322.250000
2.840000 2.960000 3.200000 -25.583313 48.809067 3036.830811
2.840000 3.000000 2.800000 10.890471 23.905018 690.052246
2.840000 3.000000 2.840000 -12.829876 43.671036 2071.765137
2.840000 3.000000 2.880000 -52.708488 37.953915 4218.684570
2.840000 3.000000 2.920000 -80.293976 -2.777373 6454.836426
2.840000 3.000000 2.960000 -66.928627 -57.900215 7831.875977
2.840000 3.000000 3.000000 -12.236731 -87.487488 7803.798340
2.840000 3.000000 3.040000 49.035789 -65.256332 6662.897461
2.840000 3.000000 3.080000 72.738892 -4.041918 5307.283203
2.840000 3.000000 3.120000 42.450272 52.072479 4513.568848
2.840000 3.000000 3.160000 -16.306732 63.953033 4355.899902
2.840000 3.000000 3.200000 -58.503899 29.222256 4276.646484
2.840000 3.040000 2.800000 -9.627303 25.089931 722.189575
2.840000 3.040000 2.840000 -38.212975 25.357182 2103.218018
2.840000 3.040000 2.880000 -64.242722 -1.770005 4130.260254
2.840000 3.040000 2.920000 -61.761124 -47.807381 6099.981934
2.840000 3.040000 2.960000 -20.720285 -81.819016 7123.681152
2.840000 3.040000 3.000000 37.308346 -73.565567 6803.805176
2.840000 3.040000 3.040000 71.469635 -22.143564 5598.246094
2.840000 3.040000 3.080000 54.929653 38.275284 4482.264160
2.840000 3.040000 3.120000 -0.686133 64.459801 4155.536621
2.840000 3.040000 3.160000 -53.780045 39.951080 4488.381836
2.840000 3.040000 3.200000 -67.555786 -12.179827 4712.132324
2.840000 3.080000 2.800000 -24.128494 10.474864 691.907043
2.840000 3.080000 2.840000 -41.463806 -5.339903 1747.761719
2.840000 3.080000 2.880000 -43.058006 -36.076790 3155.526855
2.840000 3.080000 2.920000 -17.542580 -63.774181 4374.888184
2.840000 3.080000 2.960000 25.957169 -64.374718 4817.878906
2.840000 3.080000 3.000000 58.856480 -29.504921 4334.625488
2.840000 3.080000 3.040000 54.500412 21.127962 3416.685791
2.840000 3.080000 3.080000 12.413681 51.913303 2849.090332
2.840000 3.080000 3.120000 -38.169239 40.091892 3064.250732
2.840000 3.080000 3.160000 -61.183662 -4.568404 3764.310791
2.840000 3.080000 3.200000 -43.228764 -48.035019 4176.088867
2.840000 3.120000 2.800000 -23.339977 -8.992167 625.613586
2.840000 3.120000 2.840000 -22.591049 -26.652458 1220.708984
2.840000 3.120000 2.880000 -7.080515 -42.683784 1872.039185
2.840000 3.120000 2.920000 19.556665 -43.738983 2295.561768
2.840000 3.120000 2.960000 41.712753 -22.915350 2265.066895
2.840000 3.120000 3.000000 41.586075 10.519646 1840.064575
2.840000 3.120000 3.040000 14.899667 34.300613 1398.532227
2.840000 3.120000 3.080000 -22.148506 29.782051 1377.526855
2.840000 3.120000 3.120000 -43.562408 -1.647983 1900.399292
2.840000 3.120000 3.160000 -34.248878 -38.100006 2624.596191
2.840000 3.120000 3.200000 -2.384901 -54.541412 2980.453369
2.840000 3.160000 2.800000 -10.629847 -20.301149 525.130310
2.840000 3.160000 2.840000 1.507916 -26.984945 730.461060
2.840000 3.160000 2.880000 16.781942 -23.727722 844.638428
2.840000 3.160000 2.920000 26.645905 -9.651739 803.160278
2.840000 3.160000 2.960000 23.378181 8.705170 622.319336
2.840000 3.160000 3.000000 6.518847 19.689585 430.175110
2.840000 3.160000 3.040000 -14.459215 14.254396 412.256714
2.840000 3.160000 3.080000 -25.337362 -6.184580 680.230957
2.840000 3.160000 3.120000 -17.559704 -29.116982 1156.141846
2.840000 3.160000 3.160000 4.549268 -39.545036 1584.505737
2.840000 3.160000 3.200000 26.597561 -31.379852 1692.125366
2.840000 3.200000 2.800000 2.544134 -19.411949 383.296387
2.840000 3.200000 2.840000 13.581003 -13.413333 364.361145
2.840000 3.200000 2.880000 16.694147 -0.890862 279.488190
2.840000 3.200000 2.920000 9.067471 9.852722 179.295166
2.840000 3.200000 2.960000 -4.609505 10.878262 139.584106
2.840000 3.200000 3.000000 -14.902847 0.460514 222.306931
2.840000 3.200000 3.040000 -14.093075 -15.271497 431.833374
2.840000 3.200000 3.080000 -1.694131 -26.344601 696.908020
2.840000 3.200000 3.120000 15.167974 -25.850033 898.291626
2.840000 3.200000 3.160000 26.837229 -14.563536 932.333435
2.840000 3.200000 3.200000 27.814171 0.080847 773.634644
2.880000 2.800000 2.800000 -20.168417 2.872864 415.018402
2.880000 2.800000 2.840000 -17.988653 -8.548262 396.664429
2.880000 2.800000 2.880000 -8.997897 -15.467209 320.196686
2.880000 2.800000 2.920000 1.197346 -15.070328 228.548416
2.880000 2.800000 2.960000 7.711891 -9.817983 155.866058
2.880000 2.800000 3.000000 9.971581 -4.026562 115.645615
2.880000 2.800000 3.040000 10.454895 0.513428 109.568443
2.880000 2.800000 3.080000 10.597298 5.173317 139.065933
2.880000 2.800000 3.120000 8.759321 11.149501 201.037079
2.880000 2.800000 3.160000 2.602909 16.366173 274.626770
2.880000 2.800000 3.200000 -6.923237 16.524494 320.990112
2.880000 2.840000 2.800000 -11.736069 -10.664490 251.466644
2.880000 2.840000 2.840000 6.317106 -10.377806 147.604675
2.880000 2.840000 2.880000 17.173790 7.144306 345.980164
2.880000 2.840000 2.920000 7.829399 28.287407 861.476868
2.880000 2.840000 2.960000 -16.747215 33.550694 1406.118286
2.880000 2.840000 3.000000 -36.560017 16.360512 1604.301147
2.880000 2.840000 3.040000 -34.873222 -9.711517 1310.455200
2.880000 2.840000 3.080000 -14.049747 -23.213448 736.259521
2.880000 2.840000 3.120000 6.923462 -14.775764 266.257507
2.880000 2.840000 3.160000 10.654440 4.902710 137.553650
2.880000 2.840000 3.200000 -2.834887 16.418800 277.613586
2.880000 2.880000 2.800000 4.981441 -11.705915 161.843216
2.880000 2.880000 2.840000 23.849209 13.612232 754.077637
2.880000 2.880000 2.880000 10.826191 52.012459 2822.502197
2.880000 2.880000 2.920000 -35.729820 68.211975 5929.493652
2.880000 2.880000 2.960000 -84.088882 39.313622 8616.500977
2.880000 2.880000 3.000000 -94.711159 -20.232201 9379.544922
2.880000 2.880000 3.040000 -56.549591 -67.913399 7810.085938
2.880000 2.880000 3.080000 1.492401 -69.994598 4901.470703
2.880000 2.880000 3.120000 36.058125 -30.945387 2257.805176
2.880000 2.880000 3.160000 27.401554 12.673290 911.457458
2.880000 2.880000 3.200000 -6.286074 26.831762 759.458191
2.880000 2.920000 2.800000 15.469276 2.271782 244.459503
2.880000 2.920000 2.840000 12.136724 47.381565 2392.312744
2.880000 2.920000 2.880000 -38.717972 79.417671 7806.248047
2.880000 2.920000 2.920000 -109.334801 56.299603 15123.744141
2.880000 2.920000 2.960000 -143.157578 -22.316566 20992.121094
2.880000 2.920000 3.000000 -104.879318 -106.188782 22275.730469
2.880000 2.920000 3.040000 -16.112080 -134.602020 18377.302734
2.880000 2.920000 3.080000 60.250572 -89.586433 11655.860352
2.880000 2.920000 3.120000 74.035133 -11.273912 5608.302246
2.880000 2.920000 3.160000 29.180058 39.310753 2396.811035
2.880000 2.920000 3.200000 -25.605101 33.460850 1775.249512
2.880000 2.960000 2.800000 8.882650 19.673550 465.950012
2.880000 2.960000 2.840000 -27.359589 60.437187 4401.200684
2.880000 2.960000 2.880000 -100.744919 55.341621 13212.234375
2.880000 2.960000 2.920000 -155.414368 -18.073490 24480.275391
2.880000 2.960000 2.960000 -134.936417 -121.788116 33040.179688
2.880000 2.960000 3.000000 -37.823784 -181.541611 34387.992188
2.880000 2.960000 3.040000 73.255661 -150.408508 27989.111328
2.880000 2.960000 3.080000 122.208160 -52.076790 17646.826172
2.880000 2.960000 3.120000 84.165497 39.034466 8607.520508
2.880000 2.960000 3.160000 3.300271 62.576065 3926.655762
2.880000 2.960000 3.200000 -51.254341 20.479389 3046.413086
2.880000 3.000000 2.800000 -10.897522 24.166903 702.795166
2.880000 3.000000 2.840000 -66.469803 35.866844 5704.665527
2.880000 3.000000 2.880000 -126.219032 -13.295193 16108.005859
2.880000 3.000000 2.920000 -129.500916 -109.962418 28862.218750
2.880000 3.000000 2.960000 -49.836006 -188.634552 38066.625000
2.880000 3.000000 3.000000 71.020645 -183.982239 38893.398438
2.880000 3.000000 3.040000 151.112411 -91.194954 31151.480469
2.880000 3.000000 3.080000 137.069031 24.981184 19411.980469
2.880000 3.000000 3.120000 49.610672 84.272484 9563.070312
2.880000 3.000000 3.160000 -37.298172 58.096039 4766.303223
2.880000 3.000000 3.200000 -62.666164 -12.461428 4082.335205
2.880000 3.040000 2.800000 -27.533669 9.664124 851.498169
2.880000 3.040000 2.840000 -73.951935 -12.036318 5613.761719
2.880000 3.040000 2.880000 -91.875580 -80.277603 14885.615234
2.880000 3.040000 2.920000 -43.454735 -154.542831 25771.800781
2.880000 3.040000 2.960000 57.887775 -172.647552 33158.171875
2.880000 3.040000 3.000000 147.666321 -106.538338 33155.757812
2.880000 3.040000 3.040000 161.187866 6.015739 26017.716797
2.880000 3.040000 3.080000 90.223160 88.429214 15959.945312
2.880000 3.040000 3.120000 -8.713789 89.080917 8011.339844
2.880000 3.040000 3.160000 -63.542778 22.897663 4561.987305
2.880000 3.040000 3.200000 -46.857788 -47.194641 4422.986328
2.880000 3.080000 2.800000 -26.608706 -13.544853 891.486206
2.880000 3.080000 2.840000 -43.663628 -48.994072 4306.931641
2.880000 3.080000 2.880000 -22.409632 -99.611481 10424.638672
2.880000 3.080000 2.920000 42.620674 -124.009979 17194.996094
2.880000 3.080000 2.960000 115.774979 -89.200912 21360.648438
2.880000 3.080000 3.000000 143.769287 -5.637302 20701.386719
2.880000 3.080000 3.040000 101.442719 73.922348 15755.138672
2.880000 3.080000 3.080000 17.036255 95.786766 9465.338867
2.880000 3.080000 3.120000 -49.335686 50.544891 4988.795898
2.880000 3.080000 3.160000 -55.790512 -20.173050 3519.533203
2.880000 3.080000 3.200000 -11.156687 -61.510139 3907.968994
2.880000 3.120000 2.800000 -8.559034 -27.889616 851.087769
2.880000 3.120000 2.840000 0.177223 -50.898228 2590.661133
2.880000 3.120000 2.880000 31.682566 -65.377396 5277.989258
2.880000 3.120000 2.920000 73.233612 -50.618397 7925.384277
2.880000 3.120000 2.960000 95.835526 -4.140762 9201.593750
2.880000 3.120000 3.000000 77.211899 49.306286 8392.787109
2.880000 3.120000 3.040000 24.092140 73.782364 6024.268555
2.880000 3.120000 3.080000 -29.053421 51.802532 3527.603760
2.880000 3.120000 3.120000 -46.697159 0.518557 2180.893555
2.880000 3.120000 3.160000 -21.266851 -41.868946 2205.287598
2.880000 3.120000 3.200000 22.149527 -47.815422 2776.916260
2.880000 3.160000 2.800000 12.291835 -24.275787 740.403076
2.880000 3.160000 2.840000 25.695127 -23.889935 1230.968506
2.880000 3.160000 2.880000 38.984303 -13.675085 1706.783813
2.880000 3.160000 2.920000 43.986115 5.724602 1967.549438
2.880000 3.160000 2.960000 34.047752 26.320099 1851.997070
2.880000 3.160000 3.000000 10.845863 35.639420 1387.801025
2.880000 3.160000 3.040000 -13.520981 25.602169 838.287964
2.880000 3.160000 3.080000 -23.510612 0.574707 553.079163
2.880000 3.160000 3.120000 -12.056549 -23.727198 708.340332
2.880000 3.160000 3.160000 12.923208 -31.420582 1154.262329
2.880000 3.160000 3.200000 34.123760 -18.779388 1517.096436
2.880000 3.200000 2.800000 21.430935 -9.311125 545.981995
2.880000 3.200000 2.840000 21.506027 4.364525 481.558289
2.880000 3.200000 2.880000 11.301117 13.467287 309.083069
2.880000 3.200000 2.920000 -1.883467 11.908985 145.371368
2.880000 3.200000 2.960000 -9.276043 1.568865 88.506310
2.880000 3.200000 3.000000 -7.150192 -10.313145 157.486206
2.880000 3.200000 3.040000 1.839649 -17.197754 299.147034
2.880000 3.200000 3.080000 12.282776 -17.048500 441.517944
2.880000 3.200000 3.120000 20.125174 -11.644840 540.624939
2.880000 3.200000 3.160000 23.894619 -3.756063 585.060852
2.880000 3.200000 3.200000 23.514111 4.438187 572.610901
2.920000 2.800000 2.800000 -23.326677 -1.946203 547.921570
2.920000 2.800000 2.840000 -15.514133 -13.981256 436.163879
2.920000 2.800000 2.880000 -2.271347 -16.635595 281.902069
2.920000 2.800000 2.920000 7.286888 -10.301552 159.220703
2.920000 2.800000 2.960000 9.111526 -2.148937 87.637848
2.920000 2.800000 3.000000 6.984356 1.776901 51.938606
2.920000 2.800000 3.040000 6.930912 2.423233 53.909599
2.920000 2.800000 3.080000 9.767681 5.308929 123.592323
2.920000 2.800000 3.120000 10.178284 12.865663 269.122742
2.920000 2.800000 3.160000 3.367086 20.383076 426.807068
2.920000 2.800000 3.200000 -8.253059 20.442360 486.003052
2.920000 2.840000 2.800000 -10.975798 -11.143794 244.652283
2.920000 2.840000 2.840000 8.101814 1.593100 68.177361
2.920000 2.840000 2.880000 5.433113 29.163292 880.016357
2.920000 2.840000 2.920000 -24.078979 44.304722 2542.705566
2.920000 2.840000 2.960000 -58.018959 27.129128 4102.189453
2.920000 2.840000 3.000000 -65.915916 -13.337097 4522.786133
2.920000 2.840000 3.040000 -38.650574 -45.424339 3557.237305
2.920000 2.840000 3.080000 1.885323 -43.999550 1939.514893
2.920000 2.840000 3.120000 23.171469 -13.761921 726.307495
2.920000 2.840000 3.160000 12.235429 16.462177 420.709015
2.920000 2.840000 3.200000 -14.276390 21.994267 687.563110
2.920000 2.880000 2.800000 2.664589 -5.457434 36.883617
2.920000 2.880000 2.840000 5.119137 37.395687 1424.642944
2.920000 2.880000 2.880000 -41.365707 71.107422 6767.387207
2.920000 2.880000 2.920000 -110.289177 50.803452 14744.693359
2.920000 2.880000 2.960000 -144.036865 -25.462440 21394.955078
2.920000 2.880000 3.000000 -106.543869 -107.313271 22867.734375
2.920000 2.880000 3.040000 -19.925362 -134.126297 18386.882812
2.920000 2.880000 3.080000 52.875656 -89.527740 10811.050781
2.920000 2.880000 3.120000 63.940098 -15.080692 4315.763672
2.920000 2.880000 3.160000 20.577253 29.694616 1305.193604
2.920000 2.880000 3.200000 -27.685875 20.643782 1192.673340
2.920000 2.920000 2.800000 3.470064 9.226683 97.173019
2.920000 2.920000 2.840000 -34.306377 59.321873 4696.011719
2.920000 2.920000 2.880000 -120.008209 56.377411 17580.382812
2.920000 2.920000 2.920000 -185.677536 -29.165634 35326.781250
2.920000 2.920000 2.960000 -162.254852 -151.992950 49428.492188
2.920000 2.920000 3.000000 -48.037216 -222.997955 52035.664062
2.920000 2.920000 3.040000 81.924858 -187.391113 41827.113281
2.920000 2.920000 3.080000 138.975708 -74.998718 24939.054688
2.920000 2.920000 3.120000 97.282486 26.963573 10190.916016
2.920000 2.920000 3.160000 10.665833 51.992336 2816.963135
2.920000 2.920000 3.200000 -43.188393 7.494449 1921.404053
2.920000 2.960000 2.800000 -10.886183 16.779270 400.052887
2.920000 2.960000 2.840000 -83.932175 38.046143 8492.119141
2.920000 2.960000 2.880000 -167.267258 -25.646656 28636.085938
2.920000 2.960000 2.920000 -174.330505 -157.607620 55231.289062
2.920000 2.960000 2.960000 -66.978294 -266.836914 75688.031250
2.920000 2.960000 3.000000 97.480270 -263.265808 78811.289062
2.920000 2.960000 3.040000 207.727295 -141.146469 63072.953125
2.920000 2.960000 3.080000 193.723480 11.788324 37667.750000
2.920000 2.960000 3.120000 85.443871 90.603355 15509.623047
2.920000 2.960000 3.160000 -20.121586 62.022919 4251.720703
2.920000 2.960000 3.200000 -48.597580 -17.564457 2670.235107
2.920000 3.000000 2.800000 -27.009369 6.230965 768.330933
2.920000 3.000000 2.840000 -101.647400 -20.107758 10736.516602
2.920000 3.000000 2.880000 -135.370544 -124.712120 33878.296875
2.920000 3.000000 2.920000 -63.905540 -243.766113 63505.835938
2.920000 3.000000 2.960000 93.686821 -277.243713 85641.296875
2.920000 3.000000 3.000000 236.677704 -179.643829 88288.242188
2.920000 3.000000 3.040000 264.855408 -8.729933 70224.601562
2.920000 3.000000 3.080000 166.058731 119.403770 41832.761719
2.920000 3.000000 3.120000 25.098961 129.113205 17300.175781
2.920000 3.000000 3.160000 -53.899246 44.581146 4892.607422
2.920000 3.000000 3.200000 -35.785477 -43.402687 3164.393555
2.920000 3.040000 2.800000 -27.628998 -16.511967 1036.006592
2.920000 3.040000 2.840000 -68.093681 -74.738571 10222.603516
2.920000 3.040000 2.880000 -38.979591 -169.851654 30368.992188
2.920000 3.040000 2.920000 75.682800 -222.893890 55409.574219
2.920000 3.040000 2.960000 212.356628 -168.592957 73518.921875
2.920000 3.040000 3.000000 272.862061 -22.160065 74944.773438
2.920000 3.040000 3.040000 209.419815 123.567841 59125.671875
2.920000 3.040000 3.080000 69.250946 173.953491 35055.507812
2.920000 3.040000 3.120000 -45.734787 111.844299 14600.818359
2.920000 3.040000 3.160000 -66.463211 6.065911 4454.153809
2.920000 3.040000 3.200000 -8.766953 -55.739147 3183.711914
2.920000 3.080000 2.800000 -8.250777 -32.995125 1156.753540
2.920000 3.080000 2.840000 -5.956146 -86.217903 7469.002441
2.920000 3.080000 2.880000 54.854782 -131.986191 20429.402344
2.920000 3.080000 2.920000 150.961288 -114.692284 35943.632812
2.920000 3.080000 2.960000 215.066284 -19.880325 46648.734375
2.920000 3.080000 3.000000 190.911346 101.748169 46799.828125
2.920000 3.080000 3.040000 86.281578 170.358261 36466.449219
2.920000 3.080000 3.080000 -28.747353 143.678040 21469.789062
2.920000 3.080000 3.120000 -79.730225 52.336754 9096.044922
2.920000 3.080000 3.160000 -48.570282 -29.368288 3221.568604
2.920000 3.080000 3.200000 18.576965 -48.466797 2694.134277
2.920000 3.120000 2.800000 17.874653 -29.100945 1166.368164
2.920000 3.120000 2.840000 39.893730 -50.700745 4162.075195
2.920000 3.120000 2.880000 85.526764 -48.339096 9651.495117
2.920000 3.120000 2.920000 125.594177 -3.969803 15789.657227
2.920000 3.120000 2.960000 123.042976 67.017838 19630.964844
2.920000 3.120000 3.000000 66.846947 120.947090 19096.712891
2.920000 3.120000 3.040000 -12.727051 119.851837 14526.440430
2.920000 3.120000 3.080000 -65.347740 64.653709 8450.429688
2.920000 3.120000 3.120000 -61.223873 -4.134762 3765.458740
2.920000 3.120000 3.160000 -14.267069 -40.099312 1811.504150
2.920000 3.120000 3.200000 33.003967 -28.086916 1878.136719
2.920000 3.160000 2.800000 31.803917 -8.104837 1077.177490
2.920000 3.160000 2.840000 42.273766 -1.509336 1789.349365
2.920000 3.160000 2.880000 49.684883 14.325348 2673.803223
2.920000 3.160000 2.920000 45.634666 36.657715 3426.310791
2.920000 3.160000 2.960000 25.383820 54.983208 3667.491455
2.920000 3.160000 3.000000 -5.296371 56.411442 3210.302246
2.920000 3.160000 3.040000 -30.711792 36.134914 2248.946289
2.920000 3.160000 3.080000 -35.489880 3.855591 1274.397095
2.920000 3.160000 3.120000 -16.938210 -21.334984 742.084473
2.920000 3.160000 3.160000 11.722551 -24.890499 756.955139
2.920000 3.160000 3.200000 31.225784 -7.893328 1037.354248
2.920000 3.200000 2.800000 26.189693 12.947782 853.545044
2.920000 3.200000 2.840000 13.061823 23.369129 716.727417
2.920000 3.200000 2.880000 -3.588203 20.035652 414.302582
2.920000 3.200000 2.920000 -11.363052 5.995892 165.069672
2.920000 3.200000 2.960000 -6.298309 -7.265522 92.456505
2.920000 3.200000 3.000000 4.684227 -11.086643 144.855637
2.920000 3.200000 3.040000 11.989525 -6.790283 189.856644
2.920000 3.200000 3.080000 12.857443 -2.022163 169.402985
2.920000 3.200000 3.120000 12.251724 -1.350391 151.928314
2.920000 3.200000 3.160000 15.292980 -1.789797 237.078613
2.920000 3.200000 3.200000 20.469261 2.389738 424.701508
2.960000 2.800000 2.800000 -22.628777 -6.709105 557.073608
2.960000 2.800000 2.840000 -10.832779 -15.332733 352.441803
2.960000 2.800000 2.880000 2.078690 -12.635571 163.978592
2.960000 2.800000 2.920000 7.403709 -3.513115 67.156891
2.960000 2.800000 2.960000 5.163116 2.958649 35.411373
2.960000 2.800000 3.000000 2.717754 3.295387 18.245766
2.960000 2.800000 3.040000 5.555656 2.687737 38.089245
2.960000 2.800000 3.080000 10.586777 8.090847 177.541656
2.960000 2.800000 3.120000 9.526371 19.153515 457.608856
2.960000 2.800000 3.160000 -1.241842 27.324318 748.160522
2.960000 2.800000 3.200000 -15.338474 24.592472 840.058472
2.960000 2.840000 2.800000 -11.633352 -10.176311 238.892197
2.960000 2.840000 2.840000 -2.942192 11.792164 147.711624
2.960000 2.840000 2.880000 -23.954002 34.015636 1730.857666
2.960000 2.840000 2.920000 -62.130295 26.678246 4571.902344
2.960000 2.840000 2.960000 -82.426643 -14.917465 7016.682129
2.960000 2.840000 3.000000 -60.757721 -61.397034 7461.096680
2.960000 2.840000 3.040000 -9.429573 -74.887199 5697.009766
2.960000 2.840000 3.080000 32.361259 -44.751251 3049.925537
2.960000 2.840000 3.120000 34.509850 2.306793 1196.250977
2.960000 2.840000 3.160000 2.848410 27.981951 791.103027
2.960000 2.840000 3.200000 -29.266283 17.769917 1172.285278
2.960000 2.880000 2.800000 -5.746971 -3.132004 42.837124
2.960000 2.880000 2.840000 -30.932102 38.027809 2402.909180
2.960000 2.880000 2.880000 -98.105148 38.520042 11108.414062
2.960000 2.880000 2.920000 -151.485260 -28.941483 23785.392578
2.960000 2.880000 2.960000 -132.515030 -128.149887 33982.625000
2.960000 2.880000 3.000000 -38.890305 -184.948486 35718.398438
2.960000 2.880000 3.040000 66.844681 -153.751419 28107.708984
2.960000 2.880000 3.080000 111.064880 -60.320259 15973.941406
2.960000 2.880000 3.120000 73.833450 22.025387 5936.496094
2.960000 2.880000 3.160000 2.024754 39.143787 1536.335693
2.960000 2.880000 3.200000 -39.480667 0.186789 1558.757935
2.960000 2.920000 2.800000 -11.838737 3.434967 151.954697
2.960000 2.920000 2.840000 -80.155930 27.165981 7162.963867
2.960000 2.920000 2.880000 -161.825348 -32.954411 27273.437500
2.960000 2.920000 2.920000 -169.248276 -162.043579 54903.101562
2.960000 2.920000 2.960000 -63.293991 -269.304993 76531.312500
2.960000 2.920000 3.000000 98.821625 -264.855774 79914.289062
2.960000 2.920000 3.040000 206.336273 -143.939865 63293.343750
2.960000 2.920000 3.080000 191.296890 5.345894 36623.078125
2.960000 2.920000 3.120000 85.853943 80.194794 13802.104492
2.960000 2.920000 3.160000 -13.602219 51.205132 2806.985840
2.960000 2.920000 3.200000 -36.923996 -23.111938 1897.543213
2.960000 2.960000 2.800000 -22.850288 -2.445156 528.114441
2.960000 2.960000 2.840000 -107.541290 -28.133595 12356.627930
2.960000 2.960000 2.880000 -147.825867 -145.797638 43109.437500
2.960000 2.960000 2.920000 -67.296921 -282.081543 84098.875000
2.960000 2.960000 2.960000 112.668762 -320.806610 115611.132812
2.960000 2.960000 3.000000 275.901367 -209.784302 120131.015625
2.960000 2.960000 3.040000 308.296234 -16.218777 95309.617188
2.960000 2.960000 3.080000 198.218170 127.702744 55598.429688
2.960000 2.960000 3.120000 43.376068 139.019913 21208.017578
2.960000 2.960000 3.160000 -40.795349 48.739243 4039.774170
2.960000 2.960000 3.200000 -20.129982 -40.775890 2067.889404
2.960000 3.000000 2.800000 -23.613630 -20.220753 966.482361
2.960000 3.000000 2.840000 -80.662399 -92.870911 15131.428711
2.960000 3.000000 2.880000 -46.315460 -218.579559 49922.144531
2.960000 3.000000 2.920000 103.131912 -290.970917 95300.265625
2.960000 3.000000 2.960000 283.527649 -221.945404 129647.687500
2.960000 3.000000 3.000000 364.873077 -31.511700 134125.343750
2.960000 3.000000 3.040000 285.330109 158.234039 106451.281250
2.960000 3.000000 3.080000 107.848938 225.427612 62449.003906
2.960000 3.000000 3.120000 -36.501675 151.010361 24136.501953
2.960000 3.000000 3.160000 -63.232098 24.925270 4619.567383
2.960000 3.000000 3.200000 2.671249 -44.450981 1983.025391
2.960000 3.040000 2.800000 -6.287819 -35.226585 1280.448975
2.960000 3.040000 2.840000 -10.915092 -117.805603 13997.299805
2.960000 3.040000 2.880000 78.662529 -194.142029 43878.921875
2.960000 3.040000 2.920000 227.950653 -173.545074 82079.390625
2.960000 3.040000 2.960000 330.986572 -31.046509 110515.992188
2.960000 3.040000 3.000000 299.465393 155.275467 113789.992188
2.960000 3.040000 3.040000 145.273026 263.067108 90308.554688
2.960000 3.040000 3.080000 -25.345123 229.490936 53308.464844
2.960000 3.040000 3.120000 -102.888771 102.060143 21002.371094
2.960000 3.040000 3.160000 -64.470909 -10.294998 4262.484863
2.960000 3.040000 3.200000 20.358246 -35.287807 1659.687500
2.960000 3.080000 2.800000 20.158510 -31.889145 1423.283081
2.960000 3.080000 2.840000 53.579220 -83.777397 9889.384766
2.960000 3.080000 2.880000 142.712555 -92.003479 28831.513672
2.960000 3.080000 2.920000 228.592209 -14.151604 52454.667969
2.960000 3.080000 2.960000 233.990204 122.038635 69644.843750
2.960000 3.080000 3.000000 134.344879 230.624908 71236.390625
2.960000 3.080000 3.040000 -13.065834 237.415848 56537.000000
2.960000 3.080000 3.080000 -113.714195 144.119308 33701.292969
2.960000 3.080000 3.120000 -114.360535 25.517643 13729.482422
2.960000 3.080000 3.160000 -42.440819 -37.001671 3170.346680
2.960000 3.080000 3.200000 27.605616 -21.652443 1230.898315
2.960000 3.120000 2.800000 36.838356 -9.139872 1440.601685
2.960000 3.120000 2.840000 70.027641 -19.039520 5266.374023
2.960000 3.120000 2.880000 114.135223 9.753738 13121.985352
2.960000 3.120000 2.920000 127.894241 78.393692 22502.507812
2.960000 3.120000 2.960000 82.754395 148.968597 29039.933594
2.960000 3.120000 3.000000 -6.432877 171.133942 29328.208984
2.960000 3.120000 3.040000 -87.545868 125.005447 23290.640625
2.960000 3.120000 3.080000 -111.997391 40.340340 14170.758789
2.960000 3.120000 3.120000 -73.863785 -27.231419 6197.409180
2.960000 3.120000 3.160000 -11.670462 -41.499748 1858.428833
2.960000 3.120000 3.200000 27.256838 -11.174929 867.814209
2.960000 3.160000 2.800000 32.159248 17.659145 1346.062744
2.960000 3.160000 2.840000 37.516205 27.364079 2156.258301
2.960000 3.160000 2.880000 36.439720 45.052750 3357.603516
2.960000 3.160000 2.920000 21.294327 64.274261 4584.628906
2.960000 3.160000 2.960000 -8.088821 72.347519 5299.592773
2.960000 3.160000 3.000000 -40.380600 59.040813 5116.410645
2.960000 3.160000 3.040000 -58.206738 26.300980 4079.765869
2.960000 3.160000 3.080000 -50.564396 -10.223907 2661.286377
2.960000 3.160000 3.120000 -22.156092 -31.064644 1455.904541
2.960000 3.160000 3.160000 9.134605 -26.962387 810.411377
2.960000 3.160000 3.200000 25.282372 -5.294956 667.234863
2.960000 3.200000 2.800000 12.353632 30.648464 1091.940552
2.960000 3.200000 2.840000 -6.632380 29.565128 918.085266
2.960000 3.200000 2.880000 -18.508492 13.762066 531.958740
2.960000 3.200000 2.920000 -14.113510 -4.421209 218.738251
2.960000 3.200000 2.960000 0.654045 -10.942940 120.175705
2.960000 3.200000 3.000000 11.252693 -4.022301 142.802002
2.960000 3.200000 3.040000 9.733868 5.028687 120.035866
2.960000 3.200000 3.080000 2.391861 4.771961 28.492613
2.960000 3.200000 3.120000 1.824379 -3.818810 17.911665
2.960000 3.200000 3.160000 12.302022 -8.765545 228.174530
2.960000 3.200000 3.200000 24.502550 -0.757208 600.948303
3.000000 2.800000 2.800000 -20.735565 -8.508636 502.360535
3.000000 2.800000 2.840000 -9.002899 -13.096069 252.559235
3.000000 2.800000 2.880000 0.499035 -8.304802 69.218773
3.000000 2.800000 2.920000 2.567385 -0.865005 7.339699
3.000000 2.800000 2.960000 0.464691 2.431885 6.130002
3.000000 2.800000 3.000000 0.972046 2.082047 5.279791
3.000000 2.800000 3.040000 5.663544 4.605488 53.286243
3.000000 2.800000 3.080000 8.341805 13.999882 265.582397
3.000000 2.800000 3.120000 1.880802 25.636898 660.787964
3.000000 2.800000 3.160000 -12.952679 29.874454 1060.254883
3.000000 2.800000 3.200000 -26.655338 22.020164 1195.394775
3.000000 2.840000 2.800000 -15.753498 -10.562870 359.746918
3.000000 2.840000 2.840000 -21.212852 8.340496 519.548950
3.000000 2.840000 2.880000 -49.599812 11.490234 2592.166748
3.000000 2.840000 2.920000 -74.587440 -18.285950 5897.662109
3.000000 2.840000 2.960000 -65.057014 -65.193985 8482.670898
3.000000 2.840000 3.000000 -17.832245 -91.299820 8653.646484
3.000000 2.840000 3.040000 35.093071 -71.880432 6398.320312
3.000000 2.840000 3.080000 54.291962 -20.295227 3359.513428
3.000000 2.840000 3.120000 28.978266 23.395779 1387.102295
3.000000 2.840000 3.160000 -14.330595 29.168486 1056.166504
3.000000 2.840000 3.200000 -38.511524 2.731260 1490.597290
3.000000 2.880000 2.800000 -15.584068 -10.279031 348.521667
3.000000 2.880000 2.840000 -58.181057 7.094318 3435.364746
3.000000 2.880000 2.880000 -112.684113 -32.485413 13753.010742
3.000000 2.880000 2.920000 -116.863152 -120.797173 28248.953125
3.000000 2.880000 2.960000 -41.736816 -194.119049 39424.167969
3.000000 2.880000 3.000000 72.429512 -188.197403 40664.296875
3.000000 2.880000 3.040000 146.295746 -99.850449 31372.558594
3.000000 2.880000 3.080000 131.539459 6.887947 17350.072266
3.000000 2.880000 3.120000 52.766785 57.789169 6123.921875
3.000000 2.880000 3.160000 -19.099907 32.954681 1450.817383
3.000000 2.880000 3.200000 -33.612709 -23.115433 1664.137451
3.000000 2.920000 2.800000 -18.411369 -15.386208 575.713867
3.000000 2.920000 2.840000 -87.054260 -34.635601 8778.069336
3.000000 2.920000 2.880000 -120.169899 -132.312958 31947.523438
3.000000 2.920000 2.920000 -51.039406 -246.542419 63388.183594
3.000000 2.920000 2.960000 102.575958 -277.434479 87491.718750
3.000000 2.920000 3.000000 240.660019 -180.386414 90456.500000
3.000000 2.920000 3.040000 265.534729 -14.217155 70710.820312
3.000000 2.920000 3.080000 168.970169 106.996902 39999.253906
3.000000 2.920000 3.120000 36.783558 113.532799 14242.726562
3.000000 2.920000 3.160000 -32.178112 34.954712 2257.262695
3.000000 2.920000 3.200000 -11.600858 -39.287327 1678.073975
3.000000 2.960000 2.800000 -15.085978 -27.239876 969.597534
3.000000 2.960000 2.840000 -71.044098 -95.658401 14197.792969
3.000000 2.960000 2.880000 -37.703033 -218.353729 49099.871094
3.000000 2.960000 2.920000 109.975082 -289.012756 95622.890625
3.000000 2.960000 2.960000 288.099243 -219.387039 131131.843750
3.000000 2.960000 3.000000 367.104004 -30.116043 135672.312500
3.000000 2.960000 3.040000 286.866058 156.536636 106795.851562
3.000000 2.960000 3.080000 112.067276 220.695709 61265.671875
3.000000 2.960000 3.120000 -27.084133 146.688538 22251.078125
3.000000 2.960000 3.160000 -50.153576 25.974808 3190.071777
3.000000 2.960000 3.200000 13.679457 -35.956627 1480.006592
3.000000 3.000000 2.800000 0.792419 -36.649693 1343.827881
3.000000 3.000000 2.840000 -7.388290 -129.157043 16736.126953
3.000000 3.000000 2.880000 93.112961 -217.104263 55804.285156
3.000000 3.000000 2.920000 263.461487 -194.457428 107225.640625
3.000000 3.000000 2.960000 381.157166 -32.000038 146304.781250
3.000000 3.000000 3.000000 345.056488 179.875183 151419.062500
3.000000 3.000000 3.040000 170.545807 301.273285 119851.468750
3.000000 3.000000 3.080000 -20.040688 263.120667 69634.117188
3.000000 3.000000 3.120000 -104.435570 122.636200 25946.425781
3.000000 3.000000 3.160000 -61.695335 3.065666 3815.712646
3.000000 3.000000 3.200000 26.466118 -19.110603 1065.670532
3.000000 3.040000 2.800000 23.731968 -31.484283 1554.466431
3.000000 3.040000 2.840000 64.361282 -104.400269 15041.791016
3.000000 3.040000 2.880000 184.099792 -119.995956 48291.765625
3.000000 3.040000 2.920000 302.023682 -17.878311 91537.937500
3.000000 3.040000 2.960000 311.758179 164.462570 124241.101562
3.000000 3.040000 3.000000 180.412308 309.954346 128620.296875
3.000000 3.040000 3.040000 -13.473793 319.785095 102444.054688
3.000000 3.040000 3.080000 -144.012009 199.296570 60458.578125
3.000000 3.040000 3.120000 -144.619293 49.492950 23364.292969
3.000000 3.040000 3.160000 -56.293465 -25.545364 3821.519775
3.000000 3.040000 3.200000 23.438658 -4.430565 569.000549
3.000000 3.080000 2.800000 38.742485 -9.318649 1587.817383
3.000000 3.080000 2.840000 94.892357 -36.525108 10338.642578
3.000000 3.080000 2.880000 176.609497 5.390526 31219.972656
3.000000 3.080000 2.920000 208.049225 121.153381 57962.621094
3.000000 3.080000 2.960000 136.954514 243.483063 78040.539062
3.000000 3.080000 3.000000 -10.338425 284.080566 80808.648438
3.000000 3.080000 3.040000 -143.554169 210.621399 64969.171875
3.000000 3.080000 3.080000 -182.912842 76.349236 39286.316406
3.000000 3.080000 3.120000 -124.088684 -26.664253 16108.984375
3.000000 3.080000 3.160000 -33.773243 -45.421497 3203.744141
3.000000 3.080000 3.200000 15.478575 -1.947408 243.378677
3.000000 3.120000 2.800000 34.336945 18.030313 1504.117920
3.000000 3.120000 2.840000 68.290840 25.841715 5331.433105
3.000000 3.120000 2.880000 91.348648 74.517624 13897.451172
3.000000 3.120000 2.920000 65.851486 142.177078 24550.740234
3.000000 3.120000 2.960000 -12.500229 179.663132 32435.097656
3.000000 3.120000 3.000000 -103.357971 151.280899 33568.781250
3.000000 3.120000 3.040000 -151.247345 67.948296 27492.730469
3.000000 3.120000 3.080000 -130.653564 -19.423065 17447.609375
3.000000 3.120000 3.120000 -65.384399 -61.201324 8020.721680
3.000000 3.120000 3.160000 -5.426620 -47.038189 2242.039551
3.000000 3.120000 3.200000 15.387129 -7.234116 289.096161
3.000000 3.160000 2.800000 13.597195 33.818375 1328.566162
3.000000 3.160000 2.840000 14.033123 43.683418 2105.169678
3.000000 3.160000 2.880000 4.551659 58.249462 3413.717285
3.000000 3.160000 2.920000 -18.534866 67.260025 4867.452148
3.000000 3.160000 2.960000 -48.740761 59.328712 5895.558105
3.000000 3.160000 3.000000 -71.227585 31.277023 6051.621094
3.000000 3.160000 3.040000 -72.223244 -7.146034 5267.262695
3.000000 3.160000 3.080000 -49.313148 -38.050041 3879.592285
3.000000 3.160000 3.120000 -14.224674 -47.049080 2415.957275
3.000000 3.160000 3.160000 14.702303 -32.917332 1299.708496
3.000000 3.160000 3.200000 24.736633 -7.726549 671.600586
3.000000 3.200000 2.800000 -8.230625 31.072865 1033.266113
3.000000 3.200000 2.840000 -22.824041 19.509903 901.573242
3.000000 3.200000 2.880000 -23.587692 -0.466846 556.597168
3.000000 3.200000 2.920000 -9.261612 -13.157307 258.892181
3.000000 3.200000 2.960000 6.768608 -9.562088 137.247589
3.000000 3.200000 3.000000 10.182329 2.857948 111.847694
3.000000 3.200000 3.040000 1.039803 8.071960 66.237740
3.000000 3.200000 3.080000 -6.221619 -0.962481 39.634907
3.000000 3.200000 3.120000 1.344921 -14.068962 199.744507
3.000000 3.200000 3.160000 20.288586 -14.384693 618.546143
3.000000 3.200000 3.200000 33.218304 3.254090 1114.044800
3.040000 2.800000 2.800000 -21.186680 -8.722847 524.963440
3.040000 2.800000 2.840000 -11.674818 -12.264935 286.729980
3.040000 2.800000 2.880000 -4.114273 -9.259697 102.669235
3.040000 2.800000 2.920000 -1.079683 -4.447800 20.948639
3.040000 2.800000 2.960000 -0.038200 -1.161369 1.350238
3.040000 2.800000 3.000000 2.037361 2.091612 8.525681
3.040000 2.800000 3.040000 3.792366 8.727272 90.547318
3.040000 2.800000 3.080000 0.316967 18.334072 336.238678
3.040000 2.800000 3.120000 -10.854353 24.990494 742.341736
3.040000 2.800000 3.160000 -25.287966 22.383099 1140.484375
3.040000 2.800000 3.200000 -34.366364 10.633669 1294.121948
3.040000 2.840000 2.800000 -20.901537 -16.510931 709.485107
3.040000 2.840000 2.840000 -31.885683 -10.946354 1136.519409
3.040000 2.840000 2.880000 -49.334282 -25.490562 3083.640137
3.040000 2.840000 2.920000 -48.051582 -59.085857 5800.092773
3.040000 2.840000 2.960000 -14.939590 -86.118423 7639.574219
3.040000 2.840000 3.000000 33.417259 -79.079445 7370.271973
3.040000 2.840000 3.040000 62.316250 -36.558617 5219.847656
3.040000 2.840000 3.080000 50.166321 12.371429 2669.711914
3.040000 2.840000 3.120000 8.727640 33.265568 1182.769775
3.040000 2.840000 3.160000 -27.964172 16.747786 1062.483276
3.040000 2.840000 3.200000 -34.971954 -15.409693 1460.496216
3.040000 2.880000 2.800000 -17.473761 -26.400097 1002.297363
3.040000 2.880000 2.840000 -52.554741 -37.374859 4158.880859
3.040000 2.880000 2.880000 -68.232407 -93.282890 13357.358398
3.040000 2.880000 2.920000 -24.183838 -158.337463 25655.609375
3.040000 2.880000 2.960000 69.222473 -172.606979 34584.921875
3.040000 2.880000 3.000000 151.086533 -109.381027 34791.351562
3.040000 2.880000 3.040000 161.790375 -5.591393 26207.388672
3.040000 2.880000 3.080000 97.383331 67.662506 14061.728516
3.040000 2.880000 3.120000 12.696140 67.478897 4714.593262
3.040000 2.880000 3.160000 -29.711712 13.844261 1074.449463
3.040000 2.880000 3.200000 -13.939465 -35.414646 1448.505859
3.040000 2.920000 2.800000 -6.944242 -36.392136 1372.610107
3.040000 2.920000 2.840000 -43.507912 -83.517365 8868.088867
3.040000 2.920000 2.880000 -16.657467 -169.844086 29124.484375
3.040000 2.920000 2.920000 92.732361 -217.782761 56028.625000
3.040000 2.920000 2.960000 222.825058 -162.421799 76031.843750
3.040000 2.920000 3.000000 277.724335 -19.904129 77526.976562
3.040000 2.920000 3.040000 213.889389 117.965515 59664.535156
3.040000 2.920000 3.080000 81.457260 162.203094 32945.128906
3.040000 2.920000 3.120000 -21.226658 103.158966 11092.343750
3.040000 2.920000 3.160000 -35.076263 11.598722 1364.874634
3.040000 2.920000 3.200000 15.326521 -32.947720 1320.454468
3.040000 2.960000 2.800000 11.691189 -39.567078 1702.237549
3.040000 2.960000 2.840000 6.001415 -114.686630 13189.040039
3.040000 2.960000 2.880000 92.057220 -186.772736 43358.585938
3.040000 2.960000 2.920000 237.255661 -164.406174 83319.640625
3.040000 2.960000 2.960000 335.974182 -22.562336 113387.710938
3.040000 2.960000 3.000000 301.489777 159.858154 116450.718750
3.040000 2.960000 3.040000 148.912521 261.869385 90750.515625
3.040000 2.960000 3.080000 -14.405899 225.678162 51138.164062
3.040000 2.960000 3.120000 -83.567078 103.724304 17742.187500
3.040000 2.960000 3.160000 -43.863068 3.726349 1937.854370
3.040000 2.960000 3.200000 30.853680 -10.685059 1066.119995
3.040000 3.000000 2.800000 31.906029 -29.060654 1862.516357
3.040000 3.000000 2.840000 70.486053 -99.137024 14796.433594
3.040000 3.000000 2.880000 188.031296 -113.735886 48291.621094
3.040000 3.000000 2.920000 304.010101 -11.544907 92555.421875
3.040000 3.000000 2.960000 311.903534 169.805481 126117.710938
3.040000 3.000000 3.000000 179.856598 312.823853 130207.164062
3.040000 3.000000 3.040000 -11.969810 320.006165 102547.218750
3.040000 3.000000 3.080000 -138.040161 199.699524 58934.984375
3.040000 3.000000 3.120000 -135.307037 54.648399 21294.441406
3.040000 3.000000 3.160000 -48.924240 -13.497871 2575.773926
3.040000 3.000000 3.200000 23.203794 11.055559 660.641479
3.040000 3.040000 2.800000 42.113068 -5.735754 1806.409424
3.040000 3.040000 2.840000 106.203453 -39.605194 12847.745117
3.040000 3.040000 2.880000 202.728058 7.755823 41158.816406
3.040000 3.040000 2.920000 240.715027 143.189697 78447.015625
3.040000 3.040000 2.960000 157.726730 286.373230 106887.343750
3.040000 3.040000 3.000000 -13.802990 332.740723 110906.914062
3.040000 3.040000 3.040000 -166.374634 246.414368 88400.562500
3.040000 3.040000 3.080000 -208.365524 93.026382 52070.101562
3.040000 3.040000 3.120000 -139.702606 -19.763050 19907.396484
3.040000 3.040000 3.160000 -41.496052 -35.371338 2973.053955
3.040000 3.040000 3.200000 4.804962 13.883795 215.847412
3.040000 3.080000 2.800000 34.720840 19.607601 1589.994751
3.040000 3.080000 2.840000 89.059959 25.587261 8586.383789
3.040000 3.080000 2.880000 129.860382 96.920174 26257.238281
3.040000 3.080000 2.920000 96.398163 200.163513 49358.039062
3.040000 3.080000 2.960000 -18.237778 258.328278 67066.117188
3.040000 3.080000 3.000000 -150.788620 217.410309 70004.453125
3.040000 3.080000 3.040000 -217.522491 97.270020 56777.492188
3.040000 3.080000 3.080000 -184.876251 -23.522987 34732.558594
3.040000 3.080000 3.120000 -94.249611 -74.910660 14494.595703
3.040000 3.080000 3.160000 -19.728758 -50.428791 2932.286865
3.040000 3.080000 3.200000 -2.636766 -0.657888 7.385354
3.040000 3.120000 2.800000 13.571714 33.446323 1302.847900
3.040000 3.120000 2.840000 35.936653 54.898293 4305.265625
3.040000 3.120000 2.880000 29.819557 103.167931 11532.828125
3.040000 3.120000 2.920000 -23.185150 142.268005 20777.736328
3.040000 3.120000 2.960000 -101.848595 132.331253 27884.697266
3.040000 3.120000 3.000000 -157.985077 66.287354 29353.298828
3.040000 3.120000 3.040000 -155.488586 -20.628494 24602.236328
3.040000 3.120000 3.080000 -99.994858 -78.648308 16184.527344
3.040000 3.120000 3.120000 -32.108536 -82.961578 7913.581543
3.040000 3.120000 3.160000 7.863975 -49.128483 2475.449951
3.040000 3.120000 3.200000 9.957912 -13.246217 274.622284
3.040000 3.160000 2.800000 -8.241533 30.431919 994.024536
3.040000 3.160000 2.840000 -11.628475 38.665512 1630.243286
3.040000 3.160000 2.880000 -26.245548 45.813553 2787.710449
3.040000 3.160000 2.920000 -49.035706 41.252857 4106.298828
3.040000 3.160000 2.960000 -68.668808 19.886322 5110.871094
3.040000 3.160000 3.000000 -72.692352 -12.902863 5450.662109
3.040000 3.160000 3.040000 -56.034046 -43.681381 5047.877441
3.040000 3.160000 3.080000 -24.686119 -58.997044 4090.055664
3.040000 3.160000 3.120000 7.746399 -53.325619 2903.628174
3.040000 3.160000 3.160000 27.989689 -31.849464 1797.811035
3.040000 3.160000 3.200000 30.247665 -6.762305 960.650024
3.040000 3.200000 2.800000 -19.178741 17.583664 677.009399
3.040000 3.200000 2.840000 -25.011101 3.406042 637.156311
3.040000 3.200000 2.880000 -17.222336 -12.005241 440.734680
3.040000 3.200000 2.920000 -0.737152 -15.706230 247.229065
3.040000 3.200000 2.960000 9.986016 -5.952492 135.152679
3.040000 3.200000 3.000000 6.510628 4.790604 65.338158
3.040000 3.200000 3.040000 -3.498322 3.018599 21.350191
3.040000 3.200000 3.080000 -3.832756 -10.201710 118.764900
3.040000 3.200000 3.120000 12.125008 -18.893415 503.976959
3.040000 3.200000 3.160000 32.427952 -8.749444 1128.124756
3.040000 3.200000 3.200000 37.403831 16.514471 1671.774414
3.080000 2.800000 2.800000 -23.963226 -11.232574 700.406921
3.080000 2.800000 2.840000 -14.849049 -16.570293 495.068848
3.080000 2.800000 2.880000 -5.280684 -15.428268 265.917084
3.080000 2.800000 2.920000 1.163429 -9.731094 96.047768
3.080000 2.800000 2.960000 3.536469 -2.332417 17.946777
3.080000 2.800000 3.000000 2.371628 5.080509 31.436192
3.080000 2.800000 3.040000 -2.183537 11.659409 140.709641
3.080000 2.800000 3.080000 -10.306916 15.790188 355.562561
3.080000 2.800000 3.120000 -20.655701 14.893219 648.465942
3.080000 2.800000 3.160000 -29.398434 7.692512 923.442627
3.080000 2.800000 3.200000 -32.265991 -3.469990 1053.135010
3.080000 2.840000 2.800000 -20.812025 -27.947580 1214.207642
3.080000 2.840000 2.840000 -23.908136 -33.975632 1725.942505
3.080000 2.840000 2.880000 -21.239269 -50.207077 2971.856934
3.080000 2.840000 2.920000 -1.386482 -66.258911 4392.165527
3.080000 2.840000 2.960000 31.411484 -63.879841 5067.315430
3.080000 2.840000 3.000000 56.542152 -35.716026 4472.649414
3.080000 2.840000 3.040000 54.198830 3.986618 2953.406250
3.080000 2.840000 3.080000 24.423286 29.272636 1453.384277
3.080000 2.840000 3.120000 -11.349310 24.683943 738.103882
3.080000 2.840000 3.160000 -28.655746 -1.521999 823.468262
3.080000 2.840000 3.200000 -20.778376 -26.044859 1110.075562
3.080000 2.880000 2.800000 -5.168840 -42.076538 1797.151978
3.080000 2.880000 2.840000 -14.819733 -63.619495 4267.064453
3.080000 2.880000 2.880000 4.479511 -101.095772 10240.421875
3.080000 2.880000 2.920000 61.328571 -117.800995 17638.267578
3.080000 2.880000 2.960000 124.780815 -83.065857 22470.187500
3.080000 2.880000 3.000000 147.274200 -6.638268 21733.755859
3.080000 2.880000 3.040000 108.267014 63.810547 15793.532227
3.080000 2.880000 3.080000 35.418152 82.797287 8109.835938
3.080000 2.880000 3.120000 -18.993839 46.677696 2539.573242
3.080000 2.880000 3.160000 -23.957111 -5.768657 607.220581
3.080000 2.880000 3.200000 6.571686 -31.284966 1021.936157
3.080000 2.920000 2.800000 19.504622 -43.610649 2282.318848
3.080000 2.920000 2.840000 21.648520 -83.891655 7506.467773
3.080000 2.920000 2.880000 76.587921 -121.147293 20542.376953
3.080000 2.920000 2.920000 164.686554 -100.663261 37254.750000
3.080000 2.920000 2.960000 221.337723 -8.133766 49056.542969
3.080000 2.920000 3.000000 193.880951 106.446083 48920.593750
3.080000 2.920000 3.040000 93.638298 167.381149 36784.578125
3.080000 2.920000 3.080000 -10.302296 139.726715 19629.691406
3.080000 2.920000 3.120000 -51.556168 58.863853 6122.991211
3.080000 2.920000 3.160000 -22.436630 -5.245131 530.913757
3.080000 2.920000 3.200000 27.728575 -12.323090 920.732361
3.080000 2.960000 2.800000 41.762428 -27.533611 2502.200195
3.080000 2.960000 2.840000 70.359695 -71.203400 10020.411133
3.080000 2.960000 2.880000 153.265686 -76.104179 29282.216797
3.080000 2.960000 2.920000 233.341583 1.733803 54451.300781
3.080000 2.960000 2.960000 234.026199 134.680573 72907.117188
3.080000 2.960000 3.000000 133.359085 236.893921 73903.375000
3.080000 2.960000 3.040000 -8.413288 237.966858 56699.011719
3.080000 2.960000 3.080000 -98.668289 146.303177 31140.050781
3.080000 2.960000 3.120000 -92.722481 39.633575 10168.278320
3.080000 2.960000 3.160000 -26.928339 -7.192640 776.869507
3.080000 2.960000 3.200000 24.566423 14.701564 819.645142
3.080000 3.000000 2.800000 48.809387 0.443980 2382.553223
3.080000 3.000000 2.840000 99.611191 -23.851194 10491.269531
3.080000 3.000000 2.880000 177.242630 17.964054 31737.656250
3.080000 3.000000 2.920000 205.669495 132.424988 59836.320312
3.080000 3.000000 2.960000 132.469360 251.782227 80942.421875
3.080000 3.000000 3.000000 -13.857428 287.779968 83009.343750
3.080000 3.000000 3.040000 -141.219528 211.686981 64754.335938
3.080000 3.000000 3.080000 -172.936600 81.703003 36582.449219
3.080000 3.000000 3.120000 -112.292755 -9.999001 12709.643555
3.080000 3.000000 3.160000 -31.208227 -18.131359 1302.699585
3.080000 3.000000 3.200000 1.786648 25.200645 638.264648
3.080000 3.040000 2.800000 36.141968 26.051365 1984.915405
3.080000 3.040000 2.840000 87.558929 31.807465 8678.280273
3.080000 3.040000 2.880000 126.932053 102.120819 26540.408203
3.080000 3.040000 2.920000 92.650398 204.336578 50337.535156
3.080000 3.040000 2.960000 -22.286003 260.865479 68547.460938
3.080000 3.040000 3.000000 -153.320526 218.021545 71040.578125
3.080000 3.040000 3.040000 -216.416656 97.999496 56440.070312
3.080000 3.040000 3.080000 -180.755493 -18.591099 33018.179688
3.080000 3.040000 3.120000 -91.894440 -63.380009 12461.613281
3.080000 3.040000 3.160000 -24.934288 -35.298840 1867.726807
3.080000 3.040000 3.200000 -16.608335 10.597452 388.142822
3.080000 3.080000 2.800000 11.789204 36.312027 1457.548706
3.080000 3.080000 2.840000 42.445698 61.561893 5591.503906
3.080000 3.080000 2.880000 37.706772 123.614433 16702.328125
3.080000 3.080000 2.920000 -28.282730 175.252808 31513.458984
3.080000 3.080000 2.960000 -127.606049 163.554779 43033.468750
3.080000 3.080000 3.000000 -196.585541 80.468018 45120.976562
3.080000 3.080000 3.040000 -190.021271 -25.765579 36771.945312
3.080000 3.080000 3.080000 -119.917633 -91.049446 22670.240234
3.080000 3.080000 3.120000 -41.875679 -88.945740 9664.916992
3.080000 3.080000 3.160000 -4.355696 -46.745903 2204.151611
3.080000 3.080000 3.200000 -10.917431 -12.494147 275.294006
3.080000 3.120000 2.800000 -9.505247 29.254007 946.146667
3.080000 3.120000 2.840000 -3.921551 51.960754 2715.298584
3.080000 3.120000 2.880000 -28.804214 80.335266 7283.437500
3.080000 3.120000 2.920000 -80.459450 82.347183 13254.781250
3.080000 3.120000 2.960000 -127.460983 41.372581 17957.994141
3.080000 3.120000 3.000000 -135.813385 -25.999695 19121.259766
3.080000 3.120000 3.040000 -98.012077 -81.898697 16313.763672
3.080000 3.120000 3.080000 -38.749687 -97.893265 11084.628906
3.080000 3.120000 3.120000 7.038006 -75.862091 5804.590332
3.080000 3.120000 3.160000 21.907795 -41.280006 2183.990479
3.080000 3.120000 3.200000 14.342419 -18.488001 547.511169
3.080000 3.160000 2.800000 -17.909101 14.673850 536.057739
3.080000 3.160000 2.840000 -23.914463 19.899273 967.882568
3.080000 3.160000 2.880000 -37.978149 18.193481 1773.342651
3.080000 3.160000 2.920000 -51.561813 3.882805 2673.696777
3.080000 3.160000 2.960000 -54.500683 -19.840012 3363.950439
3.080000 3.160000 3.000000 -42.311970 -43.251389 3660.985352
3.080000 3.160000 3.040000 -18.550072 -56.616344 3549.515625
3.080000 3.160000 3.080000 8.261024 -55.311897 3127.650635
3.080000 3.160000 3.120000 29.289646 -40.850254 2526.626709
3.080000 3.160000 3.160000 38.605209 -19.159924 1857.464844
3.080000 3.160000 3.200000 34.702839 1.686970 1207.132812
3.080000 3.200000 2.800000 -15.626989 4.855642 267.780060
3.080000 3.200000 2.840000 -16.209862 -5.542141 293.474945
3.080000 3.200000 2.880000 -6.824072 -14.086700 245.003098
3.080000 3.200000 2.920000 5.965132 -12.130463 182.730911
3.080000 3.200000 2.960000 10.859634 -2.112381 122.393806
3.080000 3.200000 3.000000 5.214539 4.075235 43.798958
3.080000 3.200000 3.040000 -0.616074 -1.320538 2.123366
3.080000 3.200000 3.080000 5.660267 -11.566433 165.820984
3.080000 3.200000 3.120000 23.223944 -11.177925 664.297546
3.080000 3.200000 3.160000 36.387463 6.974114 1372.685791
3.080000 3.200000 3.200000 29.880159 31.725716 1899.344971
3.120000 2.800000 2.800000 -25.246330 -17.645786 948.750977
3.120000 2.800000 2.840000 -13.263824 -23.966372 750.316040
3.120000 2.800000 2.880000 -0.181908 -20.947195 438.818054
3.120000 2.800000 2.920000 7.242161 -10.616925 165.167999
3.120000 2.800000 2.960000 6.146942 0.942923 38.674000
3.120000 2.800000 3.000000 -1.150644 8.161488 67.933861
3.120000 2.800000 3.040000 -9.911964 9.335827 185.404694
3.120000 2.800000 3.080000 -16.764282 6.203674 319.526733
3.120000 2.800000 3.120000 -20.981403 1.075394 441.375763
3.120000 2.800000 3.160000 -22.911188 -5.042404 550.348389
3.120000 2.800000 3.200000 -22.258497 -11.790744 634.462341
3.120000 2.840000 2.800000 -11.597248 -38.462036 1613.824463
3.120000 2.840000 2.840000 -1.311790 -44.020275 1939.505493
3.120000 2.840000 2.880000 13.440178 -45.982475 2295.026367
3.120000 2.840000 2.920000 30.814377 -39.037655 2473.464355
3.120000 2.840000 2.960000 42.911335 -20.630745 2267.010254
3.120000 2.840000 3.000000 40.765327 3.436974 1673.624634
3.120000 2.840000 3.040000 22.881655 20.698090 951.981079
3.120000 2.840000 3.080000 -1.259068 21.136898 448.353729
3.120000 2.840000 3.120000 -17.377831 5.752779 335.083435
3.120000 2.840000 3.160000 -17.432878 -13.818188 494.847534
3.120000 2.840000 3.200000 -5.488838 -24.880903 649.186646
3.120000 2.880000 2.800000 16.896082 -45.204376 2328.913330
3.120000 2.880000 2.840000 28.110935 -53.570908 3660.066650
3.120000 2.880000 2.880000 53.314911 -56.671539 6054.143066
3.120000 2.880000 2.920000 84.398430 -38.276554 8588.189453
3.120000 2.880000 2.960000 98.889923 3.642975 9792.488281
3.120000 2.880000 3.000000 79.887032 48.787983 8762.205078
3.120000 2.880000 3.040000 34.556190 68.821632 5930.547363
3.120000 2.880000 3.080000 -8.700142 52.106987 2790.830566
3.120000 2.880000 3.120000 -23.649931 14.651451 773.984253
3.120000 2.880000 3.160000 -8.112682 -14.147267 265.960785
3.120000 2.880000 3.200000 16.635897 -17.320492 576.752502
3.120000 2.920000 2.800000 45.054848 -28.903980 2865.379395
3.120000 2.920000 2.840000 62.441933 -38.389179 5372.724121
3.120000 2.920000 2.880000 99.192604 -30.181879 10750.119141
3.120000 2.920000 2.920000 130.389832 13.657261 17188.029297
3.120000 2.920000 2.960000 122.379150 79.066467 21228.162109
3.120000 2.920000 3.000000 67.027756 125.511459 20245.845703
3.120000 2.920000 3.040000 -4.991440 120.572937 14562.747070
3.120000 2.920000 3.080000 -48.162746 70.442360 7281.776367
3.120000 2.920000 3.120000 -41.484138 15.188438 1951.622314
3.120000 2.920000 3.160000 -4.889931 -7.354715 78.003265
3.120000 2.920000 3.200000 22.757444 6.429732 559.242676
3.120000 2.960000 2.800000 54.771988 3.867937 3014.931641
3.120000 2.960000 2.840000 79.543365 0.170719 6327.176270
3.120000 2.960000 2.880000 115.879883 29.400793 14292.553711
3.120000 2.960000 2.920000 124.005005 95.126617 24426.314453
3.120000 2.960000 2.960000 76.132011 160.182846 31454.628906
3.120000 2.960000 3.000000 -10.569336 175.798569 31016.847656
3.120000 2.960000 3.040000 -83.092468 127.212578 23087.398438
3.120000 2.960000 3.080000 -98.046997 49.725830 12085.872070
3.120000 2.960000 3.120000 -59.352962 -2.352242 3528.307129
3.120000 2.960000 3.160000 -11.173796 -3.647545 138.158295
3.120000 2.960000 3.200000 5.732059 24.430550 629.708252
3.120000 3.000000 2.800000 39.347649 34.038864 2706.881836
3.120000 3.000000 2.840000 65.423393 41.979992 6042.540039
3.120000 3.000000 2.880000 84.099678 87.943504 14806.816406
3.120000 3.000000 2.920000 56.349064 152.355286 26387.349609
3.120000 3.000000 2.960000 -22.304081 185.429428 34881.546875
3.120000 3.000000 3.000000 -109.055344 152.607117 35182.000000
3.120000 3.000000 3.040000 -148.288437 70.056595 26897.386719
3.120000 3.000000 3.080000 -121.048874 -7.088066 14703.070312
3.120000 3.000000 3.120000 -60.518066 -33.507645 4785.198242
3.120000 3.000000 3.160000 -18.625362 -11.418959 477.296753
3.120000 3.000000 3.200000 -18.280886 18.734379 685.167725
3.120000 3.040000 2.800000 9.582951 44.263496 2051.090088
3.120000 3.040000 2.840000 27.590219 62.404652 4655.560547
3.120000 3.040000 2.880000 20.628958 107.614365 12006.405273
3.120000 3.040000 2.920000 -32.238903 144.648712 21962.597656
3.120000 3.040000 2.960000 -109.730133 132.337280 29553.859375
3.120000 3.040000 3.000000 -161.731308 64.914940 30370.964844
3.120000 3.040000 3.040000 -153.390015 -18.256969 23861.812500
3.120000 3.040000 3.080000 -96.672211 -66.196861 13727.541016
3.120000 3.040000 3.120000 -37.904297 -60.483807 5095.026367
3.120000 3.040000 3.160000 -14.560101 -26.916788 936.510010
3.120000 3.040000 3.200000 -24.744316 -5.473448 642.239807
3.120000 3.080000 2.800000 -14.763063 32.532349 1276.301758
3.120000 3.080000 2.840000 -9.874781 52.277199 2830.416748
3.120000 3.080000 2.880000 -33.803963 79.194443 7414.467773
3.120000 3.080000 2.920000 -84.627754 80.767059 13685.174805
3.120000 3.080000 2.960000 -130.585602 39.398178 18604.816406
3.120000 3.080000 3.000000 -136.840271 -27.353493 19473.472656
3.120000 3.080000 3.040000 -97.372269 -79.823303 15853.118164
3.120000 3.080000 3.080000 -40.311291 -90.484390 9812.424805
3.120000 3.080000 3.120000 -1.876281 -65.841072 4338.567383
3.120000 3.080000 3.160000 4.548776 -35.816849 1303.538086
3.120000 3.080000 3.200000 -5.535254 -23.644260 589.690063
3.120000 3.120000 2.800000 -21.194786 12.685858 610.149963
3.120000 3.120000 2.840000 -26.195282 24.754074 1298.957031
3.120000 3.120000 2.880000 -48.779930 29.152040 3229.323242
3.120000 3.120000 2.920000 -75.396072 10.578667 5796.476074
3.120000 3.120000 2.960000 -84.024971 -27.831970 7834.814453
3.120000 3.120000 3.000000 -63.983818 -65.377701 8368.172852
3.120000 3.120000 3.040000 -25.460667 -81.117088 7228.227539
3.120000 3.120000 3.080000 9.881149 -70.645920 5088.483398
3.120000 3.120000 3.120000 27.128727 -46.937225 2939.070801
3.120000 3.120000 3.160000 27.486080 -26.482441 1456.804321
3.120000 3.120000 3.200000 21.928043 -15.848692 732.020142
3.120000 3.160000 2.800000 -13.800486 1.256096 192.031174
3.120000 3.160000 2.840000 -20.253033 2.203873 415.042389
3.120000 3.160000 2.880000 -28.080860 -5.420418 817.915649
3.120000 3.160000 2.920000 -29.066284 -19.904152 1241.024170
3.120000 3.160000 2.960000 -19.962479 -33.797794 1540.791504
3.120000 3.160000 3.000000 -4.228630 -40.621925 1668.022217
3.120000 3.160000 3.040000 12.293167 -38.931541 1666.786865
3.120000 3.160000 3.080000 25.849127 -30.703482 1610.881104
3.120000 3.160000 3.120000 34.824287 -17.870550 1532.087524
3.120000 3.160000 3.160000 37.316826 -2.021611 1396.632446
3.120000 3.160000 3.200000 31.248579 13.144674 1149.256104
3.120000 3.200000 2.800000 -7.246559 2.793620 60.316933
3.120000 3.200000 2.840000 -8.001037 -4.000268 80.018730
3.120000 3.200000 2.880000 -1.007496 -9.129053 84.354652
3.120000 3.200000 2.920000 7.753670 -6.196434 98.515190
3.120000 3.200000 2.960000 9.914814 1.597122 100.854332
3.120000 3.200000 3.000000 5.394783 5.019978 54.303856
3.120000 3.200000 3.040000 3.319180 0.512386 11.279492
3.120000 3.200000 3.080000 11.015457 -3.987293 137.238800
3.120000 3.200000 3.120000 23.535347 2.765181 561.558777
3.120000 3.200000 3.160000 26.840952 21.378220 1177.464966
3.120000 3.200000 3.200000 12.790771 38.311646 1631.386108
3.160000 2.800000 2.800000 -21.724371 -25.061363 1100.020264
3.160000 2.800000 2.840000 -6.448157 -28.779472 869.836792
3.160000 2.800000 2.880000 7.098639 -20.874933 486.153503
3.160000 2.800000 2.920000 10.830544 -6.623368 161.169678
3.160000 2.800000 2.960000 3.976478 4.540550 36.428970
3.160000 2.800000 3.000000 -6.859384 6.719635 92.204651
3.160000 2.800000 3.040000 -13.985559 1.586740 198.113586
3.160000 2.800000 3.080000 -14.951490 -4.705335 245.687225
3.160000 2.800000 3.120000 -12.982830 -7.997473 232.513458
3.160000 2.800000 3.160000 -11.992437 -9.244270 229.275085
3.160000 2.800000 3.200000 -12.053928 -11.708852 282.394409
3.160000 2.840000 2.800000 3.044262 -40.472332 1647.277222
3.160000 2.840000 2.840000 19.509142 -35.144348 1615.731934
3.160000 2.840000 2.880000 29.693130 -21.254246 1333.424927
3.160000 2.840000 2.920000 29.843952 -4.863949 914.319519
3.160000 2.840000 2.960000 21.193182 7.397181 503.869263
3.160000 2.840000 3.000000 8.584869 11.723791 211.147263
3.160000 2.840000 3.040000 -2.517479 8.296062 75.162338
3.160000 2.840000 3.080000 -8.503891 0.195700 72.354462
3.160000 2.840000 3.120000 -8.477709 -8.601361 145.854950
3.160000 2.840000 3.160000 -3.821801 -14.845270 234.988220
3.160000 2.840000 3.200000 2.828451 -16.939520 294.947449
3.160000 2.880000 2.800000 35.219849 -31.970608 2262.557617
3.160000 2.880000 2.840000 46.434917 -18.920876 2514.201172
3.160000 2.880000 2.880000 50.776215 -1.729740 2581.215820
3.160000 2.880000 2.920000 46.470726 16.340502 2426.540283
3.160000 2.880000 2.960000 33.055656 30.365543 2014.742676
3.160000 2.880000 3.000000 13.791584 34.658333 1391.407837
3.160000 2.880000 3.040000 -3.695967 26.686129 725.809631
3.160000 2.880000 3.080000 -11.247766 10.584522 238.544373
3.160000 2.880000 3.120000 -6.265832 -4.247759 57.304108
3.160000 2.880000 3.160000 5.713517 -9.678582 126.319229
3.160000 2.880000 3.200000 15.287391 -5.051202 259.218964
3.160000 2.920000 2.800000 52.635738 -0.376019 2770.662354
3.160000 2.920000 2.840000 55.100677 14.921926 3258.748535
3.160000 2.920000 2.880000 52.894676 32.177151 3833.215820
3.160000 2.920000 2.920000 42.144630 50.320244 4308.296875
3.160000 2.920000 2.960000 20.442568 62.226295 4290.010254
3.160000 2.920000 3.000000 -6.305845 59.015320 3522.571533
3.160000 2.920000 3.040000 -24.998962 39.603569 2193.390625
3.160000 2.920000 3.080000 -25.602518 14.855023 876.160645
3.160000 2.920000 3.120000 -10.830107 0.056741 117.294434
3.160000 2.920000 3.160000 5.416389 1.933762 33.076710
3.160000 2.920000 3.200000 10.444936 13.096766 280.621979
3.160000 2.960000 2.800000 41.574581 35.008621 2954.049316
3.160000 2.960000 2.840000 36.753014 46.603996 3522.716309
3.160000 2.960000 2.880000 28.824623 60.917252 4541.770508
3.160000 2.960000 2.920000 10.711102 74.953049 5732.687012
3.160000 2.960000 2.960000 -17.955307 77.450722 6321.007324
3.160000 2.960000 3.000000 -45.051872 60.230995 5657.443848
3.160000 2.960000 3.040000 -54.529388 29.523849 3845.111816
3.160000 2.960000 3.080000 -41.778946 3.531041 1757.948608
3.160000 2.960000 3.120000 -19.394621 -3.163338 386.158020
3.160000 2.960000 3.160000 -6.035418 7.098333 86.812607
3.160000 2.960000 3.200000 -9.061847 18.225843 414.298431
3.160000 3.000000 2.800000 9.316696 50.884895 2676.073242
3.160000 3.000000 2.840000 1.987546 56.169968 3159.015625
3.160000 3.000000 2.880000 -9.570409 65.272835 4352.135742
3.160000 3.000000 2.920000 -32.078228 70.205330 5957.801270
3.160000 3.000000 2.960000 -59.690514 58.700516 7008.708008
3.160000 3.000000 3.000000 -75.885483 29.268047 6615.225098
3.160000 3.000000 3.040000 -68.949043 -3.372254 4765.342773
3.160000 3.000000 3.080000 -44.836418 -20.177069 2417.418457
3.160000 3.000000 3.120000 -22.721272 -15.511060 756.849121
3.160000 3.000000 3.160000 -16.957722 -2.003699 291.579132
3.160000 3.000000 3.200000 -24.053541 2.964497 587.361084
3.160000 3.040000 2.800000 -21.171261 39.236404 1987.717773
3.160000 3.040000 2.840000 -26.828686 39.841675 2307.137451
3.160000 3.040000 2.880000 -39.059906 42.726143 3351.199707
3.160000 3.040000 2.920000 -59.236504 36.788876 4862.384766
3.160000 3.040000 2.960000 -75.836838 14.739626 5968.482422
3.160000 3.040000 3.000000 -74.735825 -16.123077 5845.396973
3.160000 3.040000 3.040000 -54.267220 -38.458714 4424.003906
3.160000 3.040000 3.080000 -28.360359 -40.959099 2481.957764
3.160000 3.040000 3.120000 -13.632189 -29.005898 1027.178711
3.160000 3.040000 3.160000 -13.805119 -18.400089 529.144592
3.160000 3.040000 3.200000 -17.890064 -18.891197 676.931763
3.160000 3.080000 2.800000 -30.703587 13.605217 1127.812134
3.160000 3.080000 2.840000 -33.917149 12.779739 1313.694702
3.160000 3.080000 2.880000 -43.739395 10.069769 2014.534912
3.160000 3.080000 2.920000 -55.012318 -2.889357 3034.703369
3.160000 3.080000 2.960000 -56.384895 -25.119732 3810.257324
3.160000 3.080000 3.000000 -42.299194 -45.196823 3831.974609
3.160000 3.080000 3.040000 -19.642511 -51.683937 3057.057617
3.160000 3.080000 3.080000 -1.567778 -43.999153 1938.383423
3.160000 3.080000 3.120000 4.895283 -32.118923 1055.588989
3.160000 3.080000 3.160000 4.231470 -25.772709 682.137878
3.160000 3.080000 3.200000 5.604157 -25.093849 661.107849
3.160000 3.120000 2.800000 -19.760395 -3.943886 406.027435
3.160000 3.120000 2.840000 -22.428566 -4.907326 527.122375
3.160000 3.120000 2.880000 -27.543007 -11.145964 882.849731
3.160000 3.120000 2.920000 -28.005154 -23.610035 1341.722412
3.160000 3.120000 2.960000 -19.189148 -36.054546 1668.153687
3.160000 3.120000 3.000000 -4.010038 -41.001480 1697.201782
3.160000 3.120000 3.040000 9.973366 -36.799644 1453.681885
3.160000 3.120000 3.080000 17.851994 -28.204300 1114.176270
3.160000 3.120000 3.120000 20.858526 -20.538111 856.892090
3.160000 3.120000 3.160000 22.829638 -14.507867 731.670532
3.160000 3.120000 3.200000 24.598969 -7.391546 659.744202
3.160000 3.160000 2.800000 -5.896877 -2.999542 43.770416
3.160000 3.160000 2.840000 -9.183131 -5.838427 118.417130
3.160000 3.160000 2.880000 -8.639193 -12.773220 237.790802
3.160000 3.160000 2.920000 -2.153820 -18.424149 344.088196
3.160000 3.160000 2.960000 6.617540 -18.605936 389.972687
3.160000 3.160000 3.000000 12.845036 -14.553375 376.795654
3.160000 3.160000 3.040000 15.935780 -10.367843 361.441223
3.160000 3.160000 3.080000 19.066681 -7.231265 415.829529
3.160000 3.160000 3.120000 23.604362 -1.959450 561.005371
3.160000 3.160000 3.160000 25.775496 8.024266 728.765015
3.160000 3.160000 3.200000 20.455824 19.446592 796.610718
3.160000 3.200000 2.800000 -5.499503 7.045050 79.877258
3.160000 3.200000 2.840000 -7.274963 0.159377 52.950493
3.160000 3.200000 2.880000 -1.537292 -4.593497 23.463486
3.160000 3.200000 2.920000 5.436502 -1.954569 33.375900
3.160000 3.200000 2.960000 6.624012 4.476492 63.916519
3.160000 3.200000 3.000000 2.871134 7.106308 58.743023
3.160000 3.200000 3.040000 1.654391 4.293680 21.172701
3.160000 3.200000 3.080000 7.142640 3.058560 60.372101
3.160000 3.200000 3.120000 13.559010 10.565080 295.467651
3.160000 3.200000 3.160000 10.699873 24.052586 693.014160
3.160000 3.200000 3.200000 -3.855056 31.780128 1024.838013
3.200000 2.800000 2.800000 -14.478788 -29.088705 1055.788086
3.200000 2.800000 2.840000 0.736351 -28.235485 797.784851
3.200000 2.800000 2.880000 10.544037 -17.076683 402.789795
3.200000 2.800000 2.920000 9.198063 -3.644784 97.888817
3.200000 2.800000 2.960000 -0.223403 2.918231 8.565984
3.200000 2.800000 3.000000 -8.998448 0.099662 80.982010
3.200000 2.800000 3.040000 -10.893347 -6.717982 163.796280
3.200000 2.800000 3.080000 -7.165762 -10.383860 159.172684
3.200000 2.800000 3.120000 -3.812277 -8.987122 95.301811
3.200000 2.800000 3.160000 -4.519324 -6.664483 64.839622
3.200000 2.800000 3.200000 -6.918741 -8.008954 112.012321
3.200000 2.840000 2.800000 14.170584 -32.954838 1286.826782
3.200000 2.840000 2.840000 25.011759 -17.853607 944.339355
3.200000 2.840000 2.880000 21.777203 -0.518886 474.515808
3.200000 2.840000 2.920000 8.440416 7.827800 132.515091
3.200000 2.840000 2.960000 -4.252521 3.910543 33.376278
3.200000 2.840000 3.000000 -8.177645 -6.044368 103.408249
3.200000 2.840000 3.040000 -3.825569 -13.083220 185.805634
3.200000 2.840000 3.080000 2.200014 -13.497791 187.030426
3.200000 2.840000 3.120000 4.599968 -10.510519 131.630707
3.200000 2.840000 3.160000 3.932289 -9.116013 98.564583
3.200000 2.840000 3.200000 4.341600 -10.323645 125.427132
3.200000 2.880000 2.800000 38.412647 -11.619925 1610.554199
3.200000 2.880000 2.840000 33.588444 10.295315 1234.177124
3.200000 2.880000 2.880000 15.439917 21.037622 680.972595
3.200000 2.880000 2.920000 -2.422219 15.465950 245.062744
3.200000 2.880000 2.960000 -8.656557 0.947293 75.833344
3.200000 2.880000 3.000000 -2.654679 -10.390045 115.000359
3.200000 2.880000 3.040000 7.277657 -12.109431 199.602600
3.200000 2.880000 3.080000 12.863897 -7.006694 214.573608
3.200000 2.880000 3.120000 12.567200 -1.892047 161.514359
3.200000 2.880000 3.160000 10.487433 -0.287257 110.068779
3.200000 2.880000 3.200000 10.355884 -0.358974 107.373184
3.200000 2.920000 2.800000 38.405941 22.976070 2002.916260
3.200000 2.920000 2.840000 16.623684 37.069714 1650.510498
3.200000 2.920000 2.880000 -7.018429 31.056358 1013.755737
3.200000 2.920000 2.920000 -17.091686 11.813231 431.678162
3.200000 2.920000 2.960000 -10.193286 -5.342527 132.445679
3.200000 2.920000 3.000000 4.396057 -9.808052 115.523193
3.200000 2.920000 3.040000 14.522486 -2.725921 218.333237
3.200000 2.920000 3.080000 15.123021 7.059953 278.548706
3.200000 2.920000 3.120000 9.781908 12.219174 244.993958
3.200000 2.920000 3.160000 4.695140 12.014193 166.385162
3.200000 2.920000 3.200000 2.633048 10.025083 107.435226
3.200000 2.960000 2.800000 11.925830 46.409710 2296.086426
3.200000 2.960000 2.840000 -15.706950 42.102310 2019.312744
3.200000 2.960000 2.880000 -30.582458 20.290350 1346.985107
3.200000 2.960000 2.920000 -25.064747 -2.711607 635.594299
3.200000 2.960000 2.960000 -6.971470 -12.041170 193.591171
3.200000 2.960000 3.000000 8.729658 -5.209838 103.349342
3.200000 2.960000 3.040000 12.397478 8.655898 228.622040
3.200000 2.960000 3.080000 5.273963 18.393776 366.145691
3.200000 2.960000 3.120000 -4.780428 19.284571 394.747131
3.200000 2.960000 3.160000 -11.038993 13.924411 315.748596
3.200000 2.960000 3.200000 -11.801184 7.458175 194.892319
3.200000 3.000000 2.800000 -22.064421 42.156078 2263.973633
3.200000 3.000000 2.840000 -40.372601 21.584637 2095.843506
3.200000 3.000000 2.880000 -38.368347 -4.466763 1492.082031
3.200000 3.000000 2.920000 -19.928368 -19.168530 764.572388
3.200000 3.000000 2.960000 0.282049 -15.598419 243.390244
3.200000 3.000000 3.000000 8.982761 -0.313297 80.788155
3.200000 3.000000 3.040000 3.336993 13.821783 202.177216
3.200000 3.000000 3.080000 -9.553877 17.842983 409.648621
3.200000 3.000000 3.120000 -19.971643 11.469021 530.404968
3.200000 3.000000 3.160000 -22.369789 0.639724 500.816711
3.200000 3.000000 3.200000 -17.137423 -7.906689 356.206970
3.200000 3.040000 2.800000 -39.247028 16.152496 1801.232422
3.200000 3.040000 2.840000 -41.002899 -7.985134 1745.000122
3.200000 3.040000 2.880000 -25.935394 -25.540955 1324.984985
3.200000 3.040000 2.920000 -4.881391 -26.820360 743.159729
3.200000 3.040000 2.960000 8.463031 -13.850413 263.456848
3.200000 3.040000 3.000000 7.316236 2.371092 59.149387
3.200000 3.040000 3.040000 -4.678984 10.565713 133.527191
3.200000 3.040000 3.080000 -17.600039 6.541963 352.558624
3.200000 3.040000 3.120000 -22.670753 -5.498730 544.199097
3.200000 3.040000 3.160000 -17.361237 -17.110661 594.187256
3.200000 3.040000 3.200000 -5.706575 -21.323952 487.275909
3.200000 3.080000 2.800000 -31.161583 -8.894058 1050.148560
3.200000 3.080000 2.840000 -21.818691 -24.494337 1076.027832
3.200000 3.080000 2.880000 -4.844206 -29.438742 890.105835
3.200000 3.080000 2.920000 9.694597 -21.709661 565.294617
3.200000 3.080000 2.960000 13.642197 -7.375443 240.506683
3.200000 3.080000 3.000000 6.110512 3.627353 50.496048
3.200000 3.080000 3.040000 -6.185695 4.223884 56.104012
3.200000 3.080000 3.080000 -13.750257 -5.154037 215.633682
3.200000 3.080000 3.120000 -10.859148 -17.180510 413.091003
3.200000 3.080000 3.160000 0.617638 -22.960491 527.565613
3.200000 3.080000 3.200000 12.867590 -18.303806 500.604187
3.200000 3.120000 2.800000 -11.598774 -14.615046 348.131104
3.200000 3.120000 2.840000 -2.550710 -19.855745 400.756744
3.200000 3.120000 2.880000 8.104795 -18.062130 391.928223
3.200000 3.120000 2.920000 14.708960 -9.613895 308.780457
3.200000 3.120000 2.960000 13.235819 0.498629 175.435532
3.200000 3.120000 3.000000 5.010866 5.316102 53.369720
3.200000 3.120000 3.040000 -3.171465 1.278023 11.691533
3.200000 3.120000 3.080000 -3.928872 -8.128579 81.509834
3.200000 3.120000 3.120000 4.339555 -14.475264 228.364990
3.200000 3.120000 3.160000 15.502546 -11.347086 369.085327
3.200000 3.120000 3.200000 20.617489 -0.065785 425.085175
3.200000 3.160000 2.800000 -1.956324 -3.299564 14.714327
3.200000 3.160000 2.840000 0.751891 -5.912086 35.518108
3.200000 3.160000 2.880000 5.939015 -5.609669 66.740288
3.200000 3.160000 2.920000 9.593474 -0.742765 92.586449
3.200000 3.160000 2.960000 7.834718 5.316442 89.647362
3.200000 3.160000 3.000000 2.023095 6.866688 51.244324
3.200000 3.160000 3.040000 -1.532919 2.288759 7.588256
3.200000 3.160000 3.080000 1.983204 -3.146379 13.832804
3.200000 3.160000 3.120000 10.013525 -2.110763 104.726006
3.200000 3.160000 3.160000 14.363976 6.828209 252.948242
3.200000 3.160000 3.200000 9.409007 16.937641 375.413116
3.200000 3.200000 2.800000 -10.072591 6.387274 142.254349
3.200000 3.200000 2.840000 -9.603985 -1.178536 93.625473
3.200000 3.200000 2.880000 -3.312747 -4.424348 30.549147
3.200000 3.200000 2.920000 1.960180 -0.940637 4.727102
3.200000 3.200000 2.960000 1.365912 4.311993 20.459000
3.200000 3.200000 3.000000 -2.518549 5.270399 34.120197
3.200000 3.200000 3.040000 -3.310841 2.255714 16.049915
3.200000 3.200000 3.080000 0.797439 1.537277 2.999131
3.200000 3.200000 3.120000 4.119065 7.258342 69.650223
3.200000 3.200000 3.160000 -0.014041 15.377093 236.455200
3.200000 3.200000 3.200000 -10.700118 17.343224 415.279938
