#kx 	ky 	kz 	real 	imag 	intensity
2.800000 2.800000 2.983333 -65.171616 -37.613834 5662.139648
2.800000 2.800000 2.991667 -4.436371 -12.153780 167.395752
2.800000 2.800000 3.000000 -38.542694 -16.383049 1753.943604
2.800000 2.800000 3.008333 -27.114752 -48.437611 3081.411865
2.800000 2.800000 3.016667 28.879238 -37.873028 2268.376465
2.800000 2.900000 2.983333 -14.484764 -61.572380 4000.966309
2.800000 2.900000 2.991667 30.273743 10.601929 1028.900391
2.800000 2.900000 3.000000 -45.956482 -11.540546 2245.182617
2.800000 2.900000 3.008333 9.693846 -52.305695 2829.856445
2.800000 2.900000 3.016667 23.653049 -29.109608 1406.835938
2.800000 3.000000 2.983333 35.685150 -44.900421 3289.477783
2.800000 3.000000 2.991667 36.073944 -8.436365 1372.501709
2.800000 3.000000 3.000000 32.002655 10.032917 1124.829346
2.800000 3.000000 3.008333 17.541555 -23.055407 839.257935
2.800000 3.000000 3.016667 103.764183 49.742676 13241.339844
2.800000 3.100000 2.983333 21.130119 5.371689 475.336975
2.800000 3.100000 2.991667 100.952110 76.925476 16108.857422
2.800000 3.100000 3.000000 -123.088791 119.908463 29528.890625
2.800000 3.100000 3.008333 -2.724495 -55.972023 3140.290283
2.800000 3.100000 3.016667 -94.437073 117.169228 22646.988281
2.800000 3.200000 2.983333 15.435768 -15.629074 482.530884
2.800000 3.200000 2.991667 -34.142380 142.432922 21452.839844
2.800000 3.200000 3.000000 -155.349609 -138.162155 43222.281250
2.800000 3.200000 3.008333 102.468925 -42.915737 12341.641602
2.800000 3.200000 3.016667 -47.056908 -84.311218 9322.734375
2.900000 2.800000 2.983333 -68.322540 0.518497 4668.238770
2.900000 2.800000 2.991667 -58.206047 -128.624084 19932.097656
2.900000 2.800000 3.000000 54.633636 2.002060 2988.842529
2.900000 2.800000 3.008333 -76.408699 -84.012962 12896.466797
2.900000 2.800000 3.016667 123.547485 -35.792442 16545.080078
2.900000 2.900000 2.983333 337.586823 -774.095154 713188.187500
2.900000 2.900000 2.991667 -163.386841 941.881042 913835.125000
2.900000 2.900000 3.000000 -1268.023682 -672.759521 2060489.375000
2.900000 2.900000 3.008333 95.448395 -964.366089 939112.312500
2.900000 2.900000 3.016667 337.330780 -725.727661 640472.687500
2.900000 3.000000 2.983333 1249.054932 325.136017 1665851.625000
2.900000 3.000000 2.991667 -1508.776855 -49.742981 2278881.750000
2.900000 3.000000 3.000000 704.087769 -2041.208374 4662271.500000
2.900000 3.000000 3.008333 1374.244263 -184.121918 1922448.125000
2.900000 3.000000 3.016667 1309.634521 308.413696 1810261.625000
2.900000 3.100000 2.983333 -2.325310 838.050232 702333.625000
2.900000 3.100000 2.991667 -188.420502 -827.179016 719727.437500
2.900000 3.100000 3.000000 1225.289673 147.844116 1523192.625000
2.900000 3.100000 3.008333 324.017517 788.330505 726452.375000
2.900000 3.100000 3.016667 -96.695419 882.940002 788933.062500
2.900000 3.200000 2.983333 -6.753624 158.068436 25031.242188
2.900000 3.200000 2.991667 -233.531219 -66.430374 58949.828125
2.900000 3.200000 3.000000 118.668831 -165.533005 41483.468750
2.900000 3.200000 3.008333 14.463177 102.607910 10737.566406
2.900000 3.200000 3.016667 -27.974070 -71.477440 5891.573242
3.000000 2.800000 2.983333 -100.989899 -140.666916 29986.140625
3.000000 2.800000 2.991667 171.616455 -127.777664 45779.339844
3.000000 2.800000 3.000000 -6.793816 60.144165 3663.476562
3.000000 2.800000 3.008333 58.415993 -166.904541 31269.552734
3.000000 2.800000 3.016667 159.430328 77.152267 31370.501953
3.000000 2.900000 2.983333 1271.311646 252.988281 1680236.375000
3.000000 2.900000 2.991667 -1440.576538 -17.369202 2075562.500000
3.000000 2.900000 3.000000 690.377197 -2107.733154 4919159.500000
3.000000 2.900000 3.008333 1524.460571 -151.942749 2347066.500000
3.000000 2.900000 3.016667 1251.345337 354.938751 1691846.625000
3.000000 3.000000 2.983333 -178.889862 1957.273438 3862920.750000
3.000000 3.000000 2.991667 -258.245911 -2318.427979 5441799.500000
3.000000 3.000000 3.000000 3327.808838 576.130493 11406238.000000
3.000000 3.000000 3.008333 632.771240 2068.114746 4677498.000000
3.000000 3.000000 3.016667 -77.050369 2083.274658 4345970.500000
3.000000 3.100000 2.983333 -1271.666504 162.130707 1643422.125000
3.000000 3.100000 2.991667 1326.858276 -442.811035 1956634.500000
3.000000 3.100000 3.000000 -11.298061 2034.335205 4138647.500000
3.000000 3.100000 3.008333 -1154.873291 619.370117 1717351.750000
3.000000 3.100000 3.016667 -1387.841797 165.016418 1953335.250000
3.000000 3.200000 2.983333 -202.816940 -3.992426 41150.652344
3.000000 3.200000 2.991667 58.621918 -217.203583 50613.921875
3.000000 3.200000 3.000000 120.833603 30.560501 15534.704102
3.000000 3.200000 3.008333 -30.498573 -7.966623 993.630066
3.000000 3.200000 3.016667 72.122643 -107.717140 16804.658203
3.100000 2.800000 2.983333 119.094986 -101.515854 24489.083984
3.100000 2.800000 2.991667 67.371201 108.457565 16301.922852
3.100000 2.800000 3.000000 -42.258392 10.326218 1892.402466
3.100000 2.800000 3.008333 88.655632 -41.734753 9601.611328
3.100000 2.800000 3.016667 86.300713 156.927826 32074.154297
3.100000 2.900000 2.983333 -22.413147 859.761536 739692.250000
3.100000 2.900000 2.991667 -137.019653 -930.593262 884778.187500
3.100000 2.900000 3.000000 1406.080078 219.943848 2025436.375000
3.100000 2.900000 3.008333 291.768799 946.224854 980470.500000
3.100000 2.900000 3.016667 -128.279114 887.922424 804861.750000
3.100000 3.000000 2.983333 -1272.353271 36.273438 1620198.625000
3.100000 3.000000 2.991667 1433.223022 -387.432800 2204232.500000
3.100000 3.000000 3.000000 -37.456501 2145.311523 4603764.500000
3.100000 3.000000 3.008333 -1256.533691 594.374512 1932158.000000
3.100000 3.000000 3.016667 -1290.470093 137.123138 1684115.750000
3.100000 3.100000 2.983333 -162.250732 -828.772034 713188.375000
3.100000 3.100000 2.991667 404.058044 786.294556 781522.000000
3.100000 3.100000 3.000000 -1262.451660 146.135315 1615139.750000
3.100000 3.100000 3.008333 -444.943420 -688.857178 672498.875000
3.100000 3.100000 3.016667 -205.523621 -817.498413 710543.562500
3.100000 3.200000 2.983333 48.124344 -99.062950 12129.419922
3.100000 3.200000 2.991667 125.042595 28.995956 16476.416016
3.100000 3.200000 3.000000 67.231400 77.172043 10475.585938
3.100000 3.200000 3.008333 16.368015 52.406654 3014.369385
3.100000 3.200000 3.016667 89.340561 72.062927 13174.800781
3.200000 2.800000 2.983333 16.413952 61.761883 4083.947998
3.200000 2.800000 2.991667 -39.266262 -72.760139 6835.877441
3.200000 2.800000 3.000000 11.169752 -37.131031 1503.476807
3.200000 2.800000 3.008333 100.168213 -42.893673 11873.538086
3.200000 2.800000 3.016667 -20.468994 154.944794 24426.869141
3.200000 2.900000 2.983333 -64.135483 -35.297943 5359.305176
3.200000 2.900000 2.991667 107.957916 -17.857491 11973.801758
3.200000 2.900000 3.000000 15.032372 60.180756 3847.695557
3.200000 2.900000 3.008333 7.479642 61.431526 3829.777588
3.200000 2.900000 3.016667 -76.729507 -14.399090 6094.751465
3.200000 3.000000 2.983333 103.017380 -86.121498 18029.492188
3.200000 3.000000 2.991667 23.229002 48.114727 2854.613281
3.200000 3.000000 3.000000 -14.241318 -18.355120 539.725586
3.200000 3.000000 3.008333 29.152269 -32.026707 1875.564697
3.200000 3.000000 3.016667 56.122276 37.615402 4564.628418
3.200000 3.100000 2.983333 123.010681 83.153641 22046.156250
3.200000 3.100000 2.991667 43.582664 15.956727 2154.065674
3.200000 3.100000 3.000000 85.184830 56.236107 10418.955078
3.200000 3.100000 3.008333 48.186264 91.279160 10653.800781
3.200000 3.100000 3.016667 -38.485950 102.669128 12022.118164
3.200000 3.200000 2.983333 -3.247051 125.328690 15717.823242
3.200000 3.200000 2.991667 -11.708332 47.265400 2371.103027
3.200000 3.200000 3.000000 -45.463722 114.098244 15085.359375
3.200000 3.200000 3.008333 -87.040497 25.637434 8233.326172
3.200000 3.200000 3.016667 -83.396996 29.487339 7824.562500
