#kx 	ky 	kz 	real 	imag 	intensity
0.800000 2.800000 6.983333 -115.720886 -40.672470 15045.573242
0.800000 2.800000 6.991667 13.036270 -46.214127 2305.689941
0.800000 2.800000 7.000000 -60.618717 22.956245 4201.618164
0.800000 2.800000 7.008333 -48.843765 -84.020508 9445.159180
0.800000 2.800000 7.016667 24.630949 -8.965158 687.057739
0.800000 2.900000 6.983333 -15.839907 -98.979752 10047.893555
0.800000 2.900000 6.991667 67.346298 16.643806 4812.540039
0.800000 2.900000 7.000000 -76.762993 -58.558907 9321.703125
0.800000 2.900000 7.008333 101.759064 -80.959221 16909.302734
0.800000 2.900000 7.016667 38.913845 7.887430 1576.498901
0.800000 3.000000 6.983333 53.641155 -26.345284 3571.447510
0.800000 3.000000 6.991667 15.954704 20.253227 664.745789
0.800000 3.000000 7.000000 82.909706 -44.542015 8858.010742
0.800000 3.000000 7.008333 78.907951 81.823044 12921.475586
0.800000 3.000000 7.016667 45.882584 100.712997 12248.318359
0.800000 3.100000 6.983333 -12.491608 26.752937 871.759949
0.800000 3.100000 6.991667 47.691463 43.990791 4209.665039
0.800000 3.100000 7.000000 -51.360863 108.144348 14333.138672
0.800000 3.100000 7.008333 -38.371994 15.088390 1700.069458
0.800000 3.100000 7.016667 -122.914856 88.256088 22897.199219
0.800000 3.200000 6.983333 2.543098 -44.105694 1951.779663
0.800000 3.200000 6.991667 -35.124718 65.359741 5505.641602
0.800000 3.200000 7.000000 -75.872467 -129.337280 22484.763672
0.800000 3.200000 7.008333 87.204597 -5.467819 7634.538574
0.800000 3.200000 7.016667 -54.990364 -67.980072 7645.230469
0.900000 2.800000 6.983333 -80.920975 -50.217484 9070.000000
0.900000 2.800000 6.991667 -19.321541 -123.537918 15634.939453
0.900000 2.800000 7.000000 32.030716 -22.016685 1510.701172
0.900000 2.800000 7.008333 -22.567196 -75.742462 6246.198730
0.900000 2.800000 7.016667 65.417023 -6.469976 4321.247070
0.900000 2.900000 6.983333 413.138397 -290.897003 255304.406250
0.900000 2.900000 6.991667 -432.095673 823.417114 864722.437500
0.900000 2.900000 7.000000 -897.639648 -698.812744 1294096.250000
0.900000 2.900000 7.008333 128.212067 -538.231018 306130.968750
0.900000 2.900000 7.016667 110.669785 -514.111389 276558.343750
0.900000 3.000000 6.983333 526.573181 539.635559 568485.875000
0.900000 3.000000 6.991667 -1367.806152 -518.440552 2139674.250000
0.900000 3.000000 7.000000 854.931030 -1523.672363 3052484.500000
0.900000 3.000000 7.008333 824.863770 -5.033936 680425.562500
0.900000 3.000000 7.016667 877.629272 82.918198 777108.562500
0.900000 3.100000 6.983333 -243.220779 449.380310 261099.000000
0.900000 3.100000 6.991667 128.137085 -837.324097 717530.750000
0.900000 3.100000 7.000000 990.123901 339.427521 1095556.375000
0.900000 3.100000 7.008333 121.410828 541.806091 308294.437500
0.900000 3.100000 7.016667 -44.953888 580.266724 338730.312500
0.900000 3.200000 6.983333 -80.828690 112.009521 19079.410156
0.900000 3.200000 6.991667 -135.411072 -103.899025 29131.166016
0.900000 3.200000 7.000000 90.058136 -50.753029 10686.337891
0.900000 3.200000 7.008333 -78.242416 58.367863 9528.682617
0.900000 3.200000 7.016667 -19.972765 -108.691895 12212.838867
1.000000 2.800000 6.983333 -82.806770 -133.969528 24804.794922
1.000000 2.800000 6.991667 165.762207 -114.994263 40700.789062
1.000000 2.800000 7.000000 3.679932 51.078857 2622.591553
1.000000 2.800000 7.008333 53.772606 -117.383858 16670.462891
1.000000 2.800000 7.016667 79.453354 67.664978 10891.384766
1.000000 2.900000 6.983333 511.583496 481.119385 493193.531250
1.000000 2.900000 6.991667 -1304.961914 -479.626923 1932967.625000
1.000000 2.900000 7.000000 780.387695 -1599.559692 3167596.250000
1.000000 2.900000 7.008333 972.588745 -40.453003 947565.312500
1.000000 2.900000 7.016667 864.186707 80.789001 753345.562500
1.000000 3.000000 6.983333 -689.834045 902.263672 1289950.750000
1.000000 3.000000 6.991667 495.095001 -2218.171387 5165403.500000
1.000000 3.000000 7.000000 2627.258789 857.883911 7638453.500000
1.000000 3.000000 7.008333 325.072205 1362.235352 1961357.000000
1.000000 3.000000 7.016667 136.915466 1424.756836 2048677.875000
1.000000 3.100000 6.983333 -748.082764 -278.917328 637422.687500
1.000000 3.100000 6.991667 1384.044312 38.365814 1917050.500000
1.000000 3.100000 7.000000 -292.790955 1713.573486 3022060.500000
1.000000 3.100000 7.008333 -847.366516 338.319092 832489.812500
1.000000 3.100000 7.016667 -939.098633 179.933990 914282.500000
1.000000 3.200000 6.983333 -163.807602 -143.349365 47381.968750
1.000000 3.200000 6.991667 97.644035 -140.566788 29293.378906
1.000000 3.200000 7.000000 -3.778889 -8.267311 82.628433
1.000000 3.200000 7.008333 11.917900 -132.870605 17796.634766
1.000000 3.200000 7.016667 106.952148 -67.017181 15930.064453
1.100000 2.800000 6.983333 68.436943 -88.360214 12491.142578
1.100000 2.800000 6.991667 67.079391 73.628510 9920.801758
1.100000 2.800000 7.000000 -11.241570 -4.310947 144.957153
1.100000 2.800000 7.008333 75.131905 12.875689 5810.586426
1.100000 2.800000 7.016667 -8.854189 83.125671 6988.273926
1.100000 2.900000 6.983333 -248.685120 351.000305 185045.500000
1.100000 2.900000 6.991667 204.564713 -877.373291 811630.625000
1.100000 2.900000 7.000000 1116.802734 325.264954 1353045.625000
1.100000 2.900000 7.008333 160.445221 656.655396 456938.968750
1.100000 2.900000 7.016667 3.798677 571.517151 326646.281250
1.100000 3.000000 6.983333 -612.144531 -388.662170 525779.250000
1.100000 3.000000 6.991667 1440.802246 138.235840 2095020.250000
1.100000 3.000000 7.000000 -259.551788 1749.053223 3126554.500000
1.100000 3.000000 7.008333 -878.867371 386.083191 921468.125000
1.100000 3.000000 7.016667 -880.018311 212.545807 819608.000000
1.100000 3.100000 6.983333 168.938080 -506.474792 285056.781250
1.100000 3.100000 6.991667 67.719727 877.556580 774691.500000
1.100000 3.100000 7.000000 -1102.018433 -49.353798 1216880.375000
1.100000 3.100000 7.008333 -283.132172 -536.699707 368210.375000
1.100000 3.100000 7.016667 -194.156693 -551.827026 342209.875000
1.100000 3.200000 6.983333 132.394394 -64.627800 21705.027344
1.100000 3.200000 6.991667 71.372986 37.173134 6475.944824
1.100000 3.200000 7.000000 97.056580 -23.946571 9993.417969
1.100000 3.200000 7.008333 122.304924 79.079094 21211.996094
1.100000 3.200000 7.016667 34.978283 92.761375 9828.153320
1.200000 2.800000 6.983333 -47.260204 0.319096 2233.628662
1.200000 2.800000 6.991667 8.453593 -99.052116 9882.784180
1.200000 2.800000 7.000000 35.423088 9.263462 1340.606934
1.200000 2.800000 7.008333 17.733650 -23.125008 849.248352
1.200000 2.800000 7.016667 -11.791754 36.364677 1461.435181
1.200000 2.900000 6.983333 21.556046 -56.183174 3621.212158
1.200000 2.900000 6.991667 88.758667 44.860928 9890.603516
1.200000 2.900000 7.000000 2.474612 63.492657 4037.441162
1.200000 2.900000 7.008333 -26.816357 43.109509 2577.546631
1.200000 2.900000 7.016667 -14.254631 -12.197189 351.965942
1.200000 3.000000 6.983333 92.612686 13.532704 8760.243164
1.200000 3.000000 6.991667 -67.444389 25.563496 5202.237793
1.200000 3.000000 7.000000 -2.154156 -13.852261 196.525497
1.200000 3.000000 7.008333 -34.402828 -41.135860 2875.713623
1.200000 3.000000 7.016667 32.138496 6.917626 1080.736450
1.200000 3.100000 6.983333 50.811440 97.146133 12019.173828
1.200000 3.100000 6.991667 24.612778 -61.581551 4398.076172
1.200000 3.100000 7.000000 95.300293 42.123772 10856.557617
1.200000 3.100000 7.008333 55.671066 40.225929 4717.393066
1.200000 3.100000 7.016667 -5.039641 74.248825 5538.286133
1.200000 3.200000 6.983333 -51.907085 119.314728 16930.349609
1.200000 3.200000 6.991667 4.129745 9.730904 111.745285
1.200000 3.200000 7.000000 10.197128 132.902069 17766.941406
1.200000 3.200000 7.008333 -104.772888 87.919098 18707.125000
1.200000 3.200000 7.016667 -102.918098 -0.009663 10592.134766
