#kx 	ky 	kz 	real 	imag 	intensity
0.800000 2.800000 6.800000 -8.692646 -2.703276 82.869797
0.800000 2.800000 6.840000 -11.356585 -2.029880 133.092422
0.800000 2.800000 6.880000 -15.610726 -7.174810 295.172668
0.800000 2.800000 6.920000 -14.240749 -18.028519 527.826416
0.800000 2.800000 6.960000 -2.821977 -27.327778 754.770996
0.800000 2.800000 7.000000 14.588087 -26.191450 898.804321
0.800000 2.800000 7.040000 27.394461 -12.634417 910.084961
0.800000 2.800000 7.080000 27.395601 5.478316 780.530945
0.800000 2.800000 7.120000 16.305307 16.870544 550.478271
0.800000 2.800000 7.160000 3.958206 16.873163 300.371033
0.800000 2.800000 7.200000 -1.329631 10.864372 119.802505
0.800000 2.840000 6.800000 -8.463287 -8.034361 136.178192
0.800000 2.840000 6.840000 -10.340546 -6.598558 150.467850
0.800000 2.840000 6.880000 -13.330835 -10.921299 296.985931
0.800000 2.840000 6.920000 -10.228447 -19.491653 484.545685
0.800000 2.840000 6.960000 1.324265 -24.175446 586.205811
0.800000 2.840000 7.000000 14.670080 -18.034542 540.455994
0.800000 2.840000 7.040000 19.471603 -3.382291 390.583221
0.800000 2.840000 7.080000 12.058608 9.186917 229.809479
0.800000 2.840000 7.120000 -0.291834 10.846749 117.737137
0.800000 2.840000 7.160000 -6.430046 3.446806 53.225964
0.800000 2.840000 7.200000 -2.859560 -2.666297 15.286224
0.800000 2.880000 6.800000 -2.891086 -14.985918 232.936127
0.800000 2.880000 6.840000 -4.382568 -12.144436 166.694214
0.800000 2.880000 6.880000 -6.898248 -14.832738 267.595947
0.800000 2.880000 6.920000 -4.067482 -20.636765 442.420441
0.800000 2.880000 6.960000 4.592218 -22.324039 519.451172
0.800000 2.880000 7.000000 12.328652 -16.083923 410.688263
0.800000 2.880000 7.040000 12.357963 -6.529410 195.352432
0.800000 2.880000 7.080000 5.844534 -2.097621 38.558590
0.800000 2.880000 7.120000 1.110609 -5.430500 30.723782
0.800000 2.880000 7.160000 4.143322 -9.835903 113.912109
0.800000 2.880000 7.200000 10.963884 -6.737074 165.594925
0.800000 2.920000 6.800000 9.424381 -16.860023 373.079376
0.800000 2.920000 6.840000 6.974506 -12.074329 194.433167
0.800000 2.920000 6.880000 3.276183 -13.235628 185.915222
0.800000 2.920000 6.920000 4.044786 -17.735088 330.893646
0.800000 2.920000 6.960000 9.420189 -19.776134 479.835449
0.800000 2.920000 7.000000 14.677088 -17.109070 508.137177
0.800000 2.920000 7.040000 16.498581 -12.912952 438.947510
0.800000 2.920000 7.080000 16.860439 -10.725731 399.315735
0.800000 2.920000 7.120000 19.521133 -9.043453 462.858704
0.800000 2.920000 7.160000 23.418547 -2.980317 557.310608
0.800000 2.920000 7.200000 21.835878 8.220968 544.389893
0.800000 2.960000 6.800000 22.089586 -7.913316 550.570374
0.800000 2.960000 6.840000 16.751915 -2.003216 284.639526
0.800000 2.960000 6.880000 10.615961 -3.350174 123.922295
0.800000 2.960000 6.920000 9.432463 -9.040048 170.693817
0.800000 2.960000 6.960000 14.033792 -13.557465 380.752167
0.800000 2.960000 7.000000 21.338585 -13.665395 642.078247
0.800000 2.960000 7.040000 28.187899 -9.342525 881.840393
0.800000 2.960000 7.080000 32.931408 -1.379923 1086.381836
0.800000 2.960000 7.120000 33.672806 9.854177 1230.962646
0.800000 2.960000 7.160000 27.241615 22.185114 1234.284912
0.800000 2.960000 7.200000 12.301393 29.537403 1023.782471
0.800000 3.000000 6.800000 25.511211 9.367389 738.569885
0.800000 3.000000 6.840000 16.339993 13.945288 461.466431
0.800000 3.000000 6.880000 8.337626 9.971884 168.954483
0.800000 3.000000 6.920000 7.413273 1.583183 57.463081
0.800000 3.000000 6.960000 14.393975 -4.445480 226.948822
0.800000 3.000000 7.000000 25.266922 -2.997339 647.401367
0.800000 3.000000 7.040000 33.781242 7.017760 1190.421265
0.800000 3.000000 7.080000 34.278923 22.465672 1679.750977
0.800000 3.000000 7.120000 24.021339 36.884895 1937.520264
0.800000 3.000000 7.160000 5.198367 42.642094 1845.371216
0.800000 3.000000 7.200000 -14.491189 34.753040 1417.768311
0.800000 3.040000 6.800000 15.963135 25.078346 883.745117
0.800000 3.040000 6.840000 4.177926 25.604576 673.049377
0.800000 3.040000 6.880000 -3.245036 17.662457 322.492645
0.800000 3.040000 6.920000 -1.199230 7.448891 56.924126
0.800000 3.040000 6.960000 9.128101 3.213860 93.651131
0.800000 3.040000 7.000000 20.485636 9.946532 518.594788
0.800000 3.040000 7.040000 23.688873 25.607269 1216.895020
0.800000 3.040000 7.080000 13.551361 41.502167 1906.069214
0.800000 3.040000 7.120000 -6.977811 47.125992 2269.549072
0.800000 3.040000 7.160000 -27.576515 37.026512 2131.426758
0.800000 3.040000 7.200000 -36.543739 15.141735 1564.716919
0.800000 3.080000 6.800000 -0.721651 30.507179 931.208740
0.800000 3.080000 6.840000 -12.287729 25.839359 818.660767
0.800000 3.080000 6.880000 -16.368326 14.810885 487.284424
0.800000 3.080000 6.920000 -10.259230 5.541809 135.963440
0.800000 3.080000 6.960000 1.155795 5.990133 37.217560
0.800000 3.080000 7.000000 7.753469 17.528780 367.374390
0.800000 3.080000 7.040000 1.410726 32.504509 1058.533203
0.800000 3.080000 7.080000 -16.950783 38.824051 1794.635986
0.800000 3.080000 7.120000 -36.650944 29.063978 2188.006348
0.800000 3.080000 7.160000 -44.481476 6.951955 2026.931396
0.800000 3.080000 7.200000 -34.684467 -14.555130 1414.864136
0.800000 3.120000 6.800000 -14.958250 25.448214 871.360840
0.800000 3.120000 6.840000 -23.666767 16.538340 833.632507
0.800000 3.120000 6.880000 -23.110422 4.890610 558.009705
0.800000 3.120000 6.920000 -14.326509 -0.776324 205.851547
0.800000 3.120000 6.960000 -5.717115 4.360404 51.698532
0.800000 3.120000 7.000000 -6.952669 15.877891 300.447021
0.800000 3.120000 7.040000 -20.190426 22.362028 907.713623
0.800000 3.120000 7.080000 -36.681316 14.729361 1562.473022
0.800000 3.120000 7.120000 -43.037243 -5.112662 1878.343506
0.800000 3.120000 7.160000 -32.527107 -24.596863 1663.018311
0.800000 3.120000 7.200000 -11.396853 -30.415964 1055.019165
0.800000 3.160000 6.800000 -22.270855 16.545717 769.751709
0.800000 3.160000 6.840000 -26.936035 5.265891 753.279602
0.800000 3.160000 6.880000 -22.353004 -4.683122 521.588440
0.800000 3.160000 6.920000 -13.653092 -6.052754 223.042770
0.800000 3.160000 6.960000 -10.435787 0.672353 109.357712
0.800000 3.160000 7.000000 -17.675957 6.355910 352.837036
0.800000 3.160000 7.040000 -29.687233 1.214891 882.807739
0.800000 3.160000 7.080000 -34.149807 -15.107069 1394.432861
0.800000 3.160000 7.120000 -23.526222 -31.601328 1552.127075
0.800000 3.160000 7.160000 -3.142584 -35.061249 1239.166992
0.800000 3.160000 7.200000 12.448338 -22.309929 652.694031
0.800000 3.200000 6.800000 -25.617212 9.051987 738.180054
0.800000 3.200000 6.840000 -26.066414 -3.205070 689.730408
0.800000 3.200000 6.880000 -18.868362 -10.395428 464.080017
0.800000 3.200000 6.920000 -12.307893 -8.897330 230.646698
0.800000 3.200000 6.960000 -13.777981 -4.580098 210.810043
0.800000 3.200000 7.000000 -21.233274 -7.294474 504.061310
0.800000 3.200000 7.040000 -24.073593 -19.940792 977.173096
0.800000 3.200000 7.080000 -13.848605 -33.717709 1328.667725
0.800000 3.200000 7.120000 5.752085 -35.606705 1300.923828
0.800000 3.200000 7.160000 20.533405 -21.533222 885.300415
0.800000 3.200000 7.200000 18.588497 -1.869280 349.026428
0.840000 2.800000 6.800000 -13.196450 -4.226071 192.005981
0.840000 2.800000 6.840000 -11.295948 -6.820922 174.123413
0.840000 2.800000 6.880000 -9.346009 -10.187729 191.137711
0.840000 2.800000 6.920000 -5.090146 -14.749319 243.452011
0.840000 2.800000 6.960000 3.608141 -17.763405 328.557220
0.840000 2.800000 7.000000 15.206900 -14.641670 445.628296
0.840000 2.800000 7.040000 23.855354 -3.491404 581.267822
0.840000 2.800000 7.080000 23.576580 11.645439 691.471375
0.840000 2.800000 7.120000 13.769508 22.917505 714.811401
0.840000 2.800000 7.160000 0.314889 24.858124 618.025513
0.840000 2.800000 7.200000 -9.236637 18.659048 433.475525
0.840000 2.840000 6.800000 -6.928126 -14.508022 258.481659
0.840000 2.840000 6.840000 -0.181305 -12.678662 160.781342
0.840000 2.840000 6.880000 3.423974 -8.161654 78.336182
0.840000 2.840000 6.920000 3.799225 -4.183299 31.934101
0.840000 2.840000 6.960000 3.289276 -2.133370 15.370605
0.840000 2.840000 7.000000 3.638045 -0.696690 13.720747
0.840000 2.840000 7.040000 4.108228 1.814907 20.171427
0.840000 2.840000 7.080000 2.918304 4.994277 33.459305
0.840000 2.840000 7.120000 -0.085003 6.877348 47.305141
0.840000 2.840000 7.160000 -3.069058 6.530955 52.072498
0.840000 2.840000 7.200000 -4.559276 5.221779 48.053974
0.840000 2.880000 6.800000 8.032719 -18.086203 391.635284
0.840000 2.880000 6.840000 15.681188 -7.338374 299.751373
0.840000 2.880000 6.880000 13.033098 6.204289 208.354858
0.840000 2.880000 6.920000 1.156916 13.276724 177.609848
0.840000 2.880000 6.960000 -11.652924 8.951015 215.911285
0.840000 2.880000 7.000000 -16.419514 -3.270634 280.297485
0.840000 2.880000 7.040000 -10.374550 -14.465669 316.886841
0.840000 2.880000 7.080000 1.621918 -17.270483 300.900208
0.840000 2.880000 7.120000 11.476450 -10.691748 246.022369
0.840000 2.880000 7.160000 13.595952 0.390137 185.002121
0.840000 2.880000 7.200000 7.659297 9.247164 144.174866
0.840000 2.920000 6.800000 23.394810 -7.835747 608.716064
0.840000 2.920000 6.840000 23.940763 11.632869 708.483765
0.840000 2.920000 6.880000 7.772783 26.998207 789.319336
0.840000 2.920000 6.920000 -16.717607 24.887854 898.883667
0.840000 2.920000 6.960000 -32.381332 3.747872 1062.597168
0.840000 2.920000 7.000000 -26.777248 -23.145687 1252.743896
0.840000 2.920000 7.040000 -2.637068 -37.294994 1397.870728
0.840000 2.920000 7.080000 23.902563 -29.192453 1423.531860
0.840000 2.920000 7.120000 35.661819 -5.155159 1298.341064
0.840000 2.920000 7.160000 26.776550 18.317665 1052.520508
0.840000 2.920000 7.200000 5.523802 27.043823 761.880737
0.840000 2.960000 6.800000 26.574383 12.945524 873.784424
0.840000 2.960000 6.840000 13.998940 33.552872 1321.765503
0.840000 2.960000 6.880000 -14.300479 38.771561 1707.737549
0.840000 2.960000 6.920000 -40.270477 18.704140 1971.556152
0.840000 2.960000 6.960000 -42.928940 -17.266201 2141.015625
0.840000 2.960000 7.000000 -16.421907 -44.978851 2292.776123
0.840000 2.960000 7.040000 23.058348 -43.914436 2460.165039
0.840000 2.960000 7.080000 48.768700 -14.031615 2575.272217
0.840000 2.960000 7.120000 44.039246 23.821026 2506.896484
0.840000 2.960000 7.160000 14.581337 44.275810 2172.962891
0.840000 2.960000 7.200000 -17.359116 36.440559 1629.253296
0.840000 3.000000 6.800000 12.467247 30.670380 1096.104492
0.840000 3.000000 6.840000 -11.032454 41.795586 1868.586060
0.840000 3.000000 6.880000 -40.202312 29.820210 2505.470703
0.840000 3.000000 6.920000 -52.660355 -4.390731 2792.391602
0.840000 3.000000 6.960000 -33.860634 -40.067265 2751.928223
0.840000 3.000000 7.000000 7.873784 -50.655052 2627.930908
0.840000 3.000000 7.040000 44.748333 -25.815908 2668.874512
0.840000 3.000000 7.080000 50.580399 18.311285 2893.679932
0.840000 3.000000 7.120000 21.952456 50.800018 3062.552246
0.840000 3.000000 7.160000 -19.117847 50.229351 2888.479980
0.840000 3.000000 7.200000 -43.253708 20.675446 2298.357422
0.840000 3.040000 6.800000 -10.344497 32.666904 1174.135254
0.840000 3.040000 6.840000 -34.724911 28.942513 2043.488525
0.840000 3.040000 6.880000 -51.710316 4.317448 2692.597168
0.840000 3.040000 6.920000 -44.258766 -29.349819 2820.250244
0.840000 3.040000 6.960000 -11.256384 -48.318100 2461.344727
0.840000 3.040000 7.000000 27.173193 -35.556934 2002.677979
0.840000 3.040000 7.040000 43.283478 2.956500 1882.200317
0.840000 3.040000 7.080000 24.320742 40.331314 2218.113281
0.840000 3.040000 7.120000 -15.789448 49.484131 2697.985840
0.840000 3.040000 7.160000 -47.057682 25.096506 2844.260254
0.840000 3.040000 7.200000 -47.606831 -12.534254 2423.517822
0.840000 3.080000 6.800000 -26.549608 18.742767 1056.173096
0.840000 3.080000 6.840000 -41.428093 4.447377 1736.066040
0.840000 3.080000 6.880000 -41.746368 -20.013195 2143.287354
0.840000 3.080000 6.920000 -21.972706 -39.306412 2027.793823
0.840000 3.080000 6.960000 7.914753 -37.520119 1470.402588
0.840000 3.080000 7.000000 27.044167 -12.596312 890.054016
0.840000 3.080000 7.040000 19.874197 18.812744 748.903076
0.840000 3.080000 7.080000 -9.453682 32.945976 1174.809448
0.840000 3.080000 7.120000 -38.655548 18.493706 1836.268555
0.840000 3.080000 7.160000 -45.042828 -13.209465 2203.346191
0.840000 3.080000 7.200000 -24.319513 -37.250381 1979.029663
0.840000 3.120000 6.800000 -27.918415 0.940606 780.322693
0.840000 3.120000 6.840000 -30.398315 -13.996483 1119.959106
0.840000 3.120000 6.880000 -20.903488 -27.745579 1206.772949
0.840000 3.120000 6.920000 -3.444780 -30.551640 945.269226
0.840000 3.120000 6.960000 10.458443 -18.937317 468.001007
0.840000 3.120000 7.000000 9.868742 -0.630974 97.790192
0.840000 3.120000 7.040000 -5.682840 9.788272 128.104935
0.840000 3.120000 7.080000 -23.935162 2.657917 579.956482
0.840000 3.120000 7.120000 -29.061867 -17.544268 1152.393433
0.840000 3.120000 7.160000 -15.259401 -34.753021 1440.621826
0.840000 3.120000 7.200000 7.547960 -34.557281 1251.177368
0.840000 3.160000 6.800000 -19.907026 -8.631647 470.795044
0.840000 3.160000 6.840000 -15.280072 -17.136463 527.138977
0.840000 3.160000 6.880000 -6.917952 -19.619095 432.766937
0.840000 3.160000 6.920000 -0.894125 -15.482981 240.522141
0.840000 3.160000 6.960000 -1.656673 -9.407656 91.248550
0.840000 3.160000 7.000000 -7.979625 -8.194984 130.832184
0.840000 3.160000 7.040000 -13.065636 -15.014132 396.134979
0.840000 3.160000 7.080000 -9.803123 -25.750389 759.183716
0.840000 3.160000 7.120000 2.626066 -31.430782 994.790344
0.840000 3.160000 7.160000 16.816568 -25.594946 937.898193
0.840000 3.160000 7.200000 22.454697 -10.532693 615.151001
0.840000 3.200000 6.800000 -14.258599 -9.245302 288.783264
0.840000 3.200000 6.840000 -9.409510 -11.771537 227.107941
0.840000 3.200000 6.880000 -7.389153 -10.304141 160.774902
0.840000 3.200000 6.920000 -10.191910 -10.214817 208.217499
0.840000 3.200000 6.960000 -13.666411 -16.256580 451.047180
0.840000 3.200000 7.000000 -10.714590 -27.099127 849.165100
0.840000 3.200000 7.040000 1.856524 -35.014282 1229.446655
0.840000 3.200000 7.080000 18.958519 -31.937172 1379.408447
0.840000 3.200000 7.120000 30.017534 -17.003885 1190.184448
0.840000 3.200000 7.160000 27.275408 1.332739 745.724060
0.840000 3.200000 7.200000 12.631809 11.170224 284.336517
0.880000 2.800000 6.800000 -15.010523 -13.361520 403.846008
0.880000 2.800000 6.840000 -6.098597 -13.664112 223.900848
0.880000 2.800000 6.880000 -1.105971 -9.856966 98.382957
0.880000 2.800000 6.920000 -0.174404 -7.540802 56.894112
0.880000 2.800000 6.960000 1.825230 -8.788231 80.564468
0.880000 2.800000 7.000000 8.809732 -9.077114 160.005386
0.880000 2.800000 7.040000 17.612206 -2.150764 314.815582
0.880000 2.800000 7.080000 19.918245 12.043957 541.793396
0.880000 2.800000 7.120000 10.722609 25.364862 758.350586
0.880000 2.800000 7.160000 -5.542222 28.305483 831.916626
0.880000 2.800000 7.200000 -18.091904 19.023033 689.192749
0.880000 2.840000 6.800000 2.300380 -21.019878 447.127045
0.880000 2.840000 6.840000 15.455741 -8.260256 307.111755
0.880000 2.840000 6.880000 13.795940 10.634632 303.423370
0.880000 2.840000 6.920000 -1.938286 20.575697 427.116272
0.880000 2.840000 6.960000 -18.231869 13.831871 523.721680
0.880000 2.840000 7.000000 -21.301764 -2.337624 459.229614
0.880000 2.840000 7.040000 -9.997568 -12.756847 262.688538
0.880000 2.840000 7.080000 3.890835 -8.874456 93.894569
0.880000 2.840000 7.120000 7.749615 3.977794 75.879372
0.880000 2.840000 7.160000 -0.118191 13.242867 175.387482
0.880000 2.840000 7.200000 -10.591269 11.860214 252.839661
0.880000 2.880000 6.800000 22.419197 -11.632298 637.930725
0.880000 2.880000 6.840000 27.513062 17.781515 1073.150879
0.880000 2.880000 6.880000 4.375629 44.083485 1962.499756
0.880000 2.880000 6.920000 -34.609829 42.861633 3034.959961
0.880000 2.880000 6.960000 -60.246056 10.333061 3736.359375
0.880000 2.880000 7.000000 -51.900513 -30.862869 3646.180176
0.880000 2.880000 7.040000 -16.206184 -50.580177 2820.994629
0.880000 2.880000 7.080000 19.101460 -37.083336 1740.039551
0.880000 2.880000 7.120000 29.832535 -5.419098 919.346741
0.880000 2.880000 7.160000 14.659271 18.349285 551.590454
0.880000 2.880000 7.200000 -7.937858 20.236217 472.514069
0.880000 2.920000 6.800000 28.881571 12.716257 995.848328
0.880000 2.920000 6.840000 12.502675 49.454163 2602.031006
0.880000 2.920000 6.880000 -35.529346 62.492401 5167.634766
0.880000 2.920000 6.920000 -83.395317 30.031933 7856.695801
0.880000 2.920000 6.960000 -91.537712 -32.911758 9462.335938
0.880000 2.920000 7.000000 -48.499104 -82.947510 9232.453125
0.880000 2.920000 7.040000 16.652008 -84.382446 7397.687012
0.880000 2.920000 7.080000 58.284794 -39.556107 4961.802734
0.880000 2.920000 7.120000 52.338936 14.801727 2958.455322
0.880000 2.920000 7.160000 13.399078 40.501411 1819.899658
0.880000 2.920000 7.200000 -22.811413 28.343349 1323.706055
0.880000 2.960000 6.800000 12.733638 35.335510 1410.743774
0.880000 2.960000 6.840000 -26.578110 60.281445 4340.248535
0.880000 2.960000 6.880000 -82.968292 42.132553 8658.889648
0.880000 2.960000 6.920000 -111.097168 -22.227734 12836.653320
0.880000 2.960000 6.960000 -79.203674 -93.618439 15037.634766
0.880000 2.960000 7.000000 -1.350764 -119.785179 14350.313477
0.880000 2.960000 7.040000 70.173691 -80.316078 11375.019531
0.880000 2.960000 7.080000 87.653152 -5.166482 7709.767578
0.880000 2.960000 7.120000 46.906403 51.043083 4805.606934
0.880000 2.960000 7.160000 -12.820477 54.725323 3159.225586
0.880000 2.960000 7.200000 -45.598022 17.111687 2371.989502
0.880000 3.000000 6.800000 -16.845432 37.642464 1700.723633
0.880000 3.000000 6.840000 -63.823696 36.280220 5389.718750
0.880000 3.000000 6.880000 -101.977264 -11.035744 10521.150391
0.880000 3.000000 6.920000 -90.696396 -83.023743 15118.777344
0.880000 3.000000 6.960000 -23.019598 -128.792267 17117.349609
0.880000 3.000000 7.000000 61.049446 -109.709549 15763.220703
0.880000 3.000000 7.040000 104.096603 -35.252850 12078.866211
0.880000 3.000000 7.080000 79.003464 42.247200 8026.373047
0.880000 3.000000 7.120000 11.115966 70.743958 5128.272461
0.880000 3.000000 7.160000 -45.264915 40.337616 3676.035889
0.880000 3.000000 7.200000 -53.213760 -13.491146 3013.715332
0.880000 3.040000 6.800000 -38.308529 16.228874 1730.919678
0.880000 3.040000 6.840000 -71.278511 -8.565996 5154.002441
0.880000 3.040000 6.880000 -75.793304 -62.184799 9611.574219
0.880000 3.040000 6.920000 -32.411060 -110.374924 13233.100586
0.880000 3.040000 6.960000 40.451363 -112.562988 14306.739258
0.880000 3.040000 7.000000 95.230247 -58.455269 12485.818359
0.880000 3.040000 7.040000 93.072174 18.344378 8998.946289
0.880000 3.040000 7.080000 37.543686 65.450699 5693.322266
0.880000 3.040000 7.120000 -27.609371 54.599575 3743.390869
0.880000 3.040000 7.160000 -55.388409 3.607321 3080.888428
0.880000 3.040000 7.200000 -33.496037 -41.831345 2871.845947
0.880000 3.080000 6.800000 -36.317909 -12.932772 1486.247070
0.880000 3.080000 6.840000 -44.294914 -42.666855 3782.500000
0.880000 3.080000 6.880000 -23.637695 -76.905960 6473.267578
0.880000 3.080000 6.920000 23.024775 -88.230957 8314.841797
0.880000 3.080000 6.960000 68.869034 -60.094818 8354.331055
0.880000 3.080000 7.000000 81.377045 -4.907326 6646.305664
0.880000 3.080000 7.040000 49.965168 41.748005 4239.414062
0.880000 3.080000 7.080000 -2.743027 48.874813 2396.271484
0.880000 3.080000 7.120000 -38.197029 15.932974 1712.872681
0.880000 3.080000 7.160000 -33.545349 -26.992628 1853.892334
0.880000 3.080000 7.200000 0.638702 -45.242531 2047.294556
0.880000 3.120000 6.800000 -15.440184 -28.583099 1055.392822
0.880000 3.120000 6.840000 -5.997484 -44.641426 2028.826782
0.880000 3.120000 6.880000 15.902437 -51.504536 2905.604736
0.880000 3.120000 6.920000 40.038891 -40.359081 3231.968262
0.880000 3.120000 6.960000 51.011185 -13.534164 2785.314453
0.880000 3.120000 7.000000 39.797253 14.096161 1782.523071
0.880000 3.120000 7.040000 12.736851 24.781525 776.351318
0.880000 3.120000 7.080000 -11.358208 12.182545 277.423279
0.880000 3.120000 7.120000 -15.560946 -12.317690 393.868530
0.880000 3.120000 7.160000 1.088181 -28.183830 795.512451
0.880000 3.120000 7.200000 22.610838 -22.722256 1027.550903
0.880000 3.160000 6.800000 4.903358 -23.417358 572.415588
0.880000 3.160000 6.840000 14.405598 -21.723648 679.438110
0.880000 3.160000 6.880000 19.513922 -14.590483 593.675354
0.880000 3.160000 6.920000 18.531384 -7.257061 396.077118
0.880000 3.160000 6.960000 13.979221 -3.697044 209.086761
0.880000 3.160000 7.000000 9.792171 -4.547602 116.567299
0.880000 3.160000 7.040000 8.734470 -7.751215 136.372299
0.880000 3.160000 7.080000 11.362703 -10.211914 233.394211
0.880000 3.160000 7.120000 16.023838 -9.216038 341.698730
0.880000 3.160000 7.160000 19.322634 -3.812193 387.896973
0.880000 3.160000 7.200000 17.661922 3.966923 327.679993
0.880000 3.200000 6.800000 9.525642 -9.503959 181.063095
0.880000 3.200000 6.840000 8.268682 -0.623390 68.759727
0.880000 3.200000 6.880000 -1.947551 1.346653 5.606430
0.880000 3.200000 6.920000 -10.050385 -9.123108 184.241333
0.880000 3.200000 6.960000 -4.998573 -24.861256 643.067749
0.880000 3.200000 7.000000 13.032715 -31.941055 1190.082642
0.880000 3.200000 7.040000 31.933407 -22.449156 1523.707031
0.880000 3.200000 7.080000 38.080162 -1.771580 1453.237305
0.880000 3.200000 7.120000 27.839100 16.157627 1036.084473
0.880000 3.200000 7.160000 9.703732 20.618620 519.289917
0.880000 3.200000 7.200000 -3.801551 11.781696 153.260162
0.920000 2.800000 6.800000 -6.672667 -23.357754 590.109131
0.920000 2.800000 6.840000 5.248219 -15.289524 261.313354
0.920000 2.800000 6.880000 5.977371 -3.755795 49.834957
0.920000 2.800000 6.920000 -1.010338 0.089658 1.028821
0.920000 2.800000 6.960000 -4.065605 -5.736954 49.441788
0.920000 2.800000 7.000000 3.898830 -11.335430 143.692856
0.920000 2.800000 7.040000 16.823570 -5.360863 311.771362
0.920000 2.800000 7.080000 20.914415 12.101917 583.869202
0.920000 2.800000 7.120000 8.986977 28.185335 875.178894
0.920000 2.800000 7.160000 -11.272741 29.495356 997.050720
0.920000 2.800000 7.200000 -24.117456 15.470842 820.998718
0.920000 2.840000 6.800000 16.896923 -17.942667 607.445312
0.920000 2.840000 6.840000 23.805042 10.072237 668.130005
0.920000 2.840000 6.880000 3.511951 34.587280 1208.613770
0.920000 2.840000 6.920000 -30.171276 32.679256 1978.239746
0.920000 2.840000 6.960000 -49.001259 3.628113 2414.286377
0.920000 2.840000 7.000000 -36.623119 -28.586594 2158.446289
0.920000 2.840000 7.040000 -4.333050 -37.167240 1400.178955
0.920000 2.840000 7.080000 19.866501 -17.272772 693.026489
0.920000 2.840000 7.120000 17.806915 10.959816 437.203796
0.920000 2.840000 7.160000 -3.389298 23.252748 552.177673
0.920000 2.840000 7.200000 -21.319271 13.889965 647.442444
0.920000 2.880000 6.800000 28.950218 6.873552 885.360840
0.920000 2.880000 6.840000 12.259119 49.093185 2560.426758
0.920000 2.880000 6.880000 -40.801704 64.314270 5801.104492
0.920000 2.880000 6.920000 -92.793526 28.267109 9409.667969
0.920000 2.880000 6.960000 -99.367798 -39.938644 11469.054688
0.920000 2.880000 7.000000 -50.742413 -90.634377 10789.382812
0.920000 2.880000 7.040000 17.373634 -86.903870 7854.125977
0.920000 2.880000 7.080000 55.190414 -36.820465 4401.728516
0.920000 2.880000 7.120000 42.176300 16.277187 2043.787109
0.920000 2.880000 7.160000 0.905907 34.421642 1185.670166
0.920000 2.880000 7.200000 -29.194283 16.115662 1112.020752
0.920000 2.920000 6.800000 15.411114 34.588562 1433.871094
0.920000 2.920000 6.840000 -33.722057 68.353912 5809.434570
0.920000 2.920000 6.880000 -106.065643 46.018234 13367.598633
0.920000 2.920000 6.920000 -141.612762 -36.091072 21356.738281
0.920000 2.920000 6.960000 -100.037460 -125.841019 25843.455078
0.920000 2.920000 7.000000 -2.010609 -156.505920 24498.146484
0.920000 2.920000 7.040000 84.567719 -105.584473 18299.781250
0.920000 2.920000 7.080000 102.437752 -14.698593 10709.541992
0.920000 2.920000 7.120000 52.286892 48.442760 5080.620117
0.920000 2.920000 7.160000 -14.128149 48.532257 2554.984375
0.920000 2.920000 7.200000 -44.648491 6.351138 2033.824707
0.920000 2.960000 6.800000 -17.789795 41.653412 2051.483398
0.920000 2.960000 6.840000 -85.342964 42.468876 9087.027344
0.920000 2.960000 6.880000 -141.530273 -25.176558 20664.677734
0.920000 2.960000 6.920000 -125.292130 -129.547211 32480.597656
0.920000 2.960000 6.960000 -27.225637 -195.181198 38836.933594
0.920000 2.960000 7.000000 92.897293 -167.153015 36570.039062
0.920000 2.960000 7.040000 153.055481 -62.081703 27280.119141
0.920000 2.960000 7.080000 118.509308 44.306786 16007.546875
0.920000 2.960000 7.120000 28.698605 82.213745 7582.709961
0.920000 2.960000 7.160000 -42.144852 43.953449 3708.094238
0.920000 2.960000 7.200000 -50.334900 -19.231945 2903.469727
0.920000 3.000000 6.800000 -46.100502 18.475967 2466.617676
0.920000 3.000000 6.840000 -101.641411 -18.542677 10674.807617
0.920000 3.000000 6.880000 -111.094879 -106.394547 23661.871094
0.920000 3.000000 6.920000 -39.921745 -186.647919 36431.191406
0.920000 3.000000 6.960000 80.649788 -190.552551 42814.660156
0.920000 3.000000 7.000000 171.125732 -102.029709 39694.078125
0.920000 3.000000 7.040000 169.236816 22.436026 29144.474609
0.920000 3.000000 7.080000 83.423546 99.102112 16780.716797
0.920000 3.000000 7.120000 -16.131985 86.636200 7766.071777
0.920000 3.000000 7.160000 -59.582855 15.799601 3799.744141
0.920000 3.000000 7.200000 -33.486542 -45.324791 3175.685059
0.920000 3.040000 6.800000 -46.270775 -19.724319 2530.033447
0.920000 3.040000 6.840000 -66.215294 -73.109795 9729.507812
0.920000 3.040000 6.880000 -29.792463 -140.319138 20577.052734
0.920000 3.040000 6.920000 60.580032 -164.449158 30713.464844
0.920000 3.040000 6.960000 151.484741 -110.572517 35173.906250
0.920000 3.040000 7.000000 178.249878 -2.714329 31780.386719
0.920000 3.040000 7.040000 120.476608 90.116882 22635.666016
0.920000 3.040000 7.080000 21.394670 109.754562 12503.794922
0.920000 3.040000 7.120000 -48.399029 56.151512 5495.458496
0.920000 3.040000 7.160000 -49.572998 -16.872454 2742.161865
0.920000 3.040000 7.200000 -1.554122 -51.305584 2634.678223
0.920000 3.080000 6.800000 -17.282913 -44.497299 2278.708740
0.920000 3.080000 6.840000 -4.051884 -82.914604 6891.249512
0.920000 3.080000 6.880000 45.956947 -105.660324 13276.145508
0.920000 3.080000 6.920000 109.319153 -82.390488 18738.869141
0.920000 3.080000 6.960000 142.651886 -13.642921 20535.689453
0.920000 3.080000 7.000000 117.580437 62.701336 17756.617188
0.920000 3.080000 7.040000 47.299152 98.641235 11967.303711
0.920000 3.080000 7.080000 -21.426815 74.948288 6076.354492
0.920000 3.080000 7.120000 -45.668457 16.692122 2364.234863
0.920000 3.080000 7.160000 -20.094059 -28.971123 1243.097168
0.920000 3.080000 7.200000 22.663223 -32.302174 1557.052124
0.920000 3.120000 6.800000 18.173471 -38.818794 1837.173828
0.920000 3.120000 6.840000 39.592426 -46.420296 3722.403809
0.920000 3.120000 6.880000 67.225830 -35.721054 5795.305664
0.920000 3.120000 6.920000 84.516678 -4.624321 7164.453125
0.920000 3.120000 6.960000 77.112404 34.364735 7127.257812
0.920000 3.120000 7.000000 44.880001 60.218521 5640.484863
0.920000 3.120000 7.040000 4.708736 58.085907 3396.144775
0.920000 3.120000 7.080000 -20.357540 31.353905 1397.496826
0.920000 3.120000 7.120000 -18.233662 0.075924 332.472198
0.920000 3.120000 7.160000 3.038378 -14.270694 212.884430
0.920000 3.120000 7.200000 22.368973 -5.372736 529.237244
0.920000 3.160000 6.800000 34.063057 -11.662321 1296.301636
0.920000 3.160000 6.840000 38.975960 1.359663 1520.974121
0.920000 3.160000 6.880000 33.870255 13.340290 1325.157471
0.920000 3.160000 6.920000 24.505646 18.060760 926.717773
0.920000 3.160000 6.960000 17.700123 17.108967 606.011108
0.920000 3.160000 7.000000 14.678787 15.807720 465.350830
0.920000 3.160000 7.040000 11.971107 16.359180 410.930176
0.920000 3.160000 7.080000 7.309803 16.329849 320.097198
0.920000 3.160000 7.120000 2.757469 13.203465 181.935120
0.920000 3.160000 7.160000 1.503139 8.552277 75.400864
0.920000 3.160000 7.200000 2.985873 6.248913 47.964348
0.920000 3.200000 6.800000 24.050545 11.600498 713.000244
0.920000 3.200000 6.840000 8.216165 22.368761 567.866821
0.920000 3.200000 6.880000 -10.919498 13.024632 288.876465
0.920000 3.200000 6.920000 -12.907120 -10.221344 271.069611
0.920000 3.200000 6.960000 7.287430 -25.485287 702.606445
0.920000 3.200000 7.000000 32.871609 -16.643238 1357.540039
0.920000 3.200000 7.040000 40.892525 10.362579 1779.581665
0.920000 3.200000 7.080000 24.155125 33.034866 1674.772461
0.920000 3.200000 7.120000 -2.663866 33.706909 1143.251953
0.920000 3.200000 7.160000 -18.022827 15.077858 552.164062
0.920000 3.200000 7.200000 -13.452194 -4.824810 204.240326
0.960000 2.800000 6.800000 8.790035 -23.393482 624.519714
0.960000 2.800000 6.840000 15.488781 -6.807846 286.249084
0.960000 2.800000 6.880000 6.827316 6.221447 85.318649
0.960000 2.800000 6.920000 -6.201408 4.347725 57.360176
0.960000 2.800000 6.960000 -7.919071 -8.182762 129.669281
0.960000 2.800000 7.000000 5.561840 -15.077560 258.266876
0.960000 2.800000 7.040000 21.364960 -4.658630 478.164368
0.960000 2.800000 7.080000 22.344833 17.402657 802.144043
0.960000 2.800000 7.120000 4.616888 32.928822 1105.622925
0.960000 2.800000 7.160000 -18.099163 29.047224 1171.320923
0.960000 2.800000 7.200000 -27.843506 10.706507 889.890076
0.960000 2.840000 6.800000 25.083612 -2.523155 635.553955
0.960000 2.840000 6.840000 13.352577 31.158131 1149.120361
0.960000 2.840000 6.880000 -25.808331 42.846302 2501.875488
0.960000 2.840000 6.920000 -61.817524 15.958122 4076.067871
0.960000 2.840000 6.960000 -62.164433 -31.575066 4861.401367
0.960000 2.840000 7.000000 -23.964550 -61.278488 4329.353027
0.960000 2.840000 7.040000 21.867142 -49.311947 2909.840088
0.960000 2.840000 7.080000 38.991859 -8.238922 1588.244995
0.960000 2.840000 7.120000 18.566227 26.151455 1028.603394
0.960000 2.840000 7.160000 -15.550175 29.002769 1082.968628
0.960000 2.840000 7.200000 -32.680866 7.152680 1119.199951
0.960000 2.880000 6.800000 17.390766 26.611368 1010.603638
0.960000 2.880000 6.840000 -27.926159 58.739277 4230.172852
0.960000 2.880000 6.880000 -93.942688 38.038158 10272.129883
0.960000 2.880000 6.920000 -124.235130 -36.725044 16783.095703
0.960000 2.880000 6.960000 -83.758499 -115.195602 20285.511719
0.960000 2.880000 7.000000 4.576279 -136.998016 18789.398438
0.960000 2.880000 7.040000 76.949951 -86.210007 13353.459961
0.960000 2.880000 7.080000 84.574127 -5.481209 7182.826660
0.960000 2.880000 7.120000 34.618931 43.830902 3119.618164
0.960000 2.880000 7.160000 -22.182873 35.729565 1768.681641
0.960000 2.880000 7.200000 -41.721142 -4.115071 1757.587524
0.960000 2.920000 6.800000 -13.947144 39.413372 1747.936768
0.960000 2.920000 6.840000 -86.312042 40.948849 9126.577148
0.960000 2.920000 6.880000 -145.677307 -31.454933 22211.289062
0.960000 2.920000 6.920000 -126.495995 -141.649857 36065.917969
0.960000 2.920000 6.960000 -21.395180 -207.882233 43672.777344
0.960000 2.920000 7.000000 103.055748 -174.103088 40932.371094
0.960000 2.920000 7.040000 160.597321 -62.588333 29708.798828
0.960000 2.920000 7.080000 119.632553 44.481106 16290.516602
0.960000 2.920000 7.120000 26.857611 77.230438 6685.871582
0.960000 2.920000 7.160000 -40.208725 34.590214 2813.224609
0.960000 2.920000 7.200000 -42.593239 -26.181110 2499.634521
0.960000 2.960000 6.800000 -46.438778 20.439207 2574.321289
0.960000 2.960000 6.840000 -114.961708 -23.722040 13778.929688
0.960000 2.960000 6.880000 -126.289276 -130.911423 33086.781250
0.960000 2.960000 6.920000 -38.435497 -227.447037 53209.445312
0.960000 2.960000 6.960000 107.706490 -229.236710 64150.156250
0.960000 2.960000 7.000000 213.888580 -119.988754 60145.625000
0.960000 2.960000 7.040000 207.423004 28.283855 43824.277344
0.960000 2.960000 7.080000 103.792633 115.360962 24081.062500
0.960000 2.960000 7.120000 -10.502718 97.369087 9591.045898
0.960000 2.960000 7.160000 -56.374474 16.500937 3450.362305
0.960000 2.960000 7.200000 -25.596998 -47.469402 2908.550537
0.960000 3.000000 6.800000 -52.333874 -20.237568 3148.393311
0.960000 3.000000 6.840000 -83.100525 -94.174744 15774.580078
0.960000 3.000000 6.880000 -32.942154 -189.328751 36930.562500
0.960000 3.000000 6.920000 94.247887 -222.760300 58504.816406
0.960000 3.000000 6.960000 220.599884 -145.548340 69848.625000
0.960000 3.000000 7.000000 255.008270 5.354910 65057.894531
0.960000 3.000000 7.040000 172.625671 131.732269 47153.015625
0.960000 3.000000 7.080000 37.370285 155.808929 25672.960938
0.960000 3.000000 7.120000 -54.397823 83.165421 9875.610352
0.960000 3.000000 7.160000 -55.100796 -10.501355 3146.376221
0.960000 3.000000 7.200000 3.391655 -51.582024 2672.208496
0.960000 3.040000 6.800000 -23.132603 -52.657043 3307.881348
0.960000 3.040000 6.840000 -7.195602 -118.628654 14124.534180
0.960000 3.040000 6.880000 75.008492 -160.933655 31525.914062
0.960000 3.040000 6.920000 182.689209 -123.678589 48671.742188
0.960000 3.040000 6.960000 238.848206 -7.690628 57107.609375
0.960000 3.040000 7.000000 195.141388 120.012230 52483.093750
0.960000 3.040000 7.040000 76.980293 177.851288 37557.046875
0.960000 3.040000 7.080000 -35.453468 137.167175 20071.783203
0.960000 3.040000 7.120000 -74.009552 43.315300 7353.628906
0.960000 3.040000 7.160000 -35.515316 -27.697199 2028.472412
0.960000 3.040000 7.200000 25.648909 -34.250340 1830.952393
0.960000 3.080000 6.800000 21.314178 -51.695976 3126.768066
0.960000 3.080000 6.840000 59.925907 -79.855377 9967.996094
0.960000 3.080000 6.880000 124.691589 -67.728134 20135.091797
0.960000 3.080000 6.920000 171.815826 -1.008621 29521.695312
0.960000 3.080000 6.960000 159.027847 90.755714 33526.453125
0.960000 3.080000 7.000000 83.615944 151.996277 30094.496094
0.960000 3.080000 7.040000 -10.737755 144.859390 21099.541016
0.960000 3.080000 7.080000 -67.234665 80.340790 10975.142578
0.960000 3.080000 7.120000 -60.654007 8.291042 3747.649902
0.960000 3.080000 7.160000 -13.898756 -24.421358 789.578125
0.960000 3.080000 7.200000 26.523178 -9.524885 794.202454
0.960000 3.120000 6.800000 49.000874 -18.812845 2755.008789
0.960000 3.120000 6.840000 74.023178 -10.426348 5588.139160
0.960000 3.120000 6.880000 92.392944 19.662640 8923.075195
0.960000 3.120000 6.920000 87.145844 62.066982 11446.708008
0.960000 3.120000 6.960000 53.274235 95.827980 12021.146484
0.960000 3.120000 7.000000 3.777748 101.621033 10341.105469
0.960000 3.120000 7.040000 -37.246441 75.764397 7127.541016
0.960000 3.120000 7.080000 -50.588036 33.838726 3704.208740
0.960000 3.120000 7.120000 -35.164406 0.124069 1236.550781
0.960000 3.120000 7.160000 -7.889254 -9.490129 152.302887
0.960000 3.120000 7.200000 9.819890 2.206181 101.297470
0.960000 3.160000 6.800000 43.062492 19.733517 2243.790039
0.960000 3.160000 6.840000 36.277534 37.065994 2689.947266
0.960000 3.160000 6.880000 20.175585 44.773449 2411.716064
0.960000 3.160000 6.920000 6.330048 41.366592 1751.264404
0.960000 3.160000 6.960000 0.305817 35.195595 1238.823364
0.960000 3.160000 7.000000 -2.728691 33.167713 1107.542969
0.960000 3.160000 7.040000 -9.830914 32.727566 1167.740356
0.960000 3.160000 7.080000 -20.119211 26.189507 1090.672852
0.960000 3.160000 7.120000 -24.974998 11.717941 761.060669
0.960000 3.160000 7.160000 -18.419937 -2.588741 345.995667
0.960000 3.160000 7.200000 -5.290247 -6.833477 74.683121
0.960000 3.200000 6.800000 14.933037 36.608013 1563.142212
0.960000 3.200000 6.840000 -12.265293 36.051170 1450.124268
0.960000 3.200000 6.880000 -27.616646 10.913967 881.793823
0.960000 3.200000 6.920000 -13.936638 -16.294931 459.754639
0.960000 3.200000 6.960000 16.983536 -18.388424 626.574585
0.960000 3.200000 7.000000 34.717567 8.024010 1269.694214
0.960000 3.200000 7.040000 20.677238 37.888298 1863.071289
0.960000 3.200000 7.080000 -12.961033 42.382278 1964.245972
0.960000 3.200000 7.120000 -35.597504 17.320704 1567.188965
0.960000 3.200000 7.160000 -28.635273 -13.865561 1012.232666
0.960000 3.200000 7.200000 -2.332792 -24.693573 615.214417
1.000000 2.800000 6.800000 19.334702 -10.489899 483.868652
1.000000 2.800000 6.840000 15.612606 7.427614 298.922913
1.000000 2.800000 6.880000 -0.179871 13.821480 191.065659
1.000000 2.800000 6.920000 -12.118298 3.699005 160.535767
1.000000 2.800000 6.960000 -7.399300 -11.257988 181.491928
1.000000 2.800000 7.000000 10.186241 -13.526646 286.729645
1.000000 2.800000 7.040000 23.092499 2.679703 540.444275
1.000000 2.800000 7.080000 17.008434 25.032545 915.915161
1.000000 2.800000 7.120000 -5.034626 34.708183 1230.005371
1.000000 2.800000 7.160000 -25.642750 24.405121 1253.160522
1.000000 2.800000 7.200000 -29.930349 4.660840 917.549255
1.000000 2.840000 6.800000 17.149548 14.926481 516.906860
1.000000 2.840000 6.840000 -12.296984 36.930962 1515.111694
1.000000 2.840000 6.880000 -53.946022 23.961781 3484.340332
1.000000 2.840000 6.920000 -70.898941 -22.296265 5523.783203
1.000000 2.840000 6.960000 -43.091812 -67.501953 6413.417969
1.000000 2.840000 7.000000 11.099365 -74.228256 5633.029785
1.000000 2.840000 7.040000 49.584370 -36.767445 3810.454590
1.000000 2.840000 7.080000 44.428001 13.463902 2155.124023
1.000000 2.840000 7.120000 5.917318 37.350876 1430.102539
1.000000 2.840000 7.160000 -30.036787 23.039234 1433.014893
1.000000 2.840000 7.200000 -36.939178 -7.458149 1420.126953
1.000000 2.880000 6.800000 -8.037785 30.167873 974.706543
1.000000 2.880000 6.840000 -65.391769 31.208717 5250.067383
1.000000 2.880000 6.880000 -111.005913 -26.123348 13004.742188
1.000000 2.880000 6.920000 -93.751755 -111.141487 21141.820312
1.000000 2.880000 6.960000 -10.648109 -158.774841 25322.833984
1.000000 2.880000 7.000000 83.364487 -127.455444 23194.527344
1.000000 2.880000 7.040000 121.280525 -38.888634 16221.291992
1.000000 2.880000 7.080000 82.688843 40.390865 8468.867188
1.000000 2.880000 7.120000 8.769085 58.188271 3462.771484
1.000000 2.880000 7.160000 -39.197819 19.139086 1902.773560
1.000000 2.880000 7.200000 -34.977829 -28.301792 2024.439941
1.000000 2.920000 6.800000 -39.174610 17.511505 1841.302856
1.000000 2.920000 6.840000 -101.761734 -23.575941 10911.275391
1.000000 2.920000 6.880000 -110.470810 -121.985092 27084.162109
1.000000 2.920000 6.920000 -28.051147 -208.244247 44152.535156
1.000000 2.920000 6.960000 105.066681 -205.723801 53361.289062
1.000000 2.920000 7.000000 197.581757 -102.967529 49640.863281
1.000000 2.920000 7.040000 185.648346 30.631157 35403.578125
1.000000 2.920000 7.080000 88.393791 103.877228 18603.941406
1.000000 2.920000 7.120000 -12.618139 81.508476 6802.849121
1.000000 2.920000 7.160000 -48.082512 7.094109 2362.254395
1.000000 2.920000 7.200000 -16.601948 -46.375854 2426.344727
1.000000 2.960000 6.800000 -49.432312 -18.965057 2803.226807
1.000000 2.960000 6.840000 -81.836533 -97.003174 16106.833984
1.000000 2.960000 6.880000 -27.720161 -196.867920 39525.382812
1.000000 2.960000 6.920000 107.054016 -229.552704 64155.007812
1.000000 2.960000 6.960000 237.794922 -145.017151 77576.398438
1.000000 2.960000 7.000000 268.912109 14.010416 72510.007812
1.000000 2.960000 7.040000 178.470779 142.376160 52122.789062
1.000000 2.960000 7.080000 37.888275 161.513794 27522.226562
1.000000 2.960000 7.120000 -52.354252 83.133759 9652.189453
1.000000 2.960000 7.160000 -48.259087 -10.793328 2445.435303
1.000000 2.960000 7.200000 11.168537 -47.285698 2360.673584
1.000000 3.000000 6.800000 -25.432789 -53.226402 3479.876465
1.000000 3.000000 6.840000 -7.871353 -134.580627 18173.904297
1.000000 3.000000 6.880000 92.670883 -186.987427 43552.187500
1.000000 3.000000 6.920000 224.124725 -140.268433 69907.125000
1.000000 3.000000 6.960000 289.965210 2.556417 84086.359375
1.000000 3.000000 7.000000 232.645416 156.138519 78503.125000
1.000000 3.000000 7.040000 87.786842 220.994263 56544.996094
1.000000 3.000000 7.080000 -44.561073 167.124756 29916.373047
1.000000 3.000000 7.120000 -85.237976 54.698036 10257.387695
1.000000 3.000000 7.160000 -37.294804 -25.017902 2016.797852
1.000000 3.000000 7.200000 30.673470 -28.830564 1772.063232
1.000000 3.040000 6.800000 19.076241 -57.708286 3694.149414
1.000000 3.040000 6.840000 72.095535 -104.608261 16140.654297
1.000000 3.040000 6.880000 168.838562 -91.575012 36892.445312
1.000000 3.040000 6.920000 240.539429 5.775673 57892.574219
1.000000 3.040000 6.960000 221.032898 141.134933 68774.609375
1.000000 3.040000 7.000000 108.076912 228.357971 63827.984375
1.000000 3.040000 7.040000 -29.046524 212.378143 45948.175781
1.000000 3.040000 7.080000 -105.653320 115.016678 24391.460938
1.000000 3.040000 7.120000 -90.178116 13.217033 8306.783203
1.000000 3.040000 7.160000 -22.649796 -28.137646 1304.740356
1.000000 3.040000 7.200000 29.538155 -5.324999 900.858154
1.000000 3.080000 6.800000 53.031551 -26.886639 3535.236816
1.000000 3.080000 6.840000 103.138443 -27.638584 11401.429688
1.000000 3.080000 6.880000 151.760193 22.528671 23538.697266
1.000000 3.080000 6.920000 152.276459 109.434998 35164.136719
1.000000 3.080000 6.960000 86.133675 182.398376 40688.179688
1.000000 3.080000 7.000000 -16.181053 192.531250 37330.109375
1.000000 3.080000 7.040000 -95.889320 133.158203 26925.869141
1.000000 3.080000 7.080000 -111.702049 45.581459 14555.017578
1.000000 3.080000 7.120000 -70.170494 -15.130714 5152.836914
1.000000 3.080000 7.160000 -14.864790 -23.044973 752.032776
1.000000 3.080000 7.200000 12.976114 4.505142 188.675858
1.000000 3.120000 6.800000 53.554359 17.728092 3182.354492
1.000000 3.120000 6.840000 69.846916 40.706627 6535.621094
1.000000 3.120000 6.880000 66.675659 78.537247 10613.742188
1.000000 3.120000 6.920000 35.515686 112.328735 13879.109375
1.000000 3.120000 6.960000 -14.861206 121.539108 14992.610352
1.000000 3.120000 7.000000 -62.495369 97.994598 13508.612305
1.000000 3.120000 7.040000 -85.854797 51.984344 10073.417969
1.000000 3.120000 7.080000 -77.390640 5.847839 6023.508301
1.000000 3.120000 7.120000 -47.478783 -20.323391 2667.275146
1.000000 3.120000 7.160000 -16.368891 -20.680410 695.619995
1.000000 3.120000 7.200000 -0.379532 -5.196760 27.150362
1.000000 3.160000 6.800000 24.203638 46.025040 2704.120361
1.000000 3.160000 6.840000 6.710249 57.714493 3375.989990
1.000000 3.160000 6.880000 -13.644897 54.507362 3157.235840
1.000000 3.160000 6.920000 -24.769608 42.254822 2399.003418
1.000000 3.160000 6.960000 -26.906769 32.696609 1793.042480
1.000000 3.160000 7.000000 -29.782024 28.989479 1727.358887
1.000000 3.160000 7.040000 -38.543114 22.816498 2006.164307
1.000000 3.160000 7.080000 -45.716965 6.263180 2129.268311
1.000000 3.160000 7.120000 -39.305733 -15.818794 1795.174927
1.000000 3.160000 7.160000 -18.035658 -28.397228 1131.687500
1.000000 3.160000 7.200000 4.295364 -21.956795 500.550995
1.000000 3.200000 6.800000 -10.248572 44.140892 2053.451660
1.000000 3.200000 6.840000 -35.889778 27.011248 2017.683594
1.000000 3.200000 6.880000 -35.719273 -5.883802 1310.485596
1.000000 3.200000 6.920000 -7.660286 -23.162395 595.176575
1.000000 3.200000 6.960000 20.454409 -7.312042 471.848816
1.000000 3.200000 7.000000 18.899651 25.145149 989.475281
1.000000 3.200000 7.040000 -12.320705 39.356163 1700.707397
1.000000 3.200000 7.080000 -42.331509 18.002523 2116.047607
1.000000 3.200000 7.120000 -40.695335 -20.495167 2076.162109
1.000000 3.200000 7.160000 -8.326542 -40.865406 1739.312744
1.000000 3.200000 7.200000 24.389542 -26.814535 1313.869019
1.040000 2.800000 6.800000 15.468517 5.978502 275.017517
1.040000 2.800000 6.840000 4.362110 16.597061 294.490448
1.040000 2.800000 6.880000 -10.564865 13.626106 297.287140
1.040000 2.800000 6.920000 -15.600956 -0.270195 243.462830
1.040000 2.800000 6.960000 -5.597946 -11.387695 161.016617
1.040000 2.800000 7.000000 10.190399 -7.674725 162.745636
1.040000 2.800000 7.040000 16.230396 9.430725 352.364319
1.040000 2.800000 7.080000 5.233875 25.897533 698.075684
1.040000 2.800000 7.120000 -15.081594 28.015514 1012.323486
1.040000 2.800000 7.160000 -29.432568 14.681828 1081.832153
1.040000 2.800000 7.200000 -28.959192 -2.569550 845.237427
1.040000 2.840000 6.800000 -2.856600 19.036575 370.551361
1.040000 2.840000 6.840000 -34.470551 19.654118 1574.503174
1.040000 2.840000 6.880000 -58.674774 -11.192852 3568.009033
1.040000 2.840000 6.920000 -48.455959 -55.549995 5433.782227
1.040000 2.840000 6.960000 -4.025078 -78.047104 6107.551758
1.040000 2.840000 7.000000 43.490410 -57.867874 5240.106445
1.040000 2.840000 7.040000 58.346516 -9.193939 3488.844482
1.040000 2.840000 7.080000 31.899202 30.665245 1957.916260
1.040000 2.840000 7.120000 -10.867657 34.438942 1304.146729
1.040000 2.840000 7.160000 -35.664246 7.299449 1325.220337
1.040000 2.840000 7.200000 -29.456039 -21.959806 1349.891357
1.040000 2.880000 6.800000 -28.126205 10.484819 901.014893
1.040000 2.880000 6.840000 -69.158646 -18.190229 5113.802734
1.040000 2.880000 6.880000 -73.111603 -84.220306 12438.367188
1.040000 2.880000 6.920000 -16.203423 -140.157104 19906.564453
1.040000 2.880000 6.960000 72.622643 -135.179504 23547.546875
1.040000 2.880000 7.000000 131.319443 -63.777882 21312.414062
1.040000 2.880000 7.040000 118.438423 25.219070 14663.662109
1.040000 2.880000 7.080000 49.712440 70.235199 7404.310059
1.040000 2.880000 7.120000 -17.877625 49.748405 2794.513184
1.040000 2.880000 7.160000 -38.099228 -3.850029 1466.373901
1.040000 2.880000 7.200000 -12.656738 -39.871742 1749.948853
1.040000 2.920000 6.800000 -38.079395 -18.955355 1809.345947
1.040000 2.920000 6.840000 -61.326649 -80.740524 10279.990234
1.040000 2.920000 6.880000 -16.155807 -158.080017 25250.300781
1.040000 2.920000 6.920000 91.197502 -180.537231 40910.675781
1.040000 2.920000 6.960000 192.356995 -110.267349 49160.101562
1.040000 2.920000 7.000000 212.380951 16.264496 45370.203125
1.040000 2.920000 7.040000 136.860825 114.634979 31872.062500
1.040000 2.920000 7.080000 25.319199 124.485764 16137.766602
1.040000 2.920000 7.120000 -42.404839 58.806557 5256.381348
1.040000 2.920000 7.160000 -34.463593 -15.063678 1414.653687
1.040000 2.920000 7.200000 14.521032 -40.476540 1849.210571
1.040000 2.960000 6.800000 -19.225040 -48.874504 2758.319336
1.040000 2.960000 6.840000 -1.609406 -121.976410 14880.833984
1.040000 2.960000 6.880000 91.316528 -167.393951 36359.441406
1.040000 2.960000 6.920000 210.371597 -121.336174 58978.671875
1.040000 2.960000 6.960000 266.631531 11.095810 71215.492188
1.040000 2.960000 7.000000 209.594376 149.493271 66278.039062
1.040000 2.960000 7.040000 75.597321 203.455887 47109.250000
1.040000 2.960000 7.080000 -42.076126 149.462906 24109.560547
1.040000 2.960000 7.120000 -73.557465 46.512886 7574.149414
1.040000 2.960000 7.160000 -26.636864 -21.975676 1192.452881
1.040000 2.960000 7.200000 33.260696 -20.999384 1547.248047
1.040000 3.000000 6.800000 19.350452 -54.724678 3369.230225
1.040000 3.000000 6.840000 75.103470 -104.552605 16571.777344
1.040000 3.000000 6.880000 177.877487 -89.999161 39740.250000
1.040000 3.000000 6.920000 252.569717 14.892738 64013.253906
1.040000 3.000000 6.960000 228.292053 158.333191 77186.656250
1.040000 3.000000 7.000000 105.531372 246.849731 72071.656250
1.040000 3.000000 7.040000 -38.365639 224.047943 51669.402344
1.040000 3.000000 7.080000 -113.486221 118.141670 26836.576172
1.040000 3.000000 7.120000 -91.253746 13.638824 8513.263672
1.040000 3.000000 7.160000 -19.510195 -23.737680 944.125183
1.040000 3.000000 7.200000 30.299843 3.297033 928.950928
1.040000 3.040000 6.800000 51.544167 -28.724632 3481.905518
1.040000 3.040000 6.840000 115.568298 -34.985641 14580.026367
1.040000 3.040000 6.880000 181.060577 26.758705 33498.960938
1.040000 3.040000 6.920000 183.513794 138.834625 52952.367188
1.040000 3.040000 6.960000 97.447098 232.030029 63333.871094
1.040000 3.040000 7.000000 -34.205467 240.808350 59158.675781
1.040000 3.040000 7.040000 -131.655670 159.731171 42847.261719
1.040000 3.040000 7.080000 -143.322769 47.869301 22832.886719
1.040000 3.040000 7.120000 -84.558563 -22.562469 7659.215332
1.040000 3.040000 7.160000 -16.347172 -24.330990 859.227051
1.040000 3.040000 7.200000 11.592762 12.401083 288.179016
1.040000 3.080000 6.800000 55.154282 12.986835 3210.652832
1.040000 3.080000 6.840000 93.155884 39.452217 10234.496094
1.040000 3.080000 6.880000 102.726112 103.900482 21347.964844
1.040000 3.080000 6.920000 56.280884 170.525238 32246.394531
1.040000 3.080000 6.960000 -33.136307 191.530594 37781.984375
1.040000 3.080000 7.000000 -117.333290 146.553726 35245.093750
1.040000 3.080000 7.040000 -149.589691 60.779202 26071.187500
1.040000 3.080000 7.080000 -120.381744 -15.011986 14717.124023
1.040000 3.080000 7.120000 -61.121414 -44.247406 5693.660156
1.040000 3.080000 7.160000 -14.872684 -28.860237 1054.109985
1.040000 3.080000 7.200000 -2.488962 0.660799 6.631588
1.040000 3.120000 6.800000 29.427732 43.685211 2774.389160
1.040000 3.120000 6.840000 29.611452 70.546135 5853.595215
1.040000 3.120000 6.880000 6.166412 98.262558 9693.554688
1.040000 3.120000 6.920000 -36.600006 107.447632 12884.553711
1.040000 3.120000 6.960000 -80.789734 87.741760 14225.597656
1.040000 3.120000 7.000000 -106.246109 44.799095 13295.194336
1.040000 3.120000 7.040000 -102.697495 -3.520149 10559.166992
1.040000 3.120000 7.080000 -74.768021 -38.041035 7037.376953
1.040000 3.120000 7.120000 -37.821884 -48.542267 3786.846436
1.040000 3.120000 7.160000 -8.567738 -37.692722 1494.147461
1.040000 3.120000 7.200000 3.609604 -17.534735 320.496155
1.040000 3.160000 6.800000 -6.216485 47.539158 2298.616211
1.040000 3.160000 6.840000 -26.442516 48.252338 3027.494629
1.040000 3.160000 6.880000 -41.673759 35.076485 2967.062012
1.040000 3.160000 6.920000 -44.710808 19.152725 2365.883057
1.040000 3.160000 6.960000 -42.134289 10.095497 1877.217407
1.040000 3.160000 7.000000 -43.866005 4.727791 1946.578491
1.040000 3.160000 7.040000 -48.871555 -7.500626 2444.688232
1.040000 3.160000 7.080000 -44.840557 -28.807827 2840.566406
1.040000 3.160000 7.120000 -23.345245 -46.385780 2696.641113
1.040000 3.160000 7.160000 6.999121 -44.243534 2006.478027
1.040000 3.160000 7.200000 25.806509 -21.470991 1126.979370
1.040000 3.200000 6.800000 -29.867210 29.882395 1785.007812
1.040000 3.200000 6.840000 -42.275467 3.298253 1798.093506
1.040000 3.200000 6.880000 -25.918612 -22.985538 1200.109375
1.040000 3.200000 6.920000 4.439008 -22.536583 527.602356
1.040000 3.200000 6.960000 17.159988 3.607758 307.481140
1.040000 3.200000 7.000000 -2.026588 25.774040 668.408203
1.040000 3.200000 7.040000 -32.830559 16.528854 1351.048584
1.040000 3.200000 7.080000 -40.379784 -19.051483 1993.485962
1.040000 3.200000 7.120000 -12.066397 -47.080482 2362.169678
1.040000 3.200000 7.160000 28.282171 -39.610115 2368.842285
1.040000 3.200000 7.200000 44.563644 -3.702913 1999.630005
1.080000 2.800000 6.800000 0.087173 12.416216 154.170013
1.080000 2.800000 6.840000 -9.589169 13.427284 272.244110
1.080000 2.800000 6.880000 -17.241291 6.107861 334.568085
1.080000 2.800000 6.920000 -16.194832 -4.763502 284.963531
1.080000 2.800000 6.960000 -6.638359 -10.358279 151.361755
1.080000 2.800000 7.000000 3.690132 -5.486126 43.714653
1.080000 2.800000 7.040000 5.744112 6.460175 74.728683
1.080000 2.800000 7.080000 -3.105378 15.982292 265.077026
1.080000 2.800000 7.120000 -16.759304 15.297504 514.887939
1.080000 2.800000 7.160000 -25.494522 4.649526 671.588745
1.080000 2.800000 7.200000 -23.893023 -8.345112 640.517395
1.080000 2.840000 6.800000 -18.616739 4.489367 366.737396
1.080000 2.840000 6.840000 -35.399155 -8.944111 1333.097168
1.080000 2.840000 6.880000 -36.297951 -37.566078 2728.751465
1.080000 2.840000 6.920000 -11.396652 -61.484528 3910.230957
1.080000 2.840000 6.960000 27.060249 -59.061447 4220.511719
1.080000 2.840000 7.000000 52.334641 -27.656044 3503.771240
1.080000 2.840000 7.040000 45.892937 11.686493 2242.735840
1.080000 2.840000 7.080000 13.959911 31.367851 1178.821167
1.080000 2.840000 7.120000 -18.037775 20.571901 748.564453
1.080000 2.840000 7.160000 -27.843052 -6.956587 823.629639
1.080000 2.840000 7.200000 -14.314687 -27.193794 944.412720
1.080000 2.880000 6.800000 -24.644999 -19.384359 983.129395
1.080000 2.880000 6.840000 -33.923218 -53.516472 4014.797363
1.080000 2.880000 6.880000 -6.445259 -94.618164 8994.137695
1.080000 2.880000 6.920000 54.004128 -104.748795 13888.755859
1.080000 2.880000 6.960000 109.764450 -63.616539 16095.298828
1.080000 2.880000 7.000000 119.450638 8.191788 14335.560547
1.080000 2.880000 7.040000 75.221527 63.261871 9660.342773
1.080000 2.880000 7.080000 10.885403 67.356972 4655.453613
1.080000 2.880000 7.120000 -27.684803 27.740795 1536.000000
1.080000 2.880000 7.160000 -21.555470 -16.647728 741.785156
1.080000 2.880000 7.200000 9.522741 -32.053036 1118.079712
1.080000 2.920000 6.800000 -7.419531 -42.479507 1859.557983
1.080000 2.920000 6.840000 8.088131 -87.715744 7759.469727
1.080000 2.920000 6.880000 70.962021 -113.424896 17900.816406
1.080000 2.920000 6.920000 148.606888 -78.942154 28315.871094
1.080000 2.920000 6.960000 182.877716 11.100441 33567.476562
1.080000 2.920000 7.000000 141.599350 102.774429 30612.957031
1.080000 2.920000 7.040000 50.362747 136.348709 21127.376953
1.080000 2.920000 7.080000 -27.820684 97.423569 10265.341797
1.080000 2.920000 7.120000 -46.579479 26.931398 2894.948242
1.080000 2.920000 7.160000 -12.472075 -18.435429 495.417664
1.080000 2.920000 7.200000 29.074129 -15.672699 1090.938477
1.080000 2.960000 6.800000 24.893530 -44.858505 2631.973389
1.080000 2.960000 6.840000 69.042946 -78.542053 10935.782227
1.080000 2.960000 6.880000 146.817474 -62.763027 25494.568359
1.080000 2.960000 6.920000 200.642441 21.032511 40699.757812
1.080000 2.960000 6.960000 177.205338 131.592041 48718.195312
1.080000 2.960000 7.000000 79.193184 196.717270 44969.242188
1.080000 2.960000 7.040000 -31.788225 174.739456 31544.369141
1.080000 2.960000 7.080000 -86.515038 90.381149 15653.603516
1.080000 2.960000 7.120000 -65.499847 10.681496 4404.324219
1.080000 2.960000 7.160000 -8.776594 -14.684874 292.674103
1.080000 2.960000 7.200000 27.616564 8.929996 842.419434
1.080000 3.000000 6.800000 50.295372 -21.019947 2971.462646
1.080000 3.000000 6.840000 106.416443 -24.162281 11908.274414
1.080000 3.000000 6.880000 162.878708 33.230869 27633.763672
1.080000 3.000000 6.920000 161.404816 134.401123 44115.175781
1.080000 3.000000 6.960000 80.373749 215.713745 52992.359375
1.080000 3.000000 7.000000 -38.875843 218.659485 49323.300781
1.080000 3.000000 7.040000 -123.050201 141.508331 35165.960938
1.080000 3.000000 7.080000 -127.833878 40.967583 18019.843750
1.080000 3.000000 7.120000 -71.613113 -17.748791 5443.457520
1.080000 3.000000 7.160000 -12.133799 -14.158833 347.701599
1.080000 3.000000 7.200000 7.902666 19.796013 454.334290
1.080000 3.040000 6.800000 50.923672 14.571283 2805.542725
1.080000 3.040000 6.840000 92.572052 40.956032 10246.981445
1.080000 3.040000 6.880000 104.260056 110.635208 23110.308594
1.080000 3.040000 6.920000 53.314304 183.356262 36461.933594
1.080000 3.040000 6.960000 -45.168480 204.126999 43708.023438
1.080000 3.040000 7.000000 -134.992310 150.944122 41007.054688
1.080000 3.040000 7.040000 -163.786835 55.599548 29917.437500
1.080000 3.040000 7.080000 -125.099625 -22.675135 16164.078125
1.080000 3.040000 7.120000 -59.275417 -45.826614 5613.653809
1.080000 3.040000 7.160000 -14.881762 -22.831837 742.759644
1.080000 3.040000 7.200000 -9.135283 7.858540 145.210022
1.080000 3.080000 6.800000 27.439268 39.580006 2319.490234
1.080000 3.080000 6.840000 38.754356 74.203613 7008.076172
1.080000 3.080000 6.880000 14.140785 119.968872 14592.492188
1.080000 3.080000 6.920000 -47.282719 141.230545 22181.722656
1.080000 3.080000 6.960000 -115.367455 113.822876 26265.296875
1.080000 3.080000 7.000000 -150.820068 46.663513 24924.175781
1.080000 3.080000 7.040000 -135.662735 -24.180313 18989.064453
1.080000 3.080000 7.080000 -85.521996 -63.461121 11341.325195
1.080000 3.080000 7.120000 -34.286770 -61.683151 4980.393555
1.080000 3.080000 7.160000 -6.929541 -36.509499 1380.962036
1.080000 3.080000 7.200000 -4.655441 -13.112059 193.599213
1.080000 3.120000 6.800000 -3.320897 41.949493 1770.788330
1.080000 3.120000 6.840000 -15.802809 60.064133 3857.428711
1.080000 3.120000 6.880000 -44.629669 67.370888 6530.643555
1.080000 3.120000 6.920000 -77.374474 53.414230 8839.888672
1.080000 3.120000 6.960000 -97.974670 20.219513 10007.865234
1.080000 3.120000 7.000000 -96.763519 -19.932053 9760.465820
1.080000 3.120000 7.040000 -74.680450 -52.414558 8324.456055
1.080000 3.120000 7.080000 -40.940216 -67.315315 6207.453125
1.080000 3.120000 7.120000 -7.883453 -62.445477 3961.586426
1.080000 3.120000 7.160000 13.825090 -43.045559 2044.053223
1.080000 3.120000 7.200000 19.027534 -19.459263 740.709961
1.080000 3.160000 6.800000 -24.050018 27.170067 1316.615967
1.080000 3.160000 6.840000 -38.514141 19.391489 1859.368896
1.080000 3.160000 6.880000 -43.522076 3.765827 1908.352417
1.080000 3.160000 6.920000 -39.004265 -8.346313 1590.993652
1.080000 3.160000 6.960000 -34.393501 -13.527718 1365.912109
1.080000 3.160000 7.000000 -34.816944 -19.690956 1599.953369
1.080000 3.160000 7.040000 -32.787422 -34.125549 2239.568115
1.080000 3.160000 7.080000 -16.766685 -50.747280 2856.408203
1.080000 3.160000 7.120000 12.510838 -53.260895 2993.243896
1.080000 3.160000 7.160000 37.726147 -32.842022 2501.860352
1.080000 3.160000 7.200000 40.157288 -0.870083 1613.364868
1.080000 3.200000 6.800000 -30.204544 9.415527 1000.966614
1.080000 3.200000 6.840000 -28.144962 -13.945336 986.611328
1.080000 3.200000 6.880000 -6.212062 -24.660162 646.713318
1.080000 3.200000 6.920000 13.019812 -10.971695 289.893585
1.080000 3.200000 6.960000 8.175808 11.106667 190.201874
1.080000 3.200000 7.000000 -15.421883 13.965216 432.861694
1.080000 3.200000 7.040000 -29.132767 -10.348099 955.801208
1.080000 3.200000 7.080000 -11.616598 -38.727123 1634.735352
1.080000 3.200000 7.120000 26.237947 -39.871120 2278.136230
1.080000 3.200000 7.160000 50.403912 -7.968163 2604.045898
1.080000 3.200000 7.200000 38.562290 29.492123 2356.835449
1.120000 2.800000 6.800000 -13.724851 3.757345 202.489166
1.120000 2.800000 6.840000 -15.457283 1.103607 240.145538
1.120000 2.800000 6.880000 -16.743240 -3.014263 289.421875
1.120000 2.800000 6.920000 -15.471165 -8.649000 314.162140
1.120000 2.800000 6.960000 -9.969341 -13.124060 271.628693
1.120000 2.800000 7.000000 -1.929029 -12.510315 160.229141
1.120000 2.800000 7.040000 3.396878 -5.640594 43.355083
1.120000 2.800000 7.080000 1.218269 3.236483 11.959001
1.120000 2.800000 7.120000 -7.715533 6.862674 106.625748
1.120000 2.800000 7.160000 -16.402443 1.297745 270.724274
1.120000 2.800000 7.200000 -17.084057 -9.714163 386.229950
1.120000 2.840000 6.800000 -16.171162 -17.505917 567.963623
1.120000 2.840000 6.840000 -14.851723 -27.258427 963.595520
1.120000 2.840000 6.880000 -5.256374 -38.289055 1493.681274
1.120000 2.840000 6.920000 13.343884 -41.810417 1926.170166
1.120000 2.840000 6.960000 32.546947 -30.727299 2003.470703
1.120000 2.840000 7.000000 39.752384 -7.847054 1641.828369
1.120000 2.840000 7.040000 28.783997 13.830679 1019.806091
1.120000 2.840000 7.080000 6.493509 20.554787 464.664917
1.120000 2.840000 7.120000 -11.639122 9.239345 220.834656
1.120000 2.840000 7.160000 -13.874935 -9.733583 287.256470
1.120000 2.840000 7.200000 -1.557938 -21.289661 455.676880
1.120000 2.880000 6.800000 1.846807 -35.702377 1278.070435
1.120000 2.880000 6.840000 13.316854 -49.603371 2637.833008
1.120000 2.880000 6.880000 40.174442 -55.391327 4682.184570
1.120000 2.880000 6.920000 71.522820 -38.515457 6598.954102
1.120000 2.880000 6.960000 85.710777 0.265297 7346.407715
1.120000 2.880000 7.000000 68.891754 40.771111 6408.357422
1.120000 2.880000 7.040000 29.338758 58.007442 4225.625977
1.120000 2.880000 7.080000 -7.324379 43.138145 1914.546021
1.120000 2.880000 7.120000 -18.894905 11.142224 481.166595
1.120000 2.880000 7.160000 -4.383715 -12.504197 175.571899
1.120000 2.880000 7.200000 17.512562 -13.581726 491.153107
1.120000 2.920000 6.800000 31.016813 -33.429585 2079.579834
1.120000 2.920000 6.840000 55.258083 -41.987991 4816.447266
1.120000 2.920000 6.880000 91.842377 -27.391472 9185.315430
1.120000 2.920000 6.920000 114.697899 18.120411 13483.958008
1.120000 2.920000 6.960000 99.174225 74.737465 15421.215820
1.120000 2.920000 7.000000 46.875847 107.481102 13749.532227
1.120000 2.920000 7.040000 -11.634026 95.555130 9266.133789
1.120000 2.920000 7.080000 -41.031105 50.989159 4283.445801
1.120000 2.920000 7.120000 -30.328573 8.184470 986.807861
1.120000 2.920000 7.160000 0.378024 -5.935637 35.374683
1.120000 2.920000 7.200000 20.950912 7.214959 490.996368
1.120000 2.960000 6.800000 50.210659 -8.115105 2586.965332
1.120000 2.960000 6.840000 80.460037 -1.809056 6477.089844
1.120000 2.960000 6.880000 107.579391 36.888802 12934.109375
1.120000 2.960000 6.920000 99.904373 97.327423 19453.511719
1.120000 2.960000 6.960000 46.872162 142.867264 22608.054688
1.120000 2.960000 7.000000 -26.039192 140.658203 20462.769531
1.120000 2.960000 7.040000 -75.570435 91.453873 14074.701172
1.120000 2.960000 7.080000 -76.509216 30.123245 6761.070312
1.120000 2.960000 7.120000 -41.353146 -4.332411 1728.852417
1.120000 2.960000 7.160000 -5.755976 -0.678844 33.592087
1.120000 2.960000 7.200000 4.765121 20.410809 439.307465
1.120000 3.000000 6.800000 44.538460 23.946411 2557.104980
1.120000 3.000000 6.840000 67.801559 46.121220 6724.218262
1.120000 3.000000 6.880000 69.289566 94.975327 13821.356445
1.120000 3.000000 6.920000 28.236778 142.506195 21105.332031
1.120000 3.000000 6.960000 -42.964146 151.587463 24824.677734
1.120000 3.000000 7.000000 -104.293716 109.295334 22822.648438
1.120000 3.000000 7.040000 -120.425621 40.417770 16135.925781
1.120000 3.000000 7.080000 -89.843384 -12.793686 8235.511719
1.120000 3.000000 7.120000 -43.418472 -25.628181 2541.967285
1.120000 3.000000 7.160000 -15.131123 -7.761603 289.193359
1.120000 3.000000 7.200000 -14.099398 11.969017 342.050385
1.120000 3.040000 6.800000 18.632078 41.334141 2055.665527
1.120000 3.040000 6.840000 25.188690 69.527031 5468.478027
1.120000 3.040000 6.880000 1.899160 106.388947 11322.214844
1.120000 3.040000 6.920000 -51.840126 121.173027 17370.300781
1.120000 3.040000 6.960000 -108.940155 93.575531 20624.335938
1.120000 3.040000 7.000000 -135.053070 33.461628 19359.011719
1.120000 3.040000 7.040000 -116.776718 -25.726398 14298.649414
1.120000 3.040000 7.080000 -71.470337 -54.050709 8029.488281
1.120000 3.040000 7.120000 -30.456303 -47.337463 3168.421875
1.120000 3.040000 7.160000 -12.828686 -25.199474 799.588684
1.120000 3.040000 7.200000 -14.247037 -9.639352 295.895172
1.120000 3.080000 6.800000 -8.323339 36.060669 1369.649780
1.120000 3.080000 6.840000 -17.288002 56.275070 3465.758545
1.120000 3.080000 6.880000 -47.670094 68.102226 6910.350586
1.120000 3.080000 6.920000 -86.407181 54.295536 10414.206055
1.120000 3.080000 6.960000 -110.478119 14.629921 12419.449219
1.120000 3.080000 7.000000 -104.806076 -32.825584 12061.832031
1.120000 3.080000 7.040000 -73.258041 -65.445175 9649.811523
1.120000 3.080000 7.080000 -33.969650 -72.084282 6350.080566
1.120000 3.080000 7.120000 -4.832158 -58.076912 3396.277588
1.120000 3.080000 7.160000 7.527652 -37.279488 1446.425781
1.120000 3.080000 7.200000 7.492199 -20.535824 477.853119
1.120000 3.120000 6.800000 -20.796045 18.626240 779.412292
1.120000 3.120000 6.840000 -34.234425 22.798477 1691.766357
1.120000 3.120000 6.880000 -51.603996 15.071001 2890.107422
1.120000 3.120000 6.920000 -62.888420 -4.346596 3973.846191
1.120000 3.120000 6.960000 -61.983067 -28.718193 4666.635254
1.120000 3.120000 7.000000 -48.687454 -50.220947 4892.611816
1.120000 3.120000 7.040000 -26.411934 -63.178177 4689.072266
1.120000 3.120000 7.080000 -0.232838 -64.017174 4098.252930
1.120000 3.120000 7.120000 22.887449 -51.438560 3169.760742
1.120000 3.120000 7.160000 34.905266 -28.810835 2048.441895
1.120000 3.120000 7.200000 31.140923 -5.470305 999.681335
1.120000 3.160000 6.800000 -19.793068 5.115685 417.935760
1.120000 3.160000 6.840000 -25.218052 -4.028631 652.179993
1.120000 3.160000 6.880000 -22.276884 -13.874535 688.762268
1.120000 3.160000 6.920000 -16.260523 -17.829906 582.310181
1.120000 3.160000 6.960000 -14.319977 -19.203354 573.830566
1.120000 3.160000 7.000000 -14.345329 -26.132502 888.696106
1.120000 3.160000 7.040000 -5.960434 -38.648651 1529.244995
1.120000 3.160000 7.080000 15.924505 -44.424698 2227.143799
1.120000 3.160000 7.120000 40.713943 -30.747784 2603.051514
1.120000 3.160000 7.160000 49.147701 -0.659234 2415.931152
1.120000 3.160000 7.200000 32.615486 25.782995 1728.532715
1.120000 3.200000 6.800000 -17.792103 0.540959 316.851562
1.120000 3.200000 6.840000 -9.470707 -12.058977 235.113220
1.120000 3.200000 6.880000 5.627922 -9.851614 128.727798
1.120000 3.200000 6.920000 9.059532 4.641120 103.615120
1.120000 3.200000 6.960000 -4.353111 12.326527 170.892822
1.120000 3.200000 7.000000 -17.918745 -0.253660 321.145752
1.120000 3.200000 7.040000 -10.518062 -22.750105 628.196899
1.120000 3.200000 7.080000 18.062668 -29.313637 1185.549316
1.120000 3.200000 7.120000 43.092766 -6.524705 1899.558228
1.120000 3.200000 7.160000 39.145226 29.461021 2400.300293
1.120000 3.200000 7.200000 7.749070 47.091507 2277.658203
1.160000 2.800000 6.800000 -14.787810 -12.043467 363.724426
1.160000 2.800000 6.840000 -10.153152 -10.125107 205.604294
1.160000 2.800000 6.880000 -11.605723 -8.450268 206.099838
1.160000 2.800000 6.920000 -14.172224 -13.040058 370.895050
1.160000 2.800000 6.960000 -9.771915 -21.417671 554.206970
1.160000 2.800000 7.000000 2.859917 -24.127895 590.334473
1.160000 2.800000 7.040000 14.870525 -14.961807 444.988220
1.160000 2.800000 7.080000 15.420033 0.914091 238.612961
1.160000 2.800000 7.120000 3.338182 10.574367 122.960693
1.160000 2.800000 7.160000 -10.351341 5.971278 142.806427
1.160000 2.800000 7.200000 -12.749962 -7.409044 217.455460
1.160000 2.840000 6.800000 2.723982 -28.947950 845.403931
1.160000 2.840000 6.840000 9.634779 -23.387287 639.794189
1.160000 2.840000 6.880000 11.369020 -19.295208 501.559692
1.160000 2.840000 6.920000 13.707220 -18.638657 535.287354
1.160000 2.840000 6.960000 19.988789 -16.517698 672.385986
1.160000 2.840000 7.000000 25.997864 -7.733464 735.695374
1.160000 2.840000 7.040000 24.035944 5.449534 607.424072
1.160000 2.840000 7.080000 12.233574 13.760040 338.999023
1.160000 2.840000 7.120000 -1.419778 10.077946 103.580757
1.160000 2.840000 7.160000 -5.828950 -2.236164 38.977089
1.160000 2.840000 7.200000 2.087497 -11.447232 135.396759
1.160000 2.880000 6.800000 30.871569 -25.305281 1593.411011
1.160000 2.880000 6.840000 37.133575 -14.513263 1589.537231
1.160000 2.880000 6.880000 39.085258 -4.490717 1547.823975
1.160000 2.880000 6.920000 39.226089 5.184958 1565.569824
1.160000 2.880000 6.960000 36.425697 16.175125 1588.466064
1.160000 2.880000 7.000000 27.513914 26.492052 1458.844238
1.160000 2.880000 7.040000 12.864185 30.325241 1085.107544
1.160000 2.880000 7.080000 -0.934054 23.790916 566.880127
1.160000 2.880000 7.120000 -5.654000 10.544586 143.156021
1.160000 2.880000 7.160000 0.656060 0.222149 0.479765
1.160000 2.880000 7.200000 10.930861 0.141980 119.503868
1.160000 2.920000 6.800000 47.870121 1.421302 2293.568604
1.160000 2.920000 6.840000 49.573769 16.356684 2725.099609
1.160000 2.920000 6.880000 45.904793 31.666557 3110.020996
1.160000 2.920000 6.920000 35.746059 45.741806 3370.093506
1.160000 2.920000 6.960000 18.716883 54.506454 3321.275391
1.160000 2.920000 7.000000 -1.426025 53.069267 2818.380615
1.160000 2.920000 7.040000 -16.857965 40.546154 1928.181641
1.160000 2.920000 7.080000 -20.795691 22.964342 959.821777
1.160000 2.920000 7.120000 -13.449280 9.993399 280.751160
1.160000 2.920000 7.160000 -2.532915 7.512346 62.851002
1.160000 2.920000 7.200000 3.087319 12.927744 176.658096
1.160000 2.960000 6.800000 38.139465 33.512535 2577.708740
1.160000 2.960000 6.840000 33.069096 48.539093 3449.608398
1.160000 2.960000 6.880000 20.340097 63.106396 4396.136719
1.160000 2.960000 6.920000 -0.917749 71.273514 5080.755859
1.160000 2.960000 6.960000 -25.549902 66.671417 5097.875000
1.160000 2.960000 7.000000 -43.651695 48.730545 4280.136719
1.160000 2.960000 7.040000 -47.426483 25.230312 2885.839844
1.160000 2.960000 7.080000 -37.684185 7.525611 1476.732544
1.160000 2.960000 7.120000 -23.428295 2.027051 552.993958
1.160000 2.960000 7.160000 -14.324954 5.774685 238.551300
1.160000 2.960000 7.200000 -13.003100 10.378582 276.795593
1.160000 3.000000 6.800000 7.687871 47.215137 2288.372559
1.160000 3.000000 6.840000 -2.670084 57.656170 3331.363281
1.160000 3.000000 6.880000 -21.467672 64.408470 4609.312012
1.160000 3.000000 6.920000 -45.374725 59.685280 5621.198242
1.160000 3.000000 6.960000 -64.450012 40.768715 5815.892578
1.160000 3.000000 7.000000 -69.236679 14.267834 4997.289062
1.160000 3.000000 7.040000 -58.655357 -7.870925 3502.402344
1.160000 3.000000 7.080000 -40.951088 -17.431000 1980.831299
1.160000 3.000000 7.120000 -26.601839 -15.621797 951.698364
1.160000 3.000000 7.160000 -20.002642 -10.178936 503.716431
1.160000 3.000000 7.200000 -17.767504 -7.238718 368.083252
1.160000 3.040000 6.800000 -20.342505 34.263824 1587.827148
1.160000 3.040000 6.840000 -31.665419 37.982643 2445.379883
1.160000 3.040000 6.880000 -48.813908 34.790119 3593.149902
1.160000 3.040000 6.920000 -64.612663 19.997744 4574.706055
1.160000 3.040000 6.960000 -70.027542 -3.178677 4913.960449
1.160000 3.040000 7.000000 -61.681152 -25.321861 4445.761230
1.160000 3.040000 7.040000 -44.412479 -38.014900 3417.601074
1.160000 3.040000 7.080000 -26.758305 -39.632988 2286.780518
1.160000 3.040000 7.120000 -14.208659 -34.606796 1399.516357
1.160000 3.040000 7.160000 -6.738146 -27.938229 825.947205
1.160000 3.040000 7.200000 -1.963281 -21.094318 448.824738
1.160000 3.080000 6.800000 -27.081205 9.234914 818.675293
1.160000 3.080000 6.840000 -35.295319 7.613768 1303.729004
1.160000 3.080000 6.880000 -44.383762 -0.970757 1970.860718
1.160000 3.080000 6.920000 -48.169487 -15.750803 2568.387451
1.160000 3.080000 6.960000 -43.497025 -31.548975 2887.328857
1.160000 3.080000 7.000000 -31.903261 -43.186096 2882.856934
1.160000 3.080000 7.040000 -17.064037 -48.475014 2641.008301
1.160000 3.080000 7.080000 -1.888622 -47.475349 2257.475586
1.160000 3.080000 7.120000 11.514880 -40.434601 1767.549316
1.160000 3.080000 7.160000 20.290592 -27.918140 1191.130615
1.160000 3.080000 7.200000 21.169598 -12.840175 613.021973
1.160000 3.120000 6.800000 -15.253869 -5.499350 262.923370
1.160000 3.120000 6.840000 -18.735744 -9.522205 441.700500
1.160000 3.120000 6.880000 -19.197140 -16.292278 633.968506
1.160000 3.120000 6.920000 -16.454266 -22.641100 783.362244
1.160000 3.120000 6.960000 -12.402679 -28.027191 939.349915
1.160000 3.120000 7.000000 -6.600517 -33.995995 1199.294434
1.160000 3.120000 7.040000 4.148470 -39.385075 1568.393921
1.160000 3.120000 7.080000 20.451777 -38.328186 1887.324951
1.160000 3.120000 7.120000 35.718155 -25.496780 1925.872437
1.160000 3.120000 7.160000 39.523792 -3.827619 1576.780762
1.160000 3.120000 7.200000 27.479631 14.747595 972.621704
1.160000 3.160000 6.800000 -4.525862 -2.320534 25.868305
1.160000 3.160000 6.840000 -3.438622 -6.670244 56.316269
1.160000 3.160000 6.880000 0.415735 -7.274645 53.093300
1.160000 3.160000 6.920000 0.775677 -4.868642 24.305349
1.160000 3.160000 6.960000 -3.070829 -6.615995 53.201389
1.160000 3.160000 7.000000 -2.841160 -15.992276 263.825073
1.160000 3.160000 7.040000 9.614798 -25.025864 718.738159
1.160000 3.160000 7.080000 30.136770 -20.232622 1317.583984
1.160000 3.160000 7.120000 42.355431 2.115851 1798.459351
1.160000 3.160000 7.160000 32.885574 28.339884 1884.610107
1.160000 3.160000 7.200000 6.605134 38.056828 1491.949951
1.160000 3.200000 6.800000 -9.483634 4.955827 114.499535
1.160000 3.200000 6.840000 -3.708379 1.431059 15.800004
1.160000 3.200000 6.880000 -0.159291 6.768231 45.834332
1.160000 3.200000 6.920000 -6.612384 11.872241 184.673721
1.160000 3.200000 6.960000 -16.314804 5.217213 293.392120
1.160000 3.200000 7.000000 -13.943566 -10.890034 313.015869
1.160000 3.200000 7.040000 5.566700 -19.098557 395.742981
1.160000 3.200000 7.080000 27.155869 -5.068577 763.131714
1.160000 3.200000 7.120000 28.544645 24.198698 1400.373779
1.160000 3.200000 7.160000 4.209896 43.785011 1934.850464
1.160000 3.200000 7.200000 -25.912649 35.187229 1909.606445
1.200000 2.800000 6.800000 -3.606677 -22.004471 497.204865
1.200000 2.800000 6.840000 -0.079070 -12.909899 166.671738
1.200000 2.800000 6.880000 -6.546462 -9.916822 141.199539
1.200000 2.800000 6.920000 -10.464673 -18.774401 461.987488
1.200000 2.800000 6.960000 -0.698921 -30.053795 903.719055
1.200000 2.800000 7.000000 18.995316 -28.417074 1168.352051
1.200000 2.800000 7.040000 32.034767 -9.525034 1116.952637
1.200000 2.800000 7.080000 25.577585 13.574636 838.483643
1.200000 2.800000 7.120000 4.448400 22.440418 523.360596
1.200000 2.800000 7.160000 -12.785032 11.618356 298.443237
1.200000 2.800000 7.200000 -12.081429 -5.806068 179.671356
1.200000 2.840000 6.800000 22.320316 -21.696100 968.917297
1.200000 2.840000 6.840000 19.532343 -5.265706 409.240082
1.200000 2.840000 6.880000 7.029408 -1.675534 52.219986
1.200000 2.840000 6.920000 1.567676 -11.632088 137.763077
1.200000 2.840000 6.960000 11.335587 -20.650637 554.944336
1.200000 2.840000 7.000000 27.044930 -14.779560 949.863647
1.200000 2.840000 7.040000 31.735092 4.079782 1023.760742
1.200000 2.840000 7.080000 19.008480 19.805536 753.581604
1.200000 2.840000 7.120000 0.024521 18.966228 359.718445
1.200000 2.840000 7.160000 -8.229499 4.851012 91.256973
1.200000 2.840000 7.200000 -0.663033 -6.416919 41.616459
1.200000 2.880000 6.800000 40.198582 2.106130 1620.361816
1.200000 2.880000 6.840000 25.291805 19.233292 1009.594910
1.200000 2.880000 6.880000 6.065423 17.165947 331.459106
1.200000 2.880000 6.920000 0.068431 2.427469 5.897290
1.200000 2.880000 6.960000 10.331462 -7.242615 159.194580
1.200000 2.880000 7.000000 23.450550 -1.060319 551.052551
1.200000 2.880000 7.040000 24.280714 14.616411 803.192566
1.200000 2.880000 7.080000 11.391028 24.178219 714.341797
1.200000 2.880000 7.120000 -2.705028 19.505899 387.797272
1.200000 2.880000 7.160000 -5.763335 7.576657 90.621765
1.200000 2.880000 7.200000 1.552996 1.602225 4.978923
1.200000 2.920000 6.800000 32.064495 34.051880 2187.662354
1.200000 2.920000 6.840000 6.538391 41.644424 1777.008667
1.200000 2.920000 6.880000 -13.689715 28.172951 981.123474
1.200000 2.920000 6.920000 -14.698800 7.289999 269.198792
1.200000 2.920000 6.960000 -0.180997 -2.638121 6.992441
1.200000 2.920000 7.000000 13.398565 4.687984 201.498749
1.200000 2.920000 7.040000 13.117661 19.289553 544.159851
1.200000 2.920000 7.080000 0.829988 26.348684 694.942078
1.200000 2.920000 7.120000 -10.987709 20.670551 548.001465
1.200000 2.920000 7.160000 -12.861796 9.766319 260.806793
1.200000 2.920000 7.200000 -6.679982 4.140718 61.767704
1.200000 2.960000 6.800000 0.579435 48.874336 2389.036377
1.200000 2.960000 6.840000 -25.772329 40.797089 2328.615479
1.200000 2.960000 6.880000 -37.288925 16.864851 1674.887207
1.200000 2.960000 6.920000 -27.627478 -5.106110 789.349854
1.200000 2.960000 6.960000 -7.471994 -9.930827 154.452026
1.200000 2.960000 7.000000 5.395956 2.251485 34.185528
1.200000 2.960000 7.040000 1.781765 17.566605 311.760284
1.200000 2.960000 7.080000 -12.267413 21.912796 630.660034
1.200000 2.960000 7.120000 -22.986935 13.025640 698.066467
1.200000 2.960000 7.160000 -22.056219 0.303016 486.568634
1.200000 2.960000 7.200000 -12.651350 -5.551691 190.877930
1.200000 3.000000 6.800000 -30.814163 34.051537 2109.019775
1.200000 3.000000 6.840000 -46.323753 14.053322 2343.385986
1.200000 3.000000 6.880000 -42.983238 -11.215706 1973.350830
1.200000 3.000000 6.920000 -23.404697 -25.010246 1173.292236
1.200000 3.000000 6.960000 -2.873710 -19.447552 386.465485
1.200000 3.000000 7.000000 3.500992 -2.254434 17.339417
1.200000 3.000000 7.040000 -6.498239 10.340395 149.150879
1.200000 3.000000 7.080000 -21.282238 7.946164 516.075195
1.200000 3.000000 7.120000 -26.680691 -5.709554 744.458252
1.200000 3.000000 7.160000 -18.397898 -17.603249 648.356995
1.200000 3.000000 7.200000 -4.423691 -17.763454 335.109344
1.200000 3.040000 6.800000 -38.298088 2.488994 1472.938599
1.200000 3.040000 6.840000 -38.449493 -18.005383 1802.557373
1.200000 3.040000 6.880000 -23.597855 -33.464325 1676.719849
1.200000 3.040000 6.920000 -2.883790 -33.318188 1118.417969
1.200000 3.040000 6.960000 9.055237 -18.910191 439.592621
1.200000 3.040000 7.000000 4.795664 -3.264507 33.655399
1.200000 3.040000 7.040000 -9.068613 0.217842 82.287201
1.200000 3.040000 7.080000 -17.959244 -10.257750 427.755859
1.200000 3.040000 7.120000 -12.750991 -23.631985 721.058472
1.200000 3.040000 7.160000 2.185256 -26.634544 714.174255
1.200000 3.040000 7.200000 13.700117 -15.959585 442.401550
1.200000 3.080000 6.800000 -20.033993 -18.877144 757.707397
1.200000 3.080000 6.840000 -10.707140 -29.867548 1006.713257
1.200000 3.080000 6.880000 4.916590 -31.209539 998.208191
1.200000 3.080000 6.920000 16.275002 -20.646963 691.172729
1.200000 3.080000 6.960000 14.977558 -6.505402 266.647522
1.200000 3.080000 7.000000 3.655227 -1.029254 14.420049
1.200000 3.080000 7.040000 -5.444812 -8.619363 103.939392
1.200000 3.080000 7.080000 -1.936629 -20.864775 439.089355
1.200000 3.080000 7.120000 12.273296 -24.232311 737.838684
1.200000 3.080000 7.160000 24.388002 -13.271523 770.907959
1.200000 3.080000 7.200000 22.965664 3.898581 542.620605
1.200000 3.120000 6.800000 2.218119 -14.906853 227.134308
1.200000 3.120000 6.840000 10.753000 -15.516395 356.385498
1.200000 3.120000 6.880000 17.898033 -8.329391 389.718353
1.200000 3.120000 6.920000 16.344433 2.301160 272.435822
1.200000 3.120000 6.960000 6.436400 6.531968 84.093857
1.200000 3.120000 7.000000 -1.943507 -0.739674 4.324336
1.200000 3.120000 7.040000 1.530221 -12.770191 165.419373
1.200000 3.120000 7.080000 16.107979 -16.095987 518.547791
1.200000 3.120000 7.120000 28.840189 -4.044624 848.115540
1.200000 3.120000 7.160000 26.570326 15.238532 938.195068
1.200000 3.120000 7.200000 9.398883 25.638664 745.680115
1.200000 3.160000 6.800000 5.079484 3.065480 35.198326
1.200000 3.160000 6.840000 7.766665 5.766732 93.576279
1.200000 3.160000 6.880000 5.912039 11.978893 178.446075
1.200000 3.160000 6.920000 -2.738017 14.309793 212.266922
1.200000 3.160000 6.960000 -10.932364 6.528511 162.138046
1.200000 3.160000 7.000000 -7.969443 -6.925054 111.468399
1.200000 3.160000 7.040000 7.618757 -12.465398 213.431610
1.200000 3.160000 7.080000 23.205082 -0.850338 539.198914
1.200000 3.160000 7.120000 22.719273 21.130100 962.646484
1.200000 3.160000 7.160000 3.403318 34.735607 1218.144897
1.200000 3.160000 7.200000 -19.349081 27.133610 1110.619751
1.200000 3.200000 6.800000 -12.408663 9.261559 239.751373
1.200000 3.200000 6.840000 -11.792866 9.004925 220.160355
1.200000 3.200000 6.880000 -15.907533 9.890090 350.863464
1.200000 3.200000 6.920000 -22.644182 4.051020 529.169739
1.200000 3.200000 6.960000 -21.851515 -9.151159 561.232422
1.200000 3.200000 7.000000 -7.614674 -18.432217 397.729858
1.200000 3.200000 7.040000 11.251019 -11.084075 249.442139
1.200000 3.200000 7.080000 16.749819 11.270269 407.575409
1.200000 3.200000 7.120000 0.121731 30.219776 913.249695
1.200000 3.200000 7.160000 -26.286438 27.184399 1429.968262
1.200000 3.200000 7.200000 -38.697952 3.243075 1508.049072
