#kx 	ky 	kz 	real 	imag 	intensity
3.800000 1.800000 1.983333 -38.971775 -30.733154 2463.325928
3.800000 1.800000 1.991667 -15.037394 7.922359 288.886963
3.800000 1.800000 2.000000 -19.855173 -48.076092 2705.538574
3.800000 1.800000 2.008333 12.329822 2.023327 156.118362
3.800000 1.800000 2.016667 -19.842003 -23.581223 949.779114
3.800000 1.900000 1.983333 -5.817474 -25.325314 675.214539
3.800000 1.900000 1.991667 10.504059 27.409824 861.633728
3.800000 1.900000 2.000000 -34.212074 18.626572 1517.415283
3.800000 1.900000 2.008333 -39.360477 -13.894806 1742.312866
3.800000 1.900000 2.016667 -7.877645 -55.179375 3106.820801
3.800000 2.000000 1.983333 10.461023 -31.694986 1114.005127
3.800000 2.000000 1.991667 3.050419 -3.746490 23.341240
3.800000 2.000000 2.000000 -3.059464 -0.156680 9.384869
3.800000 2.000000 2.008333 -9.026237 -44.843998 2092.457031
3.800000 2.000000 2.016667 95.331886 7.855768 9149.881836
3.800000 2.100000 1.983333 30.784626 -1.986427 951.639099
3.800000 2.100000 1.991667 87.252052 64.479668 11770.547852
3.800000 2.100000 2.000000 -108.956993 107.977898 23530.851562
3.800000 2.100000 2.008333 -14.416927 -64.755920 4401.176758
3.800000 2.100000 2.016667 -62.046757 99.963943 13842.589844
3.800000 2.200000 1.983333 15.562752 15.646797 487.021515
3.800000 2.200000 1.991667 -44.427147 144.448212 22839.056641
3.800000 2.200000 2.000000 -171.930054 -122.210854 44495.437500
3.800000 2.200000 2.008333 91.194450 -65.583794 12617.662109
3.800000 2.200000 2.016667 -44.573341 -71.068962 7037.580078
3.900000 1.800000 1.983333 -63.587479 30.957233 5001.717773
3.900000 1.800000 1.991667 -78.273041 -115.613510 19493.152344
3.900000 1.800000 2.000000 68.071365 15.354828 4869.481445
3.900000 1.800000 2.008333 -118.600616 -42.939510 15909.908203
3.900000 1.800000 2.016667 90.352943 -80.007767 14564.896484
3.900000 1.900000 1.983333 185.778214 -801.031799 676165.500000
3.900000 1.900000 1.991667 -116.488861 931.638611 881520.125000
3.900000 1.900000 2.000000 -1426.996094 -656.634277 2467486.500000
3.900000 1.900000 2.008333 133.736786 -1146.758057 1332939.500000
3.900000 1.900000 2.016667 421.747589 -664.514221 619450.187500
3.900000 2.000000 1.983333 1261.240479 113.533234 1603617.250000
3.900000 2.000000 1.991667 -1511.043335 42.652283 2285071.250000
3.900000 2.000000 2.000000 645.441650 -2278.715820 5609141.000000
3.900000 2.000000 2.008333 1625.448364 -131.291687 2659320.000000
3.900000 2.000000 2.016667 1204.991333 414.164886 1623536.625000
3.900000 2.100000 1.983333 119.892998 819.647644 686196.562500
3.900000 2.100000 1.991667 -252.440430 -826.588745 746975.125000
3.900000 2.100000 2.000000 1359.762939 80.394569 1855418.500000
3.900000 2.100000 2.008333 316.699127 929.698853 964638.250000
3.900000 2.100000 2.016667 -163.052658 827.478638 711307.062500
3.900000 2.200000 1.983333 6.599449 146.530243 21514.664062
3.900000 2.200000 1.991667 -238.645508 -57.896080 60303.636719
3.900000 2.200000 2.000000 122.860329 -187.861816 50386.722656
3.900000 2.200000 2.008333 40.242081 113.240173 14442.761719
3.900000 2.200000 2.016667 -34.707355 -70.027794 6108.492676
4.000000 1.800000 1.983333 -125.245209 -127.854248 32033.070312
4.000000 1.800000 1.991667 152.445648 -127.811722 39575.511719
4.000000 1.800000 2.000000 -25.147026 61.771286 4448.064941
4.000000 1.800000 2.008333 31.266312 -185.411377 35354.960938
4.000000 1.800000 2.016667 169.316620 42.866798 30505.679688
4.000000 1.900000 1.983333 1275.174683 28.393860 1626876.750000
4.000000 1.900000 1.991667 -1418.448608 73.137390 2017345.625000
4.000000 1.900000 2.000000 631.979919 -2315.313477 5760075.000000
4.000000 1.900000 2.008333 1767.232056 -96.360657 3132394.750000
4.000000 1.900000 2.016667 1137.117554 477.492889 1521035.875000
4.000000 2.000000 1.983333 137.302429 1925.383057 3725952.000000
4.000000 2.000000 1.991667 -421.119507 -2274.327637 5349907.500000
4.000000 2.000000 2.000000 3621.317383 430.881104 13299599.000000
4.000000 2.000000 2.008333 580.716309 2432.977051 6256609.000000
4.000000 2.000000 2.016667 -281.861267 1911.212646 3732179.500000
4.000000 2.100000 1.983333 -1208.967529 339.046021 1576554.750000
4.000000 2.100000 1.991667 1286.376465 -548.922974 1956080.750000
4.000000 2.100000 2.000000 124.420563 2189.994385 4811556.000000
4.000000 2.100000 2.008333 -1365.407593 627.936768 2258642.500000
4.000000 2.100000 2.016667 -1301.125854 32.341030 1693974.500000
4.000000 2.200000 1.983333 -186.530365 31.879105 35809.855469
4.000000 2.200000 1.991667 45.580555 -230.409363 55166.058594
4.000000 2.200000 2.000000 157.259216 48.824886 27114.330078
4.000000 2.200000 2.008333 -50.040230 30.958744 3462.468506
4.000000 2.200000 2.016667 59.365524 -113.845070 16484.964844
4.100000 1.800000 1.983333 111.873093 -116.208588 26020.023438
4.100000 1.800000 1.991667 59.418262 110.554802 15752.894531
4.100000 1.800000 2.000000 -52.819427 -4.451210 2809.705078
4.100000 1.800000 2.008333 90.450638 -53.132683 11004.400391
4.100000 1.800000 2.016667 102.413544 147.465637 32234.648438
4.100000 1.900000 1.983333 128.667511 817.835449 685410.125000
4.100000 1.900000 1.991667 -192.999481 -902.802124 852300.500000
4.100000 1.900000 2.000000 1519.912598 151.489990 2333083.500000
4.100000 1.900000 2.008333 278.608337 1090.027832 1265783.250000
4.100000 1.900000 2.016667 -212.070007 812.034424 704373.562500
4.100000 2.000000 1.983333 -1199.383545 237.365784 1494863.375000
4.100000 2.000000 1.991667 1384.089233 -481.290161 2147343.250000
4.100000 2.000000 2.000000 85.707428 2299.105225 5293231.000000
4.100000 2.000000 2.008333 -1472.652832 593.327881 2520744.250000
4.100000 2.000000 2.016667 -1187.887695 -7.523631 1411133.750000
4.100000 2.100000 1.983333 -279.108032 -771.869385 673683.687500
4.100000 2.100000 1.991667 474.056824 743.155884 777010.562500
4.100000 2.100000 2.000000 -1334.265869 245.931259 1840747.500000
4.100000 2.100000 2.008333 -461.474731 -799.881348 852769.125000
4.100000 2.100000 2.016667 -128.773895 -770.820068 610746.250000
4.100000 2.200000 1.983333 30.295610 -113.417862 13781.435547
4.100000 2.200000 1.991667 149.503586 28.310925 23152.830078
4.100000 2.200000 2.000000 59.281349 111.469162 15939.652344
4.100000 2.200000 2.008333 -26.929787 53.893349 3629.706299
4.100000 2.200000 2.016667 91.880630 36.826988 9798.277344
4.200000 1.800000 1.983333 32.808266 67.464401 5627.827637
4.200000 1.800000 1.991667 -56.840820 -62.778465 7172.014648
4.200000 1.800000 2.000000 8.947561 -50.061047 2586.167236
4.200000 1.800000 2.008333 98.872971 -42.848488 11611.857422
4.200000 1.800000 2.016667 -19.968407 153.119995 23844.468750
4.200000 1.900000 1.983333 -32.467560 -16.375704 1322.306152
4.200000 1.900000 1.991667 99.770554 -10.012032 10054.404297
4.200000 1.900000 2.000000 27.837433 58.893539 4243.371582
4.200000 1.900000 2.008333 4.253808 66.695343 4466.363281
4.200000 1.900000 2.016667 -62.315773 -23.786036 4449.031250
4.200000 2.000000 1.983333 90.942329 -51.577805 10930.777344
4.200000 2.000000 1.991667 15.883242 56.099209 3399.398682
4.200000 2.000000 2.000000 -23.793442 -5.024096 591.369385
4.200000 2.000000 2.008333 24.896559 -30.309345 1538.495117
4.200000 2.000000 2.016667 54.828632 56.321445 6178.284180
4.200000 2.100000 1.983333 115.808525 54.121605 16340.762695
4.200000 2.100000 1.991667 46.603775 34.640053 3371.845215
4.200000 2.100000 2.000000 69.696121 52.852230 7650.907227
4.200000 2.100000 2.008333 28.817438 101.360367 11104.368164
4.200000 2.100000 2.016667 -58.143246 70.460373 8345.300781
4.200000 2.200000 1.983333 49.404358 123.051025 17582.345703
4.200000 2.200000 1.991667 -26.377480 77.420914 6689.769531
4.200000 2.200000 2.000000 -57.125427 113.745476 16201.347656
4.200000 2.200000 2.008333 -111.979660 0.639572 12539.853516
4.200000 2.200000 2.016667 -39.237755 13.260201 1715.434326
