#kx 	ky 	kz 	real 	imag 	intensity
6.800000 4.800000 2.800000 -17.903999 -11.032218 442.263031
6.800000 4.800000 2.840000 -13.884792 -12.071670 338.512665
6.800000 4.800000 2.880000 -13.205009 -13.091846 345.768707
6.800000 4.800000 2.920000 -12.127144 -17.962610 469.722961
6.800000 4.800000 2.960000 -5.085217 -24.054369 604.472107
6.800000 4.800000 3.000000 7.839667 -24.023407 638.584473
6.800000 4.800000 3.040000 19.226917 -13.724023 558.023132
6.800000 4.800000 3.080000 20.879204 2.484567 442.114227
6.800000 4.800000 3.120000 11.774513 15.232244 370.660431
6.800000 4.800000 3.160000 -1.387785 18.764971 354.050049
6.800000 4.800000 3.200000 -11.402362 15.191996 360.810608
6.800000 4.840000 2.800000 -8.526425 -26.138115 755.901001
6.800000 4.840000 2.840000 -3.651747 -24.124561 595.329712
6.800000 4.840000 2.880000 -1.073939 -24.479404 600.394592
6.800000 4.840000 2.920000 4.604197 -26.221462 708.763672
6.800000 4.840000 2.960000 13.697571 -23.519094 740.771240
6.800000 4.840000 3.000000 19.989668 -13.762586 588.995605
6.800000 4.840000 3.040000 17.842819 -2.033391 322.500885
6.800000 4.840000 3.080000 9.293763 3.865537 101.316406
6.800000 4.840000 3.120000 2.245693 2.255110 10.128658
6.800000 4.840000 3.160000 1.275114 -0.509747 1.885757
6.800000 4.840000 3.200000 1.969648 1.973442 7.773987
6.800000 4.880000 2.800000 9.721369 -31.797684 1105.597778
6.800000 4.880000 2.840000 14.139498 -26.837597 920.182007
6.800000 4.880000 2.880000 18.195995 -24.182125 915.869385
6.800000 4.880000 2.920000 24.030354 -19.328106 951.033569
6.800000 4.880000 2.960000 26.740150 -9.632746 807.825439
6.800000 4.880000 3.000000 21.502800 -0.271430 462.444092
6.800000 4.880000 3.040000 11.977220 0.882713 144.232971
6.800000 4.880000 3.080000 8.291416 -6.117992 106.177414
6.800000 4.880000 3.120000 15.326395 -10.835678 352.310303
6.800000 4.880000 3.160000 24.844152 -3.149033 627.148315
6.800000 4.880000 3.200000 22.357803 13.782780 689.836365
6.800000 4.920000 2.800000 28.318024 -23.523575 1355.269043
6.800000 4.920000 2.840000 30.387180 -15.633839 1167.797607
6.800000 4.920000 2.880000 32.331459 -9.078648 1127.745117
6.800000 4.920000 2.920000 32.357533 -0.282785 1047.089844
6.800000 4.920000 2.960000 25.993244 7.701610 734.963501
6.800000 4.920000 3.000000 15.859133 7.343468 305.438599
6.800000 4.920000 3.040000 12.594582 -2.197991 163.454651
6.800000 4.920000 3.080000 23.121424 -9.498491 624.821533
6.800000 4.920000 3.120000 39.304043 -0.692020 1545.286621
6.800000 4.920000 3.160000 42.275112 24.029922 2364.622314
6.800000 4.920000 3.200000 21.071238 46.085274 2567.849609
6.800000 4.960000 2.800000 37.209743 -3.934483 1400.045166
6.800000 4.960000 2.840000 34.140213 5.011940 1190.673706
6.800000 4.960000 2.880000 30.489498 11.801432 1068.883301
6.800000 4.960000 2.920000 24.062252 17.196930 874.726318
6.800000 4.960000 2.960000 15.240863 16.588024 507.446442
6.800000 4.960000 3.000000 11.827839 8.011995 204.089844
6.800000 4.960000 3.040000 21.403641 0.218270 458.163483
6.800000 4.960000 3.080000 38.875648 7.503988 1567.625854
6.800000 4.960000 3.120000 45.795124 33.640968 3228.908203
6.800000 4.960000 3.160000 26.592396 62.577919 4623.151367
6.800000 4.960000 3.200000 -13.373049 69.353264 4988.713379
6.800000 5.000000 2.800000 30.443735 17.564583 1235.335571
6.800000 5.000000 2.840000 21.283440 22.656221 966.289185
6.800000 5.000000 2.880000 13.623347 23.453232 735.649658
6.800000 5.000000 2.920000 7.484663 20.735632 485.986603
6.800000 5.000000 2.960000 5.922278 14.116823 234.358078
6.800000 5.000000 3.000000 13.566102 8.704881 259.814087
6.800000 5.000000 3.040000 27.724566 14.974075 992.874512
6.800000 5.000000 3.080000 34.375626 37.844086 2613.858398
6.800000 5.000000 3.120000 18.249266 66.174622 4712.116211
6.800000 5.000000 3.160000 -20.393185 77.295097 6390.414062
6.800000 5.000000 3.200000 -60.495712 56.179592 6815.877930
6.800000 5.040000 2.800000 10.387815 29.457058 975.625000
6.800000 5.040000 2.840000 -0.893332 25.416689 646.806091
6.800000 5.040000 2.880000 -5.284537 17.576654 336.865112
6.800000 5.040000 2.920000 -2.804790 10.395601 115.935379
6.800000 5.040000 2.960000 5.670026 8.066830 97.222931
6.800000 5.040000 3.000000 16.191090 15.700775 508.665741
6.800000 5.040000 3.040000 19.212231 35.011002 1594.880127
6.800000 5.040000 3.080000 4.226698 57.804394 3359.212891
6.800000 5.040000 3.120000 -29.384083 67.125900 5369.311035
6.800000 5.040000 3.160000 -66.408676 49.510498 6861.401367
6.800000 5.040000 3.200000 -84.158875 8.645312 7157.457520
6.800000 5.080000 2.800000 -12.861747 25.000317 790.440308
6.800000 5.080000 2.840000 -18.287849 11.214683 460.214539
6.800000 5.080000 2.880000 -12.053906 -0.307616 145.391296
6.800000 5.080000 2.920000 0.690546 -2.215202 5.383973
6.800000 5.080000 2.960000 11.512259 7.947716 195.698303
6.800000 5.080000 3.000000 11.590260 26.723997 848.506104
6.800000 5.080000 3.040000 -4.408438 44.556866 2004.748657
6.800000 5.080000 3.080000 -33.605774 48.824875 3513.216309
6.800000 5.080000 3.120000 -63.310658 31.334869 4990.113281
6.800000 5.080000 3.160000 -76.887619 -4.082588 5928.373535
6.800000 5.080000 3.200000 -65.012268 -41.395550 5940.186523
6.800000 5.120000 2.800000 -27.350433 6.669531 792.528870
6.800000 5.120000 2.840000 -20.500130 -10.609180 532.809998
6.800000 5.120000 2.880000 -3.024151 -16.208801 271.870728
6.800000 5.120000 2.920000 12.643042 -5.551334 190.663818
6.800000 5.120000 2.960000 14.388703 15.227632 438.915558
6.800000 5.120000 3.000000 -1.868957 32.705647 1073.152344
6.800000 5.120000 3.040000 -29.130516 34.126732 2013.220703
6.800000 5.120000 3.080000 -52.957657 15.338134 3039.771729
6.800000 5.120000 3.120000 -59.902313 -16.213581 3851.167236
6.800000 5.120000 3.160000 -45.727562 -45.672718 4177.006836
6.800000 5.120000 3.200000 -17.860443 -59.841583 3900.010498
6.800000 5.160000 2.800000 -26.786770 -15.486665 957.367859
6.800000 5.160000 2.840000 -8.104039 -26.946487 791.788635
6.800000 5.160000 2.880000 13.385106 -19.984079 578.524536
6.800000 5.160000 2.920000 21.748121 1.737106 475.998322
6.800000 5.160000 2.960000 9.384895 22.874023 611.297241
6.800000 5.160000 3.000000 -16.513786 27.291943 1017.555298
6.800000 5.160000 3.040000 -38.740479 10.058340 1601.994873
6.800000 5.160000 3.080000 -42.514351 -18.982925 2167.821533
6.800000 5.160000 3.120000 -25.744831 -42.788044 2493.613037
6.800000 5.160000 3.160000 0.727293 -49.391975 2440.096191
6.800000 5.160000 3.200000 22.239784 -39.144073 2026.866577
6.800000 5.200000 2.800000 -14.055616 -30.815752 1147.170898
6.800000 5.200000 2.840000 9.489756 -30.845493 1041.499878
6.800000 5.200000 2.880000 25.761005 -12.591496 822.175171
6.800000 5.200000 2.920000 22.046394 11.770868 624.596863
6.800000 5.200000 2.960000 0.462502 23.817287 567.477112
6.800000 5.200000 3.000000 -22.551300 13.790994 698.752625
6.800000 5.200000 3.040000 -29.137617 -11.056629 971.249756
6.800000 5.200000 3.080000 -14.336617 -32.383511 1254.230347
6.800000 5.200000 3.120000 10.656179 -35.722248 1389.633179
6.800000 5.200000 3.160000 28.679024 -21.287148 1275.629028
6.800000 5.200000 3.200000 30.514088 -1.760689 934.209595
6.840000 4.800000 2.800000 -12.292046 -1.510774 153.376831
6.840000 4.800000 2.840000 -15.567801 -6.498742 284.590088
6.840000 4.800000 2.880000 -14.693090 -15.927744 469.579926
6.840000 4.800000 2.920000 -5.631510 -24.691853 641.401489
6.840000 4.800000 2.960000 9.318735 -25.370829 730.517761
6.840000 4.800000 3.000000 21.916410 -15.120484 708.958069
6.840000 4.800000 3.040000 24.553396 0.934830 603.743164
6.840000 4.800000 3.080000 16.715160 13.807587 470.046021
6.840000 4.800000 3.120000 4.659353 18.255596 354.976349
6.840000 4.800000 3.160000 -5.168568 16.020342 283.365448
6.840000 4.800000 3.200000 -11.602213 11.642803 270.166199
6.840000 4.840000 2.800000 -4.592040 -13.615288 206.462906
6.840000 4.840000 2.840000 -0.143266 -17.214710 296.366791
6.840000 4.840000 2.880000 8.451986 -18.123484 399.896729
6.840000 4.840000 2.920000 17.491405 -12.011462 450.224487
6.840000 4.840000 2.960000 20.076029 -0.206149 403.089447
6.840000 4.840000 3.000000 13.388203 9.721382 273.749237
6.840000 4.840000 3.040000 2.841618 10.902056 126.929611
6.840000 4.840000 3.080000 -2.578676 4.630899 28.094799
6.840000 4.840000 3.120000 0.210306 -0.402287 0.206063
6.840000 4.840000 3.160000 4.510350 2.455418 26.372330
6.840000 4.840000 3.200000 0.936859 9.562456 92.318275
6.840000 4.880000 2.800000 10.888720 -16.156757 379.605011
6.840000 4.880000 2.840000 19.942329 -11.089187 520.666565
6.840000 4.880000 2.880000 25.640003 1.472857 659.579102
6.840000 4.880000 2.920000 20.290497 17.222147 708.306641
6.840000 4.880000 2.960000 3.291216 24.670448 619.463135
6.840000 4.880000 3.000000 -14.093542 15.594429 441.814148
6.840000 4.880000 3.040000 -16.870096 -4.337279 303.412140
6.840000 4.880000 3.080000 -1.302340 -17.745497 316.598724
6.840000 4.880000 3.120000 18.893040 -11.144047 481.136749
6.840000 4.880000 3.160000 23.797010 10.674889 680.250977
6.840000 4.880000 3.200000 6.656414 27.201956 784.254272
6.840000 4.920000 2.800000 23.991795 -5.218296 602.836792
6.840000 4.920000 2.840000 28.047726 10.400093 894.836853
6.840000 4.920000 2.880000 19.240135 29.196051 1222.592163
6.840000 4.920000 2.920000 -4.193357 37.699783 1438.857910
6.840000 4.920000 2.960000 -29.114124 24.151342 1430.919678
6.840000 4.920000 3.000000 -34.750031 -6.472893 1249.462891
6.840000 4.920000 3.040000 -12.185771 -31.210260 1122.573364
6.840000 4.920000 3.080000 23.171852 -27.415937 1288.568359
6.840000 4.920000 3.120000 41.747078 4.973837 1767.557495
6.840000 4.920000 3.160000 25.983732 40.199524 2291.156006
6.840000 4.920000 3.200000 -12.199417 48.392990 2490.707275
6.840000 4.960000 2.800000 24.220551 13.344299 764.705383
6.840000 4.960000 2.840000 15.033090 31.526434 1219.909790
6.840000 4.960000 2.880000 -8.819112 41.198235 1775.071289
6.840000 4.960000 2.920000 -37.107399 28.885832 2211.350342
6.840000 4.960000 2.960000 -47.968643 -4.840105 2324.417236
6.840000 4.960000 3.000000 -26.547977 -38.051567 2152.716797
6.840000 4.960000 3.040000 16.522577 -42.085854 2044.214722
6.840000 4.960000 3.080000 48.407127 -8.090905 2408.712646
6.840000 4.960000 3.120000 40.850018 40.596687 3316.814941
6.840000 4.960000 3.160000 -3.273455 65.680099 4324.590820
6.840000 4.960000 3.200000 -50.306259 47.080299 4747.274414
6.840000 5.000000 2.800000 9.217991 26.797821 803.094604
6.840000 5.000000 2.840000 -11.240721 34.747253 1333.725342
6.840000 5.000000 2.880000 -36.753178 25.342621 1993.044434
6.840000 5.000000 2.920000 -50.060040 -4.260421 2524.158691
6.840000 5.000000 2.960000 -34.683754 -38.441605 2680.719727
6.840000 5.000000 3.000000 6.074260 -49.772575 2514.206055
6.840000 5.000000 3.040000 44.308746 -22.462385 2467.823730
6.840000 5.000000 3.080000 47.356064 28.781708 3070.983398
6.840000 5.000000 3.120000 7.200541 66.097168 4420.683105
6.840000 5.000000 3.160000 -49.082592 59.302769 5925.918945
6.840000 5.000000 3.200000 -80.516266 12.611158 6641.910645
6.840000 5.040000 2.800000 -12.291424 24.683395 760.349121
6.840000 5.040000 2.840000 -31.509478 16.000139 1248.851562
6.840000 5.040000 2.880000 -42.044613 -7.035240 1817.244141
6.840000 5.040000 2.920000 -31.688601 -35.083282 2235.004150
6.840000 5.040000 2.960000 0.379745 -48.070007 2310.869873
6.840000 5.040000 3.000000 35.419960 -29.902874 2148.755371
6.840000 5.040000 3.040000 45.070534 13.552720 2215.029297
6.840000 5.040000 3.080000 15.179519 52.885571 3027.301270
6.840000 5.040000 3.120000 -38.119526 56.471504 4642.128906
6.840000 5.040000 3.160000 -78.088623 17.723497 6411.955566
6.840000 5.040000 3.200000 -76.875488 -37.612801 7324.563477
6.840000 5.080000 2.800000 -26.377563 7.033232 745.242249
6.840000 5.080000 2.840000 -31.229084 -11.716312 1112.527588
6.840000 5.080000 2.880000 -21.443455 -31.488871 1451.370728
6.840000 5.080000 2.920000 2.262761 -40.145187 1616.756226
6.840000 5.080000 2.960000 28.158146 -27.417608 1544.606445
6.840000 5.080000 3.000000 37.209923 4.320277 1403.243164
6.840000 5.080000 3.040000 17.021162 36.072788 1590.966064
6.840000 5.080000 3.080000 -24.676460 43.222504 2477.112549
6.840000 5.080000 3.120000 -61.585022 15.340242 4028.037842
6.840000 5.080000 3.160000 -67.682167 -32.822868 5658.216797
6.840000 5.080000 3.200000 -38.172054 -71.170120 6522.291992
6.840000 5.120000 2.800000 -24.244034 -15.507337 828.250671
6.840000 5.120000 2.840000 -12.170232 -29.864712 1040.015503
6.840000 5.120000 2.880000 7.685602 -32.553818 1118.819580
6.840000 5.120000 2.920000 25.174429 -19.997379 1033.647095
6.840000 5.120000 2.960000 28.995880 3.190700 850.941589
6.840000 5.120000 3.000000 13.403673 24.174339 764.057129
6.840000 5.120000 3.040000 -15.766654 27.983051 1031.638550
6.840000 5.120000 3.080000 -41.821583 7.885303 1811.222778
6.840000 5.120000 3.120000 -47.105865 -27.612387 2981.406494
6.840000 5.120000 3.160000 -25.945957 -58.658970 4114.067383
6.840000 5.120000 3.200000 10.266748 -67.640976 4680.708008
6.840000 5.160000 2.800000 -8.399560 -29.967083 968.578674
6.840000 5.160000 2.840000 10.982067 -29.782595 1007.608704
6.840000 5.160000 2.880000 24.973658 -15.634086 868.108215
6.840000 5.160000 2.920000 24.684921 4.505143 629.641663
6.840000 5.160000 2.960000 9.633102 18.509714 435.406189
6.840000 5.160000 3.000000 -11.808397 17.295397 438.568970
6.840000 5.160000 3.040000 -27.065052 0.245867 732.577454
6.840000 5.160000 3.080000 -26.565742 -24.175529 1290.194824
6.840000 5.160000 3.120000 -9.376879 -43.150330 1949.876831
6.840000 5.160000 3.160000 16.236034 -46.975842 2470.338623
6.840000 5.160000 3.200000 37.957954 -34.678505 2643.405029
6.840000 5.200000 2.800000 10.445344 -30.657318 1048.976318
6.840000 5.200000 2.840000 24.683676 -17.634441 920.257385
6.840000 5.200000 2.880000 25.043945 1.772840 630.342163
6.840000 5.200000 2.920000 11.176731 14.689313 340.695221
6.840000 5.200000 2.960000 -7.173957 12.554981 209.093201
6.840000 5.200000 3.000000 -17.360495 -2.743126 308.911530
6.840000 5.200000 3.040000 -12.782200 -20.784245 595.369446
6.840000 5.200000 3.080000 3.305075 -30.410606 935.728516
6.840000 5.200000 3.120000 21.293858 -26.997110 1182.272339
6.840000 5.200000 3.160000 32.366440 -14.060177 1245.275024
6.840000 5.200000 3.200000 33.541126 0.782106 1125.618896
6.880000 4.800000 2.800000 -18.341181 9.097898 419.170654
6.880000 4.800000 2.840000 -22.801779 -5.389313 548.965820
6.880000 4.800000 2.880000 -14.134474 -20.761156 630.808960
6.880000 4.800000 2.920000 4.364353 -25.695370 679.299622
6.880000 4.800000 2.960000 21.124432 -15.941073 700.359436
6.880000 4.800000 3.000000 25.874374 1.724430 672.456909
6.880000 4.800000 3.040000 18.120518 15.626814 572.550476
6.880000 4.800000 3.080000 6.212132 19.480749 418.090149
6.880000 4.800000 3.120000 -1.715652 16.440374 273.229370
6.880000 4.800000 3.160000 -5.095832 13.239986 201.264740
6.880000 4.800000 3.200000 -8.827927 11.535233 210.993896
6.880000 4.840000 2.800000 -12.389546 -3.923974 168.898422
6.880000 4.840000 2.840000 -3.056028 -10.029764 109.935478
6.880000 4.840000 2.880000 8.782249 -5.155487 103.706955
6.880000 4.840000 2.920000 11.850830 8.451578 211.871338
6.880000 4.840000 2.960000 2.022238 19.151484 370.868774
6.880000 4.840000 3.000000 -12.382258 16.897785 438.855469
6.880000 4.840000 3.040000 -17.972212 3.848152 337.808685
6.880000 4.840000 3.080000 -9.818012 -6.961165 144.851196
6.880000 4.840000 3.120000 2.868132 -4.634281 29.702742
6.880000 4.840000 3.160000 5.719641 7.805372 93.638130
6.880000 4.840000 3.200000 -5.511141 15.656125 275.486938
6.880000 4.880000 2.800000 0.794581 -6.171611 38.720139
6.880000 4.880000 2.840000 11.173920 6.034243 161.268570
6.880000 4.880000 2.880000 5.618221 26.835094 751.686707
6.880000 4.880000 2.920000 -19.251444 37.030869 1741.903320
6.880000 4.880000 2.960000 -46.750259 21.676960 2655.477295
6.880000 4.880000 3.000000 -52.741505 -12.683048 2942.525879
6.880000 4.880000 3.040000 -28.639559 -40.285641 2443.157227
6.880000 4.880000 3.080000 7.964096 -38.454742 1542.194092
6.880000 4.880000 3.120000 27.549244 -9.339235 846.182129
6.880000 4.880000 3.160000 15.570220 20.908165 679.583130
6.880000 4.880000 3.200000 -13.872129 26.041121 870.575928
6.880000 4.920000 2.800000 8.768086 3.790666 91.248489
6.880000 4.920000 2.840000 3.115280 28.580235 826.534790
6.880000 4.920000 2.880000 -28.358122 43.525219 2698.627930
6.880000 4.920000 2.920000 -68.225540 25.283440 5293.976562
6.880000 4.920000 2.960000 -82.626617 -24.105947 7408.254395
6.880000 4.920000 3.000000 -51.976627 -71.933655 7876.020508
6.880000 4.920000 3.040000 6.767471 -80.402794 6510.408203
6.880000 4.920000 3.080000 50.802284 -41.227081 4280.544434
6.880000 4.920000 3.120000 48.103619 14.607479 2527.336426
6.880000 4.920000 3.160000 5.946600 43.346649 1914.294067
6.880000 4.920000 3.200000 -36.434399 27.049677 2059.150391
6.880000 4.960000 2.800000 3.135468 15.874780 261.839783
6.880000 4.960000 2.840000 -23.755398 34.479050 1753.123779
6.880000 4.960000 2.880000 -66.807335 22.740414 4980.346680
6.880000 4.960000 2.920000 -91.394211 -27.553005 9112.069336
6.880000 4.960000 2.960000 -66.747322 -88.235352 12240.681641
6.880000 4.960000 3.000000 1.113127 -112.659729 12693.454102
6.880000 4.960000 3.040000 67.118706 -76.616501 10375.009766
6.880000 4.960000 3.080000 82.922424 -3.676521 6889.645020
6.880000 4.960000 3.120000 39.315311 52.144787 4264.772461
6.880000 4.960000 3.160000 -25.362455 52.518158 3401.411133
6.880000 4.960000 3.200000 -59.752060 6.743580 3615.784424
6.880000 5.000000 2.800000 -12.093014 17.035109 436.435913
6.880000 5.000000 2.840000 -47.050880 13.776551 2403.578857
6.880000 5.000000 2.880000 -75.205795 -24.750919 6268.519531
6.880000 5.000000 2.920000 -63.229572 -83.317986 10939.865234
6.880000 5.000000 2.960000 -3.286531 -119.328682 14250.135742
6.880000 5.000000 3.000000 70.586937 -97.342026 14457.985352
6.880000 5.000000 3.040000 105.187119 -24.548941 11666.980469
6.880000 5.000000 3.080000 73.409477 49.310513 7820.477539
6.880000 5.000000 3.120000 -0.115349 71.929893 5173.922852
6.880000 5.000000 3.160000 -59.180641 32.695263 4571.328613
6.880000 5.000000 3.200000 -64.236656 -30.309383 5045.006836
6.880000 5.040000 2.800000 -23.418156 3.271764 559.114502
6.880000 5.040000 2.840000 -45.652626 -19.928577 2481.310547
6.880000 5.040000 2.880000 -43.377304 -63.426979 5904.572266
6.880000 5.040000 2.920000 -1.842968 -98.892319 9783.086914
6.880000 5.040000 2.960000 61.851967 -92.058578 12300.448242
6.880000 5.040000 3.000000 104.432625 -35.312248 12153.127930
6.880000 5.040000 3.040000 90.567810 38.145817 9657.631836
6.880000 5.040000 3.080000 25.936100 77.042168 6608.176758
6.880000 5.040000 3.120000 -43.761955 54.445351 4879.404785
6.880000 5.040000 3.160000 -69.923599 -9.108849 4972.280762
6.880000 5.040000 3.200000 -40.899082 -64.186508 5792.642578
6.880000 5.080000 2.800000 -19.754459 -16.355694 657.747437
6.880000 5.080000 2.840000 -19.101986 -41.579880 2093.772217
6.880000 5.080000 2.880000 5.022038 -65.427368 4305.961426
6.880000 5.080000 2.920000 47.540585 -65.586494 6561.695312
6.880000 5.080000 2.960000 82.954384 -30.172764 7791.825195
6.880000 5.080000 3.000000 81.923119 25.759434 7374.945801
6.880000 5.080000 3.040000 37.552429 65.794807 5739.141602
6.880000 5.080000 3.080000 -23.646341 59.844986 4140.571777
6.880000 5.080000 3.120000 -59.909973 10.539522 3700.286377
6.880000 5.080000 3.160000 -47.675110 -47.164696 4497.424805
6.880000 5.080000 3.200000 -0.131259 -74.450485 5542.891602
6.880000 5.120000 2.800000 -2.193269 -27.654745 769.595337
6.880000 5.120000 2.840000 12.800432 -37.274368 1553.229614
6.880000 5.120000 2.880000 35.337418 -34.843609 2462.810059
6.880000 5.120000 2.920000 54.382732 -14.719427 3174.143311
6.880000 5.120000 2.960000 55.014648 17.732536 3341.054443
6.880000 5.120000 3.000000 30.112217 44.530701 2889.729004
6.880000 5.120000 3.040000 -9.800402 45.733139 2187.567871
6.880000 5.120000 3.080000 -40.073154 16.008244 1862.121582
6.880000 5.120000 3.120000 -39.366951 -27.908466 2328.639404
6.880000 5.120000 3.160000 -7.069686 -57.957840 3409.091797
6.880000 5.120000 3.200000 35.517178 -56.086132 4407.124023
6.880000 5.160000 2.800000 17.470446 -23.617428 862.999390
6.880000 5.160000 2.840000 29.067612 -15.147186 1074.363281
6.880000 5.160000 2.880000 33.395966 -0.477983 1115.519043
6.880000 5.160000 2.920000 27.799618 14.700687 988.928955
6.880000 5.160000 2.960000 13.151266 23.927025 745.458313
6.880000 5.160000 3.000000 -5.580009 21.588154 497.184906
6.880000 5.160000 3.040000 -19.524632 6.007196 417.297668
6.880000 5.160000 3.080000 -19.438828 -17.273241 676.232910
6.880000 5.160000 3.120000 -2.136593 -36.213242 1315.963989
6.880000 5.160000 3.160000 25.218721 -39.018585 2158.433838
6.880000 5.160000 3.200000 48.332932 -22.756718 2853.940430
6.880000 5.200000 2.800000 27.635670 -9.512059 854.209473
6.880000 5.200000 2.840000 25.701027 5.049768 686.042969
6.880000 5.200000 2.880000 14.427113 13.601583 393.144653
6.880000 5.200000 2.920000 1.573317 11.781692 141.283585
6.880000 5.200000 2.960000 -5.529819 2.498260 36.820206
6.880000 5.200000 3.000000 -4.694717 -8.107062 87.764832
6.880000 5.200000 3.040000 1.943249 -15.650997 248.729919
6.880000 5.200000 3.080000 11.610778 -18.708803 484.829468
6.880000 5.200000 3.120000 22.514477 -16.729218 786.768433
6.880000 5.200000 3.160000 32.452023 -8.785198 1130.313477
6.880000 5.200000 3.200000 37.594650 4.775085 1436.159180
6.920000 4.800000 2.800000 -32.421337 11.084974 1174.019775
6.920000 4.800000 2.840000 -30.142891 -11.199097 1034.013672
6.920000 4.800000 2.880000 -11.345345 -25.175013 762.498108
6.920000 4.800000 2.920000 11.391548 -20.881565 565.807129
6.920000 4.800000 2.960000 22.739403 -2.683670 524.282532
6.920000 4.800000 3.000000 17.744343 15.040771 541.086487
6.920000 4.800000 3.040000 4.874119 21.261951 475.827637
6.920000 4.800000 3.080000 -3.759983 17.333891 314.601257
6.920000 4.800000 3.120000 -4.472225 12.891720 186.197235
6.920000 4.800000 3.160000 -3.711685 13.823587 204.868179
6.920000 4.800000 3.200000 -8.233330 15.858868 319.291382
6.920000 4.840000 2.800000 -25.662062 -4.203154 676.207886
6.920000 4.840000 2.840000 -12.169586 -7.446854 203.554459
6.920000 4.840000 2.880000 -4.158962 2.832609 25.320641
6.920000 4.840000 2.920000 -10.951233 14.529148 331.025635
6.920000 4.840000 2.960000 -26.250122 13.141891 861.778198
6.920000 4.840000 3.000000 -33.654255 -2.935368 1141.225220
6.920000 4.840000 3.040000 -23.269928 -19.604935 925.843018
6.920000 4.840000 3.080000 -2.665947 -20.614668 432.071808
6.920000 4.840000 3.120000 9.698158 -4.258526 112.189316
6.920000 4.840000 3.160000 2.780411 14.003530 203.829529
6.920000 4.840000 3.200000 -15.431345 16.531013 511.400818
6.920000 4.880000 2.800000 -13.558317 -7.531660 240.553879
6.920000 4.880000 2.840000 -10.852577 10.836788 235.214417
6.920000 4.880000 2.880000 -32.727417 25.294189 1710.879883
6.920000 4.880000 2.920000 -65.178108 12.021294 4392.697266
6.920000 4.880000 2.960000 -77.379173 -29.238094 6842.402832
6.920000 4.880000 3.000000 -50.959106 -70.134476 7515.675293
6.920000 4.880000 3.040000 -0.318840 -77.580696 6018.866211
6.920000 4.880000 3.080000 37.694206 -44.727230 3421.378418
6.920000 4.880000 3.120000 36.516327 1.506798 1335.712524
6.920000 4.880000 3.160000 3.659113 24.682556 622.617676
6.920000 4.880000 3.200000 -27.475323 11.780656 893.677246
6.920000 4.920000 2.800000 -8.297108 -1.803066 72.093040
6.920000 4.920000 2.840000 -31.611717 19.894295 1395.083618
6.920000 4.920000 2.880000 -76.244812 9.043941 5895.064453
6.920000 4.920000 2.920000 -101.849014 -45.147644 12411.531250
6.920000 4.920000 2.960000 -73.603119 -110.804688 17695.097656
6.920000 4.920000 3.000000 0.826256 -136.673721 18680.390625
6.920000 4.920000 3.040000 72.076645 -98.356972 14869.136719
6.920000 4.920000 3.080000 90.434662 -22.877987 8701.830078
6.920000 4.920000 3.120000 49.488071 33.830078 3593.543457
6.920000 4.920000 3.160000 -9.812830 36.037399 1394.985718
6.920000 4.920000 3.200000 -38.144730 -2.858011 1463.188599
6.920000 4.960000 2.800000 -12.924925 1.275797 168.681335
6.920000 4.960000 2.840000 -55.108147 2.382494 3042.583984
6.920000 4.960000 2.880000 -92.135742 -44.975773 10511.815430
6.920000 4.960000 2.920000 -76.904266 -120.786919 20503.746094
6.920000 4.960000 2.960000 1.136112 -167.843307 28172.666016
6.920000 4.960000 3.000000 96.896484 -140.812622 29217.125000
6.920000 4.960000 3.040000 143.457520 -50.778122 23158.478516
6.920000 4.960000 3.080000 110.021973 39.975624 13702.884766
6.920000 4.960000 3.120000 29.003344 70.778824 5850.835938
6.920000 4.960000 3.160000 -34.159386 33.659687 2299.838135
6.920000 4.960000 3.200000 -39.128262 -25.161133 2164.103516
6.920000 5.000000 2.800000 -18.383724 -6.182833 376.188721
6.920000 5.000000 2.840000 -55.070801 -33.250626 4138.397461
6.920000 5.000000 2.880000 -57.099720 -97.847061 12834.425781
6.920000 5.000000 2.920000 3.027737 -154.734650 23951.980469
6.920000 5.000000 2.960000 100.129417 -148.849396 32182.042969
6.920000 5.000000 3.000000 168.538620 -67.786072 33000.218750
6.920000 5.000000 3.040000 156.586090 39.621536 26089.068359
6.920000 5.000000 3.080000 73.442947 101.002235 15595.318359
6.920000 5.000000 3.120000 -17.574896 81.519936 6954.376953
6.920000 5.000000 3.160000 -54.070679 11.109944 3047.069092
6.920000 5.000000 3.200000 -25.899216 -46.859314 2866.564697
6.920000 5.040000 2.800000 -13.222391 -19.488411 554.629761
6.920000 5.040000 2.840000 -24.611940 -58.954552 4081.386719
6.920000 5.040000 2.880000 8.353765 -107.332260 11589.999023
6.920000 5.040000 2.920000 82.867790 -118.205826 20839.687500
6.920000 5.040000 2.960000 153.013367 -63.619446 27460.523438
6.920000 5.040000 3.000000 163.625793 33.220032 27876.970703
6.920000 5.040000 3.040000 99.589752 109.954514 22008.113281
6.920000 5.040000 3.080000 3.248027 115.559097 13364.455078
6.920000 5.040000 3.120000 -59.414581 53.598846 6402.928711
6.920000 5.040000 3.160000 -53.663044 -22.673355 3393.803223
6.920000 5.040000 3.200000 -1.057705 -58.223198 3391.059326
6.920000 5.080000 2.800000 3.946028 -25.735878 677.906555
6.920000 5.080000 2.840000 15.950405 -53.358185 3101.511475
6.920000 5.080000 2.880000 57.642952 -67.036255 7816.569336
6.920000 5.080000 2.920000 108.374390 -40.312714 13370.124023
6.920000 5.080000 2.960000 128.550735 25.255754 17163.144531
6.920000 5.080000 3.000000 92.812798 92.592110 17187.515625
6.920000 5.080000 3.040000 16.651638 115.239349 13557.384766
6.920000 5.080000 3.080000 -51.338421 76.475311 8484.106445
6.920000 5.080000 3.120000 -67.874634 5.032709 4632.293945
6.920000 5.080000 3.160000 -29.790028 -48.535313 3243.122314
6.920000 5.080000 3.200000 26.578873 -53.507187 3569.455566
6.920000 5.120000 2.800000 22.269653 -16.870266 780.543335
6.920000 5.120000 2.840000 37.936630 -21.713989 1910.685181
6.920000 5.120000 2.880000 60.640709 -10.939751 3796.973877
6.920000 5.120000 2.920000 73.655289 20.510174 5845.768555
6.920000 5.120000 2.960000 59.245785 59.955147 7104.682617
6.920000 5.120000 3.000000 16.230408 81.530716 6910.684082
6.920000 5.120000 3.040000 -33.248852 65.862984 5443.418945
6.920000 5.120000 3.080000 -57.624348 18.552986 3664.778809
6.920000 5.120000 3.120000 -40.767910 -30.979618 2621.759277
6.920000 5.120000 3.160000 4.355358 -51.553349 2676.717041
6.920000 5.120000 3.200000 46.309032 -34.269596 3318.931641
6.920000 5.160000 2.800000 29.009274 2.078472 845.858032
6.920000 5.160000 2.840000 30.631262 10.304628 1044.459595
6.920000 5.160000 2.880000 28.491480 20.186129 1219.244141
6.920000 5.160000 2.920000 20.699457 30.307945 1347.039062
6.920000 5.160000 2.960000 5.552284 36.310490 1349.279541
6.920000 5.160000 3.000000 -13.977924 31.328014 1176.826782
6.920000 5.160000 3.040000 -28.025288 12.007687 929.601318
6.920000 5.160000 3.080000 -25.140776 -15.023457 857.762817
6.920000 5.160000 3.120000 -2.431301 -34.384850 1188.229126
6.920000 5.160000 3.160000 29.146378 -32.477333 1904.288574
6.920000 5.160000 3.200000 51.114128 -8.821957 2690.480957
6.920000 5.200000 2.800000 21.687626 17.968658 793.225830
6.920000 5.200000 2.840000 8.798221 21.763374 551.053162
6.920000 5.200000 2.880000 -2.366467 15.480673 245.251389
6.920000 5.200000 2.920000 -5.209957 4.918848 51.338715
6.920000 5.200000 2.960000 -1.277901 -2.264074 6.759063
6.920000 5.200000 3.000000 3.169373 -4.437248 29.734097
6.920000 5.200000 3.040000 5.381901 -6.042622 65.478134
6.920000 5.200000 3.080000 9.240075 -10.171146 188.831207
6.920000 5.200000 3.120000 19.429754 -12.806540 541.522827
6.920000 5.200000 3.160000 33.486382 -6.141048 1159.050293
6.920000 5.200000 3.200000 41.421490 12.159214 1863.586304
6.960000 4.800000 2.800000 -44.999313 1.621044 2027.566040
6.960000 4.800000 2.840000 -32.761162 -21.693193 1543.888306
6.960000 4.800000 2.880000 -7.738121 -28.656687 881.084229
6.960000 4.800000 2.920000 12.831429 -15.968403 419.635437
6.960000 4.800000 2.960000 16.628490 4.669930 298.314911
6.960000 4.800000 3.000000 6.215630 17.643475 349.926270
6.960000 4.800000 3.040000 -5.294418 17.459332 332.859100
6.960000 4.800000 3.080000 -8.154106 11.820170 206.205872
6.960000 4.800000 3.120000 -4.867929 11.256662 150.409180
6.960000 4.800000 3.160000 -5.155079 17.020885 316.285370
6.960000 4.800000 3.200000 -13.219608 20.476835 594.058838
6.960000 4.840000 2.800000 -35.886906 -14.758680 1505.688599
6.960000 4.840000 2.840000 -22.942642 -14.212460 728.358826
6.960000 4.840000 2.880000 -21.076637 -5.632263 475.947021
6.960000 4.840000 2.920000 -30.371588 -4.139580 939.569458
6.960000 4.840000 2.960000 -37.052486 -16.719429 1652.426025
6.960000 4.840000 3.000000 -27.893303 -33.801125 1920.552368
6.960000 4.840000 3.040000 -5.040344 -38.000591 1469.449951
6.960000 4.840000 3.080000 14.352526 -21.860531 683.877808
6.960000 4.840000 3.120000 14.157986 3.409939 212.076248
6.960000 4.840000 3.160000 -4.686162 17.661579 333.891479
6.960000 4.840000 3.200000 -24.500027 10.958370 720.337158
6.960000 4.880000 2.800000 -23.579714 -20.175259 963.043945
6.960000 4.880000 2.840000 -31.949669 -5.749296 1053.835815
6.960000 4.880000 2.880000 -58.471672 -11.083805 3541.787354
6.960000 4.880000 2.920000 -74.225449 -47.069092 7724.916504
6.960000 4.880000 2.960000 -52.550926 -92.014755 11228.314453
6.960000 4.880000 3.000000 2.043259 -108.551788 11787.666016
6.960000 4.880000 3.040000 53.755890 -78.610107 9069.244141
6.960000 4.880000 3.080000 66.311966 -22.108734 4886.072754
6.960000 4.880000 3.120000 35.520290 19.843071 1655.438477
6.960000 4.880000 3.160000 -7.985413 21.536287 527.578491
6.960000 4.880000 3.200000 -28.112232 -6.202357 828.766846
6.960000 4.920000 2.800000 -16.252384 -19.967262 662.831543
6.960000 4.920000 2.840000 -49.538849 -16.886856 2739.263672
6.960000 4.920000 2.880000 -80.366241 -58.061867 9829.913086
6.960000 4.920000 2.920000 -63.871937 -125.347641 19791.656250
6.960000 4.920000 2.960000 9.395473 -165.395721 27444.019531
6.960000 4.920000 3.000000 96.858025 -137.387756 28256.873047
6.960000 4.920000 3.040000 137.665558 -53.633831 21828.394531
6.960000 4.920000 3.080000 106.408737 28.169981 12116.367188
6.960000 4.920000 3.120000 35.016556 55.135979 4266.135254
6.960000 4.920000 3.160000 -18.062569 23.810627 893.202393
6.960000 4.920000 3.200000 -20.582111 -22.637211 936.066650
6.960000 4.960000 2.800000 -12.202583 -22.152660 639.643433
6.960000 4.960000 2.840000 -50.545544 -47.725239 4832.550781
6.960000 4.960000 2.880000 -52.044617 -116.164459 16202.824219
6.960000 4.960000 2.920000 14.720060 -176.265503 31286.207031
6.960000 4.960000 2.960000 120.724358 -167.189987 42526.863281
6.960000 4.960000 3.000000 193.615356 -77.577301 43505.144531
6.960000 4.960000 3.040000 179.886566 37.557137 33769.714844
6.960000 4.960000 3.080000 93.256104 101.936584 19087.769531
6.960000 4.960000 3.120000 1.958115 83.422165 6963.091797
6.960000 4.960000 3.160000 -32.634350 17.488369 1370.843750
6.960000 4.960000 3.200000 -6.529552 -31.440315 1031.128418
6.960000 5.000000 2.800000 -3.700687 -26.985008 741.885742
6.960000 5.000000 2.840000 -21.459301 -74.082184 5948.671387
6.960000 5.000000 2.880000 18.692862 -136.045013 18857.669922
6.960000 5.000000 2.920000 113.799576 -150.269958 35531.406250
6.960000 5.000000 2.960000 203.272003 -80.567299 47810.597656
6.960000 5.000000 3.000000 217.100769 41.526566 48857.199219
6.960000 5.000000 3.040000 139.318802 137.100754 38206.343750
6.960000 5.000000 3.080000 24.939482 146.324493 22032.835938
6.960000 5.000000 3.120000 -47.568260 78.574020 8436.615234
6.960000 5.000000 3.160000 -43.046280 -0.927289 1853.842041
6.960000 5.000000 3.200000 7.325474 -32.706825 1123.399048
6.960000 5.040000 2.800000 11.903554 -26.123253 824.118896
6.960000 5.040000 2.840000 22.857435 -69.910370 5409.922363
6.960000 5.040000 2.880000 84.113838 -96.002525 16291.623047
6.960000 5.040000 2.920000 163.197357 -59.273865 30146.767578
6.960000 5.040000 2.960000 197.122528 38.413918 40332.921875
6.960000 5.040000 3.000000 147.663177 139.684845 41316.269531
6.960000 5.040000 3.040000 39.910568 176.344376 32690.191406
6.960000 5.040000 3.080000 -55.376541 127.794548 19398.007812
6.960000 5.040000 3.120000 -81.089050 37.769470 8001.966797
6.960000 5.040000 3.160000 -39.190304 -26.130863 2218.701904
6.960000 5.040000 3.200000 18.989227 -30.434441 1286.845947
6.960000 5.080000 2.800000 26.660563 -12.604319 869.654419
6.960000 5.080000 2.840000 50.928436 -33.611271 3723.423096
6.960000 5.080000 2.880000 98.917496 -23.754591 10348.951172
6.960000 5.080000 2.920000 132.924164 32.456383 18722.250000
6.960000 5.080000 2.960000 113.713242 109.483940 24917.433594
6.960000 5.080000 3.000000 38.690720 155.488861 25673.757812
6.960000 5.080000 3.040000 -49.460457 135.152405 20712.507812
6.960000 5.080000 3.080000 -95.369614 61.503265 12878.014648
6.960000 5.080000 3.120000 -76.242706 -14.107248 6011.964844
6.960000 5.080000 3.160000 -18.127234 -45.118973 2364.318359
6.960000 5.080000 3.200000 30.626034 -25.687452 1597.799072
6.960000 5.120000 2.800000 28.953363 9.481489 928.195862
6.960000 5.120000 2.840000 43.873070 9.086637 2007.413208
6.960000 5.120000 2.880000 60.654495 28.946457 4516.865234
6.960000 5.120000 2.920000 57.476830 66.313499 7701.065918
6.960000 5.120000 2.960000 21.979248 98.106178 10107.909180
6.960000 5.120000 3.000000 -33.112320 97.071144 10519.232422
6.960000 5.120000 3.040000 -75.396332 55.882267 8807.434570
6.960000 5.120000 3.080000 -77.415695 -3.325104 6004.246094
6.960000 5.120000 3.120000 -39.322594 -44.584648 3534.057129
6.960000 5.120000 3.160000 11.279775 -46.012562 2244.389160
6.960000 5.120000 3.200000 42.158783 -15.173906 2007.610474
6.960000 5.160000 2.800000 15.792839 26.925982 974.422241
6.960000 5.160000 2.840000 12.507877 29.026390 998.978271
6.960000 5.160000 2.880000 8.519241 33.235149 1177.152710
6.960000 5.160000 2.920000 -0.442112 38.642685 1493.452515
6.960000 5.160000 2.960000 -16.600189 38.951771 1792.806763
6.960000 5.160000 3.000000 -34.552341 26.481979 1895.159424
6.960000 5.160000 3.040000 -42.039772 0.706177 1767.841064
6.960000 5.160000 3.080000 -29.156023 -27.119041 1585.516113
6.960000 5.160000 3.120000 1.398958 -39.891834 1593.315430
6.960000 5.160000 3.160000 33.364784 -27.797632 1885.917236
6.960000 5.160000 3.200000 47.933372 2.840826 2305.678467
6.960000 5.200000 2.800000 -2.981252 29.706602 891.370056
6.960000 5.200000 2.840000 -14.623909 20.015076 614.461975
6.960000 5.200000 2.880000 -16.291595 5.029053 290.707458
6.960000 5.200000 2.920000 -8.028538 -5.143488 90.912888
6.960000 5.200000 2.960000 1.451054 -5.709717 34.706421
6.960000 5.200000 3.000000 4.402859 -2.112423 23.847496
6.960000 5.200000 3.040000 2.924168 -3.270027 19.243835
6.960000 5.200000 3.080000 6.558445 -10.235039 147.769226
6.960000 5.200000 3.120000 20.481844 -13.310453 596.674072
6.960000 5.200000 3.160000 37.188423 -1.877203 1386.502686
6.960000 5.200000 3.200000 41.610992 22.932072 2257.354492
7.000000 4.800000 2.800000 -48.642273 -13.886560 2558.907471
7.000000 4.800000 2.840000 -29.184280 -32.508099 1908.498779
7.000000 4.800000 2.880000 -3.304077 -32.129349 1043.211914
7.000000 4.800000 2.920000 12.864700 -15.282333 399.050232
7.000000 4.800000 2.960000 12.079266 4.182140 163.398956
7.000000 4.800000 3.000000 1.017914 13.600559 186.011353
7.000000 4.800000 3.040000 -7.724335 12.093756 205.924271
7.000000 4.800000 3.080000 -8.399864 8.930340 150.308685
7.000000 4.800000 3.120000 -6.514854 11.966337 185.636551
7.000000 4.800000 3.160000 -10.796398 18.833092 471.247559
7.000000 4.800000 3.200000 -22.059488 20.322006 899.604980
7.000000 4.840000 2.800000 -37.513054 -30.517700 2338.559326
7.000000 4.840000 2.840000 -27.058506 -30.286882 1649.458008
7.000000 4.840000 2.880000 -25.105591 -28.693398 1453.601807
7.000000 4.840000 2.920000 -25.220789 -34.389431 1818.721191
7.000000 4.840000 2.960000 -16.666321 -44.537491 2261.354492
7.000000 4.840000 3.000000 2.660797 -46.928833 2209.395264
7.000000 4.840000 3.040000 21.726421 -32.722290 1542.785645
7.000000 4.840000 3.080000 25.603804 -7.078835 705.664673
7.000000 4.840000 3.120000 9.866854 13.577072 281.691681
7.000000 4.840000 3.160000 -14.149234 15.779001 449.177704
7.000000 4.840000 3.200000 -28.980719 1.187730 841.292786
7.000000 4.880000 2.800000 -22.616940 -38.702335 2009.396729
7.000000 4.880000 2.840000 -33.720257 -37.133816 2515.976074
7.000000 4.880000 2.880000 -45.404305 -59.153122 5560.642578
7.000000 4.880000 2.920000 -30.651428 -95.387756 10038.333984
7.000000 4.880000 2.960000 16.446777 -114.148438 13300.362305
7.000000 4.880000 3.000000 69.749664 -91.141205 13171.734375
7.000000 4.880000 3.040000 91.986076 -34.945633 9682.635742
7.000000 4.880000 3.080000 68.298859 17.878281 4984.366699
7.000000 4.880000 3.120000 19.784685 34.313797 1568.870361
7.000000 4.880000 3.160000 -16.107689 12.851727 424.624512
7.000000 4.880000 3.200000 -18.903793 -18.491531 699.290161
7.000000 4.920000 2.800000 -7.831115 -41.099827 1750.522217
7.000000 4.920000 2.840000 -31.786657 -58.861382 4475.053711
7.000000 4.920000 2.880000 -28.105175 -108.930222 12655.693359
7.000000 4.920000 2.920000 27.695660 -150.741470 23490.039062
7.000000 4.920000 2.960000 111.315338 -137.008759 31162.503906
7.000000 4.920000 3.000000 165.206696 -61.231548 31042.554688
7.000000 4.920000 3.040000 149.251846 30.867287 23228.902344
7.000000 4.920000 3.080000 77.699966 79.517982 12360.394531
7.000000 4.920000 3.120000 6.000347 62.549515 3948.446045
7.000000 4.920000 3.160000 -19.326714 11.004431 494.619354
7.000000 4.920000 3.200000 1.238504 -24.402103 596.996521
7.000000 4.960000 2.800000 7.633537 -39.174572 1592.917969
7.000000 4.960000 2.840000 -6.414808 -79.894119 6424.220215
7.000000 4.960000 2.880000 33.473869 -134.345428 19169.193359
7.000000 4.960000 2.920000 123.564262 -142.603973 35604.019531
7.000000 4.960000 2.960000 205.067352 -72.145386 47257.574219
7.000000 4.960000 3.000000 213.106323 44.146908 47363.253906
7.000000 4.960000 3.040000 136.791428 131.220474 35930.707031
7.000000 4.960000 3.080000 31.058039 136.538391 19607.333984
7.000000 4.960000 3.120000 -32.187729 74.135742 6532.158203
7.000000 4.960000 3.160000 -25.958735 6.455020 715.523193
7.000000 4.960000 3.200000 15.881134 -15.629118 496.479736
7.000000 5.000000 2.800000 23.665714 -29.949732 1457.052490
7.000000 5.000000 2.840000 34.983707 -76.227493 7034.490723
7.000000 5.000000 2.880000 102.726089 -103.152252 21193.035156
7.000000 5.000000 2.920000 189.136993 -59.739487 39341.605469
7.000000 5.000000 2.960000 223.404587 49.642456 52373.984375
7.000000 5.000000 3.000000 166.028366 159.239243 52922.554688
7.000000 5.000000 3.040000 48.973267 195.930786 40787.250000
7.000000 5.000000 3.080000 -49.722233 143.003677 22922.351562
7.000000 5.000000 3.120000 -73.490982 52.247257 8130.700195
7.000000 5.000000 3.160000 -32.010429 -6.067936 1061.487427
7.000000 5.000000 3.200000 17.454050 -4.825237 327.926788
7.000000 5.040000 2.800000 34.368649 -10.788166 1297.588501
7.000000 5.040000 2.840000 64.999077 -40.546196 5868.874023
7.000000 5.040000 2.880000 129.356537 -28.448933 17542.455078
7.000000 5.040000 2.920000 174.484116 46.393753 32597.087891
7.000000 5.040000 2.960000 148.199188 147.275803 43653.164062
7.000000 5.040000 3.000000 50.839748 205.087341 44645.496094
7.000000 5.040000 3.040000 -58.911293 178.035248 35167.089844
7.000000 5.040000 3.080000 -112.593430 88.976791 20594.150391
7.000000 5.040000 3.120000 -89.408531 4.150433 8011.111328
7.000000 5.040000 3.160000 -28.309200 -25.463474 1449.799316
7.000000 5.040000 3.200000 13.735910 -3.351875 199.910294
7.000000 5.080000 2.800000 31.378689 13.493344 1166.692505
7.000000 5.080000 2.840000 60.571499 6.931786 3716.956055
7.000000 5.080000 2.880000 95.051453 39.745960 10614.519531
7.000000 5.080000 2.920000 93.003799 105.067635 19688.914062
7.000000 5.080000 2.960000 34.734592 159.380814 26608.736328
7.000000 5.080000 3.000000 -53.386097 157.745148 27733.607422
7.000000 5.080000 3.040000 -116.910896 94.555611 22608.921875
7.000000 5.080000 3.080000 -118.411087 10.444908 14130.281250
7.000000 5.080000 3.120000 -67.677391 -41.992245 6343.578125
7.000000 5.080000 3.160000 -9.429131 -41.140556 1781.453857
7.000000 5.080000 3.200000 17.636597 -8.305815 380.036072
7.000000 5.120000 2.800000 13.111420 30.834221 1122.658569
7.000000 5.120000 2.840000 25.433582 34.744167 1854.024170
7.000000 5.120000 2.880000 29.951452 58.497719 4319.072754
7.000000 5.120000 2.920000 8.055092 87.660622 7749.269043
7.000000 5.120000 2.960000 -38.506306 95.310425 10566.812500
7.000000 5.120000 3.000000 -84.321136 65.403526 11387.675781
7.000000 5.120000 3.040000 -99.091911 9.190781 9903.677734
7.000000 5.120000 3.080000 -72.562820 -41.506340 6988.139160
7.000000 5.120000 3.120000 -23.017151 -59.014099 4012.453125
7.000000 5.120000 3.160000 18.162653 -40.393726 1961.535034
7.000000 5.120000 3.200000 31.124468 -6.260223 1007.922852
7.000000 5.160000 2.800000 -10.576622 31.499182 1104.063354
7.000000 5.160000 2.840000 -12.665920 28.375404 965.589111
7.000000 5.160000 2.880000 -16.257622 28.420450 1072.032227
7.000000 5.160000 2.920000 -25.087776 27.704639 1396.943604
7.000000 5.160000 2.960000 -37.586254 19.491409 1792.641479
7.000000 5.160000 3.000000 -45.626553 0.296326 2081.870117
7.000000 5.160000 3.040000 -39.498703 -24.747681 2172.595215
7.000000 5.160000 3.080000 -16.340614 -42.870781 2104.919434
7.000000 5.160000 3.120000 15.101444 -42.003586 1992.354858
7.000000 5.160000 3.160000 38.670998 -20.441193 1913.288330
7.000000 5.160000 3.200000 41.709599 10.494668 1849.828613
7.000000 5.200000 2.800000 -25.226366 17.861876 955.416138
7.000000 5.200000 2.840000 -27.668243 2.185410 770.307678
7.000000 5.200000 2.880000 -19.116531 -12.234804 515.132202
7.000000 5.200000 2.920000 -4.357399 -16.840027 302.573456
7.000000 5.200000 2.960000 6.297236 -11.363792 168.790955
7.000000 5.200000 3.000000 7.700584 -4.796577 82.306152
7.000000 5.200000 3.040000 5.855621 -5.581779 65.444565
7.000000 5.200000 3.080000 11.345695 -11.285115 256.078644
7.000000 5.200000 3.120000 26.357372 -9.892276 792.568176
7.000000 5.200000 3.160000 39.546188 7.169166 1615.297974
7.000000 5.200000 3.200000 35.696938 33.616821 2404.362061
7.040000 4.800000 2.800000 -43.103310 -27.322632 2604.421387
7.040000 4.800000 2.840000 -21.006929 -40.103634 2049.592529
7.040000 4.800000 2.880000 3.487251 -34.989487 1236.425049
7.040000 4.800000 2.920000 16.838127 -16.238567 547.213623
7.040000 4.800000 2.960000 14.162979 3.211664 210.904770
7.040000 4.800000 3.000000 2.422760 12.672707 166.467255
7.040000 4.800000 3.040000 -7.208126 12.098213 198.323837
7.040000 4.800000 3.080000 -10.150765 9.745556 198.013901
7.040000 4.800000 3.120000 -11.414478 11.924025 272.472656
7.040000 4.800000 3.160000 -18.053318 15.991830 581.660889
7.040000 4.800000 3.200000 -29.866226 14.000242 1087.998291
7.040000 4.840000 2.800000 -29.870518 -44.951115 2912.850586
7.040000 4.840000 2.840000 -18.068573 -48.127571 2642.736572
7.040000 4.840000 2.880000 -7.750311 -49.650490 2525.238525
7.040000 4.840000 2.920000 4.502388 -49.848961 2505.190430
7.040000 4.840000 2.960000 19.431770 -44.235649 2334.386230
7.040000 4.840000 3.000000 31.578899 -28.984921 1837.352539
7.040000 4.840000 3.040000 32.706882 -7.031960 1119.188599
7.040000 4.840000 3.080000 19.343586 11.781597 512.980347
7.040000 4.840000 3.120000 -2.671808 17.492306 313.119324
7.040000 4.840000 3.160000 -21.513708 7.998363 526.813416
7.040000 4.840000 3.200000 -28.118298 -9.094111 873.341553
7.040000 4.880000 2.800000 -8.877403 -54.367432 3034.625977
7.040000 4.880000 2.840000 -9.597599 -62.664207 4018.916992
7.040000 4.880000 2.880000 2.059769 -82.143723 6751.833984
7.040000 4.880000 2.920000 36.002579 -93.565178 10050.627930
7.040000 4.880000 2.960000 78.360809 -75.686798 11868.908203
7.040000 4.880000 3.000000 100.318146 -28.503426 10876.175781
7.040000 4.880000 3.040000 83.814911 22.419258 7527.562500
7.040000 4.880000 3.080000 39.130295 46.322968 3676.997314
7.040000 4.880000 3.120000 -3.210579 33.278488 1117.765625
7.040000 4.880000 3.160000 -18.612339 1.145346 347.730988
7.040000 4.880000 3.200000 -7.617624 -22.473848 563.102051
7.040000 4.920000 2.800000 15.380790 -52.219414 2963.435791
7.040000 4.920000 2.840000 14.163922 -75.013405 5827.627441
7.040000 4.920000 2.880000 46.490829 -103.555382 12885.114258
7.040000 4.920000 2.920000 107.844444 -99.081764 21447.621094
7.040000 4.920000 2.960000 157.858917 -42.957561 26764.789062
7.040000 4.920000 3.000000 154.803741 39.243019 25504.212891
7.040000 4.920000 3.040000 95.471619 95.940231 18319.359375
7.040000 4.920000 3.080000 20.401239 94.133331 9277.294922
7.040000 4.920000 3.120000 -21.579576 47.285286 2701.576416
7.040000 4.920000 3.160000 -14.962685 -0.093975 223.890762
7.040000 4.920000 3.200000 14.380417 -14.505260 417.198944
7.040000 4.960000 2.800000 36.517841 -36.924355 2696.960693
7.040000 4.960000 2.840000 49.313000 -68.237534 7088.132812
7.040000 4.960000 2.880000 104.987198 -82.530701 17833.628906
7.040000 4.960000 2.920000 171.688751 -40.032944 31079.664062
7.040000 4.960000 2.960000 192.379333 52.610844 39777.710938
7.040000 4.960000 3.000000 138.427246 139.850067 38720.140625
7.040000 4.960000 3.040000 40.207413 163.907196 28482.205078
7.040000 4.960000 3.080000 -37.471180 116.112320 14886.160156
7.040000 4.960000 3.120000 -52.049301 42.658375 4528.866699
7.040000 4.960000 3.160000 -16.831657 0.005873 283.304718
7.040000 4.960000 3.200000 19.243296 5.136323 396.686249
7.040000 5.000000 2.800000 46.414238 -10.922280 2273.577637
7.040000 5.000000 2.840000 75.565582 -34.828018 6923.147949
7.040000 5.000000 2.880000 135.196075 -18.688293 18627.230469
7.040000 5.000000 2.920000 173.767395 56.075912 33339.617188
7.040000 5.000000 2.960000 142.814758 151.775482 43431.851562
7.040000 5.000000 3.000000 46.760159 202.116577 43037.621094
7.040000 5.000000 3.040000 -55.329689 171.307205 32407.533203
7.040000 5.000000 3.080000 -100.296661 86.748886 17584.789062
7.040000 5.000000 3.120000 -74.978149 12.939348 5789.149414
7.040000 5.000000 3.160000 -21.771034 -6.975945 522.641724
7.040000 5.000000 3.200000 6.853544 15.598045 290.270081
7.040000 5.040000 2.800000 38.922741 17.068333 1806.307739
7.040000 5.040000 2.840000 72.083069 11.049656 5318.063477
7.040000 5.040000 2.880000 110.414490 50.680138 14759.835938
7.040000 5.040000 2.920000 105.041069 126.136017 26943.921875
7.040000 5.040000 2.960000 35.915146 185.473953 35690.484375
7.040000 5.040000 3.000000 -62.738640 179.288574 36080.531250
7.040000 5.040000 3.040000 -128.552612 107.054909 27986.527344
7.040000 5.040000 3.080000 -125.047424 18.964632 15996.515625
7.040000 5.040000 3.120000 -71.217590 -28.966974 5911.030762
7.040000 5.040000 3.160000 -19.168476 -22.204710 860.479614
7.040000 5.040000 3.200000 -4.408651 7.490206 75.539391
7.040000 5.080000 2.800000 15.725092 34.458431 1434.661987
7.040000 5.080000 2.840000 37.798168 41.753136 3172.025879
7.040000 5.080000 2.880000 45.900642 80.485962 8584.859375
7.040000 5.080000 2.920000 12.180054 125.342499 15859.095703
7.040000 5.080000 2.960000 -56.307613 135.001816 21396.037109
7.040000 5.080000 3.000000 -118.452484 90.534721 22227.527344
7.040000 5.080000 3.040000 -133.423477 15.224659 18033.615234
7.040000 5.080000 3.080000 -95.953545 -44.436363 11181.673828
7.040000 5.080000 3.120000 -38.876373 -58.310074 4911.437012
7.040000 5.080000 3.160000 -1.847906 -34.853165 1218.157837
7.040000 5.080000 3.200000 1.964463 -6.783866 49.879951
7.040000 5.120000 2.800000 -11.700456 32.824104 1214.322510
7.040000 5.120000 2.840000 -4.811213 39.261581 1564.619629
7.040000 5.120000 2.880000 -13.089962 56.842392 3402.404785
7.040000 5.120000 2.920000 -42.744255 65.228249 6081.795898
7.040000 5.120000 2.960000 -78.533989 46.412766 8321.732422
7.040000 5.120000 3.000000 -94.992516 2.702797 9030.882812
7.040000 5.120000 3.040000 -78.088852 -43.121769 7957.355469
7.040000 5.120000 3.080000 -37.197365 -65.896912 5726.046875
7.040000 5.120000 3.120000 3.224184 -57.627708 3331.348145
7.040000 5.120000 3.160000 23.573151 -31.153316 1526.222534
7.040000 5.120000 3.200000 22.022999 -6.570393 528.182556
7.040000 5.160000 2.800000 -28.573139 15.401648 1053.635010
7.040000 5.160000 2.840000 -28.161917 11.113764 916.609314
7.040000 5.160000 2.880000 -30.753405 7.358713 999.922546
7.040000 5.160000 2.920000 -35.017708 -0.299118 1226.329346
7.040000 5.160000 2.960000 -36.195816 -13.406876 1489.881348
7.040000 5.160000 3.000000 -29.441875 -29.026627 1709.369141
7.040000 5.160000 3.040000 -13.185699 -40.895672 1846.318604
7.040000 5.160000 3.080000 9.155346 -42.501118 1890.165283
7.040000 5.160000 3.120000 29.826599 -30.802479 1838.418701
7.040000 5.160000 3.160000 40.059704 -8.913676 1684.233521
7.040000 5.160000 3.200000 34.980118 14.194664 1425.097168
7.040000 5.200000 2.800000 -28.037846 -4.059965 802.604126
7.040000 5.200000 2.840000 -23.122183 -17.045246 825.175720
7.040000 5.200000 2.880000 -9.513487 -26.454792 790.362427
7.040000 5.200000 2.920000 7.523575 -25.286453 696.008911
7.040000 5.200000 2.960000 18.190847 -14.673267 546.211670
7.040000 5.200000 3.000000 18.496647 -4.115547 359.063660
7.040000 5.200000 3.040000 15.197048 -1.491510 233.174881
7.040000 5.200000 3.080000 18.374044 -3.650467 350.931396
7.040000 5.200000 3.120000 28.944611 0.791121 838.416321
7.040000 5.200000 3.160000 35.419987 18.078030 1581.390625
7.040000 5.200000 3.200000 25.139574 39.721645 2209.807129
7.080000 4.800000 2.800000 -33.639473 -34.388233 2314.164551
7.080000 4.800000 2.840000 -11.160656 -42.996502 1973.259521
7.080000 4.800000 2.880000 12.456371 -34.358730 1335.683472
7.080000 4.800000 2.920000 23.798923 -12.575476 724.531311
7.080000 4.800000 2.960000 17.740349 8.920385 394.293243
7.080000 4.800000 3.000000 1.726791 18.461040 343.791840
7.080000 4.800000 3.040000 -11.687911 15.600746 379.990540
7.080000 4.800000 3.080000 -16.603657 9.409077 364.212158
7.080000 4.800000 3.120000 -17.758484 7.650483 373.893616
7.080000 4.800000 3.160000 -23.029083 8.601809 604.329773
7.080000 4.800000 3.200000 -33.071472 4.118399 1110.683472
7.080000 4.840000 2.800000 -16.125977 -53.205833 3090.907715
7.080000 4.840000 2.840000 2.001759 -56.696548 3218.505615
7.080000 4.840000 2.880000 21.127291 -51.147148 3062.393066
7.080000 4.840000 2.920000 35.746277 -36.138451 2583.783936
7.080000 4.840000 2.960000 40.507278 -15.394928 1877.843384
7.080000 4.840000 3.000000 33.560619 4.274979 1144.590576
7.080000 4.840000 3.040000 17.868113 16.411736 588.614502
7.080000 4.840000 3.080000 -0.528275 18.003992 324.422821
7.080000 4.840000 3.120000 -15.623472 10.172378 347.570129
7.080000 4.840000 3.160000 -23.622631 -3.265674 568.693298
7.080000 4.840000 3.200000 -23.496071 -17.702335 865.438049
7.080000 4.880000 2.800000 12.879018 -58.937752 3639.527832
7.080000 4.880000 2.840000 27.051884 -63.515423 4766.013184
7.080000 4.880000 2.880000 50.374760 -62.362701 6426.722656
7.080000 4.880000 2.920000 76.378059 -44.198589 7787.123047
7.080000 4.880000 2.960000 88.486755 -8.139000 7896.148926
7.080000 4.880000 3.000000 74.208328 30.689407 6448.715820
7.080000 4.880000 3.040000 38.152534 51.118107 4068.676758
7.080000 4.880000 3.080000 0.457088 43.096779 1857.541382
7.080000 4.880000 3.120000 -18.778008 15.871502 604.518127
7.080000 4.880000 3.160000 -14.757145 -10.507037 328.171143
7.080000 4.880000 3.200000 0.881145 -22.026913 485.961304
7.080000 4.920000 2.800000 42.177731 -44.809223 3786.827393
7.080000 4.920000 2.840000 57.883160 -52.265514 6082.144531
7.080000 4.920000 2.880000 90.682953 -46.698738 10404.169922
7.080000 4.920000 2.920000 121.727379 -10.917440 14936.745117
7.080000 4.920000 2.960000 121.837067 46.682751 17023.550781
7.080000 4.920000 3.000000 80.197327 93.469223 15168.107422
7.080000 4.920000 3.040000 18.455051 99.481949 10237.247070
7.080000 4.920000 3.080000 -25.624350 64.435158 4808.497070
7.080000 4.920000 3.120000 -30.177935 17.888023 1230.689209
7.080000 4.920000 3.160000 -6.009869 -7.700566 95.417244
7.080000 4.920000 3.200000 17.343269 -4.427834 320.394714
7.080000 4.960000 2.800000 57.424843 -14.002394 3493.679688
7.080000 4.960000 2.840000 78.299965 -19.628307 6516.154785
7.080000 4.960000 2.880000 114.087921 0.915063 13016.890625
7.080000 4.960000 2.920000 131.259598 56.983368 20476.185547
7.080000 4.960000 2.960000 100.339142 121.058487 24723.101562
7.080000 4.960000 3.000000 28.551641 148.929214 22995.105469
7.080000 4.960000 3.040000 -41.308884 120.037926 16115.527344
7.080000 4.960000 3.080000 -67.272369 57.668892 7851.272949
7.080000 4.960000 3.120000 -44.568718 7.973763 2049.951416
7.080000 4.960000 3.160000 -6.301128 -1.563690 42.149345
7.080000 4.960000 3.200000 10.929004 16.886583 404.599823
7.080000 5.000000 2.800000 49.803181 20.085621 2883.788818
7.080000 5.000000 2.840000 72.612335 22.135838 5762.546387
7.080000 5.000000 2.880000 96.831123 57.806793 12717.891602
7.080000 5.000000 2.920000 85.091667 118.037292 21173.394531
7.080000 5.000000 2.960000 24.138832 161.003662 26504.863281
7.080000 5.000000 3.000000 -55.701187 149.288696 25389.738281
7.080000 5.000000 3.040000 -103.995667 86.855209 18358.925781
7.080000 5.000000 3.080000 -95.097336 17.513330 9350.219727
7.080000 5.000000 3.120000 -49.816822 -14.633417 2695.852783
7.080000 5.000000 3.160000 -12.746233 -3.405027 174.060669
7.080000 5.000000 3.200000 -9.225084 19.917349 481.802948
7.080000 5.040000 2.800000 22.724228 40.778904 2179.309570
7.080000 5.040000 2.840000 39.948502 50.513081 4147.454102
7.080000 5.040000 2.880000 43.123768 88.134872 9627.415039
7.080000 5.040000 2.920000 6.724987 128.770447 16627.052734
7.080000 5.040000 2.960000 -60.074368 133.300537 21377.962891
7.080000 5.040000 3.000000 -116.163559 86.791275 21026.699219
7.080000 5.040000 3.040000 -124.486908 15.855733 15748.394531
7.080000 5.040000 3.080000 -85.835754 -34.019905 8525.130859
7.080000 5.040000 3.120000 -36.501625 -39.038059 2856.338867
7.080000 5.040000 3.160000 -12.838123 -15.213672 396.273224
7.080000 5.040000 3.200000 -19.173759 2.529263 374.030243
7.080000 5.080000 2.800000 -8.984660 38.665161 1575.718750
7.080000 5.080000 2.840000 -1.746763 49.316345 2435.153076
7.080000 5.080000 2.880000 -14.445198 72.619324 5482.229980
7.080000 5.080000 2.920000 -53.361908 82.079865 9584.597656
7.080000 5.080000 2.960000 -96.761925 56.583389 12564.549805
7.080000 5.080000 3.000000 -112.743011 3.347416 12722.191406
7.080000 5.080000 3.040000 -88.778145 -46.159775 10012.284180
7.080000 5.080000 3.080000 -43.270401 -63.939621 5960.602539
7.080000 5.080000 3.120000 -7.798071 -49.234577 2484.853516
7.080000 5.080000 3.160000 1.382237 -25.369148 645.504272
7.080000 5.080000 3.200000 -5.776152 -14.794812 252.250397
7.080000 5.120000 2.800000 -28.320553 18.292381 1136.664917
7.080000 5.120000 2.840000 -28.049820 22.348656 1286.254883
7.080000 5.120000 2.880000 -40.686321 25.632473 2312.400391
7.080000 5.120000 2.920000 -59.783016 14.062130 3771.752441
7.080000 5.120000 2.960000 -68.551476 -14.084713 4897.683594
7.080000 5.120000 3.000000 -55.665737 -44.906982 5115.311523
7.080000 5.120000 3.040000 -26.000597 -60.783894 4370.712891
7.080000 5.120000 3.080000 3.932283 -55.359749 3080.164795
7.080000 5.120000 3.120000 20.476936 -37.205513 1803.555176
7.080000 5.120000 3.160000 22.630238 -20.007826 912.440735
7.080000 5.120000 3.200000 18.830486 -10.508512 465.016052
7.080000 5.160000 2.800000 -27.779663 -4.888697 795.609009
7.080000 5.160000 2.840000 -27.183485 -9.276011 824.986206
7.080000 5.160000 2.880000 -26.495464 -17.376873 1003.965332
7.080000 5.160000 2.920000 -20.538425 -27.709824 1189.661255
7.080000 5.160000 2.960000 -8.321379 -34.727783 1275.264282
7.080000 5.160000 3.000000 6.014709 -34.772793 1245.323853
7.080000 5.160000 3.040000 17.834133 -29.036625 1161.181885
7.080000 5.160000 3.080000 25.997189 -20.716829 1105.040771
7.080000 5.160000 3.120000 31.588068 -10.832215 1115.142944
7.080000 5.160000 3.160000 33.853157 1.530062 1148.377319
7.080000 5.160000 3.200000 29.570496 15.033536 1100.421387
7.080000 5.200000 2.800000 -14.354128 -16.103659 465.368805
7.080000 5.200000 2.840000 -8.518401 -24.859818 690.573669
7.080000 5.200000 2.880000 6.362465 -30.440418 967.100037
7.080000 5.200000 2.920000 24.342920 -24.007252 1168.925903
7.080000 5.200000 2.960000 33.470032 -6.921535 1168.150635
7.080000 5.200000 3.000000 28.899963 8.989230 916.014160
7.080000 5.200000 3.040000 18.890474 13.782130 546.797119
7.080000 5.200000 3.080000 15.779717 10.522203 359.716248
7.080000 5.200000 3.120000 21.612549 11.714928 604.341797
7.080000 5.200000 3.160000 25.086349 24.237015 1216.757812
7.080000 5.200000 3.200000 14.380084 39.725563 1784.907227
7.120000 4.800000 2.800000 -25.431843 -36.363075 1969.051758
7.120000 4.800000 2.840000 -2.571346 -41.662445 1742.371094
7.120000 4.800000 2.880000 19.797764 -28.537214 1206.324097
7.120000 4.800000 2.920000 26.613956 -2.946320 716.983459
7.120000 4.800000 2.960000 13.788883 18.684160 539.231140
7.120000 4.800000 3.000000 -7.725545 23.714018 622.038635
7.120000 4.800000 3.040000 -22.374405 14.076725 698.768188
7.120000 4.800000 3.080000 -24.415611 2.539322 602.570251
7.120000 4.800000 3.120000 -21.396713 -1.401217 459.782745
7.120000 4.800000 3.160000 -23.596846 -0.787836 557.431763
7.120000 4.800000 3.200000 -31.381565 -5.997899 1020.777405
7.120000 4.840000 2.800000 -1.303818 -53.551842 2869.499756
7.120000 4.840000 2.840000 22.404739 -50.468407 3049.032471
7.120000 4.840000 2.880000 40.988701 -31.938656 2700.151367
7.120000 4.840000 2.920000 44.028702 -5.369946 1967.362915
7.120000 4.840000 2.960000 30.377733 16.080666 1181.394531
7.120000 4.840000 3.000000 8.951612 23.358170 625.735413
7.120000 4.840000 3.040000 -8.894051 17.344318 379.929504
7.120000 4.840000 3.080000 -17.863159 5.707878 351.672333
7.120000 4.840000 3.120000 -20.116995 -5.160065 431.319763
7.120000 4.840000 3.160000 -19.585945 -14.565939 595.775818
7.120000 4.840000 3.200000 -16.362787 -24.537056 869.807983
7.120000 4.880000 2.800000 32.933308 -49.672920 3552.001709
7.120000 4.880000 2.840000 52.541550 -39.280174 4303.546875
7.120000 4.880000 2.880000 66.284744 -17.397041 4696.324707
7.120000 4.880000 2.920000 65.990234 11.230816 4480.842285
7.120000 4.880000 2.960000 48.604576 35.715050 3637.969727
7.120000 4.880000 3.000000 20.294228 45.062809 2442.512451
7.120000 4.880000 3.040000 -6.199459 35.796661 1319.834351
7.120000 4.880000 3.080000 -19.628338 14.595596 598.303101
7.120000 4.880000 3.120000 -17.285870 -6.614284 342.550049
7.120000 4.880000 3.160000 -5.259141 -18.967182 387.412567
7.120000 4.880000 3.200000 7.744944 -21.376411 516.935120
7.120000 4.920000 2.800000 57.946102 -21.475590 3818.951660
7.120000 4.920000 2.840000 70.631996 -7.393315 5043.540039
7.120000 4.920000 2.880000 78.778168 16.803089 6488.343262
7.120000 4.920000 2.920000 71.760071 48.233639 7475.991699
7.120000 4.920000 2.960000 44.065632 73.031548 7275.386719
7.120000 4.920000 3.000000 4.739294 75.467850 5717.857422
7.120000 4.920000 3.040000 -26.110165 52.342880 3421.517822
7.120000 4.920000 3.080000 -32.635086 18.049255 1390.824463
7.120000 4.920000 3.120000 -16.399620 -6.228752 307.744904
7.120000 4.920000 3.160000 5.730833 -9.746846 127.843460
7.120000 4.920000 3.200000 17.232330 0.564016 297.271332
7.120000 4.960000 2.800000 57.533424 17.603134 3619.965332
7.120000 4.960000 2.840000 63.153011 31.438326 4976.670898
7.120000 4.960000 2.880000 63.799583 56.298126 7239.866211
7.120000 4.960000 2.920000 45.441269 85.995056 9460.058594
7.120000 4.960000 2.960000 5.657617 100.845856 10201.895508
7.120000 4.960000 3.000000 -37.728386 85.244980 8690.137695
7.120000 4.960000 3.040000 -59.024021 45.231686 5529.740234
7.120000 4.960000 3.080000 -47.607178 6.357196 2306.857422
7.120000 4.960000 3.120000 -18.138714 -8.083133 394.349976
7.120000 4.960000 3.160000 3.218556 2.697700 17.636688
7.120000 4.960000 3.200000 3.183884 18.666615 358.579620
7.120000 5.000000 2.800000 31.149166 45.689087 3057.763184
7.120000 5.000000 2.840000 31.290497 56.402748 4160.365234
7.120000 5.000000 2.880000 23.132418 77.590591 6555.408691
7.120000 5.000000 2.920000 -5.673009 96.201454 9286.902344
7.120000 5.000000 2.960000 -48.264240 91.163887 10640.291016
7.120000 5.000000 3.000000 -79.623856 56.168137 9494.818359
7.120000 5.000000 3.040000 -78.693001 10.143854 6295.486328
7.120000 5.000000 3.080000 -49.432152 -17.752201 2758.678223
7.120000 5.000000 3.120000 -18.024155 -14.805403 544.070068
7.120000 5.000000 3.160000 -7.977434 4.368072 82.719505
7.120000 5.000000 3.200000 -18.475901 14.113259 540.542969
7.120000 5.040000 2.800000 -4.923052 47.924011 2320.947266
7.120000 5.040000 2.840000 -7.975101 53.926613 2971.681885
7.120000 5.040000 2.880000 -22.279312 65.619659 4802.307617
7.120000 5.040000 2.920000 -51.798775 66.273720 7075.319336
7.120000 5.040000 2.960000 -80.990372 42.486134 8364.511719
7.120000 5.040000 3.000000 -87.580231 1.554348 7672.712891
7.120000 5.040000 3.040000 -65.106430 -31.977793 5261.426270
7.120000 5.040000 3.080000 -31.023540 -38.699188 2460.087402
7.120000 5.040000 3.120000 -10.598613 -22.764175 630.538269
7.120000 5.040000 3.160000 -12.810334 -6.689084 208.848511
7.120000 5.040000 3.200000 -23.326283 -7.863931 605.956909
7.120000 5.080000 2.800000 -29.299805 26.974293 1586.091064
7.120000 5.080000 2.840000 -33.095619 27.799545 1868.134766
7.120000 5.080000 2.880000 -46.238853 27.142654 2874.755127
7.120000 5.080000 2.920000 -63.116741 13.070091 4154.550293
7.120000 5.080000 2.960000 -68.319252 -14.811115 4886.889160
7.120000 5.080000 3.000000 -52.669071 -41.773869 4519.086914
7.120000 5.080000 3.040000 -24.214710 -51.092415 3196.787109
7.120000 5.080000 3.080000 -1.635125 -40.439743 1638.046387
7.120000 5.080000 3.120000 3.591731 -23.945013 586.264160
7.120000 5.080000 3.160000 -2.498571 -17.504793 312.660645
7.120000 5.080000 3.200000 -4.295475 -22.956560 545.454773
7.120000 5.120000 2.800000 -30.953327 0.117056 958.122131
7.120000 5.120000 2.840000 -33.266415 -3.667294 1120.103394
7.120000 5.120000 2.880000 -37.304714 -13.153698 1564.661499
7.120000 5.120000 2.920000 -34.699753 -28.896469 2039.078857
7.120000 5.120000 2.960000 -20.545614 -42.483585 2226.977295
7.120000 5.120000 3.000000 -0.118824 -44.478653 1978.364746
7.120000 5.120000 3.040000 15.312136 -34.288033 1410.130737
7.120000 5.120000 3.080000 19.359299 -20.958046 814.022095
7.120000 5.120000 3.120000 16.223824 -13.926617 457.163116
7.120000 5.120000 3.160000 15.250869 -13.812611 423.377197
7.120000 5.120000 3.200000 20.489271 -13.068409 590.593567
7.120000 5.160000 2.800000 -16.092644 -14.674419 474.311768
7.120000 5.160000 2.840000 -15.348192 -21.749632 708.613464
7.120000 5.160000 2.880000 -7.218659 -31.740158 1059.546631
7.120000 5.160000 2.920000 9.452330 -35.321072 1336.924683
7.120000 5.160000 2.960000 25.932621 -26.434422 1371.279541
7.120000 5.160000 3.000000 31.921642 -9.953538 1118.064209
7.120000 5.160000 3.040000 26.415195 2.598301 704.513733
7.120000 5.160000 3.080000 18.699360 4.921252 373.884766
7.120000 5.160000 3.120000 18.078976 2.157595 331.504578
7.120000 5.160000 3.160000 23.752905 4.402327 583.580994
7.120000 5.160000 3.200000 26.268202 14.828350 909.898376
7.120000 5.200000 2.800000 -1.239899 -12.148584 149.125458
7.120000 5.200000 2.840000 3.402622 -20.990465 452.177490
7.120000 5.200000 2.880000 20.003170 -23.961452 974.277954
7.120000 5.200000 2.920000 37.377346 -10.730212 1512.203491
7.120000 5.200000 2.960000 39.919090 13.016331 1762.958740
7.120000 5.200000 3.000000 24.953915 29.968674 1520.819336
7.120000 5.200000 3.040000 6.548770 29.214254 896.359070
7.120000 5.200000 3.080000 0.748500 17.888968 320.575409
7.120000 5.200000 3.120000 8.376023 13.022690 239.748230
7.120000 5.200000 3.160000 14.760746 22.423235 720.681091
7.120000 5.200000 3.200000 6.817248 36.016121 1343.635864
7.160000 4.800000 2.800000 -19.932915 -36.947952 1762.472168
7.160000 4.800000 2.840000 2.732368 -38.298985 1474.278076
7.160000 4.800000 2.880000 21.134026 -20.756485 877.478699
7.160000 4.800000 2.920000 20.551434 5.522976 452.864685
7.160000 4.800000 2.960000 1.223303 21.947632 483.195007
7.160000 4.800000 3.000000 -21.360825 18.479534 797.778015
7.160000 4.800000 3.040000 -31.219208 2.338246 980.106323
7.160000 4.800000 3.080000 -26.554352 -10.578760 817.043762
7.160000 4.800000 3.120000 -19.159454 -12.299209 518.355225
7.160000 4.800000 3.160000 -19.819534 -9.710654 487.110748
7.160000 4.800000 3.200000 -25.878021 -14.817211 889.221741
7.160000 4.840000 2.800000 9.829371 -47.786057 2380.123535
7.160000 4.840000 2.840000 31.984600 -35.116779 2256.202881
7.160000 4.840000 2.880000 39.809616 -8.771942 1661.752563
7.160000 4.840000 2.920000 27.132931 15.626493 980.383179
7.160000 4.840000 2.960000 2.720342 23.676678 567.985352
7.160000 4.840000 3.000000 -17.429899 13.817278 494.718567
7.160000 4.840000 3.040000 -23.701626 -3.108775 571.431580
7.160000 4.840000 3.080000 -19.148079 -15.205441 597.854370
7.160000 4.840000 3.120000 -13.163883 -19.859213 567.676147
7.160000 4.840000 3.160000 -10.283844 -23.001171 634.811340
7.160000 4.840000 3.200000 -6.265028 -29.380041 902.437378
7.160000 4.880000 2.800000 42.284351 -32.040936 2814.587891
7.160000 4.880000 2.840000 52.930309 -8.889172 2880.635010
7.160000 4.880000 2.880000 46.233955 16.698885 2416.431396
7.160000 4.880000 2.920000 25.333447 31.923903 1660.919067
7.160000 4.880000 2.960000 1.422170 30.638060 940.713257
7.160000 4.880000 3.000000 -14.291454 16.550848 478.176239
7.160000 4.880000 3.040000 -17.469822 -0.945139 306.087952
7.160000 4.880000 3.080000 -11.292182 -13.988865 323.201721
7.160000 4.880000 3.120000 -1.685067 -20.293800 414.677765
7.160000 4.880000 3.160000 7.685921 -21.690098 529.533752
7.160000 4.880000 3.200000 16.424305 -19.989445 669.335693
7.160000 4.920000 2.800000 54.801796 4.700204 3025.328857
7.160000 4.920000 2.840000 49.276329 27.348736 3176.109863
7.160000 4.920000 2.880000 32.121487 42.929985 2874.773438
7.160000 4.920000 2.920000 10.009686 46.434841 2256.388428
7.160000 4.920000 2.960000 -9.332293 37.732601 1510.840820
7.160000 4.920000 3.000000 -19.727896 20.884380 825.347229
7.160000 4.920000 3.040000 -18.441261 2.753002 347.659119
7.160000 4.920000 3.080000 -7.548717 -9.434832 145.999161
7.160000 4.920000 3.120000 6.603689 -11.574663 177.581543
7.160000 4.920000 3.160000 16.832731 -5.153491 309.899323
7.160000 4.920000 3.200000 19.740990 4.012646 405.807983
7.160000 4.960000 2.800000 37.263870 40.188873 3003.741699
7.160000 4.960000 2.840000 20.581329 51.738926 3100.507568
7.160000 4.960000 2.880000 1.631281 53.833843 2900.743896
7.160000 4.960000 2.920000 -15.628196 47.532799 2503.607422
7.160000 4.960000 2.960000 -27.971470 33.931248 1933.732666
7.160000 4.960000 3.000000 -31.311893 15.755406 1228.667480
7.160000 4.960000 3.040000 -23.310225 -0.390388 543.518982
7.160000 4.960000 3.080000 -7.848538 -6.590550 105.034904
7.160000 4.960000 3.120000 5.329094 -0.428925 28.583225
7.160000 4.960000 3.160000 7.947824 11.387501 192.843079
7.160000 4.960000 3.200000 0.915687 18.176407 331.220245
7.160000 5.000000 2.800000 0.935597 52.317261 2737.970947
7.160000 5.000000 2.840000 -16.487818 49.624363 2734.425537
7.160000 5.000000 2.880000 -29.612278 41.054268 2562.339844
7.160000 5.000000 2.920000 -38.483162 28.846649 2313.083008
7.160000 5.000000 2.960000 -41.693535 13.341578 1916.348511
7.160000 5.000000 3.000000 -36.054531 -2.308955 1305.260498
7.160000 5.000000 3.040000 -22.101448 -10.919603 607.711731
7.160000 5.000000 3.080000 -7.685825 -7.400517 113.839569
7.160000 5.000000 3.120000 -2.897077 4.171242 25.792316
7.160000 5.000000 3.160000 -10.012594 12.157920 248.067062
7.160000 5.000000 3.200000 -19.794189 8.178434 458.696716
7.160000 5.040000 2.800000 -30.232195 36.228077 2226.458984
7.160000 5.040000 2.840000 -40.308651 24.190567 2209.970947
7.160000 5.040000 2.880000 -44.255791 10.657917 2072.166260
7.160000 5.040000 2.920000 -43.097481 -3.034945 1866.603760
7.160000 5.040000 2.960000 -35.871429 -15.442587 1525.232910
7.160000 5.040000 3.000000 -22.750479 -22.134243 1007.509033
7.160000 5.040000 3.040000 -9.158153 -18.931194 442.261871
7.160000 5.040000 3.080000 -3.558190 -8.265756 80.983429
7.160000 5.040000 3.120000 -9.170601 0.083847 84.106949
7.160000 5.040000 3.160000 -18.734846 -2.750072 358.557343
7.160000 5.040000 3.200000 -19.925499 -15.004780 622.168945
7.160000 5.080000 2.800000 -38.501175 7.116850 1532.989990
7.160000 5.080000 2.840000 -39.923115 -6.804855 1640.161133
7.160000 5.080000 2.880000 -35.028465 -20.279636 1638.257080
7.160000 5.080000 2.920000 -23.882666 -30.371906 1492.834473
7.160000 5.080000 2.960000 -8.635489 -33.003422 1163.797485
7.160000 5.080000 3.000000 4.617465 -25.985466 696.565430
7.160000 5.080000 3.040000 8.737366 -13.238430 251.597595
7.160000 5.080000 3.080000 2.176852 -4.140597 21.883232
7.160000 5.080000 3.120000 -7.605125 -6.204652 96.335632
7.160000 5.080000 3.160000 -9.336004 -17.335417 387.677643
7.160000 5.080000 3.200000 1.750234 -26.248522 692.048218
7.160000 5.120000 2.800000 -25.180279 -13.339067 811.977173
7.160000 5.120000 2.840000 -21.564062 -25.095013 1094.768433
7.160000 5.120000 2.880000 -9.654634 -35.282650 1338.077271
7.160000 5.120000 2.920000 8.544685 -36.454262 1401.924805
7.160000 5.120000 2.960000 24.038027 -24.957476 1200.702393
7.160000 5.120000 3.000000 27.149012 -6.625383 780.964539
7.160000 5.120000 3.040000 16.787519 6.128345 319.377411
7.160000 5.120000 3.080000 3.023400 4.797066 32.152786
7.160000 5.120000 3.120000 -1.076784 -6.990851 50.031464
7.160000 5.120000 3.160000 8.722190 -16.201309 338.559021
7.160000 5.120000 3.200000 23.851704 -12.180433 717.266724
7.160000 5.160000 2.800000 -6.929499 -14.558822 259.977234
7.160000 5.160000 2.840000 -1.522085 -24.860283 620.350464
7.160000 5.160000 2.880000 15.229973 -29.589310 1107.479248
7.160000 5.160000 2.920000 34.037445 -18.795988 1511.836792
7.160000 5.160000 2.960000 39.805058 4.209106 1602.159180
7.160000 5.160000 3.000000 26.901152 23.554043 1278.464844
7.160000 5.160000 3.040000 6.263045 25.375864 683.160156
7.160000 5.160000 3.080000 -4.281481 11.635600 153.718277
7.160000 5.160000 3.120000 2.805722 -1.586182 10.388047
7.160000 5.160000 3.160000 17.845203 0.013641 318.451477
7.160000 5.160000 3.200000 24.308376 15.326574 825.801025
7.160000 5.200000 2.800000 0.032379 -3.546436 12.578259
7.160000 5.200000 2.840000 7.621862 -14.370070 264.591675
7.160000 5.200000 2.880000 26.402306 -12.113645 843.822144
7.160000 5.200000 2.920000 38.221348 8.596767 1534.775879
7.160000 5.200000 2.960000 28.784773 33.377506 1942.621094
7.160000 5.200000 3.000000 3.844802 41.789162 1761.116455
7.160000 5.200000 3.040000 -15.592605 28.541201 1057.729492
7.160000 5.200000 3.080000 -14.607824 9.184298 297.739868
7.160000 5.200000 3.120000 0.632089 3.796689 14.814381
7.160000 5.200000 3.160000 10.308058 16.323580 372.715332
7.160000 5.200000 3.200000 2.352204 31.748533 1013.502197
7.200000 4.800000 2.800000 -15.517972 -38.487965 1722.130859
7.200000 4.800000 2.840000 4.843647 -36.267639 1338.802612
7.200000 4.800000 2.880000 17.260746 -17.667271 610.065796
7.200000 4.800000 2.920000 10.707874 4.146547 131.852417
7.200000 4.800000 2.960000 -9.583432 12.350410 244.374817
7.200000 4.800000 3.000000 -26.814697 2.338069 724.494568
7.200000 4.800000 3.040000 -28.826090 -14.565054 1043.084229
7.200000 4.800000 3.080000 -19.061695 -23.419773 911.833984
7.200000 4.800000 3.120000 -10.959208 -20.815029 553.369690
7.200000 4.800000 3.160000 -12.289193 -16.737045 431.152954
7.200000 4.800000 3.200000 -16.676548 -21.602085 744.757324
7.200000 4.840000 2.800000 15.118903 -40.490261 1868.042480
7.200000 4.840000 2.840000 29.287619 -23.150156 1393.694336
7.200000 4.840000 2.880000 25.671925 -0.274858 659.123291
7.200000 4.840000 2.920000 6.579710 11.919917 185.377014
7.200000 4.840000 2.960000 -13.667539 6.037487 223.252853
7.200000 4.840000 3.000000 -21.551552 -10.846014 582.105408
7.200000 4.840000 3.040000 -15.524446 -24.985554 865.286316
7.200000 4.840000 3.080000 -4.964192 -28.949207 862.699768
7.200000 4.840000 3.120000 1.006568 -26.681847 712.934143
7.200000 4.840000 3.160000 2.607474 -26.411469 704.364624
7.200000 4.840000 3.200000 7.149458 -29.907356 945.564697
7.200000 4.880000 2.800000 39.308231 -16.617624 1821.282471
7.200000 4.880000 2.840000 35.865788 6.296456 1326.000122
7.200000 4.880000 2.880000 17.137249 19.009951 655.063538
7.200000 4.880000 2.920000 -3.402484 14.291649 215.828125
7.200000 4.880000 2.960000 -12.860483 -1.906469 169.026657
7.200000 4.880000 3.000000 -8.601130 -17.243921 371.332245
7.200000 4.880000 3.040000 2.276843 -23.787842 571.045410
7.200000 4.880000 3.080000 11.412003 -22.661743 643.788452
7.200000 4.880000 3.120000 16.480110 -19.594589 655.541992
7.200000 4.880000 3.160000 20.728514 -17.456882 734.414062
7.200000 4.880000 3.200000 26.797314 -13.733898 906.715942
7.200000 4.920000 2.800000 37.788994 19.260754 1798.984619
7.200000 4.920000 2.840000 17.225168 32.073570 1325.420288
7.200000 4.920000 2.880000 -4.568569 25.935432 693.518494
7.200000 4.920000 2.920000 -13.756909 8.018513 253.549103
7.200000 4.920000 2.960000 -8.148575 -8.123049 132.383194
7.200000 4.920000 3.000000 4.235048 -14.255224 221.147034
7.200000 4.920000 3.040000 14.478957 -11.641541 345.165649
7.200000 4.920000 3.080000 19.683929 -6.042564 423.969666
7.200000 4.920000 3.120000 22.024694 -0.848876 485.807739
7.200000 4.920000 3.160000 23.495680 4.547460 572.726379
7.200000 4.920000 3.200000 23.162588 11.354285 665.425293
7.200000 4.960000 2.800000 10.088630 42.586243 1915.368408
7.200000 4.960000 2.840000 -15.014625 35.706367 1500.383667
7.200000 4.960000 2.880000 -25.696228 14.181020 861.397461
7.200000 4.960000 2.920000 -18.019135 -5.461623 354.518524
7.200000 4.960000 2.960000 -1.619364 -12.000748 146.640289
7.200000 4.960000 3.000000 11.352688 -6.395517 169.786148
7.200000 4.960000 3.040000 15.964533 3.402589 266.443909
7.200000 4.960000 3.080000 14.651094 11.379717 344.152527
7.200000 4.960000 3.120000 11.058784 16.624828 398.681641
7.200000 4.960000 3.160000 6.204165 19.998804 438.443848
7.200000 4.960000 3.200000 0.201572 20.853273 434.899628
7.200000 5.000000 2.800000 -24.390520 38.145645 2049.987793
7.200000 5.000000 2.840000 -39.219372 15.015400 1763.621460
7.200000 5.000000 2.880000 -32.473610 -9.839619 1151.353516
7.200000 5.000000 2.920000 -12.063382 -20.494617 565.554565
7.200000 5.000000 2.960000 6.634121 -14.071367 242.014938
7.200000 5.000000 3.000000 13.820407 0.748820 191.564377
7.200000 5.000000 3.040000 9.906549 13.675574 285.161072
7.200000 5.000000 3.080000 0.656911 19.942688 398.142334
7.200000 5.000000 3.120000 -9.011939 19.729425 470.465271
7.200000 5.000000 3.160000 -16.321222 14.468979 475.733643
7.200000 5.000000 3.200000 -18.813541 6.021360 390.206116
7.200000 5.040000 2.800000 -42.447697 12.218172 1951.090698
7.200000 5.040000 2.840000 -40.834450 -14.802495 1886.566162
7.200000 5.040000 2.880000 -20.808460 -31.803587 1444.460205
7.200000 5.040000 2.920000 3.516496 -29.541771 885.081970
7.200000 5.040000 2.960000 17.513435 -12.563679 464.566467
7.200000 5.040000 3.000000 15.753036 6.830324 294.811493
7.200000 5.040000 3.040000 2.696558 18.103813 335.019470
7.200000 5.040000 3.080000 -12.870619 17.475475 471.045074
7.200000 5.040000 3.120000 -23.192120 7.248209 590.410950
7.200000 5.040000 3.160000 -23.877737 -6.754315 615.767090
7.200000 5.040000 3.200000 -14.832448 -17.257025 517.806396
7.200000 5.080000 2.800000 -35.915230 -13.954172 1484.622559
7.200000 5.080000 2.840000 -22.752052 -34.202980 1687.499756
7.200000 5.080000 2.880000 1.604069 -39.694107 1578.195190
7.200000 5.080000 2.920000 22.779419 -26.812664 1237.820801
7.200000 5.080000 2.960000 28.699356 -3.713213 837.440979
7.200000 5.080000 3.000000 17.221546 15.609170 540.227844
7.200000 5.080000 3.040000 -3.267363 20.392345 426.523407
7.200000 5.080000 3.080000 -19.703550 9.285597 474.452209
7.200000 5.080000 3.120000 -22.395752 -9.545404 592.684448
7.200000 5.080000 3.160000 -10.529575 -23.830381 678.759033
7.200000 5.080000 3.200000 7.769907 -24.728886 671.889221
7.200000 5.120000 2.800000 -16.456715 -22.911066 795.740356
7.200000 5.120000 2.840000 -0.740975 -34.470810 1188.785767
7.200000 5.120000 2.880000 21.580490 -31.424431 1453.212402
7.200000 5.120000 2.920000 36.613014 -12.047884 1485.664307
7.200000 5.120000 2.960000 33.280235 13.075632 1278.546265
7.200000 5.120000 3.000000 12.882767 27.657326 930.893372
7.200000 5.120000 3.040000 -10.525059 22.116602 599.920959
7.200000 5.120000 3.080000 -20.404388 1.567607 418.796478
7.200000 5.120000 3.120000 -10.572556 -17.881981 431.544159
7.200000 5.120000 3.160000 10.266921 -21.777256 579.658569
7.200000 5.120000 3.200000 26.052898 -8.240190 746.654297
7.200000 5.160000 2.800000 -3.031380 -14.609314 222.621323
7.200000 5.160000 2.840000 10.720892 -22.256073 610.270325
7.200000 5.160000 2.880000 29.719559 -14.718401 1099.883545
7.200000 5.160000 2.920000 37.774048 8.027342 1491.316895
7.200000 5.160000 2.960000 25.004827 30.938066 1582.405273
7.200000 5.160000 3.000000 -1.049763 36.141979 1307.344727
7.200000 5.160000 3.040000 -20.470295 19.678074 806.259583
7.200000 5.160000 3.080000 -18.541182 -3.923535 359.169556
7.200000 5.160000 3.120000 0.941521 -14.471714 210.316971
7.200000 5.160000 3.160000 19.662432 -4.134502 403.705322
7.200000 5.160000 3.200000 21.851137 16.762341 758.448242
7.200000 5.200000 2.800000 -4.678717 -3.317516 32.896301
7.200000 5.200000 2.840000 9.153269 -11.035477 205.564087
7.200000 5.200000 2.880000 25.665089 -0.385312 658.845215
7.200000 5.200000 2.920000 26.115881 22.967934 1209.565186
7.200000 5.200000 2.960000 5.866233 38.790451 1539.111816
7.200000 5.200000 3.000000 -19.355751 32.242386 1414.216553
7.200000 5.200000 3.040000 -28.308380 9.356592 888.910217
7.200000 5.200000 3.080000 -15.255958 -8.542540 305.719238
7.200000 5.200000 3.120000 4.737303 -5.916590 57.448082
7.200000 5.200000 3.160000 11.442880 12.378048 284.155579
7.200000 5.200000 3.200000 -0.804653 27.599918 762.402954
