#kx 	ky 	kz 	real 	imag 	intensity
1.800000 -4.200000 7.800000 -32.873329 -3.241771 1091.164795
1.800000 -4.200000 7.840000 -29.074272 -13.657406 1031.838013
1.800000 -4.200000 7.880000 -19.518682 -22.948298 907.603271
1.800000 -4.200000 7.920000 -5.272681 -26.339912 721.592163
1.800000 -4.200000 7.960000 8.530561 -21.485748 534.407837
1.800000 -4.200000 8.000000 16.696436 -10.980975 399.352783
1.800000 -4.200000 8.040000 18.055658 -0.090689 326.015015
1.800000 -4.200000 8.080000 15.514547 7.748117 300.734497
1.800000 -4.200000 8.120000 12.352985 12.969770 320.811218
1.800000 -4.200000 8.160000 9.031665 17.703390 394.981018
1.800000 -4.200000 8.200000 3.786980 22.269318 510.263733
1.800000 -4.160000 7.800000 -25.660427 -17.111784 951.270630
1.800000 -4.160000 7.840000 -17.950527 -19.933805 719.578003
1.800000 -4.160000 7.880000 -9.152464 -20.532150 505.336792
1.800000 -4.160000 7.920000 -0.177473 -16.919422 286.298340
1.800000 -4.160000 7.960000 5.508468 -8.868237 108.988838
1.800000 -4.160000 8.000000 5.164481 0.174744 26.702396
1.800000 -4.160000 8.040000 0.134578 5.483851 30.090738
1.800000 -4.160000 8.080000 -4.805786 5.445567 52.749783
1.800000 -4.160000 8.120000 -5.839577 3.160817 44.091419
1.800000 -4.160000 8.160000 -3.725853 3.283173 24.661205
1.800000 -4.160000 8.200000 -2.817689 7.281506 60.959694
1.800000 -4.120000 7.800000 -13.117558 -22.219629 665.782227
1.800000 -4.120000 7.840000 -7.980928 -17.912567 384.555267
1.800000 -4.120000 7.880000 -5.381606 -13.415937 208.949066
1.800000 -4.120000 7.920000 -4.919375 -8.704147 99.962433
1.800000 -4.120000 7.960000 -7.458984 -4.702998 77.754639
1.800000 -4.120000 8.000000 -12.452663 -4.138714 172.197784
1.800000 -4.120000 8.040000 -16.172966 -8.685780 337.007568
1.800000 -4.120000 8.080000 -14.122400 -15.701661 445.984344
1.800000 -4.120000 8.120000 -5.811357 -19.024591 395.706970
1.800000 -4.120000 8.160000 3.402088 -14.203690 213.319000
1.800000 -4.120000 8.200000 6.201427 -3.162066 48.456352
1.800000 -4.080000 7.800000 -3.043593 -18.931583 367.668304
1.800000 -4.080000 7.840000 -3.673101 -12.485617 169.382294
1.800000 -4.080000 7.880000 -7.791437 -9.049976 142.608551
1.800000 -4.080000 7.920000 -13.192315 -9.420033 262.774170
1.800000 -4.080000 7.960000 -17.929209 -14.030413 518.308960
1.800000 -4.080000 8.000000 -19.068087 -22.675259 877.759277
1.800000 -4.080000 8.040000 -13.253873 -32.407677 1225.922729
1.800000 -4.080000 8.080000 -0.103920 -37.157623 1380.699707
1.800000 -4.080000 8.120000 15.040092 -31.470520 1216.598022
1.800000 -4.080000 8.160000 23.250864 -15.910522 793.747375
1.800000 -4.080000 8.200000 18.589436 1.542860 347.947540
1.800000 -4.040000 7.800000 0.773302 -12.988040 169.287170
1.800000 -4.040000 7.840000 -3.523281 -9.087090 94.988724
1.800000 -4.040000 7.880000 -10.100684 -10.306793 208.253815
1.800000 -4.040000 7.920000 -15.124592 -17.180599 523.926270
1.800000 -4.040000 7.960000 -14.894909 -28.106476 1011.832275
1.800000 -4.040000 8.000000 -6.714602 -39.123505 1575.734497
1.800000 -4.040000 8.040000 9.085531 -44.189022 2035.216553
1.800000 -4.040000 8.080000 27.192791 -37.949055 2179.578613
1.800000 -4.040000 8.120000 38.563339 -20.257603 1897.501587
1.800000 -4.040000 8.160000 35.857296 1.526323 1288.075439
1.800000 -4.040000 8.200000 19.527792 16.020180 637.980835
1.800000 -4.000000 7.800000 0.756150 -9.665051 93.984962
1.800000 -4.000000 7.840000 -2.895551 -8.580966 82.017197
1.800000 -4.000000 7.880000 -7.321114 -12.929676 220.775238
1.800000 -4.000000 7.920000 -7.726421 -22.214752 553.192810
1.800000 -4.000000 7.960000 -0.562441 -32.480221 1055.281006
1.800000 -4.000000 8.000000 14.193168 -37.618645 1616.608521
1.800000 -4.000000 8.040000 31.783543 -32.291294 2052.921387
1.800000 -4.000000 8.080000 43.903107 -15.721624 2174.652344
1.800000 -4.000000 8.120000 43.097969 6.111908 1894.790405
1.800000 -4.000000 8.160000 28.241909 22.651222 1310.683350
1.800000 -4.000000 8.200000 6.692100 25.146364 677.123840
1.800000 -3.960000 7.800000 1.764613 -9.054096 85.090523
1.800000 -3.960000 7.840000 0.322201 -7.333038 53.877266
1.800000 -3.960000 7.880000 -1.355167 -10.607165 114.348434
1.800000 -3.960000 7.920000 1.595416 -17.100988 294.989166
1.800000 -3.960000 7.960000 11.040398 -21.637894 590.088867
1.800000 -3.960000 8.000000 24.136230 -18.889832 939.383362
1.800000 -3.960000 8.040000 34.384064 -7.045172 1231.898193
1.800000 -3.960000 8.080000 35.253082 10.146126 1345.723633
1.800000 -3.960000 8.120000 24.604332 24.640282 1212.516602
1.800000 -3.960000 8.160000 7.040119 28.652142 870.508484
1.800000 -3.960000 8.200000 -8.077467 19.993458 464.983826
1.800000 -3.920000 7.800000 5.325402 -6.994294 77.280060
1.800000 -3.920000 7.840000 3.225284 -2.113761 14.870440
1.800000 -3.920000 7.880000 0.915422 -2.345279 6.338334
1.800000 -3.920000 7.920000 2.426558 -4.846461 29.376373
1.800000 -3.920000 7.960000 7.787286 -5.024127 85.883667
1.800000 -3.920000 8.000000 13.402611 -0.169106 179.658569
1.800000 -3.920000 8.040000 14.814334 8.575212 292.998779
1.800000 -3.920000 8.080000 9.861912 16.895905 382.728882
1.800000 -3.920000 8.120000 0.360128 19.993679 399.876892
1.800000 -3.920000 8.160000 -8.637815 15.772287 323.376892
1.800000 -3.920000 8.200000 -11.830617 6.623930 183.839951
1.800000 -3.880000 7.800000 7.747682 -0.544812 60.323391
1.800000 -3.880000 7.840000 1.128052 5.453138 31.009214
1.800000 -3.880000 7.880000 -4.908512 5.800924 57.744213
1.800000 -3.880000 7.920000 -7.872504 3.732738 75.909645
1.800000 -3.880000 7.960000 -8.506097 2.041304 76.520607
1.800000 -3.880000 8.000000 -8.575913 1.319067 75.286224
1.800000 -3.880000 8.040000 -8.853624 0.765617 78.972832
1.800000 -3.880000 8.080000 -8.924082 -0.225149 79.689926
1.800000 -3.880000 8.120000 -8.138214 -1.393149 68.171394
1.800000 -3.880000 8.160000 -6.350584 -1.987054 44.278301
1.800000 -3.880000 8.200000 -4.014976 -1.254622 17.694105
1.800000 -3.840000 7.800000 4.129679 7.769747 77.423218
1.800000 -3.840000 7.840000 -6.946570 9.710419 142.547073
1.800000 -3.840000 7.880000 -15.619041 6.519111 286.453247
1.800000 -3.840000 7.920000 -21.297337 0.754972 454.146515
1.800000 -3.840000 7.960000 -24.096514 -6.809525 627.011597
1.800000 -3.840000 8.000000 -22.803314 -15.592834 763.127625
1.800000 -3.840000 8.040000 -16.059641 -22.948099 784.527344
1.800000 -3.840000 8.080000 -5.261425 -24.766470 641.060669
1.800000 -3.840000 8.120000 4.698448 -18.892799 379.013275
1.800000 -3.840000 8.160000 8.378922 -7.769431 130.570404
1.800000 -3.840000 8.200000 3.870778 2.726659 22.417591
1.800000 -3.800000 7.800000 -5.846887 11.484356 166.076508
1.800000 -3.800000 7.840000 -16.257088 6.317354 304.201874
1.800000 -3.800000 7.880000 -23.027334 -1.379318 532.160645
1.800000 -3.800000 7.920000 -27.134129 -11.114302 859.788635
1.800000 -3.800000 7.960000 -26.932713 -23.626047 1283.561157
1.800000 -3.800000 8.000000 -18.821657 -36.393566 1678.746460
1.800000 -3.800000 8.040000 -2.391043 -42.581856 1818.931519
1.800000 -3.800000 8.080000 15.832697 -36.056168 1550.721558
1.800000 -3.800000 8.120000 25.285780 -18.014612 963.896912
1.800000 -3.800000 8.160000 19.390644 1.748122 379.053009
1.800000 -3.800000 8.200000 1.485785 11.272967 129.287354
1.840000 -4.200000 7.800000 -41.231541 -19.713390 2088.657715
1.840000 -4.200000 7.840000 -26.908413 -29.481831 1593.240967
1.840000 -4.200000 7.880000 -9.835471 -30.668739 1037.308105
1.840000 -4.200000 7.920000 4.186559 -23.378317 564.072998
1.840000 -4.200000 7.960000 11.248515 -11.832607 266.539673
1.840000 -4.200000 8.000000 11.796975 -1.116940 140.416183
1.840000 -4.200000 8.040000 9.082911 6.478905 124.475479
1.840000 -4.200000 8.080000 5.552244 11.820419 170.549713
1.840000 -4.200000 8.120000 1.146467 16.166195 262.660248
1.840000 -4.200000 8.160000 -4.944983 18.884256 381.067993
1.840000 -4.200000 8.200000 -11.788124 18.336754 475.196411
1.840000 -4.160000 7.800000 -20.670736 -39.280281 1970.219727
1.840000 -4.160000 7.840000 -3.331112 -34.849148 1225.559448
1.840000 -4.160000 7.880000 8.328732 -22.345604 568.693787
1.840000 -4.160000 7.920000 10.185294 -6.846582 150.615906
1.840000 -4.160000 7.960000 2.861005 4.406910 27.606203
1.840000 -4.160000 8.000000 -7.681959 6.749115 104.563049
1.840000 -4.160000 8.040000 -14.100410 1.672720 201.619568
1.840000 -4.160000 8.080000 -13.172247 -4.461281 193.411118
1.840000 -4.160000 8.120000 -7.859543 -5.751779 94.855377
1.840000 -4.160000 8.160000 -4.118706 -1.288826 18.624809
1.840000 -4.160000 8.200000 -5.681634 4.997130 57.252281
1.840000 -4.120000 7.800000 6.158373 -39.470005 1595.806885
1.840000 -4.120000 7.840000 17.125349 -22.427839 796.285522
1.840000 -4.120000 7.880000 15.083725 -2.153506 232.156342
1.840000 -4.120000 7.920000 -0.050731 11.263146 126.861038
1.840000 -4.120000 7.960000 -19.955475 9.605228 490.481384
1.840000 -4.120000 8.000000 -31.712456 -6.358900 1046.115479
1.840000 -4.120000 8.040000 -27.021065 -25.639904 1387.542603
1.840000 -4.120000 8.080000 -9.190466 -34.428246 1269.768799
1.840000 -4.120000 8.120000 8.909910 -26.635818 788.853271
1.840000 -4.120000 8.160000 14.802835 -8.400910 289.699219
1.840000 -4.120000 8.200000 5.703407 7.357354 86.659515
1.840000 -4.080000 7.800000 23.568949 -23.029078 1085.833740
1.840000 -4.080000 7.840000 22.517866 -0.334153 507.165955
1.840000 -4.080000 7.880000 4.561970 17.068245 312.136566
1.840000 -4.080000 7.920000 -22.772213 16.287968 783.871582
1.840000 -4.080000 7.960000 -42.388878 -6.000250 1832.820068
1.840000 -4.080000 8.000000 -39.068867 -37.612740 2941.094482
1.840000 -4.080000 8.040000 -12.426023 -57.518570 3462.791992
1.840000 -4.080000 8.080000 20.782480 -51.471714 3081.249023
1.840000 -4.080000 8.120000 38.613728 -23.569740 2046.552490
1.840000 -4.080000 8.160000 30.652622 6.815866 986.039307
1.840000 -4.080000 8.200000 5.117501 20.327845 439.410065
1.840000 -4.040000 7.800000 24.332966 -2.992088 601.045776
1.840000 -4.040000 7.840000 11.498583 17.217991 428.676605
1.840000 -4.040000 7.880000 -16.459524 22.335861 769.806641
1.840000 -4.040000 7.920000 -42.864544 2.376650 1843.017578
1.840000 -4.040000 7.960000 -46.667091 -34.935730 3398.322754
1.840000 -4.040000 8.000000 -19.846027 -65.979820 4747.201660
1.840000 -4.040000 8.040000 23.204075 -68.079071 5173.188965
1.840000 -4.040000 8.080000 54.614021 -38.098640 4434.197754
1.840000 -4.040000 8.120000 54.217033 3.913990 2954.806152
1.840000 -4.040000 8.160000 25.026573 30.126438 1533.931641
1.840000 -4.040000 8.200000 -10.344896 26.220469 794.529785
1.840000 -4.000000 7.800000 13.681608 8.373857 257.307892
1.840000 -4.000000 7.840000 -6.211472 20.745026 468.938446
1.840000 -4.000000 7.880000 -33.563805 11.140477 1250.639160
1.840000 -4.000000 7.920000 -46.373772 -21.296824 2604.081299
1.840000 -4.000000 7.960000 -28.788059 -57.430893 4127.059570
1.840000 -4.000000 8.000000 13.257265 -70.668861 5169.842773
1.840000 -4.000000 8.040000 53.539932 -48.495644 5218.351562
1.840000 -4.000000 8.080000 65.034554 -4.230924 4247.394043
1.840000 -4.000000 8.120000 41.377403 32.398254 2761.736328
1.840000 -4.000000 8.160000 1.602853 38.412182 1478.064819
1.840000 -4.000000 8.200000 -25.776508 14.548334 876.082397
1.840000 -3.960000 7.800000 2.704596 8.453260 78.772446
1.840000 -3.960000 7.840000 -18.280252 11.931046 476.517517
1.840000 -3.960000 7.880000 -36.494789 -6.824009 1378.436768
1.840000 -3.960000 7.920000 -32.737347 -38.160202 2527.935059
1.840000 -3.960000 7.960000 -2.986401 -58.949978 3484.018555
1.840000 -3.960000 8.000000 35.577030 -50.820549 3848.453369
1.840000 -3.960000 8.040000 56.722176 -16.357700 3484.979736
1.840000 -3.960000 8.080000 46.106846 21.578899 2591.490234
1.840000 -3.960000 8.120000 12.980410 37.635605 1584.929688
1.840000 -3.960000 8.160000 -17.533091 23.754244 871.673340
1.840000 -3.960000 8.200000 -24.644281 -5.778067 640.726624
1.840000 -3.920000 7.800000 -1.791718 3.554061 15.841601
1.840000 -3.920000 7.840000 -19.418173 0.400556 377.225861
1.840000 -3.920000 7.880000 -26.988197 -18.531488 1071.778809
1.840000 -3.920000 7.920000 -14.742603 -38.753078 1719.145508
1.840000 -3.920000 7.960000 11.247304 -43.183086 1991.280762
1.840000 -3.920000 8.000000 33.224670 -26.307800 1795.979126
1.840000 -3.920000 8.040000 35.899185 0.899334 1289.560303
1.840000 -3.920000 8.080000 18.741699 19.693186 739.072876
1.840000 -3.920000 8.120000 -3.937582 18.515593 358.331726
1.840000 -3.920000 8.160000 -14.844113 1.619373 222.970078
1.840000 -3.920000 8.200000 -7.248518 -15.343497 287.963928
1.840000 -3.880000 7.800000 -1.420532 0.714384 2.528256
1.840000 -3.880000 7.840000 -13.782776 -5.509702 220.321716
1.840000 -3.880000 7.880000 -15.593478 -18.644545 590.775635
1.840000 -3.880000 7.920000 -6.281181 -28.126602 830.559021
1.840000 -3.880000 7.960000 6.862297 -27.554359 806.333862
1.840000 -3.880000 8.000000 15.215874 -18.525574 574.719666
1.840000 -3.880000 8.040000 15.151028 -8.004622 293.627594
1.840000 -3.880000 8.080000 9.622063 -2.315193 97.944214
1.840000 -3.880000 8.120000 4.726168 -2.723280 29.752914
1.840000 -3.880000 8.160000 4.638787 -5.387827 50.547028
1.840000 -3.880000 8.200000 8.649646 -4.980609 99.622841
1.840000 -3.840000 7.800000 -1.615835 0.960825 3.534108
1.840000 -3.840000 7.840000 -8.955484 -5.079454 106.001556
1.840000 -3.840000 7.880000 -11.204144 -12.404158 279.395966
1.840000 -3.840000 7.920000 -10.154966 -19.376856 478.585907
1.840000 -3.840000 7.960000 -5.817871 -26.086842 714.370972
1.840000 -3.840000 8.000000 3.105503 -30.659416 949.643982
1.840000 -3.840000 8.040000 15.339508 -28.981220 1075.211670
1.840000 -3.840000 8.080000 25.379494 -18.851793 999.508789
1.840000 -3.840000 8.120000 27.067806 -3.683365 746.233337
1.840000 -3.840000 8.160000 19.050587 9.111107 445.937134
1.840000 -3.840000 8.200000 6.124618 13.885498 230.317993
1.840000 -3.800000 7.800000 -4.423133 0.226593 19.615448
1.840000 -3.800000 7.840000 -8.273297 -3.386717 79.917305
1.840000 -3.800000 7.880000 -13.774759 -8.634640 264.300995
1.840000 -3.800000 7.920000 -17.575626 -20.532698 730.494324
1.840000 -3.800000 7.960000 -11.014477 -37.116180 1498.929565
1.840000 -3.800000 8.000000 9.506866 -46.996441 2299.046143
1.840000 -3.800000 8.040000 34.888405 -38.599388 2707.113525
1.840000 -3.800000 8.080000 48.208496 -12.525135 2480.937988
1.840000 -3.800000 8.120000 38.911362 16.176359 1775.768677
1.840000 -3.800000 8.160000 12.667927 29.400818 1024.884399
1.840000 -3.800000 8.200000 -13.017374 20.653872 596.034424
1.880000 -4.200000 7.800000 -36.903900 -44.786705 3367.746826
1.880000 -4.200000 7.840000 -13.649579 -45.175453 2227.132568
1.880000 -4.200000 7.880000 3.505486 -33.390396 1127.207031
1.880000 -4.200000 7.920000 9.111473 -17.422653 386.567810
1.880000 -4.200000 7.960000 5.681557 -5.753897 65.387413
1.880000 -4.200000 8.000000 0.221983 -0.928823 0.911989
1.880000 -4.200000 8.040000 -2.719292 0.618233 7.776759
1.880000 -4.200000 8.080000 -4.187173 2.959557 26.291393
1.880000 -4.200000 8.120000 -7.396473 5.928875 89.859375
1.880000 -4.200000 8.160000 -12.513723 6.394001 197.476532
1.880000 -4.200000 8.200000 -16.112743 3.330885 270.715302
1.880000 -4.160000 7.800000 1.573445 -56.598827 3205.903076
1.880000 -4.160000 7.840000 20.870317 -37.214066 1820.456909
1.880000 -4.160000 7.880000 23.268890 -11.133496 665.395996
1.880000 -4.160000 7.920000 8.685249 7.658133 134.080551
1.880000 -4.160000 7.960000 -11.898884 9.591578 233.581787
1.880000 -4.160000 8.000000 -24.208660 -2.940784 594.707397
1.880000 -4.160000 8.040000 -21.610016 -17.802593 783.925110
1.880000 -4.160000 8.080000 -9.338539 -23.327492 631.380188
1.880000 -4.160000 8.120000 1.397966 -17.094761 294.185150
1.880000 -4.160000 8.160000 3.177313 -5.731063 42.940399
1.880000 -4.160000 8.200000 -3.191496 2.527664 16.574732
1.880000 -4.120000 7.800000 36.801105 -38.566494 2841.695801
1.880000 -4.120000 7.840000 40.501724 -4.590588 1661.463135
1.880000 -4.120000 7.880000 18.850441 24.464560 953.853760
1.880000 -4.120000 7.920000 -18.018599 29.395159 1188.745239
1.880000 -4.120000 7.960000 -46.553169 5.331715 2195.624756
1.880000 -4.120000 8.000000 -47.055546 -31.522583 3207.897461
1.880000 -4.120000 8.040000 -20.023548 -55.086369 3435.450439
1.880000 -4.120000 8.080000 13.872282 -49.877655 2680.220703
1.880000 -4.120000 8.120000 30.702881 -22.544868 1450.937988
1.880000 -4.120000 8.160000 21.824780 5.402964 505.513031
1.880000 -4.120000 8.200000 -2.047318 15.976624 259.444000
1.880000 -4.080000 7.800000 48.378700 -3.180162 2350.612061
1.880000 -4.080000 7.840000 29.808678 33.553291 2014.380615
1.880000 -4.080000 7.880000 -15.145041 48.074463 2540.526367
1.880000 -4.080000 7.920000 -60.840279 23.004414 4230.742676
1.880000 -4.080000 7.960000 -74.103981 -30.910709 6446.872070
1.880000 -4.080000 8.000000 -42.080658 -78.273956 7897.593750
1.880000 -4.080000 8.040000 14.274028 -85.889618 7580.774414
1.880000 -4.080000 8.080000 55.526573 -50.072685 5590.474609
1.880000 -4.080000 8.120000 55.361328 0.704115 3065.372559
1.880000 -4.080000 8.160000 20.234915 30.173731 1319.905762
1.880000 -4.080000 8.200000 -19.552547 23.017982 912.129639
1.880000 -4.040000 7.800000 32.970348 26.627670 1796.076660
1.880000 -4.040000 7.840000 -5.667222 51.817726 2717.194092
1.880000 -4.040000 7.880000 -59.546814 38.084751 4996.271484
1.880000 -4.040000 7.920000 -89.787155 -17.998985 8385.697266
1.880000 -4.040000 7.960000 -67.166374 -83.822456 11537.525391
1.880000 -4.040000 8.000000 -0.707621 -112.925766 12752.729492
1.880000 -4.040000 8.040000 65.243607 -83.426918 11216.779297
1.880000 -4.040000 8.080000 85.892067 -17.688293 7690.323242
1.880000 -4.040000 8.120000 52.251823 35.925140 4020.868652
1.880000 -4.040000 8.160000 -3.832965 42.870888 1852.604614
1.880000 -4.040000 8.200000 -39.010052 7.886508 1583.981201
1.880000 -4.000000 7.800000 5.143575 34.852554 1241.156982
1.880000 -4.000000 7.840000 -42.125511 38.483036 3255.502930
1.880000 -4.000000 7.880000 -83.531250 -2.844743 6985.562500
1.880000 -4.000000 7.920000 -80.027031 -70.951401 11438.426758
1.880000 -4.000000 7.960000 -22.308109 -119.013199 14661.792969
1.880000 -4.000000 8.000000 55.304447 -109.028351 14945.763672
1.880000 -4.000000 8.040000 99.799026 -45.825253 12059.799805
1.880000 -4.000000 8.080000 82.961166 24.908619 7502.994629
1.880000 -4.000000 8.120000 24.146740 54.190613 3519.687500
1.880000 -4.000000 8.160000 -28.053204 29.105637 1634.120361
1.880000 -4.000000 8.200000 -37.294899 -20.858625 1825.991821
1.880000 -3.960000 7.800000 -15.630044 22.615112 755.741577
1.880000 -3.960000 7.840000 -55.958458 4.884356 3155.206055
1.880000 -3.960000 7.880000 -70.332886 -47.598087 7212.292969
1.880000 -3.960000 7.920000 -35.605686 -100.800362 11428.477539
1.880000 -3.960000 7.960000 33.105438 -112.575150 13769.133789
1.880000 -3.960000 8.000000 90.481697 -69.268059 12985.001953
1.880000 -3.960000 8.040000 97.427948 0.192198 9492.242188
1.880000 -3.960000 8.080000 53.762608 47.190830 5117.392578
1.880000 -3.960000 8.120000 -2.574556 43.423126 1892.196167
1.880000 -3.960000 8.160000 -28.563606 2.146843 820.488525
1.880000 -3.960000 8.200000 -10.869601 -36.930931 1482.041870
1.880000 -3.920000 7.800000 -19.630474 3.758663 399.483063
1.880000 -3.920000 7.840000 -41.971394 -24.502666 2361.978516
1.880000 -3.920000 7.880000 -31.734873 -66.781136 5466.822266
1.880000 -3.920000 7.920000 12.435621 -90.206017 8291.770508
1.880000 -3.920000 7.960000 63.503677 -73.018303 9364.389648
1.880000 -3.920000 8.000000 86.854691 -24.086319 8123.888184
1.880000 -3.920000 8.040000 68.731232 23.469929 5274.819824
1.880000 -3.920000 8.080000 27.036404 39.431038 2285.773926
1.880000 -3.920000 8.120000 -4.783897 20.405912 439.286957
1.880000 -3.920000 8.160000 -5.710940 -10.017963 132.974426
1.880000 -3.920000 8.200000 17.686310 -23.331516 857.165222
1.880000 -3.880000 7.800000 -11.029449 -8.285187 190.293060
1.880000 -3.880000 7.840000 -15.359849 -32.242424 1275.498779
1.880000 -3.880000 7.880000 2.828831 -53.007698 2817.818359
1.880000 -3.880000 7.920000 33.009800 -53.985291 4004.058594
1.880000 -3.880000 7.960000 55.999947 -33.219490 4239.528809
1.880000 -3.880000 8.000000 58.892452 -3.951756 3483.937500
1.880000 -3.880000 8.040000 43.867428 16.660992 2201.939941
1.880000 -3.880000 8.080000 24.495880 20.516331 1020.968018
1.880000 -3.880000 8.120000 13.924393 12.900341 360.307495
1.880000 -3.880000 8.160000 15.244131 6.034915 268.803741
1.880000 -3.880000 8.200000 21.025377 8.449741 513.464600
1.880000 -3.840000 7.800000 -0.335734 -9.831976 96.780464
1.880000 -3.840000 7.840000 3.285774 -20.138186 416.342834
1.880000 -3.840000 7.880000 12.100849 -24.621088 752.628540
1.880000 -3.840000 7.920000 21.078730 -23.882153 1014.670044
1.880000 -3.840000 7.960000 29.329500 -20.150589 1266.265869
1.880000 -3.840000 8.000000 37.424744 -12.797060 1564.376221
1.880000 -3.840000 8.040000 42.829929 0.143617 1834.423462
1.880000 -3.840000 8.080000 40.362347 16.886269 1914.265137
1.880000 -3.840000 8.120000 27.817898 30.573101 1708.549927
1.880000 -3.840000 8.160000 9.858807 34.444691 1283.632812
1.880000 -3.840000 8.200000 -5.135140 28.105951 816.314209
1.880000 -3.800000 7.800000 5.719764 -5.718184 65.413322
1.880000 -3.800000 7.840000 5.099268 -3.668788 39.462540
1.880000 -3.800000 7.880000 -0.918091 -6.554756 43.807720
1.880000 -3.800000 7.920000 -1.888607 -19.391830 379.609924
1.880000 -3.800000 7.960000 13.022547 -32.527695 1227.637695
1.880000 -3.800000 8.000000 39.663670 -28.653622 2394.236816
1.880000 -3.800000 8.040000 58.124962 -1.247213 3380.066650
1.880000 -3.800000 8.080000 49.940220 35.150169 3729.560059
1.880000 -3.800000 8.120000 16.584204 55.390659 3343.161133
1.880000 -3.800000 8.160000 -20.080971 45.794472 2500.378906
1.880000 -3.800000 8.200000 -36.735542 15.989227 1605.155518
1.920000 -4.200000 7.800000 -13.352216 -65.958076 4528.749512
1.920000 -4.200000 7.840000 10.415358 -51.457260 2756.329346
1.920000 -4.200000 7.880000 18.023943 -28.894394 1159.748535
1.920000 -4.200000 7.920000 10.700592 -12.227478 264.013885
1.920000 -4.200000 7.960000 -0.599558 -8.110975 66.147385
1.920000 -4.200000 8.000000 -5.825913 -11.894535 175.421234
1.920000 -4.200000 8.040000 -4.065685 -14.521347 227.399323
1.920000 -4.200000 8.080000 -1.478285 -12.168296 150.252762
1.920000 -4.200000 8.120000 -2.602999 -8.368069 76.800179
1.920000 -4.200000 8.160000 -5.532233 -7.491920 86.734467
1.920000 -4.200000 8.200000 -5.995422 -8.487857 107.988800
1.920000 -4.160000 7.800000 34.188454 -55.553787 4255.073730
1.920000 -4.160000 7.840000 43.078049 -22.024231 2340.784912
1.920000 -4.160000 7.880000 26.973724 7.547603 784.548096
1.920000 -4.160000 7.920000 -3.182758 15.480881 249.787613
1.920000 -4.160000 7.960000 -26.147400 -0.703987 684.182129
1.920000 -4.160000 8.000000 -27.177292 -25.928814 1410.908569
1.920000 -4.160000 8.040000 -9.242887 -40.375885 1715.643066
1.920000 -4.160000 8.080000 11.400486 -35.368610 1380.909668
1.920000 -4.160000 8.120000 20.003529 -17.977947 723.347717
1.920000 -4.160000 8.160000 13.979670 -1.878201 198.958801
1.920000 -4.160000 8.200000 0.907879 4.718835 23.091646
1.920000 -4.120000 7.800000 60.998234 -14.420764 3928.742920
1.920000 -4.120000 7.840000 43.953232 27.546432 2690.692627
1.920000 -4.120000 7.880000 -1.492569 46.595436 2173.362549
1.920000 -4.120000 7.920000 -48.404713 25.387268 2987.529541
1.920000 -4.120000 7.960000 -63.896042 -24.411537 4678.627441
1.920000 -4.120000 8.000000 -36.664780 -68.130356 5986.051758
1.920000 -4.120000 8.040000 12.440178 -75.456169 5848.391113
1.920000 -4.120000 8.080000 47.527699 -44.706139 4257.520996
1.920000 -4.120000 8.120000 46.864738 -2.055490 2200.528809
1.920000 -4.120000 8.160000 17.711603 22.157948 804.675537
1.920000 -4.120000 8.200000 -14.565731 17.037817 502.447723
1.920000 -4.080000 7.800000 51.051544 32.179176 3641.759766
1.920000 -4.080000 7.840000 4.824267 64.773262 4218.849121
1.920000 -4.080000 7.880000 -59.983475 51.850471 6286.488770
1.920000 -4.080000 7.920000 -98.359833 -10.568096 9786.340820
1.920000 -4.080000 7.960000 -76.962685 -85.162148 13175.845703
1.920000 -4.080000 8.000000 -6.193993 -119.668533 14358.922852
1.920000 -4.080000 8.040000 64.625656 -90.307526 12331.924805
1.920000 -4.080000 8.080000 87.126968 -22.110512 8079.982910
1.920000 -4.080000 8.120000 52.813568 33.082432 3883.720215
1.920000 -4.080000 8.160000 -3.955935 40.090298 1622.881348
1.920000 -4.080000 8.200000 -39.007835 5.399763 1550.768677
1.920000 -4.040000 7.800000 13.269910 55.943577 3305.774414
1.920000 -4.040000 7.840000 -51.873093 60.818836 6389.748535
1.920000 -4.040000 7.880000 -109.520813 6.282305 12034.276367
1.920000 -4.040000 7.920000 -108.361313 -84.279671 18845.236328
1.920000 -4.040000 7.960000 -35.843105 -149.678146 23688.275391
1.920000 -4.040000 8.000000 63.510487 -140.298096 23717.136719
1.920000 -4.040000 8.040000 121.251419 -62.421082 18598.296875
1.920000 -4.040000 8.080000 101.673080 25.327673 10978.906250
1.920000 -4.040000 8.120000 30.038643 61.408661 4673.343750
1.920000 -4.040000 8.160000 -32.751816 31.066898 2037.833496
1.920000 -4.040000 8.200000 -43.341217 -28.056366 2665.620605
1.920000 -4.000000 7.800000 -25.988106 45.961334 2787.825928
1.920000 -4.000000 7.840000 -87.726845 15.698433 7942.440430
1.920000 -4.000000 7.880000 -109.939873 -66.358002 16490.160156
1.920000 -4.000000 7.920000 -57.421440 -149.345520 25601.304688
1.920000 -4.000000 7.960000 47.158875 -169.172516 30843.298828
1.920000 -4.000000 8.000000 134.690063 -104.947495 29155.390625
1.920000 -4.000000 8.040000 145.690414 -1.000807 21226.699219
1.920000 -4.000000 8.080000 80.549988 68.768051 11217.345703
1.920000 -4.000000 8.120000 -2.732418 62.555275 3920.628418
1.920000 -4.000000 8.160000 -40.331314 1.839907 1630.000122
1.920000 -4.000000 8.200000 -14.776935 -54.009041 3135.334473
1.920000 -3.960000 7.800000 -43.152931 14.605335 2075.491211
1.920000 -3.960000 7.840000 -78.864067 -39.706406 7796.139648
1.920000 -3.960000 7.880000 -56.495304 -117.098701 16903.824219
1.920000 -3.960000 7.920000 26.921892 -158.624664 25886.572266
1.920000 -3.960000 7.960000 121.487305 -124.160172 30174.914062
1.920000 -3.960000 8.000000 162.160263 -30.927837 27252.482422
1.920000 -3.960000 8.040000 123.635689 57.409100 18581.587891
1.920000 -3.960000 8.080000 41.741379 83.425095 8702.088867
1.920000 -3.960000 8.120000 -18.655527 42.567253 2159.999756
1.920000 -3.960000 8.160000 -18.874836 -18.059961 682.421631
1.920000 -3.960000 8.200000 25.728149 -44.687943 2658.949951
1.920000 -3.920000 7.800000 -33.270611 -14.558725 1318.890137
1.920000 -3.920000 7.840000 -35.138760 -68.285446 5897.634766
1.920000 -3.920000 7.880000 13.522772 -112.740692 12893.329102
1.920000 -3.920000 7.920000 88.817856 -106.912674 19318.931641
1.920000 -3.920000 7.960000 140.658066 -45.296791 21836.490234
1.920000 -3.920000 8.000000 133.552521 34.218277 19007.166016
1.920000 -3.920000 8.040000 76.471329 80.531738 12333.224609
1.920000 -3.920000 8.080000 14.399746 71.021027 5251.338867
1.920000 -3.920000 8.120000 -10.347510 27.445892 860.347961
1.920000 -3.920000 8.160000 8.409327 -6.651314 114.956749
1.920000 -3.920000 8.200000 41.161037 -4.283228 1712.577026
1.920000 -3.880000 7.800000 -9.542133 -25.068699 719.491943
1.920000 -3.880000 7.840000 9.605202 -56.268391 3258.391846
1.920000 -3.880000 7.880000 52.442318 -63.796207 6820.152832
1.920000 -3.880000 7.920000 92.168678 -36.118759 9799.629883
1.920000 -3.880000 7.960000 102.925415 12.701359 10754.964844
1.920000 -3.880000 8.000000 79.700584 54.271584 9297.587891
1.920000 -3.880000 8.040000 40.604858 68.083557 6284.125000
1.920000 -3.880000 8.080000 10.747366 55.581779 3204.840088
1.920000 -3.880000 8.120000 2.691484 35.410473 1261.145752
1.920000 -3.880000 8.160000 9.661015 26.052794 772.083252
1.920000 -3.880000 8.200000 15.042134 31.713333 1232.001221
1.920000 -3.840000 7.800000 10.156976 -16.780083 384.735321
1.920000 -3.840000 7.840000 26.659466 -21.209955 1160.589355
1.920000 -3.840000 7.880000 42.365807 -12.683807 1955.740479
1.920000 -3.840000 7.920000 50.080528 2.972488 2516.895020
1.920000 -3.840000 7.960000 49.905556 19.314041 2863.596680
1.920000 -3.840000 8.000000 44.415218 34.298355 3149.088867
1.920000 -3.840000 8.040000 33.654285 47.830109 3420.330078
1.920000 -3.840000 8.080000 16.423500 57.091614 3529.183838
1.920000 -3.840000 8.120000 -4.731396 57.046307 3276.666992
1.920000 -3.840000 8.160000 -22.534630 46.101421 2633.150635
1.920000 -3.840000 8.200000 -30.566919 29.564196 1808.378174
1.920000 -3.800000 7.800000 16.580011 -0.914091 275.732361
1.920000 -3.800000 7.840000 13.870207 7.021275 241.680939
1.920000 -3.800000 7.880000 5.970424 5.341850 64.181328
1.920000 -3.800000 7.920000 7.810497 -5.456074 90.772614
1.920000 -3.800000 7.960000 25.446419 -8.944202 727.518982
1.920000 -3.800000 8.000000 44.565918 9.900078 2084.132568
1.920000 -3.800000 8.040000 41.786926 45.178322 3787.228027
1.920000 -3.800000 8.080000 8.884563 71.073700 5130.406250
1.920000 -3.800000 8.120000 -35.726528 64.852821 5482.273438
1.920000 -3.800000 8.160000 -61.896320 29.109188 4678.499512
1.920000 -3.800000 8.200000 -54.941147 -10.030855 3119.147705
1.960000 -4.200000 7.800000 22.865566 -67.549797 5085.809082
1.960000 -4.200000 7.840000 36.539055 -40.613361 2984.547607
1.960000 -4.200000 7.880000 29.243612 -16.224604 1118.426636
1.960000 -4.200000 7.920000 11.852909 -7.821283 201.663925
1.960000 -4.200000 7.960000 0.232670 -14.255962 203.286606
1.960000 -4.200000 8.000000 1.139020 -23.318520 545.050720
1.960000 -4.200000 8.040000 8.667227 -24.851990 692.742188
1.960000 -4.200000 8.080000 13.319771 -19.204231 546.218750
1.960000 -4.200000 8.120000 12.318454 -13.205586 326.131836
1.960000 -4.200000 8.160000 9.895575 -10.371783 205.496277
1.960000 -4.200000 8.200000 9.075893 -7.661298 141.067322
1.960000 -4.160000 7.800000 60.440346 -31.859943 4668.091309
1.960000 -4.160000 7.840000 50.743263 5.211313 2602.036377
1.960000 -4.160000 7.880000 17.901709 23.792696 886.563599
1.960000 -4.160000 7.920000 -15.727748 12.083271 393.367493
1.960000 -4.160000 7.960000 -26.768343 -18.956238 1075.883179
1.960000 -4.160000 8.000000 -10.100613 -44.504616 2082.683105
1.960000 -4.160000 8.040000 18.271049 -46.662945 2511.261719
1.960000 -4.160000 8.080000 36.479591 -27.506001 2087.340820
1.960000 -4.160000 8.120000 34.560867 -3.618221 1207.545044
1.960000 -4.160000 8.160000 18.676422 9.974321 448.295837
1.960000 -4.160000 8.200000 1.147902 9.964701 100.612938
1.960000 -4.120000 7.800000 62.105640 21.325577 4311.890625
1.960000 -4.120000 7.840000 22.568071 53.477673 3369.179443
1.960000 -4.120000 7.880000 -33.374241 46.098480 3238.909668
1.960000 -4.120000 7.920000 -67.260239 -3.015091 4533.030762
1.960000 -4.120000 7.960000 -52.417416 -62.009178 6592.723633
1.960000 -4.120000 8.000000 1.296848 -88.942314 7912.416992
1.960000 -4.120000 8.040000 54.367035 -66.520554 7380.758301
1.960000 -4.120000 8.080000 70.424728 -15.371967 5195.939941
1.960000 -4.120000 8.120000 44.592537 25.558748 2641.744141
1.960000 -4.120000 8.160000 2.657841 31.638697 1008.071289
1.960000 -4.120000 8.200000 -24.627670 8.241684 674.447510
1.960000 -4.080000 7.800000 25.854885 59.518341 4210.908203
1.960000 -4.080000 7.840000 -38.691803 66.381409 5903.546875
1.960000 -4.080000 7.880000 -96.487656 15.753548 9558.041992
1.960000 -4.080000 7.920000 -98.473351 -69.875107 14579.531250
1.960000 -4.080000 7.960000 -32.956642 -132.425278 18622.595703
1.960000 -4.080000 8.000000 58.032860 -125.526802 19124.791016
1.960000 -4.080000 8.040000 110.978584 -55.447277 15390.646484
1.960000 -4.080000 8.080000 93.561783 23.737560 9317.279297
1.960000 -4.080000 8.120000 29.214510 56.476677 4043.102539
1.960000 -4.080000 8.160000 -27.523693 30.140661 1666.013184
1.960000 -4.080000 8.200000 -38.890678 -21.830189 1989.041992
1.960000 -4.040000 7.800000 -24.585907 59.989479 4203.204102
1.960000 -4.040000 7.840000 -93.354088 26.772289 9431.741211
1.960000 -4.040000 7.880000 -119.560860 -63.020741 18266.412109
1.960000 -4.040000 7.920000 -64.485573 -154.588226 28055.908203
1.960000 -4.040000 7.960000 47.718147 -178.175842 34023.652344
1.960000 -4.040000 8.000000 142.230469 -110.806625 32507.613281
1.960000 -4.040000 8.040000 154.689835 -0.257446 23929.011719
1.960000 -4.040000 8.080000 85.561546 73.999634 12796.724609
1.960000 -4.040000 8.120000 -3.011144 67.464394 4560.511230
1.960000 -4.040000 8.160000 -43.453018 3.342103 1899.334473
1.960000 -4.040000 8.200000 -18.013878 -55.826900 3441.142578
1.960000 -4.000000 7.800000 -57.161606 26.163479 3951.976807
1.960000 -4.000000 7.840000 -101.109573 -42.725952 12048.652344
1.960000 -4.000000 7.880000 -73.231552 -140.397614 25074.351562
1.960000 -4.000000 7.920000 31.268255 -193.454407 38402.312500
1.960000 -4.000000 7.960000 150.117004 -150.831238 45285.179688
1.960000 -4.000000 8.000000 200.913101 -33.870174 41513.261719
1.960000 -4.000000 8.040000 151.418076 76.662598 28804.587891
1.960000 -4.000000 8.080000 47.339302 107.883896 13879.944336
1.960000 -4.000000 8.120000 -28.878012 54.527260 3807.161621
1.960000 -4.000000 8.160000 -28.875059 -23.223228 1373.087402
1.960000 -4.000000 8.200000 26.915661 -57.973259 4085.351562
1.960000 -3.960000 7.800000 -54.735855 -16.434628 3266.110840
1.960000 -3.960000 7.840000 -55.318390 -94.863281 12059.166016
1.960000 -3.960000 7.880000 17.617073 -159.947708 25893.630859
1.960000 -3.960000 7.920000 130.088226 -149.962860 39411.804688
1.960000 -3.960000 7.960000 206.252136 -55.557701 45626.601562
1.960000 -3.960000 8.000000 191.125488 65.023132 40756.960938
1.960000 -3.960000 8.040000 99.106461 131.866638 27210.902344
1.960000 -3.960000 8.080000 1.854824 110.017288 12107.244141
1.960000 -3.960000 8.120000 -33.686996 35.505836 2395.478027
1.960000 -3.960000 8.160000 0.659214 -21.503687 462.843109
1.960000 -3.960000 8.200000 56.167606 -19.166616 3522.159180
1.960000 -3.920000 7.800000 -25.324730 -40.415863 2274.783936
1.960000 -3.920000 7.840000 10.422115 -95.884979 9302.549805
1.960000 -3.920000 7.880000 91.134781 -108.431587 20062.957031
1.960000 -3.920000 7.920000 165.813965 -51.835136 30181.152344
1.960000 -3.920000 7.960000 179.606934 46.853214 34453.875000
1.960000 -3.920000 8.000000 120.825539 125.635139 30383.000000
1.960000 -3.920000 8.040000 31.895706 138.011292 20064.453125
1.960000 -3.920000 8.080000 -26.698259 90.080032 8827.208984
1.960000 -3.920000 8.120000 -26.295918 31.120251 1659.945312
1.960000 -3.920000 8.160000 11.168861 8.434959 195.891998
1.960000 -3.920000 8.200000 39.424965 29.251810 2409.996338
1.960000 -3.880000 7.800000 7.423153 -35.593811 1322.022583
1.960000 -3.880000 7.840000 50.590363 -52.236099 5287.995117
1.960000 -3.880000 7.880000 101.054283 -27.806007 10985.141602
1.960000 -3.880000 7.920000 122.905754 31.246849 16082.189453
1.960000 -3.880000 7.960000 98.576843 91.902893 18163.535156
1.960000 -3.880000 8.000000 42.789463 120.137207 16263.886719
1.960000 -3.880000 8.040000 -10.261883 106.668282 11483.428711
1.960000 -3.880000 8.080000 -34.355385 70.983658 6218.972168
1.960000 -3.880000 8.120000 -29.177258 42.190208 2631.326172
1.960000 -3.880000 8.160000 -15.034492 35.250763 1468.652344
1.960000 -3.880000 8.200000 -12.177336 42.901344 1988.812866
1.960000 -3.840000 7.800000 23.455078 -12.276144 700.844360
1.960000 -3.840000 7.840000 44.857643 -1.718798 2015.162354
1.960000 -3.840000 7.880000 54.563736 22.910355 3502.085449
1.960000 -3.840000 7.920000 47.595703 49.034039 4669.687988
1.960000 -3.840000 7.960000 29.054245 66.971016 5329.266602
1.960000 -3.840000 8.000000 6.441597 74.616989 5609.188965
1.960000 -3.840000 8.040000 -16.229496 73.684105 5692.743652
1.960000 -3.840000 8.080000 -37.188000 64.759811 5576.780273
1.960000 -3.840000 8.120000 -52.988369 47.782188 5090.904785
1.960000 -3.840000 8.160000 -58.910324 26.104401 4151.866211
1.960000 -3.840000 8.200000 -53.949745 7.007202 2959.675781
1.960000 -3.800000 7.800000 18.710691 10.875898 468.375122
1.960000 -3.800000 7.840000 10.286242 20.902126 542.705688
1.960000 -3.800000 7.880000 0.110764 18.532902 343.480713
1.960000 -3.800000 7.920000 2.036942 11.104532 127.459770
1.960000 -3.800000 7.960000 13.869102 16.020544 449.009827
1.960000 -3.800000 8.000000 16.063259 39.075752 1784.942749
1.960000 -3.800000 8.040000 -7.837042 63.082985 4040.882080
1.960000 -3.800000 8.080000 -50.300423 61.956757 6368.772461
1.960000 -3.800000 8.120000 -82.615082 27.433733 7577.861816
1.960000 -3.800000 8.160000 -80.882027 -19.935747 6939.336426
1.960000 -3.800000 8.200000 -49.040482 -48.573700 4764.373047
2.000000 -4.200000 7.800000 53.221977 -43.766350 4748.072266
2.000000 -4.200000 7.840000 51.069550 -14.042943 2805.303223
2.000000 -4.200000 7.880000 31.681477 2.104156 1008.143433
2.000000 -4.200000 7.920000 12.483730 -1.524612 158.167969
2.000000 -4.200000 7.960000 7.150576 -14.845963 271.533325
2.000000 -4.200000 8.000000 14.745636 -22.977123 745.381958
2.000000 -4.200000 8.040000 24.165100 -20.120659 988.792969
2.000000 -4.200000 8.080000 27.069540 -11.762733 871.121887
2.000000 -4.200000 8.120000 24.433487 -5.232527 624.374634
2.000000 -4.200000 8.160000 21.128008 -1.396244 448.342224
2.000000 -4.200000 8.200000 17.453457 3.081033 314.115936
2.000000 -4.160000 7.800000 64.811241 3.849894 4215.318848
2.000000 -4.160000 7.840000 39.122734 31.002443 2491.739746
2.000000 -4.160000 7.880000 1.780807 30.467932 931.466125
2.000000 -4.160000 7.920000 -20.961119 2.855511 447.522430
2.000000 -4.160000 7.960000 -13.924980 -29.973106 1092.292114
2.000000 -4.160000 8.000000 14.410294 -43.476395 2097.853516
2.000000 -4.160000 8.040000 40.695709 -30.455290 2583.665527
2.000000 -4.160000 8.080000 47.103657 -4.118059 2235.712891
2.000000 -4.160000 8.120000 33.611488 16.199938 1392.170166
2.000000 -4.160000 8.160000 12.953302 20.806896 600.714966
2.000000 -4.160000 8.200000 -2.939919 12.737807 170.894867
2.000000 -4.120000 7.800000 38.671772 47.385845 3740.924316
2.000000 -4.120000 7.840000 -10.117989 56.560928 3301.512451
2.000000 -4.120000 7.880000 -54.699028 22.867775 3514.918701
2.000000 -4.120000 7.920000 -59.410934 -36.655247 4873.266113
2.000000 -4.120000 7.960000 -16.676483 -80.383102 6739.548340
2.000000 -4.120000 8.000000 43.536327 -76.636879 7768.623047
2.000000 -4.120000 8.040000 78.105537 -30.668127 7041.009277
2.000000 -4.120000 8.080000 66.364792 21.094788 4849.275879
2.000000 -4.120000 8.120000 24.197233 42.918335 2427.489746
2.000000 -4.120000 8.160000 -13.911679 27.207325 933.773315
2.000000 -4.120000 8.200000 -24.869505 -5.740381 651.444214
2.000000 -4.080000 7.800000 -10.616131 59.351433 3635.294678
2.000000 -4.080000 7.840000 -69.266632 34.297226 5974.166016
2.000000 -4.080000 7.880000 -94.074524 -38.189964 10308.489258
2.000000 -4.080000 7.920000 -52.640678 -113.609940 15678.259766
2.000000 -4.080000 7.960000 35.969814 -134.967346 19510.011719
2.000000 -4.080000 8.000000 111.466675 -83.250580 19355.478516
2.000000 -4.080000 8.040000 122.080780 3.550896 14916.325195
2.000000 -4.080000 8.080000 67.905357 62.305935 8493.166992
2.000000 -4.080000 8.120000 -2.327631 57.750946 3340.589844
2.000000 -4.080000 8.160000 -35.865425 7.572249 1343.667725
2.000000 -4.080000 8.200000 -18.511875 -40.337769 1969.825195
2.000000 -4.040000 7.800000 -52.006081 32.982822 3792.499023
2.000000 -4.040000 7.840000 -94.380630 -30.054482 9810.974609
2.000000 -4.040000 7.880000 -71.084679 -121.315910 19770.582031
2.000000 -4.040000 7.920000 24.093355 -172.789734 30436.783203
2.000000 -4.040000 7.960000 134.201706 -135.793976 36450.101562
2.000000 -4.040000 8.000000 182.233154 -28.947029 34046.851562
2.000000 -4.040000 8.040000 137.209534 73.011284 24157.105469
2.000000 -4.040000 8.080000 40.878487 101.904549 12055.587891
2.000000 -4.040000 8.120000 -30.364843 52.145042 3641.129150
2.000000 -4.040000 8.160000 -31.366018 -21.047497 1426.824219
2.000000 -4.040000 8.200000 19.635448 -55.588737 3475.658447
2.000000 -4.000000 7.800000 -60.513206 -12.436699 3816.519531
2.000000 -4.000000 7.840000 -61.947491 -94.771942 12819.212891
2.000000 -4.000000 7.880000 14.178305 -164.855240 27378.273438
2.000000 -4.000000 7.920000 133.796143 -155.887421 42202.296875
2.000000 -4.000000 7.960000 215.710785 -55.884811 49654.257812
2.000000 -4.000000 8.000000 199.327271 73.208008 45090.773438
2.000000 -4.000000 8.040000 99.198547 144.251923 30648.968750
2.000000 -4.000000 8.080000 -6.672501 118.351074 14051.499023
2.000000 -4.000000 8.120000 -44.650810 34.619743 3192.221436
2.000000 -4.000000 8.160000 -5.497776 -29.884829 923.328491
2.000000 -4.000000 8.200000 57.330795 -29.152466 4136.686523
2.000000 -3.960000 7.800000 -34.981934 -46.429230 3379.409180
2.000000 -3.960000 7.840000 7.978106 -114.155563 13095.142578
2.000000 -3.960000 7.880000 107.646172 -130.594009 28642.492188
2.000000 -3.960000 7.920000 201.228638 -59.979225 44090.472656
2.000000 -3.960000 7.960000 217.271057 65.076088 51441.609375
2.000000 -3.960000 8.000000 138.982544 163.909271 46182.398438
2.000000 -3.960000 8.040000 22.031199 174.364716 30888.427734
2.000000 -3.960000 8.080000 -52.254166 104.556351 13662.528320
2.000000 -3.960000 8.120000 -45.226799 21.805038 2520.923096
2.000000 -3.960000 8.160000 12.254139 -9.100838 232.989166
2.000000 -3.960000 8.200000 55.929008 20.974636 3567.989258
2.000000 -3.920000 7.800000 3.183605 -49.894997 2499.645996
2.000000 -3.920000 7.840000 66.463333 -76.820847 10318.816406
2.000000 -3.920000 7.880000 144.769806 -40.961563 22636.146484
2.000000 -3.920000 7.920000 178.699585 52.467407 34686.371094
2.000000 -3.920000 7.960000 134.782349 148.980743 40361.542969
2.000000 -3.920000 8.000000 37.219948 187.008606 36357.542969
2.000000 -3.920000 8.040000 -50.365856 148.827621 24686.378906
2.000000 -3.920000 8.080000 -77.641556 73.466377 11425.519531
2.000000 -3.920000 8.120000 -46.575920 20.356121 2583.687988
2.000000 -3.920000 8.160000 -2.542263 18.823402 360.783569
2.000000 -3.920000 8.200000 10.432285 49.478130 2556.917969
2.000000 -3.880000 7.800000 28.062405 -26.902554 1511.245850
2.000000 -3.880000 7.840000 76.282585 -14.444645 6027.680664
2.000000 -3.880000 7.880000 106.448990 38.905972 12845.062500
2.000000 -3.880000 7.920000 89.839813 106.408035 19393.861328
2.000000 -3.880000 7.960000 29.814487 147.472473 22637.035156
2.000000 -3.880000 8.000000 -39.847557 139.371185 21012.156250
2.000000 -3.880000 8.040000 -81.761940 93.796600 15482.816406
2.000000 -3.880000 8.080000 -83.024429 44.571259 8879.652344
2.000000 -3.880000 8.120000 -60.569324 19.060532 4031.947021
2.000000 -3.880000 8.160000 -42.006767 19.227016 2134.246582
2.000000 -3.880000 8.200000 -41.570534 26.690876 2440.512207
2.000000 -3.840000 7.800000 27.931686 2.421617 786.043274
2.000000 -3.840000 7.840000 40.920940 27.136539 2410.915039
2.000000 -3.840000 7.880000 33.189259 58.209251 4489.843750
2.000000 -3.840000 7.920000 6.923676 79.409332 6353.779785
2.000000 -3.840000 7.960000 -25.968452 82.771255 7525.440918
2.000000 -3.840000 8.000000 -54.241585 70.747589 7947.370605
2.000000 -3.840000 8.040000 -73.067871 49.999741 7838.887695
2.000000 -3.840000 8.080000 -82.000984 25.552683 7377.101074
2.000000 -3.840000 8.120000 -80.915817 0.810627 6548.026855
2.000000 -3.840000 8.160000 -70.146919 -19.727615 5309.769043
2.000000 -3.840000 8.200000 -53.516167 -31.204021 3837.670898
2.000000 -3.800000 7.800000 9.878098 19.378742 473.112457
2.000000 -3.800000 7.840000 -3.845287 26.408850 712.213623
2.000000 -3.800000 7.880000 -15.195114 21.398817 688.800842
2.000000 -3.800000 7.920000 -15.524841 15.484020 480.775574
2.000000 -3.800000 7.960000 -13.145786 21.178036 621.320862
2.000000 -3.800000 8.000000 -24.828636 34.532845 1808.978516
2.000000 -3.800000 8.040000 -54.545723 35.458481 4232.539551
2.000000 -3.800000 8.080000 -83.747490 8.614017 7087.843262
2.000000 -3.800000 8.120000 -86.636459 -37.027561 8876.916016
2.000000 -3.800000 8.160000 -56.256882 -72.668129 8445.493164
2.000000 -3.800000 8.200000 -13.578377 -75.938278 5950.994141
2.040000 -4.200000 7.800000 59.853714 -5.994791 3618.404541
2.040000 -4.200000 7.840000 44.894310 15.935291 2269.432617
2.040000 -4.200000 7.880000 22.205769 19.289452 865.179077
2.040000 -4.200000 7.920000 8.653206 6.966190 123.405785
2.040000 -4.200000 7.960000 10.517382 -6.853565 157.586670
2.040000 -4.200000 8.000000 20.450382 -11.008661 539.408752
2.040000 -4.200000 8.040000 27.580379 -5.859320 795.008911
2.040000 -4.200000 8.080000 28.114674 1.306438 792.141663
2.040000 -4.200000 8.120000 25.390877 6.131831 682.295959
2.040000 -4.200000 8.160000 22.048264 9.992008 585.966125
2.040000 -4.200000 8.200000 15.964575 13.944129 449.306396
2.040000 -4.160000 7.800000 45.027538 31.986120 3050.591064
2.040000 -4.160000 7.840000 14.847651 42.584106 2033.858887
2.040000 -4.160000 7.880000 -13.621274 26.856195 906.794373
2.040000 -4.160000 7.920000 -19.818562 -4.055286 409.220734
2.040000 -4.160000 7.960000 -0.890820 -26.894169 724.089905
2.040000 -4.160000 8.000000 26.570423 -26.309053 1398.153687
2.040000 -4.160000 8.040000 41.941925 -6.368841 1799.687256
2.040000 -4.160000 8.080000 37.208443 15.912052 1637.661621
2.040000 -4.160000 8.120000 19.880520 26.277115 1085.721802
2.040000 -4.160000 8.160000 2.823910 22.393089 509.424896
2.040000 -4.160000 8.200000 -6.366755 10.519826 151.202301
2.040000 -4.120000 7.800000 6.621984 49.209740 2465.448975
2.040000 -4.120000 7.840000 -33.169312 37.484764 2505.310791
2.040000 -4.120000 7.880000 -53.250015 -5.738499 2868.494629
2.040000 -4.120000 7.920000 -32.505432 -52.900543 3855.070801
2.040000 -4.120000 7.960000 17.998329 -68.782593 5054.984863
2.040000 -4.120000 8.000000 62.317520 -41.499290 5605.664551
2.040000 -4.120000 8.040000 69.928467 7.075726 4940.056152
2.040000 -4.120000 8.080000 40.468426 40.896790 3310.240723
2.040000 -4.120000 8.120000 0.774218 39.877136 1590.785400
2.040000 -4.120000 8.160000 -20.299614 12.840085 576.942139
2.040000 -4.120000 8.200000 -14.164340 -15.421499 438.451172
2.040000 -4.080000 7.800000 -32.346863 33.994675 2201.957520
2.040000 -4.080000 7.840000 -65.488388 -7.437386 4344.043945
2.040000 -4.080000 7.880000 -54.081535 -71.603790 8051.915039
2.040000 -4.080000 7.920000 8.771500 -110.930099 12382.426758
2.040000 -4.080000 7.960000 84.806511 -89.685898 15235.705078
2.040000 -4.080000 8.000000 120.140213 -18.784416 14786.525391
2.040000 -4.080000 8.040000 91.742569 50.964245 11014.053711
2.040000 -4.080000 8.080000 26.798014 72.011414 5903.777344
2.040000 -4.080000 8.120000 -22.817533 39.011639 2042.547852
2.040000 -4.080000 8.160000 -25.411562 -11.706108 782.780457
2.040000 -4.080000 8.200000 8.335624 -38.137901 1523.982178
2.040000 -4.040000 7.800000 -47.529190 -3.312181 2269.994385
2.040000 -4.040000 7.840000 -52.193291 -66.720406 7175.751953
2.040000 -4.040000 7.880000 4.276781 -124.250053 15456.367188
2.040000 -4.040000 7.920000 98.052338 -121.326752 24334.441406
2.040000 -4.040000 7.960000 165.012085 -45.232182 29274.937500
2.040000 -4.040000 8.000000 154.769943 56.617451 27159.269531
2.040000 -4.040000 8.040000 76.498940 114.115601 18874.457031
2.040000 -4.040000 8.080000 -8.266426 94.149521 8932.465820
2.040000 -4.040000 8.120000 -39.515877 26.426367 2259.857422
2.040000 -4.040000 8.160000 -8.128824 -27.357189 814.493530
2.040000 -4.040000 8.200000 44.030426 -29.059305 2783.121582
2.040000 -4.000000 7.800000 -31.331512 -37.445995 2383.866211
2.040000 -4.000000 7.840000 3.729609 -97.720871 9563.278320
2.040000 -4.000000 7.880000 91.491417 -115.308533 21666.738281
2.040000 -4.000000 7.920000 177.124481 -54.347305 34326.710938
2.040000 -4.000000 7.960000 193.774765 58.539070 40975.484375
2.040000 -4.000000 8.000000 122.973770 149.431702 37452.382812
2.040000 -4.000000 8.040000 14.755833 158.713470 25407.699219
2.040000 -4.000000 8.080000 -54.230167 91.997269 11404.408203
2.040000 -4.000000 8.120000 -45.959366 12.235641 2261.974365
2.040000 -4.000000 8.160000 11.374969 -18.221935 461.428833
2.040000 -4.000000 8.200000 56.372414 10.536798 3288.873291
2.040000 -3.960000 7.800000 1.975235 -47.171631 2229.064453
2.040000 -3.960000 7.840000 64.462921 -76.374001 9988.456055
2.040000 -3.960000 7.880000 146.070953 -41.692478 23074.984375
2.040000 -3.960000 7.920000 183.226562 55.728691 36677.660156
2.040000 -3.960000 7.960000 136.457657 158.679077 43799.742188
2.040000 -3.960000 8.000000 29.842560 198.004745 40096.457031
2.040000 -3.960000 8.040000 -65.550888 151.788773 27336.750000
2.040000 -3.960000 8.080000 -91.280663 63.684807 12387.914062
2.040000 -3.960000 8.120000 -48.912918 2.949642 2401.174072
2.040000 -3.960000 8.160000 8.044304 4.599497 85.866196
2.040000 -3.960000 8.200000 26.679491 45.569431 2788.368164
2.040000 -3.920000 7.800000 28.356602 -30.368353 1726.333740
2.040000 -3.920000 7.840000 87.729233 -19.065866 8059.925781
2.040000 -3.920000 7.880000 128.611633 46.432159 18696.898438
2.040000 -3.920000 7.920000 108.224541 134.435425 29785.433594
2.040000 -3.920000 7.960000 26.546473 187.402222 35824.308594
2.040000 -3.920000 8.000000 -68.618462 169.247787 33353.308594
2.040000 -3.920000 8.040000 -119.531296 96.379204 23576.681641
2.040000 -3.920000 8.080000 -105.541473 22.958294 11666.085938
2.040000 -3.920000 8.120000 -56.225075 -5.744026 3194.252930
2.040000 -3.920000 8.160000 -20.527060 11.634682 556.725952
2.040000 -3.920000 8.200000 -23.152664 39.480736 2094.774414
2.040000 -3.880000 7.800000 32.581398 -3.028088 1070.716797
2.040000 -3.880000 7.840000 62.146290 31.376442 4846.642578
2.040000 -3.880000 7.880000 57.321827 88.106506 11048.547852
2.040000 -3.880000 7.920000 8.765270 132.196228 17552.671875
2.040000 -3.880000 7.960000 -60.794441 133.180511 21433.013672
2.040000 -3.880000 8.000000 -113.020668 89.669167 20814.230469
2.040000 -3.880000 8.040000 -123.565666 29.713356 16151.357422
2.040000 -3.880000 8.080000 -98.707550 -12.812884 9907.350586
2.040000 -3.880000 8.120000 -65.690872 -23.907753 4886.871094
2.040000 -3.880000 8.160000 -47.924339 -15.293949 2530.646973
2.040000 -3.880000 8.200000 -48.198090 -8.485502 2395.059570
2.040000 -3.840000 7.800000 17.441772 15.466444 543.426331
2.040000 -3.840000 7.840000 14.339536 42.676689 2026.922119
2.040000 -3.840000 7.880000 -9.713921 64.237793 4220.854492
2.040000 -3.840000 7.920000 -44.662148 66.888344 6468.758301
2.040000 -3.840000 7.960000 -75.314255 49.347481 8107.410645
2.040000 -3.840000 8.000000 -91.839867 20.170944 8841.428711
2.040000 -3.840000 8.040000 -93.089134 -10.502480 8775.888672
2.040000 -3.840000 8.080000 -82.634644 -36.354816 8150.157227
2.040000 -3.840000 8.120000 -64.419601 -54.281849 7096.404297
2.040000 -3.840000 8.160000 -42.568176 -62.136108 5672.945801
2.040000 -3.840000 8.200000 -22.788881 -59.589394 4070.229004
2.040000 -3.800000 7.800000 -2.539298 16.842760 290.126587
2.040000 -3.800000 7.840000 -17.664673 17.927139 633.422974
2.040000 -3.800000 7.880000 -27.659168 9.521780 855.693909
2.040000 -3.800000 7.920000 -29.458588 2.285984 873.034119
2.040000 -3.800000 7.960000 -32.415115 1.996689 1054.726562
2.040000 -3.800000 8.000000 -45.588512 0.144035 2078.333252
2.040000 -3.800000 8.040000 -63.031067 -17.434875 4276.890137
2.040000 -3.800000 8.080000 -65.754204 -51.996887 7027.291504
2.040000 -3.800000 8.120000 -41.015869 -84.894409 8889.362305
2.040000 -3.800000 8.160000 1.248089 -92.749481 8604.023438
2.040000 -3.800000 8.200000 34.380699 -70.709488 6181.864258
2.080000 -4.200000 7.800000 39.927315 23.744745 2158.003418
2.080000 -4.200000 7.840000 21.331366 33.290649 1563.294434
2.080000 -4.200000 7.880000 3.598538 26.963165 739.961731
2.080000 -4.200000 7.920000 -2.496368 12.459082 161.460571
2.080000 -4.200000 7.960000 2.766554 1.367154 9.522931
2.080000 -4.200000 8.000000 11.401279 -1.258315 131.572525
2.080000 -4.200000 8.040000 17.072178 1.639101 294.145905
2.080000 -4.200000 8.080000 19.346594 5.695896 406.733917
2.080000 -4.200000 8.120000 19.840027 10.131948 496.283051
2.080000 -4.200000 8.160000 17.506800 15.442039 544.944641
2.080000 -4.200000 8.200000 10.383833 18.683659 456.903076
2.080000 -4.160000 7.800000 14.634756 37.913803 1651.632568
2.080000 -4.160000 7.840000 -8.611339 36.142281 1380.419556
2.080000 -4.160000 7.880000 -23.451445 16.707020 829.094788
2.080000 -4.160000 7.920000 -18.859346 -6.957114 404.076385
2.080000 -4.160000 7.960000 0.616478 -18.395863 338.787781
2.080000 -4.160000 8.000000 19.872530 -11.976387 538.351318
2.080000 -4.160000 8.040000 26.655678 4.321789 729.203003
2.080000 -4.160000 8.080000 20.055580 17.822937 719.883362
2.080000 -4.160000 8.120000 7.881324 21.411703 520.576294
2.080000 -4.160000 8.160000 -1.620081 16.168510 264.045380
2.080000 -4.160000 8.200000 -4.722440 7.026231 71.669357
2.080000 -4.120000 7.800000 -13.308650 30.294771 1094.893311
2.080000 -4.120000 7.840000 -35.318718 12.334579 1399.553711
2.080000 -4.120000 7.880000 -35.889606 -21.463606 1748.750244
2.080000 -4.120000 7.920000 -8.324326 -46.513561 2232.805908
2.080000 -4.120000 7.960000 29.899128 -42.426311 2693.949707
2.080000 -4.120000 8.000000 51.553314 -11.857456 2798.343506
2.080000 -4.120000 8.040000 43.144535 21.824570 2337.762695
2.080000 -4.120000 8.080000 15.266335 35.110710 1465.822998
2.080000 -4.120000 8.120000 -8.658823 23.219782 614.133484
2.080000 -4.120000 8.160000 -12.835002 0.759802 165.314575
2.080000 -4.120000 8.200000 0.392734 -13.613090 185.470444
2.080000 -4.080000 7.800000 -26.635033 5.910445 744.358337
2.080000 -4.080000 7.840000 -35.246262 -28.211269 2038.174683
2.080000 -4.080000 7.880000 -8.673006 -64.706078 4262.097656
2.080000 -4.080000 7.920000 43.762547 -69.864815 6796.252930
2.080000 -4.080000 7.960000 85.951385 -31.797575 8398.726562
2.080000 -4.080000 8.000000 86.024567 25.387177 8044.734863
2.080000 -4.080000 8.040000 45.370613 61.096992 5791.334961
2.080000 -4.080000 8.080000 -2.594090 53.398880 2858.169678
2.080000 -4.080000 8.120000 -22.392347 16.390156 770.054443
2.080000 -4.080000 8.160000 -6.110903 -15.344461 272.795624
2.080000 -4.080000 8.200000 24.240067 -18.380943 925.439880
2.080000 -4.040000 7.800000 -18.105368 -18.476933 669.201416
2.080000 -4.040000 7.840000 -1.856190 -57.082554 3261.863525
2.080000 -4.040000 7.880000 51.330444 -73.630371 8056.246094
2.080000 -4.040000 7.920000 108.934464 -39.873505 13456.614258
2.080000 -4.040000 7.960000 125.119064 31.729918 16661.568359
2.080000 -4.040000 8.000000 82.955063 93.540169 15631.304688
2.080000 -4.040000 8.040000 12.402519 103.116127 10786.757812
2.080000 -4.040000 8.080000 -34.903904 60.445610 4871.954102
2.080000 -4.040000 8.120000 -30.518566 6.330837 971.462402
2.080000 -4.040000 8.160000 8.943590 -15.682402 325.925537
2.080000 -4.040000 8.200000 41.821133 3.580307 1761.825684
2.080000 -4.000000 7.800000 3.867590 -26.892231 738.150330
2.080000 -4.000000 7.840000 43.891457 -50.256462 4452.171875
2.080000 -4.000000 7.880000 102.930664 -29.965748 11492.667969
2.080000 -4.000000 7.920000 133.873550 39.032166 19445.636719
2.080000 -4.000000 7.960000 102.663628 116.770012 24175.054688
2.080000 -4.000000 8.000000 23.221735 148.913757 22714.554688
2.080000 -4.000000 8.040000 -50.601624 114.601204 15693.959961
2.080000 -4.000000 8.080000 -70.836105 45.390903 7078.087891
2.080000 -4.000000 8.120000 -35.877861 -3.470760 1299.267090
2.080000 -4.000000 8.160000 12.354419 -1.696280 155.509033
2.080000 -4.000000 8.200000 29.746027 33.709541 2021.159180
2.080000 -3.960000 7.800000 22.184185 -16.230309 755.560974
2.080000 -3.960000 7.840000 68.607895 -10.771210 4823.062500
2.080000 -3.960000 7.880000 104.621140 40.838909 12613.399414
2.080000 -3.960000 7.920000 90.003677 115.766495 21502.542969
2.080000 -3.960000 7.960000 19.821299 163.064285 26982.845703
2.080000 -3.960000 8.000000 -65.046989 146.688049 25748.496094
2.080000 -3.960000 8.040000 -110.045486 78.673332 18299.501953
2.080000 -3.960000 8.080000 -93.140083 9.631969 8767.849609
2.080000 -3.960000 8.120000 -41.560764 -15.308338 1961.642334
2.080000 -3.960000 8.160000 -4.066341 6.639126 60.613121
2.080000 -3.960000 8.200000 -6.826241 39.828007 1632.867676
2.080000 -3.920000 7.800000 24.841930 2.527147 623.507996
2.080000 -3.920000 7.840000 55.010910 32.052910 4053.589355
2.080000 -3.920000 7.880000 53.451500 88.289948 10652.177734
2.080000 -3.920000 7.920000 4.433907 135.228287 18306.349609
2.080000 -3.920000 7.960000 -70.443901 135.580566 23344.433594
2.080000 -3.920000 8.000000 -126.124138 83.904335 22947.234375
2.080000 -3.920000 8.040000 -130.678757 13.210665 17251.458984
2.080000 -3.920000 8.080000 -91.146576 -32.395119 9357.141602
2.080000 -3.920000 8.120000 -44.778030 -33.850483 3150.927246
2.080000 -3.920000 8.160000 -25.058764 -8.917242 707.458862
2.080000 -3.920000 8.200000 -35.103458 9.082759 1314.749268
2.080000 -3.880000 7.800000 13.413352 14.684498 395.552490
2.080000 -3.880000 7.840000 16.769897 47.755486 2561.815918
2.080000 -3.880000 7.880000 -10.776396 81.135643 6699.123535
2.080000 -3.880000 7.920000 -61.637486 88.292877 11594.812500
2.080000 -3.880000 7.960000 -108.604340 57.972729 15155.739258
2.080000 -3.880000 8.000000 -125.218811 4.527561 15700.250000
2.080000 -3.880000 8.040000 -105.940559 -43.130901 13083.676758
2.080000 -3.880000 8.080000 -68.456711 -63.928207 8773.136719
2.080000 -3.880000 8.120000 -37.292576 -58.491776 4812.023926
2.080000 -3.880000 8.160000 -24.697958 -43.773590 2526.116211
2.080000 -3.880000 8.200000 -25.145702 -35.967514 1925.968506
2.080000 -3.840000 7.800000 -0.781507 13.892130 193.602020
2.080000 -3.840000 7.840000 -15.007841 30.513882 1156.332275
2.080000 -3.840000 7.880000 -41.473892 34.026752 2877.903564
2.080000 -3.840000 7.920000 -67.430252 18.974644 4906.875977
2.080000 -3.840000 7.960000 -80.938492 -9.293617 6637.410645
2.080000 -3.840000 8.000000 -77.875084 -39.969276 7662.071777
2.080000 -3.840000 8.040000 -61.567142 -64.142746 7904.804688
2.080000 -3.840000 8.080000 -38.097176 -77.664536 7483.174805
2.080000 -3.840000 8.120000 -13.175495 -79.671150 6521.085938
2.080000 -3.840000 8.160000 7.802511 -71.236259 5135.483887
2.080000 -3.840000 8.200000 19.975975 -56.335175 3572.691406
2.080000 -3.800000 7.800000 -7.975480 5.033033 88.939713
2.080000 -3.800000 7.840000 -19.981747 0.985390 400.241180
2.080000 -3.800000 7.880000 -25.938993 -9.313864 759.579407
2.080000 -3.800000 7.920000 -26.173038 -18.171455 1015.229736
2.080000 -3.800000 7.960000 -27.318302 -24.434246 1343.322021
2.080000 -3.800000 8.000000 -31.359947 -35.233009 2224.811279
2.080000 -3.800000 8.040000 -29.606186 -55.554108 3962.785156
2.080000 -3.800000 8.080000 -10.972294 -77.589821 6140.571289
2.080000 -3.800000 8.120000 23.190849 -84.252090 7636.229980
2.080000 -3.800000 8.160000 55.181854 -65.920341 7390.528320
2.080000 -3.800000 8.200000 65.306030 -32.927994 5349.130371
2.120000 -4.200000 7.800000 8.828895 29.130928 926.560364
2.120000 -4.200000 7.840000 -4.974306 29.760248 910.416077
2.120000 -4.200000 7.880000 -15.290450 20.684906 661.663208
2.120000 -4.200000 7.920000 -17.064592 7.960447 354.569031
2.120000 -4.200000 7.960000 -11.517352 -2.114671 137.121231
2.120000 -4.200000 8.000000 -2.556860 -7.041946 56.126541
2.120000 -4.200000 8.040000 6.967179 -6.941940 96.732124
2.120000 -4.200000 8.080000 15.064672 -1.997025 230.932465
2.120000 -4.200000 8.120000 18.799301 6.939739 401.573700
2.120000 -4.200000 8.160000 15.580634 16.002979 498.851501
2.120000 -4.200000 8.200000 7.133664 19.307837 423.681702
2.120000 -4.160000 7.800000 -6.846991 22.551138 555.435120
2.120000 -4.160000 7.840000 -19.917698 18.474380 738.017456
2.120000 -4.160000 7.880000 -26.469650 4.273673 718.906677
2.120000 -4.160000 7.920000 -20.797512 -11.218995 558.402344
2.120000 -4.160000 7.960000 -6.382582 -18.591579 386.384155
2.120000 -4.160000 8.000000 8.028673 -14.940936 287.691162
2.120000 -4.160000 8.040000 15.490736 -4.504751 260.255676
2.120000 -4.160000 8.080000 14.713838 5.926279 251.617813
2.120000 -4.160000 8.120000 8.990494 11.646152 216.461823
2.120000 -4.160000 8.160000 2.990329 11.686741 145.521973
2.120000 -4.160000 8.200000 0.340030 8.109763 65.883881
2.120000 -4.120000 7.800000 -11.897145 8.189024 208.602173
2.120000 -4.120000 7.840000 -22.237415 -2.171563 499.218353
2.120000 -4.120000 7.880000 -19.301525 -20.629248 798.114746
2.120000 -4.120000 7.920000 -0.937378 -31.996141 1024.631714
2.120000 -4.120000 7.960000 20.971357 -25.953341 1113.373657
2.120000 -4.120000 8.000000 31.239706 -6.564133 1019.007080
2.120000 -4.120000 8.040000 24.716928 11.800754 750.184326
2.120000 -4.120000 8.080000 9.749125 17.432257 398.929016
2.120000 -4.120000 8.120000 -0.472281 10.537860 111.269547
2.120000 -4.120000 8.160000 0.515944 1.034596 1.336587
2.120000 -4.120000 8.200000 8.528904 -1.472594 74.910736
2.120000 -4.080000 7.800000 -4.707937 -2.790057 29.949093
2.120000 -4.080000 7.840000 -7.052433 -18.406469 388.534943
2.120000 -4.080000 7.880000 9.736092 -32.918430 1178.414551
2.120000 -4.080000 7.920000 36.887764 -28.073820 2148.846680
2.120000 -4.080000 7.960000 52.877178 -1.791094 2799.204102
2.120000 -4.080000 8.000000 43.792912 28.135296 2709.414062
2.120000 -4.080000 8.040000 17.004597 39.977924 1887.390625
2.120000 -4.080000 8.080000 -5.587048 27.980038 814.097595
2.120000 -4.080000 8.120000 -7.810784 6.728029 106.274719
2.120000 -4.080000 8.160000 6.979959 -3.575356 61.502998
2.120000 -4.080000 8.200000 21.262453 4.287136 470.471466
2.120000 -4.040000 7.800000 6.767372 -2.436325 51.733006
2.120000 -4.040000 7.840000 16.175163 -16.483387 533.337952
2.120000 -4.040000 7.880000 41.869450 -15.769591 2001.730835
2.120000 -4.040000 7.920000 62.543579 10.691193 4026.000732
2.120000 -4.040000 7.960000 55.777054 48.994839 5511.574219
2.120000 -4.040000 8.000000 21.243402 70.852829 5471.405762
2.120000 -4.040000 8.040000 -16.661934 59.822308 3856.328613
2.120000 -4.040000 8.080000 -30.538769 27.187029 1671.750977
2.120000 -4.040000 8.120000 -14.839367 1.411065 222.197922
2.120000 -4.040000 8.160000 10.475586 1.635379 112.412361
2.120000 -4.040000 8.200000 20.337807 21.449627 873.712891
2.120000 -4.000000 7.800000 11.570265 7.388355 188.458832
2.120000 -4.000000 7.840000 29.154449 3.871747 864.972351
2.120000 -4.000000 7.880000 49.662331 23.616991 3024.109375
2.120000 -4.000000 7.920000 47.938171 61.661121 6100.162109
2.120000 -4.000000 7.960000 13.909448 91.020287 8478.165039
2.120000 -4.000000 8.000000 -33.851036 86.447174 8619.006836
2.120000 -4.000000 8.040000 -62.445873 49.240067 6324.071289
2.120000 -4.000000 8.080000 -54.153442 7.690447 2991.738281
2.120000 -4.000000 8.120000 -22.236301 -8.264359 562.752686
2.120000 -4.000000 8.160000 2.520124 6.475773 48.286663
2.120000 -4.000000 8.200000 0.812050 30.162840 910.456360
2.120000 -3.960000 7.800000 5.159820 16.749023 307.153534
2.120000 -3.960000 7.840000 20.577063 26.964874 1150.519897
2.120000 -3.960000 7.880000 22.996359 56.289639 3697.355957
2.120000 -3.960000 7.920000 -3.347796 85.702568 7356.137695
2.120000 -3.960000 7.960000 -50.092880 88.426208 10328.491211
2.120000 -3.960000 8.000000 -87.936829 55.428185 10805.169922
2.120000 -3.960000 8.040000 -91.373489 6.383183 8389.859375
2.120000 -3.960000 8.080000 -61.687309 -26.208445 4492.207031
2.120000 -3.960000 8.120000 -25.503998 -25.230164 1287.015137
2.120000 -3.960000 8.160000 -10.234607 -2.398048 110.497810
2.120000 -3.960000 8.200000 -20.447968 15.309561 652.502014
2.120000 -3.920000 7.800000 -6.742842 16.617022 321.591309
2.120000 -3.920000 7.840000 -2.844196 34.147251 1174.124268
2.120000 -3.920000 7.880000 -19.088366 56.607468 3568.770996
2.120000 -3.920000 7.920000 -55.275570 62.913433 7013.488770
2.120000 -3.920000 7.960000 -91.727463 39.504230 9974.511719
2.120000 -3.920000 8.000000 -103.939056 -5.140508 10829.751953
2.120000 -3.920000 8.040000 -83.648361 -45.408409 9058.971680
2.120000 -3.920000 8.080000 -46.228783 -59.398438 5665.274414
2.120000 -3.920000 8.120000 -17.164766 -46.435242 2450.860840
2.120000 -3.920000 8.160000 -10.575453 -25.154739 744.601135
2.120000 -3.920000 8.200000 -19.762119 -15.194279 621.407471
2.120000 -3.880000 7.800000 -13.740988 7.010062 237.955719
2.120000 -3.880000 7.840000 -21.979204 20.619999 908.269775
2.120000 -3.880000 7.880000 -44.488979 26.001640 2655.354492
2.120000 -3.880000 7.920000 -70.775879 12.062202 5154.721680
2.120000 -3.880000 7.960000 -84.070526 -19.762598 7458.413574
2.120000 -3.880000 8.000000 -74.303886 -54.921265 8537.412109
2.120000 -3.880000 8.040000 -46.069122 -76.279930 7940.992188
2.120000 -3.880000 8.080000 -14.640745 -76.510422 6068.196289
2.120000 -3.880000 8.120000 5.882462 -61.792953 3852.972412
2.120000 -3.880000 8.160000 11.673683 -44.889496 2151.341797
2.120000 -3.880000 8.200000 8.854084 -34.932098 1298.646240
2.120000 -3.840000 7.800000 -10.651396 -3.492299 125.648384
2.120000 -3.840000 7.840000 -22.825853 -0.681684 521.484314
2.120000 -3.840000 7.880000 -37.040318 -8.721365 1448.047363
2.120000 -3.840000 7.920000 -44.869003 -26.650692 2723.486816
2.120000 -3.840000 7.960000 -41.284889 -48.078735 4016.006836
2.120000 -3.840000 8.000000 -26.740477 -65.690941 5030.353027
2.120000 -3.840000 8.040000 -5.278175 -74.608810 5594.333984
2.120000 -3.840000 8.080000 17.867434 -72.798393 5618.851074
2.120000 -3.840000 8.120000 37.059540 -60.659386 5052.970703
2.120000 -3.840000 8.160000 46.943890 -41.817970 3952.471436
2.120000 -3.840000 8.200000 45.195789 -23.490135 2594.445801
2.120000 -3.800000 7.800000 -2.048528 -6.526199 46.787743
2.120000 -3.800000 7.840000 -8.615443 -12.156986 222.018173
2.120000 -3.800000 7.880000 -9.690015 -20.995073 534.689453
2.120000 -3.800000 7.920000 -6.735199 -28.514452 858.436890
2.120000 -3.800000 7.960000 -3.038475 -35.180916 1246.929199
2.120000 -3.800000 8.000000 2.745358 -44.205498 1961.662964
2.120000 -3.800000 8.040000 16.318211 -54.005562 3182.884766
2.120000 -3.800000 8.080000 39.375664 -55.599831 4641.784180
2.120000 -3.800000 8.120000 62.873058 -40.554535 5597.691895
2.120000 -3.800000 8.160000 71.983818 -12.215043 5330.876953
2.120000 -3.800000 8.200000 60.242584 13.315125 3806.461426
2.160000 -4.200000 7.800000 -11.543480 11.959813 276.289062
2.160000 -4.200000 7.840000 -18.371872 11.114233 461.051849
2.160000 -4.200000 7.880000 -24.425129 4.080781 613.239685
2.160000 -4.200000 7.920000 -25.180471 -7.512092 690.487671
2.160000 -4.200000 7.960000 -18.050589 -19.308455 698.640137
2.160000 -4.200000 8.000000 -3.798401 -25.749260 677.452271
2.160000 -4.200000 8.040000 12.830202 -22.548424 673.045532
2.160000 -4.200000 8.080000 24.584557 -9.787855 700.202576
2.160000 -4.200000 8.120000 25.924698 6.772693 717.959351
2.160000 -4.200000 8.160000 17.490499 18.695072 655.423340
2.160000 -4.200000 8.200000 6.349049 21.095270 485.320862
2.160000 -4.160000 7.800000 -8.269926 0.819741 69.063652
2.160000 -4.160000 7.840000 -16.463802 1.496040 273.294922
2.160000 -4.160000 7.880000 -23.005527 -7.183882 580.862427
2.160000 -4.160000 7.920000 -20.435520 -20.763187 848.720459
2.160000 -4.160000 7.960000 -7.428822 -30.456425 982.781189
2.160000 -4.160000 8.000000 10.147284 -29.441246 969.754333
2.160000 -4.160000 8.040000 23.357395 -17.579071 854.591675
2.160000 -4.160000 8.080000 26.285461 -1.215488 692.402893
2.160000 -4.160000 8.120000 19.693100 11.507115 520.231873
2.160000 -4.160000 8.160000 9.652231 16.277851 358.134003
2.160000 -4.160000 8.200000 2.451433 14.901877 228.075470
2.160000 -4.120000 7.800000 2.993958 -0.803299 9.609071
2.160000 -4.120000 7.840000 -8.477667 -1.692711 74.736107
2.160000 -4.120000 7.880000 -13.254551 -13.599277 360.623474
2.160000 -4.120000 7.920000 -4.907412 -26.177532 709.345886
2.160000 -4.120000 7.960000 11.850215 -28.451475 949.914062
2.160000 -4.120000 8.000000 25.783733 -17.983732 988.215515
2.160000 -4.120000 8.040000 28.878220 -1.941526 837.721069
2.160000 -4.120000 8.080000 22.131104 10.027885 590.344238
2.160000 -4.120000 8.120000 12.850318 13.861189 357.263245
2.160000 -4.120000 8.160000 7.083594 12.782465 213.568726
2.160000 -4.120000 8.200000 4.868744 12.187276 172.234360
2.160000 -4.080000 7.800000 10.260021 10.143724 208.163177
2.160000 -4.080000 7.840000 -2.448874 4.306180 24.540173
2.160000 -4.080000 7.880000 -2.518555 -9.115041 89.427086
2.160000 -4.080000 7.920000 10.056162 -15.944256 355.345703
2.160000 -4.080000 7.960000 23.742599 -9.037849 645.393799
2.160000 -4.080000 8.000000 27.112448 5.874684 769.596741
2.160000 -4.080000 8.040000 19.236303 17.008926 659.338989
2.160000 -4.080000 8.080000 8.870298 18.310022 413.939117
2.160000 -4.080000 8.120000 4.375710 14.032392 216.054855
2.160000 -4.080000 8.160000 5.510681 12.366109 183.288254
2.160000 -4.080000 8.200000 5.382276 15.834581 279.702850
2.160000 -4.040000 7.800000 3.694038 24.985746 637.933472
2.160000 -4.040000 7.840000 -6.016599 14.035944 233.207184
2.160000 -4.040000 7.880000 -1.215185 2.970058 10.297922
2.160000 -4.040000 7.920000 10.106376 3.637398 115.369492
2.160000 -4.040000 7.960000 14.455388 14.865972 429.955353
2.160000 -4.040000 8.000000 6.773350 24.850159 663.408691
2.160000 -4.040000 8.040000 -5.220397 24.174213 611.645142
2.160000 -4.040000 8.080000 -10.257431 15.330498 340.239044
2.160000 -4.040000 8.120000 -5.762769 8.967816 113.631233
2.160000 -4.040000 8.160000 0.090442 11.628076 135.220322
2.160000 -4.040000 8.200000 -1.747676 18.683258 352.118500
2.160000 -4.000000 7.800000 -15.102077 29.868660 1120.209595
2.160000 -4.000000 7.840000 -19.045113 17.132742 656.247192
2.160000 -4.000000 7.880000 -12.519210 10.888256 275.284729
2.160000 -4.000000 7.920000 -7.389436 15.538950 296.062744
2.160000 -4.000000 7.960000 -12.425341 22.766060 672.682556
2.160000 -4.000000 8.000000 -23.969189 21.320623 1029.091064
2.160000 -4.000000 8.040000 -30.293579 9.625449 1010.350220
2.160000 -4.000000 8.080000 -24.667440 -2.454115 614.505310
2.160000 -4.000000 8.120000 -12.767109 -4.337842 181.815933
2.160000 -4.000000 8.160000 -6.539706 3.877699 57.804306
2.160000 -4.000000 8.200000 -11.319713 11.730613 265.743164
2.160000 -3.960000 7.800000 -33.191875 17.691269 1414.681519
2.160000 -3.960000 7.840000 -32.102978 7.258954 1083.293579
2.160000 -3.960000 7.880000 -27.506603 4.846853 780.105225
2.160000 -3.960000 7.920000 -28.683979 7.510920 879.184570
2.160000 -3.960000 7.960000 -36.637207 5.658039 1374.298340
2.160000 -3.960000 8.000000 -42.690475 -5.748463 1855.521484
2.160000 -3.960000 8.040000 -37.909565 -20.834885 1871.227539
2.160000 -3.960000 8.080000 -23.146555 -28.300129 1336.660278
2.160000 -3.960000 8.120000 -8.891171 -22.957617 606.105103
2.160000 -3.960000 8.160000 -5.010693 -11.079851 147.870148
2.160000 -3.960000 8.200000 -11.180434 -3.981614 140.855347
2.160000 -3.920000 7.800000 -36.622520 -4.944025 1365.652344
2.160000 -3.920000 7.840000 -33.734299 -11.117018 1261.591064
2.160000 -3.920000 7.880000 -32.249218 -12.794262 1203.705200
2.160000 -3.920000 7.920000 -35.302849 -15.425645 1484.241699
2.160000 -3.920000 7.960000 -38.736225 -24.378304 2094.796875
2.160000 -3.920000 8.000000 -35.016472 -38.124878 2679.659668
2.160000 -3.920000 8.040000 -21.300327 -48.477180 2803.740967
2.160000 -3.920000 8.080000 -3.295842 -47.923714 2307.544922
2.160000 -3.920000 8.120000 9.197423 -36.780838 1437.422607
2.160000 -3.920000 8.160000 10.721455 -23.081289 647.695496
2.160000 -3.920000 8.200000 4.422735 -15.469542 258.867310
2.160000 -3.880000 7.800000 -22.449055 -22.420832 1006.653748
2.160000 -3.880000 7.840000 -20.882866 -25.333855 1077.898315
2.160000 -3.880000 7.880000 -20.943888 -28.508287 1251.368896
2.160000 -3.880000 7.920000 -21.253590 -34.790565 1662.098511
2.160000 -3.880000 7.960000 -17.785439 -44.421257 2289.569824
2.160000 -3.880000 8.000000 -7.398024 -53.542583 2921.539062
2.160000 -3.880000 8.040000 8.779531 -56.422554 3260.584717
2.160000 -3.880000 8.080000 25.132126 -49.675823 3099.311279
2.160000 -3.880000 8.120000 34.864491 -35.202263 2454.731934
2.160000 -3.880000 8.160000 34.498535 -19.456656 1568.710327
2.160000 -3.880000 8.200000 26.358894 -9.491930 784.888062
2.160000 -3.840000 7.800000 -1.674389 -23.123371 537.493896
2.160000 -3.840000 7.840000 -2.467986 -25.333269 647.865479
2.160000 -3.840000 7.880000 -1.932341 -29.838425 894.065552
2.160000 -3.840000 7.920000 1.338650 -35.633156 1271.513794
2.160000 -3.840000 7.960000 8.165670 -41.270798 1769.956909
2.160000 -3.840000 8.000000 18.999376 -44.758713 2364.318604
2.160000 -3.840000 8.040000 33.120644 -43.121147 2956.410400
2.160000 -3.840000 8.080000 47.023880 -33.493614 3333.067383
2.160000 -3.840000 8.120000 54.539524 -16.301266 3240.290771
2.160000 -3.840000 8.160000 50.709080 2.415310 2577.244629
2.160000 -3.840000 8.200000 37.082672 13.550421 1558.738403
2.160000 -3.800000 7.800000 10.062456 -9.287106 187.503357
2.160000 -3.800000 7.840000 8.127027 -12.791964 229.682892
2.160000 -3.800000 7.880000 9.920065 -17.018272 388.029266
2.160000 -3.800000 7.920000 13.927103 -20.018147 594.690430
2.160000 -3.800000 7.960000 19.199051 -22.444630 872.364990
2.160000 -3.800000 8.000000 27.470518 -24.379715 1348.999878
2.160000 -3.800000 8.040000 40.159431 -22.087324 2100.629883
2.160000 -3.800000 8.080000 53.293732 -10.336077 2947.056396
2.160000 -3.800000 8.120000 57.749634 10.512559 3445.534180
2.160000 -3.800000 8.160000 47.214188 30.865356 3181.849609
2.160000 -3.800000 8.200000 26.576994 38.193516 2165.081299
2.200000 -4.200000 7.800000 -9.765846 -10.219417 199.808228
2.200000 -4.200000 7.840000 -13.601817 -7.456925 240.615158
2.200000 -4.200000 7.880000 -19.634815 -12.590391 544.043945
2.200000 -4.200000 7.920000 -19.246857 -25.355135 1013.324341
2.200000 -4.200000 7.960000 -6.843760 -37.768776 1473.317505
2.200000 -4.200000 8.000000 14.428047 -39.485771 1767.294678
2.200000 -4.200000 8.040000 33.798553 -26.122736 1824.739502
2.200000 -4.200000 8.080000 40.643005 -3.381317 1663.287231
2.200000 -4.200000 8.120000 32.601894 17.025053 1352.735962
2.200000 -4.200000 8.160000 16.865772 26.386429 980.697937
2.200000 -4.200000 8.200000 3.573337 25.052835 640.413330
2.200000 -4.160000 7.800000 6.030677 -10.479630 146.191696
2.200000 -4.160000 7.840000 -4.508810 -5.700674 52.827049
2.200000 -4.160000 7.880000 -14.219284 -14.496625 412.340149
2.200000 -4.160000 7.920000 -11.259783 -30.968372 1085.822754
2.200000 -4.160000 7.960000 6.665227 -41.417770 1759.857056
2.200000 -4.160000 8.000000 29.690372 -35.477482 2140.169922
2.200000 -4.160000 8.040000 43.538826 -14.619637 2109.363281
2.200000 -4.160000 8.080000 40.756981 9.437717 1750.202026
2.200000 -4.160000 8.120000 25.543133 24.542816 1254.801514
2.200000 -4.160000 8.160000 8.537012 26.996140 801.672119
2.200000 -4.160000 8.200000 -2.581631 21.954998 488.686768
2.200000 -4.120000 7.800000 15.550911 6.095649 278.987762
2.200000 -4.120000 7.840000 -3.652685 5.879246 47.907639
2.200000 -4.120000 7.880000 -13.947230 -11.062271 316.899078
2.200000 -4.120000 7.920000 -4.936717 -30.777462 971.623352
2.200000 -4.120000 7.960000 18.206652 -36.554497 1667.713379
2.200000 -4.120000 8.000000 39.286636 -22.688454 2058.205811
2.200000 -4.120000 8.040000 44.674229 1.772033 1998.926880
2.200000 -4.120000 8.080000 33.378002 21.872257 1592.486694
2.200000 -4.120000 8.120000 15.226305 28.986927 1072.082275
2.200000 -4.120000 8.160000 0.691423 25.267750 638.937256
2.200000 -4.120000 8.200000 -6.932772 18.009239 372.396027
2.200000 -4.080000 7.800000 5.445080 27.507105 786.289673
2.200000 -4.080000 7.840000 -17.545942 15.016088 533.343018
2.200000 -4.080000 7.880000 -21.534988 -10.945618 583.562256
2.200000 -4.080000 7.920000 -3.295943 -30.129232 918.633850
2.200000 -4.080000 7.960000 23.103558 -28.207314 1329.426880
2.200000 -4.080000 8.000000 38.765144 -7.793137 1563.469482
2.200000 -4.080000 8.040000 35.255646 15.776812 1491.868408
2.200000 -4.080000 8.080000 18.966713 28.494852 1171.692871
2.200000 -4.080000 8.120000 2.458176 27.732574 775.138306
2.200000 -4.080000 8.160000 -6.944705 20.207361 456.566345
2.200000 -4.080000 8.200000 -10.296936 12.735645 268.223541
2.200000 -4.040000 7.800000 -21.987049 34.443363 1669.775513
2.200000 -4.040000 7.840000 -38.767288 8.179544 1569.807495
2.200000 -4.040000 7.880000 -29.957479 -21.531404 1361.052002
2.200000 -4.040000 7.920000 -2.750111 -33.864239 1154.349731
2.200000 -4.040000 7.960000 22.637333 -22.326996 1010.943604
2.200000 -4.040000 8.000000 30.110935 1.604196 909.241821
2.200000 -4.040000 8.040000 19.387024 20.236980 785.392090
2.200000 -4.040000 8.080000 2.592464 24.473166 605.656738
2.200000 -4.040000 8.120000 -8.568037 18.135487 402.307129
2.200000 -4.040000 8.160000 -11.622035 10.198704 239.085266
2.200000 -4.040000 8.200000 -10.995389 5.202133 147.960770
2.200000 -4.000000 7.800000 -48.586117 16.693882 2639.296631
2.200000 -4.000000 7.840000 -50.396362 -16.409769 2809.073730
2.200000 -4.000000 7.880000 -27.911682 -40.384758 2409.990723
2.200000 -4.000000 7.920000 2.920395 -40.585487 1655.710449
2.200000 -4.000000 7.960000 21.729931 -20.736626 902.197510
2.200000 -4.000000 8.000000 20.050781 2.087645 406.392059
2.200000 -4.000000 8.040000 5.696688 12.933867 199.737152
2.200000 -4.000000 8.080000 -7.131529 9.974316 150.345673
2.200000 -4.000000 8.120000 -10.863499 2.015834 122.079193
2.200000 -4.000000 8.160000 -8.344250 -2.432563 75.543861
2.200000 -4.000000 8.200000 -6.073452 -2.418124 42.734138
2.200000 -3.960000 7.800000 -54.278870 -16.890003 3231.468018
2.200000 -3.960000 7.840000 -40.118114 -45.079189 3641.596436
2.200000 -3.960000 7.880000 -10.616304 -55.473953 3190.065186
2.200000 -3.960000 7.920000 15.490126 -43.429878 2126.098389
2.200000 -3.960000 7.960000 23.860422 -20.520847 990.424927
2.200000 -3.960000 8.000000 15.212560 -3.676726 244.940277
2.200000 -3.960000 8.040000 2.162807 -1.054645 5.790011
2.200000 -3.960000 8.080000 -3.471186 -7.491551 68.172470
2.200000 -3.960000 8.120000 -0.266705 -12.279465 150.856384
2.200000 -3.960000 8.160000 4.514747 -10.162575 123.660866
2.200000 -3.960000 8.200000 4.269383 -4.716056 40.468822
2.200000 -3.920000 7.800000 -33.771446 -44.317364 3104.539307
2.200000 -3.920000 7.840000 -11.670733 -58.781349 3591.453125
2.200000 -3.920000 7.880000 14.309746 -54.971519 3226.636719
2.200000 -3.920000 7.920000 29.431782 -36.742401 2216.233887
2.200000 -3.920000 7.960000 28.155048 -17.662125 1104.657349
2.200000 -3.920000 8.000000 17.692621 -9.282048 399.185242
2.200000 -3.920000 8.040000 10.366753 -12.027104 252.120804
2.200000 -3.920000 8.080000 12.255790 -16.722248 429.837952
2.200000 -3.920000 8.120000 18.796009 -14.582133 565.928589
2.200000 -3.920000 8.160000 20.806726 -5.632552 464.645508
2.200000 -3.920000 8.200000 14.294605 2.252985 209.411682
2.200000 -3.880000 7.800000 -1.401737 -47.859276 2292.475098
2.200000 -3.880000 7.840000 17.110241 -48.739994 2668.347168
2.200000 -3.880000 7.880000 32.164223 -37.850574 2467.203125
2.200000 -3.880000 7.920000 36.336937 -22.003283 1804.517456
2.200000 -3.880000 7.960000 30.785057 -11.060161 1070.046875
2.200000 -3.880000 8.000000 23.996124 -9.420887 664.567078
2.200000 -3.880000 8.040000 23.811069 -12.390018 720.479553
2.200000 -3.880000 8.080000 29.966660 -11.081459 1020.799438
2.200000 -3.880000 8.120000 34.416203 -1.530883 1186.818604
2.200000 -3.880000 8.160000 29.499655 10.810880 987.104736
2.200000 -3.880000 8.200000 16.188019 15.938475 516.086914
2.200000 -3.840000 7.800000 20.401405 -28.165615 1209.519287
2.200000 -3.840000 7.840000 28.552803 -23.731812 1378.461426
2.200000 -3.840000 7.880000 33.136147 -15.262892 1330.959961
2.200000 -3.840000 7.920000 32.237923 -7.107244 1089.796631
2.200000 -3.840000 7.960000 28.746098 -3.439784 838.170227
2.200000 -3.840000 8.000000 28.096867 -3.761333 803.581543
2.200000 -3.840000 8.040000 32.605202 -2.509747 1069.397949
2.200000 -3.840000 8.080000 37.883911 5.635952 1466.954590
2.200000 -3.840000 8.120000 35.986912 19.245070 1665.430542
2.200000 -3.840000 8.160000 23.536612 29.528093 1425.880371
2.200000 -3.840000 8.200000 6.922076 27.784830 819.911926
2.200000 -3.800000 7.800000 19.195507 -2.875259 376.734619
2.200000 -3.800000 7.840000 19.151041 -2.413551 372.587585
2.200000 -3.800000 7.880000 20.012121 -1.309587 402.200012
2.200000 -3.800000 7.920000 20.860016 0.045343 435.142303
2.200000 -3.800000 7.960000 22.518709 0.989652 508.071655
2.200000 -3.800000 8.000000 26.456589 3.079044 709.431641
2.200000 -3.800000 8.040000 31.374123 9.741162 1079.225830
2.200000 -3.800000 8.080000 31.941927 21.992081 1503.938232
2.200000 -3.800000 8.120000 23.035656 34.659996 1731.956787
2.200000 -3.800000 8.160000 6.322975 38.766823 1542.846558
2.200000 -3.800000 8.200000 -8.315464 29.855217 960.480957
