#kx 	ky 	kz 	real 	imag 	intensity
4.800000 4.800000 -1.200000 -9.140439 -18.902699 440.859619
4.800000 4.800000 -1.160000 -0.276154 -19.940742 397.709473
4.800000 4.800000 -1.120000 4.068536 -14.717905 233.169708
4.800000 4.800000 -1.080000 1.605141 -11.024416 124.114227
4.800000 4.800000 -1.040000 -1.588364 -14.075102 200.631393
4.800000 4.800000 -1.000000 1.863101 -20.387888 419.137115
4.800000 4.800000 -0.960000 12.008698 -21.462029 604.827515
4.800000 4.800000 -0.920000 21.035126 -13.096460 613.993774
4.800000 4.800000 -0.880000 21.262154 -0.068995 452.083923
4.800000 4.800000 -0.840000 12.810977 8.807693 241.696594
4.800000 4.800000 -0.800000 2.692301 9.427947 96.134666
4.800000 4.840000 -1.200000 0.914624 -25.992855 676.465088
4.800000 4.840000 -1.160000 10.134357 -25.219940 738.750610
4.800000 4.840000 -1.120000 15.180043 -20.975712 670.414185
4.800000 4.840000 -1.080000 17.189672 -17.785975 611.825684
4.800000 4.840000 -1.040000 19.713234 -15.842694 639.602539
4.800000 4.840000 -1.000000 23.338287 -12.110060 691.329224
4.800000 4.840000 -0.960000 24.926281 -5.392049 650.393677
4.800000 4.840000 -0.920000 21.992371 1.352311 485.493103
4.800000 4.840000 -0.880000 16.372337 4.333124 286.829407
4.800000 4.840000 -0.840000 12.325171 3.660066 165.305923
4.800000 4.840000 -0.800000 11.276590 3.226179 137.569717
4.800000 4.880000 -1.200000 13.192964 -25.563969 827.570801
4.800000 4.880000 -1.160000 23.422974 -23.022058 1078.650879
4.800000 4.880000 -1.120000 30.861286 -16.917118 1238.607910
4.800000 4.880000 -1.080000 35.262474 -8.563238 1316.771118
4.800000 4.880000 -1.040000 35.504616 1.200692 1262.019409
4.800000 4.880000 -1.000000 30.421301 9.567885 1017.000000
4.800000 4.880000 -0.960000 22.051056 12.484517 642.112244
4.800000 4.880000 -0.920000 16.053055 9.042622 339.469574
4.800000 4.880000 -0.880000 16.888680 4.206518 302.922302
4.800000 4.880000 -0.840000 22.344620 5.127068 525.568848
4.800000 4.880000 -0.800000 24.318445 13.596674 776.256348
4.800000 4.920000 -1.200000 23.055084 -18.257456 864.871582
4.800000 4.920000 -1.160000 33.849686 -11.896259 1287.322266
4.800000 4.920000 -1.120000 40.617348 -0.567701 1650.091187
4.800000 4.920000 -1.080000 40.397202 13.407204 1811.687012
4.800000 4.920000 -1.040000 31.794992 24.654446 1618.763184
4.800000 4.920000 -1.000000 18.770332 27.026554 1082.760010
4.800000 4.920000 -0.960000 10.135331 19.696430 490.674316
4.800000 4.920000 -0.920000 12.516001 10.353392 263.842987
4.800000 4.920000 -0.880000 22.887520 9.875530 621.364685
4.800000 4.920000 -0.840000 29.459433 21.914677 1348.111206
4.800000 4.920000 -0.800000 22.039331 37.868759 1919.775146
4.800000 4.960000 -1.200000 27.510576 -6.382921 797.573486
4.800000 4.960000 -1.160000 35.044888 5.067194 1253.820679
4.800000 4.960000 -1.120000 35.153362 19.882206 1631.061035
4.800000 4.960000 -1.080000 26.014067 32.293724 1719.616333
4.800000 4.960000 -1.040000 11.412872 35.357430 1380.401489
4.800000 4.960000 -1.000000 0.807726 27.319450 747.004761
4.800000 4.960000 -0.960000 2.342014 15.814137 255.571945
4.800000 4.960000 -0.920000 14.149996 13.266105 376.211914
4.800000 4.960000 -0.880000 23.680813 25.615658 1216.942871
4.800000 4.960000 -0.840000 17.952324 45.082512 2354.718750
4.800000 4.960000 -0.800000 -3.927872 55.487926 3094.338135
4.800000 5.000000 -1.200000 24.509621 7.026622 650.094910
4.800000 5.000000 -1.160000 23.887241 20.070887 973.440796
4.800000 5.000000 -1.120000 15.170891 30.577837 1165.160034
4.800000 5.000000 -1.080000 1.887931 32.720150 1074.172607
4.800000 5.000000 -1.040000 -7.719818 25.037266 686.460266
4.800000 5.000000 -1.000000 -6.326725 14.184132 241.217041
4.800000 5.000000 -0.960000 4.781788 11.471537 154.461639
4.800000 5.000000 -0.920000 14.274265 23.047405 734.937500
4.800000 5.000000 -0.880000 9.316057 42.486805 1891.917480
4.800000 5.000000 -0.840000 -12.502054 54.291191 3103.834717
4.800000 5.000000 -0.800000 -39.350552 46.715508 3730.804688
4.800000 5.040000 -1.200000 13.166231 17.368353 475.009308
4.800000 5.040000 -1.160000 4.060830 24.088654 596.753601
4.800000 5.040000 -1.120000 -7.136962 22.679989 565.318115
4.800000 5.040000 -1.080000 -13.089718 13.702608 359.102173
4.800000 5.040000 -1.040000 -8.798491 4.204989 95.095375
4.800000 5.040000 -1.000000 2.812951 3.791792 22.290379
4.800000 5.040000 -0.960000 10.939944 16.430290 389.636810
4.800000 5.040000 -0.920000 4.649896 35.078365 1252.113281
4.800000 5.040000 -0.880000 -17.230686 45.447174 2362.342041
4.800000 5.040000 -0.840000 -43.430588 37.105747 3263.052246
4.800000 5.040000 -0.800000 -58.240299 12.468613 3547.398682
4.800000 5.080000 -1.200000 -3.915556 18.907351 372.819489
4.800000 5.080000 -1.160000 -14.303931 12.977579 373.020020
4.800000 5.080000 -1.120000 -16.489140 0.314671 271.990753
4.800000 5.080000 -1.080000 -6.919205 -9.775784 143.441330
4.800000 5.080000 -1.040000 8.601809 -7.520159 130.543900
4.800000 5.080000 -1.000000 17.372162 8.767101 378.654083
4.800000 5.080000 -0.960000 9.210855 29.225014 938.941284
4.800000 5.080000 -0.920000 -14.471140 38.629311 1701.637573
4.800000 5.080000 -0.880000 -40.373299 28.045012 2416.525879
4.800000 5.080000 -0.840000 -52.949219 2.097511 2808.019531
4.800000 5.080000 -0.800000 -45.988686 -24.692532 2724.680420
4.800000 5.120000 -1.200000 -19.453445 8.512373 450.897034
4.800000 5.120000 -1.160000 -20.388832 -8.332784 485.139771
4.800000 5.120000 -1.120000 -6.346451 -21.756760 513.634033
4.800000 5.120000 -1.080000 15.349016 -19.378239 611.108459
4.800000 5.120000 -1.040000 28.720913 0.805832 825.540222
4.800000 5.120000 -1.000000 21.295174 26.367537 1148.731445
4.800000 5.120000 -0.960000 -4.744920 38.704422 1520.546509
4.800000 5.120000 -0.920000 -32.952682 27.637360 1849.702881
4.800000 5.120000 -0.880000 -45.134686 -0.347373 2037.260620
4.800000 5.120000 -0.840000 -35.209984 -27.664974 2005.093750
4.800000 5.120000 -0.800000 -12.390068 -39.796803 1737.299316
4.800000 5.160000 -1.200000 -24.888405 -10.218413 723.848633
4.800000 5.160000 -1.160000 -10.406561 -28.009161 892.809631
4.800000 5.160000 -1.120000 15.994612 -29.339743 1116.648071
4.800000 5.160000 -1.080000 36.501785 -8.603013 1406.392212
4.800000 5.160000 -1.040000 34.344868 22.418827 1682.173828
4.800000 5.160000 -1.000000 8.581584 41.873116 1827.001343
4.800000 5.160000 -0.960000 -23.459156 35.166927 1787.044800
4.800000 5.160000 -0.920000 -39.533943 7.133755 1613.823120
4.800000 5.160000 -0.880000 -30.189869 -22.214581 1404.915771
4.800000 5.160000 -0.840000 -4.975513 -34.426033 1209.907471
4.800000 5.160000 -0.800000 17.599421 -26.375378 1005.400146
4.800000 5.200000 -1.200000 -16.937197 -27.684933 1053.324097
4.800000 5.200000 -1.160000 9.195765 -35.323742 1332.328857
4.800000 5.200000 -1.120000 35.535999 -19.393736 1638.924316
4.800000 5.200000 -1.080000 42.004681 13.043171 1934.517456
4.800000 5.200000 -1.040000 21.601854 40.243958 2086.216309
4.800000 5.200000 -1.000000 -12.024975 42.681801 1966.336060
4.800000 5.200000 -0.960000 -34.743488 19.438152 1584.951782
4.800000 5.200000 -0.920000 -31.547264 -11.033791 1116.974365
4.800000 5.200000 -0.880000 -8.004137 -26.689308 776.385376
4.800000 5.200000 -0.840000 16.377428 -19.567789 651.118530
4.800000 5.200000 -0.800000 25.577057 0.393622 654.340820
4.840000 4.800000 -1.200000 12.076208 -5.456778 175.611237
4.840000 4.800000 -1.160000 9.896729 -1.782963 101.124191
4.840000 4.800000 -1.120000 4.946477 -2.450811 30.474110
4.840000 4.800000 -1.080000 3.089905 -8.439970 80.780609
4.840000 4.800000 -1.040000 8.421185 -14.375641 277.575409
4.840000 4.800000 -1.000000 18.028881 -13.426244 505.304565
4.840000 4.800000 -0.960000 24.085451 -4.501703 600.374268
4.840000 4.800000 -0.920000 21.432339 6.169174 497.403870
4.840000 4.800000 -0.880000 12.594536 11.109743 282.048706
4.840000 4.800000 -0.840000 4.717787 8.756825 98.939507
4.840000 4.800000 -0.800000 2.015211 3.950924 19.670874
4.840000 4.840000 -1.200000 12.760801 -3.055487 172.174042
4.840000 4.840000 -1.160000 16.363998 -4.435703 287.455933
4.840000 4.840000 -1.120000 22.293079 -2.680132 504.164490
4.840000 4.840000 -1.080000 27.125168 4.457100 755.640442
4.840000 4.840000 -1.040000 25.796062 15.109457 893.732544
4.840000 4.840000 -1.000000 16.489616 22.888624 795.796509
4.840000 4.840000 -0.960000 4.005201 21.742304 488.769409
4.840000 4.840000 -0.920000 -3.102699 12.182230 158.033463
4.840000 4.840000 -0.880000 -0.176649 2.075699 4.339732
4.840000 4.840000 -0.840000 8.505877 -0.079111 72.356194
4.840000 4.840000 -0.800000 13.246298 6.476040 217.403488
4.840000 4.880000 -1.200000 12.544493 -1.794649 160.585068
4.840000 4.880000 -1.160000 25.668301 0.514826 659.126709
4.840000 4.880000 -1.120000 35.456367 15.878942 1509.294922
4.840000 4.880000 -1.080000 30.038404 37.962719 2343.473877
4.840000 4.880000 -1.040000 7.320927 51.079433 2662.704590
4.840000 4.880000 -1.000000 -19.701874 42.876419 2226.551270
4.840000 4.880000 -0.960000 -31.756193 16.922136 1294.814453
4.840000 4.880000 -0.920000 -19.985275 -8.010483 463.579041
4.840000 4.880000 -0.880000 5.084612 -13.330072 203.544098
4.840000 4.880000 -0.840000 22.076355 2.864218 495.569183
4.840000 4.880000 -0.800000 17.727091 24.089846 894.570435
4.840000 4.920000 -1.200000 13.572161 -0.850813 184.927429
4.840000 4.920000 -1.160000 29.438404 14.252485 1069.752930
4.840000 4.920000 -1.120000 27.724438 42.933929 2611.966797
4.840000 4.920000 -1.080000 0.219513 64.532745 4164.523438
4.840000 4.920000 -1.040000 -38.949348 57.661060 4841.849609
4.840000 4.920000 -1.000000 -61.241020 21.383526 4207.717773
4.840000 4.920000 -0.960000 -47.961132 -19.818655 2693.049316
4.840000 4.920000 -0.920000 -8.631672 -35.151348 1310.123047
4.840000 4.920000 -0.880000 25.539291 -14.466475 861.534302
4.840000 4.920000 -0.840000 28.622213 22.541998 1327.372803
4.840000 4.920000 -0.800000 2.276707 44.329369 1970.276245
4.840000 4.960000 -1.200000 15.188164 2.744631 238.213318
4.840000 4.960000 -1.160000 20.568676 29.712269 1305.889404
4.840000 4.960000 -1.120000 -1.985275 56.843819 3235.161133
4.840000 4.960000 -1.080000 -44.424400 57.307358 5257.660645
4.840000 4.960000 -1.040000 -76.206589 21.299747 6261.123535
4.840000 4.960000 -1.000000 -69.044815 -29.671730 5647.598145
4.840000 4.960000 -0.960000 -24.289196 -57.464073 3892.084717
4.840000 4.960000 -0.920000 24.764515 -40.243919 2232.854248
4.840000 4.960000 -0.880000 40.542999 7.135263 1694.646729
4.840000 4.960000 -0.840000 13.846794 45.810387 2290.325195
4.840000 4.960000 -0.800000 -29.469635 47.299923 3105.742188
4.840000 5.000000 -1.200000 13.057314 9.512262 260.976593
4.840000 5.000000 -1.160000 0.349814 35.392746 1252.768799
4.840000 5.000000 -1.120000 -35.459476 43.028744 3108.847168
4.840000 5.000000 -1.080000 -69.865112 15.775051 5129.985840
4.840000 5.000000 -1.040000 -71.356567 -33.938469 6243.579590
4.840000 5.000000 -1.000000 -31.315212 -69.597534 5824.459473
4.840000 5.000000 -0.960000 23.462582 -61.027958 4274.904297
4.840000 5.000000 -0.920000 51.089958 -12.902853 2776.667480
4.840000 5.000000 -0.880000 30.878670 37.315163 2345.913574
4.840000 5.000000 -0.840000 -18.675241 51.619263 3013.312988
4.840000 5.000000 -0.800000 -57.454952 23.767593 3865.969971
4.840000 5.040000 -1.200000 3.814130 14.443986 223.176315
4.840000 5.040000 -1.160000 -20.346809 24.262285 1002.651123
4.840000 5.040000 -1.120000 -49.089783 7.614822 2467.792480
4.840000 5.040000 -1.080000 -55.506744 -31.923092 4100.082520
4.840000 5.040000 -1.040000 -25.541080 -66.511185 5076.084473
4.840000 5.040000 -1.000000 24.317867 -65.568756 4890.620117
4.840000 5.040000 -0.960000 56.790279 -24.588078 3829.709229
4.840000 5.040000 -0.920000 45.307076 27.339125 2800.158936
4.840000 5.040000 -0.880000 -1.808522 50.932453 2597.385498
4.840000 5.040000 -0.840000 -48.169258 30.274403 3236.816895
4.840000 5.040000 -0.800000 -61.140648 -15.026882 3963.985840
4.840000 5.080000 -1.200000 -9.342052 10.468391 196.861160
4.840000 5.080000 -1.160000 -28.156136 0.467401 792.986389
4.840000 5.080000 -1.120000 -33.289154 -26.664888 1819.184082
4.840000 5.080000 -1.080000 -12.006902 -52.845146 2936.775146
4.840000 5.080000 -1.040000 26.964165 -53.895779 3631.821045
4.840000 5.080000 -1.000000 55.784046 -22.004396 3596.053223
4.840000 5.080000 -0.960000 49.757694 23.262907 3016.990967
4.840000 5.080000 -0.920000 10.128652 48.652679 2469.672852
4.840000 5.080000 -0.880000 -34.986217 34.991367 2448.431152
4.840000 5.080000 -0.840000 -53.782822 -6.620032 2936.416504
4.840000 5.080000 -0.800000 -36.816536 -45.411888 3417.696777
4.840000 5.120000 -1.200000 -17.153484 -4.005538 310.286377
4.840000 5.120000 -1.160000 -17.391085 -22.516571 809.445801
4.840000 5.120000 -1.120000 0.134917 -38.779842 1503.894409
4.840000 5.120000 -1.080000 29.037123 -36.618176 2184.045166
4.840000 5.120000 -1.040000 49.722065 -10.594051 2584.517578
4.840000 5.120000 -1.000000 43.912247 25.424055 2574.667969
4.840000 5.120000 -0.960000 11.433498 46.400566 2283.737305
4.840000 5.120000 -0.920000 -26.957535 36.006939 2023.208252
4.840000 5.120000 -0.880000 -45.152500 0.718335 2039.264282
4.840000 5.120000 -0.840000 -32.400185 -35.314148 2296.860840
4.840000 5.120000 -0.800000 -0.544948 -50.062737 2506.574463
4.840000 5.160000 -1.200000 -12.068875 -21.421104 604.521484
4.840000 5.160000 -1.160000 5.223743 -31.564507 1023.605530
4.840000 5.160000 -1.120000 28.665781 -25.362766 1464.996826
4.840000 5.160000 -1.080000 42.607124 -1.305099 1817.070312
4.840000 5.160000 -1.040000 34.487823 28.072605 1977.481079
4.840000 5.160000 -1.000000 6.151947 43.410191 1922.291138
4.840000 5.160000 -0.960000 -25.307095 33.134552 1738.347656
4.840000 5.160000 -0.920000 -39.535114 3.206295 1573.305542
4.840000 5.160000 -0.880000 -28.207405 -27.037861 1526.703613
4.840000 5.160000 -0.840000 -0.533994 -39.642712 1571.829712
4.840000 5.160000 -0.800000 25.336031 -30.671116 1582.631836
4.840000 5.200000 -1.200000 4.050064 -30.421341 941.861023
4.840000 5.200000 -1.160000 25.678833 -23.577290 1215.291016
4.840000 5.200000 -1.120000 37.384735 -0.777235 1398.222534
4.840000 5.200000 -1.080000 28.827616 25.494066 1480.978760
4.840000 5.200000 -1.040000 3.162298 38.188927 1468.394287
4.840000 5.200000 -1.000000 -23.893057 28.414749 1378.276123
4.840000 5.200000 -0.960000 -35.203777 2.553194 1245.824707
4.840000 5.200000 -0.920000 -24.703165 -22.485844 1115.859497
4.840000 5.200000 -0.880000 -0.933143 -31.904625 1018.775818
4.840000 5.200000 -0.840000 20.676323 -22.876120 950.827148
4.840000 5.200000 -0.800000 29.382130 -4.108595 880.190125
4.880000 4.800000 -1.200000 14.680598 25.288296 855.017883
4.880000 4.800000 -1.160000 -0.060526 22.031698 485.399384
4.880000 4.800000 -1.120000 -6.892174 8.540554 120.443123
4.880000 4.800000 -1.080000 -0.342152 -4.452389 19.940832
4.880000 4.800000 -1.040000 13.326782 -6.135363 215.245789
4.880000 4.800000 -1.000000 21.554680 3.971838 480.379700
4.880000 4.800000 -0.960000 17.541065 15.592522 550.815674
4.880000 4.800000 -0.920000 6.516771 18.146339 371.757935
4.880000 4.800000 -0.880000 -0.447342 11.127665 124.025032
4.880000 4.800000 -0.840000 1.740540 3.440311 14.865221
4.880000 4.800000 -0.800000 7.615220 2.790083 65.776131
4.880000 4.840000 -1.200000 -1.056192 24.185352 586.046814
4.880000 4.840000 -1.160000 1.227386 16.636377 278.275513
4.880000 4.840000 -1.120000 9.258860 18.305952 420.834351
4.880000 4.840000 -1.080000 10.653954 30.317593 1032.663208
4.880000 4.840000 -1.040000 -2.378906 41.291019 1710.607422
4.880000 4.840000 -1.000000 -23.333488 37.383026 1941.942261
4.880000 4.840000 -0.960000 -35.551929 16.679768 1542.154297
4.880000 4.840000 -0.920000 -27.710484 -6.878746 815.188049
4.880000 4.840000 -0.880000 -5.581551 -15.476623 270.679565
4.880000 4.840000 -0.840000 12.437427 -4.261648 172.851227
4.880000 4.840000 -0.800000 12.568828 13.845340 349.668884
4.880000 4.880000 -1.200000 -10.254048 12.533605 262.236755
4.880000 4.880000 -1.160000 5.917047 19.392761 411.090637
4.880000 4.880000 -1.120000 6.805824 44.927223 2064.774658
4.880000 4.880000 -1.080000 -21.123737 66.180153 4826.024902
4.880000 4.880000 -1.040000 -63.852417 56.488579 7268.090820
4.880000 4.880000 -1.000000 -88.188995 12.700821 7938.609863
4.880000 4.880000 -0.960000 -71.258469 -37.520962 6485.592285
4.880000 4.880000 -0.920000 -23.230183 -58.099934 3915.243652
4.880000 4.880000 -0.880000 20.031292 -36.699665 1748.118042
4.880000 4.880000 -0.840000 28.631014 4.456793 839.597961
4.880000 4.880000 -0.800000 4.438353 29.758234 905.251465
4.880000 4.920000 -1.200000 -7.589591 -0.012688 57.602051
4.880000 4.920000 -1.160000 3.249923 29.219294 864.329102
4.880000 4.920000 -1.120000 -24.122147 63.037609 4555.618164
4.880000 4.920000 -1.080000 -80.912491 61.261353 10299.784180
4.880000 4.920000 -1.040000 -123.617455 7.839573 15342.734375
4.880000 4.920000 -1.000000 -111.009117 -67.351936 16859.308594
4.880000 4.920000 -0.960000 -44.316185 -110.088226 14083.341797
4.880000 4.920000 -0.920000 29.920975 -89.302933 8870.278320
4.880000 4.920000 -0.880000 59.575859 -25.258968 4187.298340
4.880000 4.920000 -0.840000 32.094109 29.324593 1889.963623
4.880000 4.920000 -0.800000 -17.921059 36.917416 1684.059937
4.880000 4.960000 -1.200000 1.636065 -3.878646 17.720600
4.880000 4.960000 -1.160000 -11.445267 35.083710 1361.860840
4.880000 4.960000 -1.120000 -65.708916 48.575577 6677.248047
4.880000 4.960000 -1.080000 -121.792694 4.288553 14851.851562
4.880000 4.960000 -1.040000 -125.035339 -80.411484 22099.843750
4.880000 4.960000 -1.000000 -57.630875 -145.326691 24441.166016
4.880000 4.960000 -0.960000 38.775799 -138.478973 20679.988281
4.880000 4.960000 -0.920000 95.886154 -64.090134 13301.699219
4.880000 4.960000 -0.880000 78.022423 19.885151 6482.917969
4.880000 4.960000 -0.840000 11.423677 53.338238 2975.468018
4.880000 4.960000 -0.800000 -43.602959 25.062283 2529.335938
4.880000 5.000000 -1.200000 6.765739 1.156573 47.112892
4.880000 5.000000 -1.160000 -30.330048 26.116568 1601.986938
4.880000 5.000000 -1.120000 -85.795364 2.971657 7369.675293
4.880000 5.000000 -1.080000 -105.985588 -70.407455 16190.155273
4.880000 5.000000 -1.040000 -55.673424 -144.757004 24054.119141
4.880000 5.000000 -1.000000 42.301003 -157.802734 26691.078125
4.880000 5.000000 -0.960000 119.913445 -91.537415 22758.332031
4.880000 5.000000 -0.920000 121.689964 7.712752 14867.933594
4.880000 5.000000 -0.880000 53.332993 68.328415 7513.180664
4.880000 5.000000 -0.840000 -25.552738 55.271423 3707.872559
4.880000 5.000000 -0.800000 -56.627251 -4.033009 3222.910645
4.880000 5.040000 -1.200000 2.691648 5.999872 43.243439
4.880000 5.040000 -1.160000 -38.627579 2.836145 1500.133545
4.880000 5.040000 -1.120000 -66.235069 -45.532585 6460.300781
4.880000 5.040000 -1.080000 -39.958694 -110.953491 13907.374023
4.880000 5.040000 -1.040000 38.794670 -137.810486 20496.757812
4.880000 5.040000 -1.000000 118.748329 -92.713837 22697.021484
4.880000 5.040000 -0.960000 139.387039 0.186323 19428.781250
4.880000 5.040000 -0.920000 84.729919 75.689949 12908.126953
4.880000 5.040000 -0.880000 -1.647125 83.013443 6893.944824
4.880000 5.040000 -0.840000 -55.499760 28.102737 3869.987305
4.880000 5.040000 -0.800000 -47.190296 -36.691135 3573.163574
4.880000 5.080000 -1.200000 -4.816177 1.982078 27.124195
4.880000 5.080000 -1.160000 -27.577019 -21.558945 1225.280029
4.880000 5.080000 -1.120000 -19.236385 -65.449387 4653.660645
4.880000 5.080000 -1.080000 30.892027 -92.656929 9539.624023
4.880000 5.080000 -1.040000 94.441620 -69.248985 13714.641602
4.880000 5.080000 -1.000000 122.487862 0.520878 15003.547852
4.880000 5.080000 -0.960000 88.157303 71.262161 12850.005859
4.880000 5.080000 -0.920000 13.202914 92.702888 8768.142578
4.880000 5.080000 -0.880000 -48.750324 52.756500 5159.842285
4.880000 5.080000 -0.840000 -57.693783 -13.381693 3507.642090
4.880000 5.080000 -0.800000 -18.656021 -56.133057 3498.967285
4.880000 5.120000 -1.200000 -5.146617 -9.700195 120.581451
4.880000 5.120000 -1.160000 -2.674479 -31.656643 1009.295898
4.880000 5.120000 -1.120000 23.659653 -48.163536 2879.505371
4.880000 5.120000 -1.080000 62.259998 -36.870667 5235.753418
4.880000 5.120000 -1.040000 83.803909 6.213795 7061.706543
4.880000 5.120000 -1.000000 65.126923 56.872299 7475.974609
4.880000 5.120000 -0.960000 12.374748 79.026855 6398.377930
4.880000 5.120000 -0.920000 -40.192188 54.984734 4638.732910
4.880000 5.120000 -0.880000 -57.214607 1.608456 3276.098389
4.880000 5.120000 -0.840000 -30.932878 -43.520142 2850.845703
4.880000 5.120000 -0.800000 14.730018 -53.273689 3055.059326
4.880000 5.160000 -1.200000 5.854996 -18.786446 387.211517
4.880000 5.160000 -1.160000 20.602268 -22.513802 931.324707
4.880000 5.160000 -1.120000 38.598351 -12.552626 1647.401001
4.880000 5.160000 -1.080000 46.616680 12.012007 2317.403076
4.880000 5.160000 -1.040000 33.552845 39.539238 2689.144775
4.880000 5.160000 -1.000000 1.604111 51.436119 2648.247559
4.880000 5.160000 -0.960000 -31.664627 36.307983 2320.918213
4.880000 5.160000 -0.920000 -44.730862 0.834345 2001.546143
4.880000 5.160000 -0.880000 -28.616505 -33.453697 1938.054199
4.880000 5.160000 -0.840000 5.949316 -45.917526 2143.813477
4.880000 5.160000 -0.800000 37.205925 -31.800034 2395.522949
4.880000 5.200000 -1.200000 21.174374 -16.289997 713.718140
4.880000 5.200000 -1.160000 29.563026 -3.010248 883.034119
4.880000 5.200000 -1.120000 26.804729 14.239701 921.262634
4.880000 5.200000 -1.080000 12.416740 26.395044 850.873779
4.880000 5.200000 -1.040000 -7.480629 26.212107 743.034302
4.880000 5.200000 -1.000000 -23.060127 12.437441 686.459412
4.880000 5.200000 -0.960000 -25.858952 -9.002972 749.738892
4.880000 5.200000 -0.920000 -13.513986 -27.697508 949.779724
4.880000 5.200000 -0.880000 8.605127 -34.139938 1239.583618
4.880000 5.200000 -0.840000 30.051655 -24.909071 1523.563721
4.880000 5.200000 -0.800000 40.940598 -4.512550 1696.495728
4.920000 4.800000 -1.200000 -10.720690 51.259491 2742.468506
4.920000 4.800000 -1.160000 -29.458563 31.894999 1885.097900
4.920000 4.800000 -1.120000 -27.620169 6.479004 804.851196
4.920000 4.800000 -1.080000 -9.190666 -6.308186 124.261551
4.920000 4.800000 -1.040000 8.201790 0.280132 67.347832
4.920000 4.800000 -1.000000 10.189316 15.194763 334.703003
4.920000 4.800000 -0.960000 -0.918705 21.520187 463.962494
4.920000 4.800000 -0.920000 -10.125641 13.736774 291.227570
4.920000 4.800000 -0.880000 -6.534767 2.173480 47.427197
4.920000 4.800000 -0.840000 5.356052 0.373066 28.826475
4.920000 4.800000 -0.800000 11.862689 9.747594 235.738983
4.920000 4.840000 -1.200000 -35.736927 32.046444 2304.102539
4.920000 4.840000 -1.160000 -29.500643 19.013130 1231.786987
4.920000 4.840000 -1.120000 -20.853546 21.588013 900.912720
4.920000 4.840000 -1.080000 -26.257210 32.104443 1720.136230
4.920000 4.840000 -1.040000 -46.279373 31.246941 3118.151611
4.920000 4.840000 -1.000000 -62.575153 8.605141 3989.698242
4.920000 4.840000 -0.960000 -55.294289 -24.023121 3634.568604
4.920000 4.840000 -0.920000 -24.141281 -41.747063 2325.618652
4.920000 4.840000 -0.880000 8.985470 -30.318172 999.930237
4.920000 4.840000 -0.840000 19.827858 -0.675135 393.599762
4.920000 4.840000 -0.800000 4.704241 21.088566 466.857483
4.920000 4.880000 -1.200000 -39.419052 1.928915 1557.582397
4.920000 4.880000 -1.160000 -25.506250 15.558903 892.648254
4.920000 4.880000 -1.120000 -41.180305 39.960419 3292.652588
4.920000 4.880000 -1.080000 -84.706329 38.743702 8676.236328
4.920000 4.880000 -1.040000 -119.858719 -6.858170 14413.146484
4.920000 4.880000 -1.000000 -107.843666 -73.865067 17086.304688
4.920000 4.880000 -0.960000 -46.322487 -113.766541 15088.598633
4.920000 4.880000 -0.920000 24.223091 -96.040863 9810.605469
4.920000 4.880000 -0.880000 55.242073 -36.890808 4412.618164
4.920000 4.880000 -0.840000 33.112839 15.578315 1339.144043
4.920000 4.880000 -0.800000 -11.261640 25.408918 772.437683
4.920000 4.920000 -1.200000 -22.230818 -19.230808 864.033203
4.920000 4.920000 -1.160000 -28.626171 17.123928 1112.686646
4.920000 4.920000 -1.120000 -80.786407 31.115314 7494.606445
4.920000 4.920000 -1.080000 -138.032745 -15.998989 19309.005859
4.920000 4.920000 -1.040000 -139.493622 -108.141861 31153.132812
4.920000 4.920000 -1.000000 -63.421730 -179.888168 36382.070312
4.920000 4.920000 -0.960000 45.716698 -173.020477 32026.101562
4.920000 4.920000 -0.920000 112.718567 -90.887558 20966.023438
4.920000 4.920000 -0.880000 97.586143 3.371048 9534.419922
4.920000 4.920000 -0.840000 28.506184 43.744659 2726.197754
4.920000 4.920000 -0.800000 -28.819208 18.002090 1154.622070
4.920000 4.960000 -1.200000 0.296144 -20.781757 431.969147
4.920000 4.960000 -1.160000 -38.987305 11.607166 1654.736206
4.920000 4.960000 -1.120000 -106.021606 -14.700130 11456.674805
4.920000 4.960000 -1.080000 -131.347565 -106.646072 28625.568359
4.920000 4.960000 -1.040000 -66.782166 -202.655533 45529.125000
4.920000 4.960000 -1.000000 60.977337 -221.773224 52901.597656
4.920000 4.960000 -0.960000 165.534332 -138.624542 46618.378906
4.920000 4.960000 -0.920000 175.011597 -10.522547 30739.783203
4.920000 4.960000 -0.880000 94.899704 72.062393 14198.942383
4.920000 4.960000 -0.840000 -0.904104 64.373886 4144.814453
4.920000 4.960000 -0.800000 -40.127884 0.091320 1610.255371
4.920000 5.000000 -1.200000 12.166757 -8.921329 227.620087
4.920000 5.000000 -1.160000 -44.671524 -6.453737 2037.195801
4.920000 5.000000 -1.120000 -88.120926 -72.383522 13004.671875
4.920000 5.000000 -1.080000 -54.335190 -169.535919 31694.740234
4.920000 5.000000 -1.040000 60.425114 -215.136063 49934.722656
4.920000 5.000000 -1.000000 183.716385 -155.311432 57873.351562
4.920000 5.000000 -0.960000 225.222290 -20.263651 51135.695312
4.920000 5.000000 -0.920000 156.904663 97.093506 34046.222656
4.920000 5.000000 -0.880000 37.455807 121.413239 16144.112305
4.920000 5.000000 -0.840000 -42.479301 57.482742 5108.756836
4.920000 5.000000 -0.800000 -39.864681 -23.217232 2128.232666
4.920000 5.040000 -1.200000 10.463392 1.508871 111.759270
4.920000 5.040000 -1.160000 -34.103340 -28.188168 1957.610596
4.920000 5.040000 -1.120000 -31.846287 -101.981087 11414.327148
4.920000 5.040000 -1.080000 45.454887 -158.354889 27142.417969
4.920000 5.040000 -1.040000 157.194016 -132.800262 42345.867188
4.920000 5.040000 -1.000000 220.111588 -22.184046 48941.242188
4.920000 5.040000 -0.960000 180.846008 103.402359 43397.328125
4.920000 5.040000 -0.920000 65.968536 157.992371 29313.437500
4.920000 5.040000 -0.880000 -40.352409 113.568146 14526.041016
4.920000 5.040000 -0.840000 -70.127510 20.153236 5324.020508
4.920000 5.040000 -0.800000 -25.823303 -44.764725 2670.723633
4.920000 5.080000 -1.200000 5.134142 1.983959 30.295507
4.920000 5.080000 -1.160000 -8.965819 -37.746574 1505.189697
4.920000 5.080000 -1.120000 26.933737 -84.050537 7789.918945
4.920000 5.080000 -1.080000 103.326721 -84.793945 17866.423828
4.920000 5.080000 -1.040000 164.809753 -16.223091 27425.443359
4.920000 5.080000 -1.000000 155.101044 86.331177 31509.406250
4.920000 5.080000 -0.960000 70.058121 152.184479 28068.255859
4.920000 5.080000 -0.920000 -33.926811 135.195770 19428.925781
4.920000 5.080000 -0.880000 -86.876923 53.672142 10428.298828
4.920000 5.080000 -0.840000 -63.771351 -27.845959 4842.182617
4.920000 5.080000 -0.800000 0.139651 -56.149853 3152.825439
4.920000 5.120000 -1.200000 6.685103 -3.014431 53.777405
4.920000 5.120000 -1.160000 15.885450 -27.362411 1001.049072
4.920000 5.120000 -1.120000 52.537125 -35.972294 4054.155273
4.920000 5.120000 -1.080000 92.592834 -5.461357 8603.258789
4.920000 5.120000 -1.040000 97.824799 56.220367 12730.420898
4.920000 5.120000 -1.000000 50.720036 108.766029 14402.570312
4.920000 5.120000 -0.960000 -24.541359 111.028282 12929.557617
4.920000 5.120000 -0.920000 -78.255821 57.602497 9442.021484
4.920000 5.120000 -0.880000 -75.937263 -14.666313 5981.568359
4.920000 5.120000 -0.840000 -26.078890 -57.470177 3982.929688
4.920000 5.120000 -0.800000 30.368546 -50.252220 3447.534180
4.920000 5.160000 -1.200000 15.291349 -3.156384 243.788132
4.920000 5.160000 -1.160000 25.556391 -4.856880 676.718384
4.920000 5.160000 -1.120000 38.951889 5.735546 1550.146118
4.920000 5.160000 -1.080000 41.719013 29.992130 2640.003906
4.920000 5.160000 -1.040000 22.299274 54.819054 3502.386230
4.920000 5.160000 -1.000000 -15.023842 59.657341 3784.714111
4.920000 5.160000 -0.960000 -48.541103 33.950096 3508.847656
4.920000 5.160000 -0.920000 -54.301800 -10.743462 3064.107422
4.920000 5.160000 -0.880000 -25.983610 -47.026600 2886.648926
4.920000 5.160000 -0.840000 18.834892 -52.404396 3100.973877
4.920000 5.160000 -0.800000 52.373562 -26.354818 3437.566406
4.920000 5.200000 -1.200000 22.074381 5.640893 519.097961
4.920000 5.200000 -1.160000 18.039059 13.800982 515.874695
4.920000 5.200000 -1.120000 10.098475 18.172455 432.217316
4.920000 5.200000 -1.080000 0.911716 18.100796 328.470032
4.920000 5.200000 -1.040000 -8.166245 13.417486 246.716476
4.920000 5.200000 -1.000000 -15.010273 2.978889 234.182068
4.920000 5.200000 -0.960000 -14.790806 -12.796043 382.506653
4.920000 5.200000 -0.920000 -2.627769 -28.208618 802.631287
4.920000 5.200000 -0.880000 20.364841 -33.246666 1520.067627
4.920000 5.200000 -0.840000 44.197002 -20.709686 2382.266113
4.920000 5.200000 -0.800000 55.166534 6.402738 3084.341553
4.960000 4.800000 -1.200000 -50.977947 50.581264 5157.215820
4.960000 4.800000 -1.160000 -60.683617 15.491537 3922.489014
4.960000 4.800000 -1.120000 -43.353706 -13.567968 2063.633545
4.960000 4.800000 -1.080000 -15.105888 -18.883316 584.767456
4.960000 4.800000 -1.040000 1.355389 -4.104095 18.680677
4.960000 4.800000 -1.000000 -2.041269 10.966812 124.437744
4.960000 4.800000 -0.960000 -13.008759 11.157269 293.712433
4.960000 4.800000 -0.920000 -14.150742 0.428374 200.426987
4.960000 4.800000 -0.880000 -2.202030 -4.862637 28.494171
4.960000 4.800000 -0.840000 9.553693 4.437393 110.963509
4.960000 4.800000 -0.800000 7.494922 19.867172 450.878387
4.960000 4.840000 -1.200000 -68.338974 9.807667 4766.405762
4.960000 4.840000 -1.160000 -55.409225 -5.006203 3095.244385
4.960000 4.840000 -1.120000 -46.617901 -3.179802 2183.339844
4.960000 4.840000 -1.080000 -53.557205 -0.658760 2868.808350
4.960000 4.840000 -1.040000 -66.064308 -15.155869 4594.192871
4.960000 4.840000 -1.000000 -61.956367 -44.882050 5852.989746
4.960000 4.840000 -0.960000 -31.430115 -67.106789 5491.173340
4.960000 4.840000 -0.920000 9.442612 -59.876556 3674.364746
4.960000 4.840000 -0.880000 31.680510 -25.267075 1642.079712
4.960000 4.840000 -0.840000 20.908228 10.433523 546.012390
4.960000 4.840000 -0.800000 -8.501293 21.015652 513.929626
4.960000 4.880000 -1.200000 -52.478069 -30.157841 3663.443115
4.960000 4.880000 -1.160000 -45.882030 -14.117467 2304.463623
4.960000 4.880000 -1.120000 -71.835419 -5.201935 5187.387207
4.960000 4.880000 -1.080000 -106.385780 -35.820728 12601.059570
4.960000 4.880000 -1.040000 -104.721008 -100.013687 20969.226562
4.960000 4.880000 -1.000000 -46.709061 -151.740570 25206.937500
4.960000 4.880000 -0.960000 37.652542 -145.511185 22591.218750
4.960000 4.880000 -0.920000 91.197914 -80.672958 14825.185547
4.960000 4.880000 -0.880000 80.639069 -4.551304 6523.373535
4.960000 4.880000 -0.840000 25.878168 29.943485 1566.291870
4.960000 4.880000 -0.800000 -20.923466 10.881348 556.195129
4.960000 4.920000 -1.200000 -16.610748 -45.962204 2388.441162
4.960000 4.920000 -1.160000 -41.596928 -18.591507 2075.948486
4.960000 4.920000 -1.120000 -95.126259 -39.872814 10638.845703
4.960000 4.920000 -1.080000 -114.325653 -120.424568 27572.429688
4.960000 4.920000 -1.040000 -52.718472 -205.924805 45184.261719
4.960000 4.920000 -1.000000 67.176971 -221.259933 53468.703125
4.960000 4.920000 -0.960000 165.736023 -141.577240 47512.546875
4.960000 4.920000 -0.920000 175.393524 -19.599327 31147.021484
4.960000 4.920000 -0.880000 100.814049 59.869774 13747.862305
4.960000 4.920000 -0.840000 11.461792 54.661438 3119.245605
4.960000 4.920000 -0.800000 -24.567247 -3.108451 613.212097
4.960000 4.960000 -1.200000 14.570632 -34.217556 1383.144531
4.960000 4.960000 -1.160000 -39.266136 -28.018353 2326.857422
4.960000 4.960000 -1.120000 -83.034744 -94.574692 15839.140625
4.960000 4.960000 -1.080000 -45.711502 -196.500366 40701.937500
4.960000 4.960000 -1.040000 79.174606 -244.236267 65919.976562
4.960000 4.960000 -1.000000 214.061172 -178.139862 77556.000000
4.960000 4.960000 -0.960000 260.785522 -30.060396 68912.710938
4.960000 4.960000 -0.920000 188.615417 99.522949 45480.593750
4.960000 4.960000 -0.880000 61.068329 129.284088 20443.714844
4.960000 4.960000 -0.840000 -24.253544 65.137390 4831.113770
4.960000 4.960000 -0.800000 -22.405193 -15.338816 737.271973
4.960000 5.000000 -1.200000 25.619282 -10.698086 770.796631
4.960000 5.000000 -1.160000 -28.460489 -41.459446 2528.885010
4.960000 5.000000 -1.120000 -27.780148 -130.204224 17724.876953
4.960000 5.000000 -1.080000 66.823929 -200.841431 44802.718750
4.960000 5.000000 -1.040000 207.025604 -170.725433 72006.773438
4.960000 5.000000 -1.000000 288.920715 -33.455292 84594.437500
4.960000 5.000000 -0.960000 244.669662 125.034668 75496.906250
4.960000 5.000000 -0.920000 105.812767 198.194580 50477.429688
4.960000 5.000000 -0.880000 -24.668636 151.119217 23445.558594
4.960000 5.000000 -0.840000 -64.317123 44.885277 6151.380371
4.960000 5.000000 -0.800000 -17.607754 -27.064978 1042.546021
4.960000 5.040000 -1.200000 19.885231 6.283386 434.903381
4.960000 5.040000 -1.160000 -6.029985 -47.094643 2254.266113
4.960000 5.040000 -1.120000 40.371536 -116.439987 15188.131836
4.960000 5.040000 -1.080000 150.147766 -123.521957 37802.023438
4.960000 5.040000 -1.040000 244.100586 -29.171911 60436.097656
4.960000 5.040000 -1.000000 238.488770 119.191757 71083.570312
4.960000 5.040000 -0.960000 123.558746 220.682892 63967.703125
4.960000 5.040000 -0.920000 -22.992172 207.705673 43670.289062
4.960000 5.040000 -0.880000 -103.064247 103.718124 21379.687500
4.960000 5.040000 -0.840000 -81.500824 -2.839554 6650.447266
4.960000 5.040000 -0.800000 -6.785873 -40.230583 1664.547974
4.960000 5.080000 -1.200000 11.167631 11.016424 246.077591
4.960000 5.080000 -1.160000 17.409504 -35.351692 1552.833008
4.960000 5.080000 -1.120000 78.013359 -61.031677 9810.949219
4.960000 5.080000 -1.080000 153.894501 -18.162182 24013.382812
4.960000 5.080000 -1.040000 175.578613 85.844986 38197.210938
4.960000 5.080000 -1.000000 106.643028 183.545929 45061.843750
4.960000 5.080000 -0.960000 -16.943237 202.042618 41108.292969
4.960000 5.080000 -0.920000 -113.187088 127.441185 29052.572266
4.960000 5.080000 -0.880000 -123.490768 17.046555 15540.554688
4.960000 5.080000 -0.840000 -59.459438 -52.258690 6266.395508
4.960000 5.080000 -0.800000 15.426773 -48.792839 2618.726562
4.960000 5.120000 -1.200000 8.414790 10.643490 184.092560
4.960000 5.120000 -1.160000 26.687283 -10.782951 828.483093
4.960000 5.120000 -1.120000 66.790802 -3.325272 4472.068848
4.960000 5.120000 -1.080000 91.998375 46.239891 10601.828125
4.960000 5.120000 -1.040000 66.278519 110.905869 16692.953125
4.960000 5.120000 -1.000000 -8.505417 140.360260 19773.343750
4.960000 5.120000 -0.960000 -87.089035 104.457619 18495.894531
4.960000 5.120000 -0.920000 -116.165680 22.452015 13998.557617
4.960000 5.120000 -0.880000 -79.152969 -51.253395 8892.102539
4.960000 5.120000 -0.840000 -8.457209 -72.374451 5309.585449
4.960000 5.120000 -0.800000 45.130093 -40.584198 3683.802246
4.960000 5.160000 -1.200000 9.334697 13.504553 269.509521
4.960000 5.160000 -1.160000 17.164503 10.753242 410.252380
4.960000 5.160000 -1.120000 27.337952 21.341091 1202.805786
4.960000 5.160000 -1.080000 23.858467 44.102242 2514.234131
4.960000 5.160000 -1.040000 -2.689377 61.604973 3802.405273
4.960000 5.160000 -1.000000 -41.543591 52.822212 4516.055664
4.960000 5.160000 -0.960000 -65.932816 13.529709 4530.189453
4.960000 5.160000 -0.920000 -54.295891 -35.554043 4212.133789
4.960000 5.160000 -0.880000 -9.888344 -62.908577 4055.268311
4.960000 5.160000 -0.840000 40.119167 -51.180660 4229.007812
4.960000 5.160000 -0.800000 65.959610 -10.443600 4459.738770
4.960000 5.200000 -1.200000 7.011007 19.783035 440.522736
4.960000 5.200000 -1.160000 -0.569902 16.891792 285.657440
4.960000 5.200000 -1.120000 -3.397858 10.794914 128.075607
4.960000 5.200000 -1.080000 -2.691776 6.800889 53.497749
4.960000 5.200000 -1.040000 -3.536980 4.893764 36.459156
4.960000 5.200000 -1.000000 -6.819035 -0.630341 46.896561
4.960000 5.200000 -0.960000 -5.537347 -13.146408 203.490265
4.960000 5.200000 -0.920000 8.614735 -26.170887 759.129028
4.960000 5.200000 -0.880000 34.303841 -26.261341 1866.411621
4.960000 5.200000 -0.840000 57.433933 -5.323553 3326.997070
4.960000 5.200000 -0.800000 61.034325 29.541279 4597.875977
5.000000 4.800000 -1.200000 -79.964737 20.693962 6822.599609
5.000000 4.800000 -1.160000 -72.052116 -20.310020 5604.004395
5.000000 4.800000 -1.120000 -40.002808 -42.507278 3407.093262
5.000000 4.800000 -1.080000 -7.501762 -36.188145 1365.858276
5.000000 4.800000 -1.040000 5.388466 -14.715233 245.573639
5.000000 4.800000 -1.000000 -0.685944 0.159897 0.496086
5.000000 4.800000 -0.960000 -8.754677 -0.287997 76.727303
5.000000 4.800000 -0.920000 -5.611931 -5.834545 65.535683
5.000000 4.800000 -0.880000 4.512646 -1.895935 23.958542
5.000000 4.800000 -0.840000 6.919205 12.618109 207.092072
5.000000 4.800000 -0.800000 -5.001279 24.181681 609.766479
5.000000 4.840000 -1.200000 -76.101776 -30.517908 6722.823242
5.000000 4.840000 -1.160000 -56.675217 -43.289574 5086.067383
5.000000 4.840000 -1.120000 -45.018650 -43.114323 3885.523682
5.000000 4.840000 -1.080000 -44.044777 -46.503628 4102.529785
5.000000 4.840000 -1.040000 -39.358124 -61.857357 5375.394531
5.000000 4.840000 -1.000000 -16.634666 -77.732132 6318.996094
5.000000 4.840000 -0.960000 19.282135 -73.495270 5773.355469
5.000000 4.840000 -0.920000 45.141953 -42.324421 3829.152344
5.000000 4.840000 -0.880000 40.977116 -1.933315 1682.861694
5.000000 4.840000 -0.840000 10.917797 19.844883 513.017639
5.000000 4.840000 -0.800000 -19.163076 11.088093 490.169312
5.000000 4.880000 -1.200000 -38.504135 -63.791931 5551.979004
5.000000 4.880000 -1.160000 -37.680645 -52.533356 4179.584473
5.000000 4.880000 -1.120000 -57.090191 -62.025028 7106.394043
5.000000 4.880000 -1.080000 -61.561592 -104.576683 14726.111328
5.000000 4.880000 -1.040000 -20.241722 -151.352142 23317.197266
5.000000 4.880000 -1.000000 56.527245 -155.870483 27490.937500
5.000000 4.880000 -0.960000 119.662941 -100.105659 24340.363281
5.000000 4.880000 -0.920000 124.261292 -16.461586 15711.851562
5.000000 4.880000 -0.880000 71.578392 38.661083 6618.145508
5.000000 4.880000 -0.840000 7.971401 35.049133 1291.984985
5.000000 4.880000 -0.800000 -18.352127 -6.520273 379.314514
5.000000 4.920000 -1.200000 7.722246 -62.095142 3915.439697
5.000000 4.920000 -1.160000 -22.551374 -55.008022 3534.447021
5.000000 4.920000 -1.120000 -49.413025 -101.174393 12677.904297
5.000000 4.920000 -1.080000 -16.419529 -174.924118 30868.048828
5.000000 4.920000 -1.040000 83.640602 -206.752563 49742.371094
5.000000 4.920000 -1.000000 190.337952 -148.810181 58373.007812
5.000000 4.920000 -0.960000 225.241089 -26.225418 51421.320312
5.000000 4.920000 -0.920000 163.751572 79.800819 33182.750000
5.000000 4.920000 -0.880000 58.133156 103.286591 14047.583984
5.000000 4.920000 -0.840000 -11.282555 49.930473 2620.348389
5.000000 4.920000 -0.800000 -8.044323 -15.221286 296.398682
5.000000 4.960000 -1.200000 36.015373 -33.783195 2438.411377
5.000000 4.960000 -1.160000 -8.095798 -56.580833 3266.932617
5.000000 4.960000 -1.120000 -5.003704 -133.349976 17807.253906
5.000000 4.960000 -1.080000 83.876175 -194.352661 44808.171875
5.000000 4.960000 -1.040000 214.462921 -161.861099 72193.359375
5.000000 4.960000 -1.000000 289.367432 -29.690395 84615.031250
5.000000 4.960000 -0.960000 245.203461 120.889496 74739.007812
5.000000 4.960000 -0.920000 112.943314 189.618530 48711.378906
5.000000 4.960000 -0.880000 -9.375885 145.167572 21161.529297
5.000000 4.960000 -0.840000 -44.982357 47.350620 4265.493652
5.000000 4.960000 -0.800000 -1.087822 -15.109856 229.491089
5.000000 5.000000 -1.200000 37.768665 -1.565659 1428.923340
5.000000 5.000000 -1.160000 10.395775 -53.723354 2994.270752
5.000000 5.000000 -1.120000 59.579380 -125.381409 19270.201172
5.000000 5.000000 -1.080000 177.567627 -130.993469 48689.550781
5.000000 5.000000 -1.040000 278.625549 -27.049170 78363.851562
5.000000 5.000000 -1.000000 271.721924 135.003876 92058.851562
5.000000 5.000000 -0.960000 146.971771 245.686264 81962.445312
5.000000 5.000000 -0.920000 -10.625797 232.994385 54399.289062
5.000000 5.000000 -0.880000 -95.898773 124.422531 24677.539062
5.000000 5.000000 -0.840000 -74.068253 16.069311 5744.328613
5.000000 5.000000 -0.800000 -0.509880 -17.609089 310.339996
5.000000 5.040000 -1.200000 23.447655 17.524092 856.886353
5.000000 5.040000 -1.160000 28.607590 -39.172806 2352.902832
5.000000 5.040000 -1.120000 103.745087 -72.137527 15966.865234
5.000000 5.040000 -1.080000 200.011200 -18.637157 40351.824219
5.000000 5.040000 -1.040000 228.691803 112.899513 65046.242188
5.000000 5.040000 -1.000000 143.515579 237.254150 76886.250000
5.000000 5.040000 -0.960000 -9.876503 263.256744 69401.664062
5.000000 5.040000 -0.920000 -129.367691 175.106537 47398.296875
5.000000 5.040000 -0.880000 -144.697235 45.065411 22968.179688
5.000000 5.040000 -0.840000 -73.686050 -33.945663 6581.941895
5.000000 5.040000 -0.800000 4.950611 -28.381701 830.029480
5.000000 5.080000 -1.200000 8.341284 22.158482 560.575317
5.000000 5.080000 -1.160000 34.954506 -14.089855 1420.341553
5.000000 5.080000 -1.120000 98.695869 -5.562836 9771.820312
5.000000 5.080000 -1.080000 141.070496 69.984444 24798.707031
5.000000 5.080000 -1.040000 105.337868 170.624710 40208.859375
5.000000 5.080000 -1.000000 -5.422890 219.203278 48079.484375
5.000000 5.080000 -0.960000 -122.651237 171.346939 44403.101562
5.000000 5.080000 -0.920000 -168.786499 57.307114 31772.988281
5.000000 5.080000 -0.880000 -123.226120 -43.900398 17111.921875
5.000000 5.080000 -0.840000 -35.175640 -73.096542 6580.430176
5.000000 5.080000 -0.800000 25.958464 -36.194942 1983.915771
5.000000 5.120000 -1.200000 -0.738377 20.671207 427.844025
5.000000 5.120000 -1.160000 23.266665 8.751107 617.919556
5.000000 5.120000 -1.120000 54.049393 32.346714 3967.646973
5.000000 5.120000 -1.080000 52.326195 86.200867 10168.620117
5.000000 5.120000 -1.040000 -1.119423 129.223389 16699.937500
5.000000 5.120000 -1.000000 -80.567123 117.972298 20408.523438
5.000000 5.120000 -0.960000 -131.876526 47.819103 19678.083984
5.000000 5.120000 -0.920000 -117.882584 -38.812244 15402.694336
5.000000 5.120000 -0.880000 -50.308609 -86.849335 10073.763672
5.000000 5.120000 -0.840000 21.857040 -73.632927 5899.538086
5.000000 5.120000 -0.800000 55.158791 -22.904266 3567.097656
5.000000 5.160000 -1.200000 -6.215902 19.265818 409.809174
5.000000 5.160000 -1.160000 1.615656 15.902707 255.506439
5.000000 5.160000 -1.120000 8.138561 26.360611 761.118042
5.000000 5.160000 -1.080000 -1.877396 43.662567 1909.944458
5.000000 5.160000 -1.040000 -30.649315 47.846733 3228.690430
5.000000 5.160000 -1.000000 -60.014252 23.867844 4171.384277
5.000000 5.160000 -0.960000 -64.028137 -21.242233 4550.834961
5.000000 5.160000 -0.920000 -31.861279 -59.980743 4612.830566
5.000000 5.160000 -0.880000 20.480698 -65.485413 4707.798340
5.000000 5.160000 -0.840000 61.528557 -33.536236 4910.442383
5.000000 5.160000 -0.800000 68.901283 14.642813 4961.798828
5.000000 5.200000 -1.200000 -11.555206 17.602638 443.375671
5.000000 5.200000 -1.160000 -13.900715 6.763884 238.979996
5.000000 5.200000 -1.120000 -7.965921 -1.798628 66.690964
5.000000 5.200000 -1.080000 -0.110535 -2.901413 8.430415
5.000000 5.200000 -1.040000 2.419737 -0.341423 5.971696
5.000000 5.200000 -1.000000 0.786139 -2.642120 7.598815
5.000000 5.200000 -0.960000 4.652931 -11.984371 165.274918
5.000000 5.200000 -0.920000 21.423008 -18.767635 811.169434
5.000000 5.200000 -0.880000 45.446289 -9.304222 2151.933838
5.000000 5.200000 -0.840000 59.599640 19.841330 3945.795410
5.000000 5.200000 -0.800000 49.381226 55.428844 5510.862305
5.040000 4.800000 -1.200000 -80.057449 -19.222452 6778.697754
5.040000 4.800000 -1.160000 -55.567131 -53.661682 5967.282227
5.040000 4.800000 -1.120000 -16.012175 -62.047401 4106.270020
5.040000 4.800000 -1.080000 14.304707 -43.681705 2112.716064
5.040000 4.800000 -1.040000 21.554955 -16.602482 740.258423
5.040000 4.800000 -1.000000 12.098320 0.103547 146.380081
5.040000 4.800000 -0.960000 2.437759 2.724773 13.367062
5.040000 4.800000 -0.920000 1.216618 1.953575 5.296614
5.040000 4.800000 -0.880000 2.520788 7.543488 63.258579
5.040000 4.800000 -0.840000 -3.774737 16.628643 290.760437
5.040000 4.800000 -0.800000 -17.923859 18.238602 653.911316
5.040000 4.840000 -1.200000 -54.762497 -63.968487 7090.898438
5.040000 4.840000 -1.160000 -30.581001 -72.031815 6123.780273
5.040000 4.840000 -1.120000 -13.075989 -70.212715 5100.806641
5.040000 4.840000 -1.080000 -1.071362 -68.989227 4760.661621
5.040000 4.840000 -1.040000 14.521210 -69.314545 5015.372070
5.040000 4.840000 -1.000000 36.495651 -61.235077 5081.666992
5.040000 4.840000 -0.960000 54.003822 -36.831131 4272.945312
5.040000 4.840000 -0.920000 51.728802 -3.208382 2686.162598
5.040000 4.840000 -0.880000 26.889378 20.052223 1125.130249
5.040000 4.840000 -0.840000 -4.509260 18.300182 355.230103
5.040000 4.840000 -0.800000 -20.513542 -3.370966 432.168823
5.040000 4.880000 -1.200000 -6.221325 -78.738312 6238.426758
5.040000 4.880000 -1.160000 -3.731035 -74.514862 5566.385254
5.040000 4.880000 -1.120000 -4.309397 -89.539230 8035.844727
5.040000 4.880000 -1.080000 19.050465 -116.051682 13830.913086
5.040000 4.880000 -1.040000 71.983917 -121.796219 20016.003906
5.040000 4.880000 -1.000000 125.299179 -82.448456 22497.632812
5.040000 4.880000 -0.960000 138.291992 -10.869171 19242.814453
5.040000 4.880000 -0.920000 97.752060 48.918705 11948.504883
5.040000 4.880000 -0.880000 33.149986 59.828995 4678.430176
5.040000 4.880000 -0.840000 -8.749760 24.969439 700.031128
5.040000 4.880000 -0.800000 -5.553992 -16.947645 318.069519
5.040000 4.920000 -1.200000 36.412453 -58.179493 4710.720215
5.040000 4.920000 -1.160000 18.180943 -66.958931 4814.045410
5.040000 4.920000 -1.120000 26.388327 -108.856766 12546.139648
5.040000 4.920000 -1.080000 87.649620 -140.106781 27312.367188
5.040000 4.920000 -1.040000 173.638367 -109.532562 42147.664062
5.040000 4.920000 -1.000000 219.171753 -13.510956 48218.804688
5.040000 4.920000 -0.960000 181.928452 91.698296 41506.539062
5.040000 4.920000 -0.920000 85.016907 136.827820 25949.726562
5.040000 4.920000 -0.880000 -1.686073 101.456451 10296.253906
5.040000 4.920000 -0.840000 -24.198559 29.983015 1484.551514
5.040000 4.920000 -0.800000 10.433116 -13.037256 278.819946
5.040000 4.960000 -1.200000 52.483788 -19.667904 3141.374268
5.040000 4.960000 -1.160000 35.281452 -53.469582 4103.776855
5.040000 4.960000 -1.120000 75.705460 -103.112488 16363.501953
5.040000 4.960000 -1.080000 168.912933 -100.737335 38679.589844
5.040000 4.960000 -1.040000 246.384674 -11.546326 60838.722656
5.040000 4.960000 -1.000000 235.075104 122.033401 70152.453125
5.040000 4.960000 -0.960000 128.692520 210.555649 60895.445312
5.040000 4.960000 -0.920000 -1.350990 196.644073 38670.714844
5.040000 4.960000 -0.880000 -68.715408 105.827049 15921.171875
5.040000 4.960000 -0.840000 -47.507446 19.347898 2631.298828
5.040000 4.960000 -0.800000 12.732829 -2.376009 167.770355
5.040000 5.000000 -1.200000 42.045013 13.449677 1948.677002
5.040000 5.000000 -1.160000 46.871948 -33.432983 3314.743896
5.040000 5.000000 -1.120000 115.611122 -59.569592 16914.468750
5.040000 5.000000 -1.080000 203.195358 -5.673031 41320.539062
5.040000 5.000000 -1.040000 226.273895 120.067749 65616.140625
5.040000 5.000000 -1.000000 142.298508 236.683334 76267.867188
5.040000 5.000000 -0.960000 -3.689113 258.897003 67041.265625
5.040000 5.000000 -0.920000 -114.557945 174.625565 43617.609375
5.040000 5.000000 -0.880000 -126.406067 54.903034 18992.837891
5.040000 5.000000 -0.840000 -60.591278 -13.022449 3840.887207
5.040000 5.000000 -0.800000 5.894400 -2.200047 39.584152
5.040000 5.040000 -1.200000 19.586077 28.898750 1218.752197
5.040000 5.040000 -1.160000 47.372002 -8.050724 2308.920654
5.040000 5.040000 -1.120000 115.981544 3.494480 13463.929688
5.040000 5.040000 -1.080000 160.501831 88.357254 33567.843750
5.040000 5.040000 -1.040000 118.651093 199.403320 53839.765625
5.040000 5.040000 -1.000000 -4.341496 251.584900 63313.808594
5.040000 5.040000 -0.960000 -131.673431 198.493896 56737.718750
5.040000 5.040000 -0.920000 -180.040573 76.649742 38289.789062
5.040000 5.040000 -0.880000 -131.761871 -27.098152 18095.501953
5.040000 5.040000 -0.840000 -44.378269 -52.865845 4764.228516
5.040000 5.040000 -0.800000 8.394217 -14.127856 270.059204
5.040000 5.080000 -1.200000 -0.711260 28.853628 833.037781
5.040000 5.080000 -1.160000 32.467522 13.893047 1247.156738
5.040000 5.080000 -1.120000 74.092041 48.149864 7808.040039
5.040000 5.080000 -1.080000 70.043831 122.650879 19949.376953
5.040000 5.080000 -1.040000 -3.515121 180.297424 32519.517578
5.040000 5.080000 -1.000000 -109.081482 164.608978 38994.882812
5.040000 5.080000 -0.960000 -174.938278 73.936508 36070.007812
5.040000 5.080000 -0.920000 -157.243652 -33.274582 25832.763672
5.040000 5.080000 -0.880000 -77.396194 -88.814789 13878.238281
5.040000 5.080000 -0.840000 0.766863 -71.989868 5183.128906
5.040000 5.080000 -0.800000 29.351488 -19.633810 1246.996338
5.040000 5.120000 -1.200000 -13.415833 21.468466 640.879578
5.040000 5.120000 -1.160000 7.819176 20.817242 494.497040
5.040000 5.120000 -1.120000 19.959660 49.579334 2856.498291
5.040000 5.120000 -1.080000 -4.767654 87.075325 7604.842773
5.040000 5.120000 -1.040000 -63.015442 93.969116 12801.140625
5.040000 5.120000 -1.000000 -116.359558 49.079411 15948.335938
5.040000 5.120000 -0.960000 -122.372047 -26.909050 15699.014648
5.040000 5.120000 -0.920000 -72.473640 -85.865822 12625.368164
5.040000 5.120000 -0.880000 0.024349 -92.370720 8532.350586
5.040000 5.120000 -0.840000 49.099670 -51.661942 5079.733887
5.040000 5.120000 -0.800000 53.757355 -0.231127 2889.906738
5.040000 5.160000 -1.200000 -19.493536 12.415216 534.135559
5.040000 5.160000 -1.160000 -11.946680 9.999964 242.722443
5.040000 5.160000 -1.120000 -9.773193 17.988056 419.085480
5.040000 5.160000 -1.080000 -22.035942 25.158318 1118.523682
5.040000 5.160000 -1.040000 -42.542454 15.774559 2058.697021
5.040000 5.160000 -1.000000 -51.941582 -13.832390 2889.262939
5.040000 5.160000 -0.960000 -34.304382 -47.929184 3473.997559
5.040000 5.160000 -0.920000 6.883209 -62.146435 3909.558105
5.040000 5.160000 -0.880000 49.039036 -43.581367 4304.162598
5.040000 5.160000 -0.840000 67.643677 -1.828821 4579.011719
5.040000 5.160000 -0.800000 54.764091 38.945202 4515.834473
5.040000 5.200000 -1.200000 -20.546875 3.970018 437.935120
5.040000 5.200000 -1.160000 -15.570328 -7.515823 298.922699
5.040000 5.200000 -1.120000 -4.073633 -12.723480 178.481430
5.040000 5.200000 -1.080000 6.302922 -9.610897 132.096161
5.040000 5.200000 -1.040000 10.327329 -3.876755 121.682945
5.040000 5.200000 -1.000000 11.126743 -2.490822 130.008621
5.040000 5.200000 -0.960000 16.884941 -4.888416 308.997833
5.040000 5.200000 -0.920000 30.710030 -1.869060 946.599304
5.040000 5.200000 -0.880000 44.417015 15.263451 2205.844238
5.040000 5.200000 -0.840000 43.871456 43.916138 3853.332031
5.040000 5.200000 -0.800000 21.898685 69.226959 5271.924316
5.080000 4.800000 -1.200000 -55.734787 -44.665054 5101.333496
5.080000 4.800000 -1.160000 -23.515034 -65.079559 4788.305664
5.080000 4.800000 -1.120000 14.270821 -59.105076 3697.066162
5.080000 4.800000 -1.080000 36.826874 -31.559090 2352.194824
5.080000 4.800000 -1.040000 35.488266 -0.935331 1260.291870
5.080000 4.800000 -1.000000 18.764114 16.425743 621.896973
5.080000 4.800000 -0.960000 2.065125 18.270386 338.071747
5.080000 4.800000 -0.920000 -6.525001 13.840889 234.145844
5.080000 4.800000 -0.880000 -10.356948 11.530798 240.225677
5.080000 4.800000 -0.840000 -16.021908 10.747398 372.208099
5.080000 4.800000 -0.800000 -23.701965 5.652842 593.737732
5.080000 4.840000 -1.200000 -20.638731 -72.861771 5734.794434
5.080000 4.840000 -1.160000 5.738384 -74.498535 5582.960938
5.080000 4.840000 -1.120000 27.374863 -65.272606 5009.896484
5.080000 4.840000 -1.080000 42.243843 -50.594048 4344.299805
5.080000 4.840000 -1.040000 51.360271 -32.708344 3707.713135
5.080000 4.840000 -1.000000 53.516201 -11.547745 2997.334229
5.080000 4.840000 -0.960000 44.871853 9.933693 2112.161377
5.080000 4.840000 -0.920000 24.768108 23.620571 1171.390625
5.080000 4.840000 -0.880000 0.771561 21.777807 474.868195
5.080000 4.840000 -0.840000 -14.432821 5.407045 237.542480
5.080000 4.840000 -0.800000 -13.135453 -14.082558 370.858582
5.080000 4.880000 -1.200000 24.431908 -69.700363 5455.058594
5.080000 4.880000 -1.160000 34.302391 -66.874794 5648.892578
5.080000 4.880000 -1.120000 48.604622 -70.065735 7271.616211
5.080000 4.880000 -1.080000 76.010986 -66.704254 10227.126953
5.080000 4.880000 -1.040000 106.168434 -40.331089 12898.333008
5.080000 4.880000 -1.000000 114.920929 8.044647 13271.537109
5.080000 4.880000 -0.960000 87.576775 54.069248 10593.174805
5.080000 4.880000 -0.920000 36.834229 68.839005 6095.568848
5.080000 4.880000 -0.880000 -4.798363 45.440590 2087.871338
5.080000 4.880000 -0.840000 -12.730186 6.451860 203.684143
5.080000 4.880000 -0.800000 8.557871 -16.210636 336.021881
5.080000 4.920000 -1.200000 54.593098 -38.974953 4499.453125
5.080000 4.920000 -1.160000 54.452469 -47.160442 5189.178711
5.080000 4.920000 -1.120000 79.611855 -61.637802 10137.265625
5.080000 4.920000 -1.080000 127.932587 -48.495358 18718.546875
5.080000 4.920000 -1.040000 163.178665 9.327751 26714.285156
5.080000 4.920000 -1.000000 146.813202 86.911240 29107.679688
5.080000 4.920000 -0.960000 78.021118 133.789978 23987.052734
5.080000 4.920000 -0.920000 -0.007484 119.003487 14161.830078
5.080000 4.920000 -0.880000 -36.769524 60.464447 5007.947266
5.080000 4.920000 -0.840000 -19.000450 8.432695 432.127472
5.080000 4.920000 -0.800000 20.652811 -0.876858 427.307495
5.080000 4.960000 -1.200000 57.492798 0.011749 3305.422119
5.080000 4.960000 -1.160000 62.942318 -20.943174 4400.352051
5.080000 4.960000 -1.120000 106.469978 -29.143698 12185.211914
5.080000 4.960000 -1.080000 159.565735 13.767151 25650.759766
5.080000 4.960000 -1.040000 167.537506 101.695175 38410.726562
5.080000 4.960000 -1.000000 103.228966 179.472839 42866.718750
5.080000 4.960000 -0.960000 -0.504457 189.739471 36001.320312
5.080000 4.960000 -0.920000 -75.699768 126.779449 21803.484375
5.080000 4.960000 -0.880000 -79.477402 42.824898 8150.628906
5.080000 4.960000 -0.840000 -30.396954 -0.352083 924.098755
5.080000 4.960000 -0.800000 14.209773 13.579979 386.333496
5.080000 5.000000 -1.200000 38.251358 28.028656 2248.771973
5.080000 5.000000 -1.160000 57.711517 6.387888 3371.424316
5.080000 5.000000 -1.120000 107.201279 20.438480 11909.845703
5.080000 5.000000 -1.080000 136.835876 89.966553 26818.037109
5.080000 5.000000 -1.040000 98.073288 177.688202 41191.468750
5.080000 5.000000 -1.000000 -3.590549 216.155579 46736.125000
5.080000 5.000000 -0.960000 -105.418365 169.943161 39993.710938
5.080000 5.000000 -0.920000 -141.148560 71.209335 24993.685547
5.080000 5.000000 -0.880000 -99.866852 -8.523861 10046.043945
5.080000 5.000000 -0.840000 -31.991280 -23.020809 1553.399658
5.080000 5.000000 -0.800000 2.028318 11.547054 137.448532
5.080000 5.040000 -1.200000 11.212168 37.056141 1498.870361
5.080000 5.040000 -1.160000 38.458702 27.086449 2212.747559
5.080000 5.040000 -1.120000 73.041122 61.001431 9056.179688
5.080000 5.040000 -1.080000 64.953697 130.638138 21285.304688
5.080000 5.040000 -1.040000 -7.133343 182.523422 33365.683594
5.080000 5.040000 -1.000000 -106.598099 164.846222 38537.429688
5.080000 5.040000 -0.960000 -166.101227 78.815506 33801.500000
5.080000 5.040000 -0.920000 -147.466873 -18.479080 22087.955078
5.080000 5.040000 -0.880000 -75.282333 -64.492432 9826.703125
5.080000 5.040000 -0.840000 -11.230602 -45.372360 2184.777588
5.080000 5.040000 -0.800000 3.840945 -1.332404 16.528160
5.080000 5.080000 -1.200000 -11.101508 30.253429 1038.513550
5.080000 5.080000 -1.160000 11.082026 32.396660 1172.354858
5.080000 5.080000 -1.120000 21.466158 67.349571 4996.760742
5.080000 5.080000 -1.080000 -11.022842 109.887741 12196.818359
5.080000 5.080000 -1.040000 -79.911560 114.966400 19603.130859
5.080000 5.080000 -1.000000 -139.519058 61.499882 23247.804688
5.080000 5.080000 -0.960000 -143.851517 -22.987431 21221.681641
5.080000 5.080000 -0.920000 -88.897461 -83.803375 14925.764648
5.080000 5.080000 -0.880000 -16.199327 -86.769135 7791.300781
5.080000 5.080000 -0.840000 25.605474 -45.592010 2734.271729
5.080000 5.080000 -0.800000 22.471579 -3.546164 517.547119
5.080000 5.120000 -1.200000 -22.877415 15.514079 764.062744
5.080000 5.120000 -1.160000 -11.675076 19.739468 525.953979
5.080000 5.120000 -1.120000 -15.308254 38.520107 1718.141357
5.080000 5.120000 -1.080000 -43.732899 49.147896 4328.082031
5.080000 5.120000 -1.040000 -80.178169 28.725628 7253.700684
5.080000 5.120000 -1.000000 -92.931633 -20.730232 9066.030273
5.080000 5.120000 -0.960000 -64.394203 -69.674652 9001.169922
5.080000 5.120000 -0.920000 -8.867344 -85.354080 7363.948730
5.080000 5.120000 -0.880000 38.983101 -59.960854 5114.986328
5.080000 5.120000 -0.840000 53.699272 -15.568181 3125.979980
5.080000 5.120000 -0.800000 37.934170 17.612923 1749.216309
5.080000 5.160000 -1.200000 -23.796703 0.400892 566.443787
5.080000 5.160000 -1.160000 -18.173641 -1.942113 334.053009
5.080000 5.160000 -1.120000 -17.739698 0.118584 314.710968
5.080000 5.160000 -1.080000 -23.844290 -2.515732 574.879089
5.080000 5.160000 -1.040000 -27.729031 -15.888924 1021.356995
5.080000 5.160000 -1.000000 -18.073856 -34.672710 1528.861206
5.080000 5.160000 -0.960000 7.290131 -44.596153 2041.962891
5.080000 5.160000 -0.920000 37.091068 -34.291935 2551.684082
5.080000 5.160000 -0.880000 54.474545 -5.567207 2998.469971
5.080000 5.160000 -0.840000 49.936947 27.422626 3245.699219
5.080000 5.160000 -0.800000 27.682182 48.999435 3167.247803
5.080000 5.200000 -1.200000 -16.967583 -9.295622 374.307434
5.080000 5.200000 -1.160000 -8.335934 -17.132128 362.997589
5.080000 5.200000 -1.120000 4.464646 -18.547518 363.943481
5.080000 5.200000 -1.080000 15.729799 -12.541378 404.712769
5.080000 5.200000 -1.040000 21.524239 -3.003490 472.313812
5.080000 5.200000 -1.000000 23.025795 5.350447 558.814514
5.080000 5.200000 -0.960000 24.384342 12.029665 739.308960
5.080000 5.200000 -0.920000 26.925102 21.097099 1170.048706
5.080000 5.200000 -0.880000 26.059296 35.773041 1958.797363
5.080000 5.200000 -0.840000 14.958445 52.665340 2997.393311
5.080000 5.200000 -0.800000 -7.914536 62.166748 3927.344482
5.120000 4.800000 -1.200000 -27.579575 -45.377731 2819.771484
5.120000 4.800000 -1.160000 2.067060 -52.593769 2770.377197
5.120000 4.800000 -1.120000 31.236958 -37.311985 2367.931641
5.120000 4.800000 -1.080000 42.764572 -6.158446 1866.735107
5.120000 4.800000 -1.040000 30.874069 22.984310 1481.486572
5.120000 4.800000 -1.000000 5.539356 34.877232 1247.105713
5.120000 4.800000 -0.960000 -16.577602 28.019445 1059.906250
5.120000 4.800000 -0.920000 -25.691706 13.153576 833.080261
5.120000 4.800000 -0.880000 -24.396912 1.856461 598.655762
5.120000 4.800000 -0.840000 -21.344166 -2.970125 464.395081
5.120000 4.800000 -0.800000 -21.114422 -6.317447 485.728943
5.120000 4.840000 -1.200000 4.274759 -59.219330 3525.202637
5.120000 4.840000 -1.160000 29.291838 -54.052673 3779.703125
5.120000 4.840000 -1.120000 48.066765 -35.285530 3555.482422
5.120000 4.840000 -1.080000 53.325562 -9.584820 2935.484131
5.120000 4.840000 -1.040000 44.062527 13.475708 2123.100830
5.120000 4.840000 -1.000000 25.338936 26.427383 1340.468262
5.120000 4.840000 -0.960000 4.996243 26.806522 743.552124
5.120000 4.840000 -0.920000 -10.003429 17.062035 391.181641
5.120000 4.840000 -0.880000 -15.831014 2.631278 257.544617
5.120000 4.840000 -0.840000 -12.523033 -10.387917 264.735168
5.120000 4.840000 -0.800000 -3.505706 -17.465858 317.346191
5.120000 4.880000 -1.200000 38.577316 -47.856094 3778.415039
5.120000 4.880000 -1.160000 53.498104 -38.593567 4351.510742
5.120000 4.880000 -1.120000 66.518044 -24.125042 5006.667480
5.120000 4.880000 -1.080000 74.711708 -2.200287 5586.680664
5.120000 4.880000 -1.040000 70.877014 25.347450 5666.044434
5.120000 4.880000 -1.000000 50.227581 48.599743 4884.745117
5.120000 4.880000 -0.960000 18.508904 54.674450 3331.875000
5.120000 4.880000 -0.920000 -8.443604 39.091927 1599.473145
5.120000 4.880000 -0.880000 -15.972997 12.155003 402.880737
5.120000 4.880000 -0.840000 -3.118065 -7.702882 69.056717
5.120000 4.880000 -0.800000 16.149185 -8.868692 339.449890
5.120000 4.920000 -1.200000 57.269028 -17.063490 3570.904053
5.120000 4.920000 -1.160000 65.285530 -11.330787 4390.586914
5.120000 4.920000 -1.120000 80.129318 0.047363 6420.709961
5.120000 4.920000 -1.080000 92.226585 27.818277 9279.599609
5.120000 4.920000 -1.040000 83.156342 67.236168 11435.679688
5.120000 4.920000 -1.000000 45.702961 95.857056 11277.335938
5.120000 4.920000 -0.960000 -3.437252 92.021599 8479.789062
5.120000 4.920000 -0.920000 -34.385735 56.872528 4416.863281
5.120000 4.920000 -0.880000 -30.122589 16.415842 1176.850220
5.120000 4.920000 -0.840000 -2.275295 -0.676048 5.634010
5.120000 4.920000 -0.800000 19.975399 11.493065 531.107117
5.120000 4.960000 -1.200000 52.445679 17.195074 3046.219971
5.120000 4.960000 -1.160000 59.869873 18.574501 3929.413574
5.120000 4.960000 -1.120000 77.309067 33.978455 7131.227539
5.120000 4.960000 -1.080000 83.074188 72.507034 12158.590820
5.120000 4.960000 -1.040000 54.735115 116.063705 16466.716797
5.120000 4.960000 -1.000000 -3.547592 131.105698 17201.289062
5.120000 4.960000 -0.960000 -58.083107 100.724106 13518.993164
5.120000 4.960000 -0.920000 -73.829147 44.283318 7411.755371
5.120000 4.960000 -0.880000 -46.951534 2.241435 2209.470459
5.120000 4.960000 -0.840000 -8.318863 -0.428864 69.387405
5.120000 4.960000 -0.800000 6.451925 24.144836 624.600464
5.120000 5.000000 -1.200000 29.120152 39.373314 2398.240967
5.120000 5.000000 -1.160000 38.252285 40.428085 3097.667480
5.120000 5.000000 -1.120000 51.072250 62.872803 6561.364258
5.120000 5.000000 -1.080000 39.653751 103.806160 12348.138672
5.120000 5.000000 -1.040000 -8.918406 132.358124 17598.210938
5.120000 5.000000 -1.000000 -72.271133 117.295677 18981.392578
5.120000 5.000000 -0.960000 -108.299713 60.253242 15359.281250
5.120000 5.000000 -0.920000 -93.718216 -1.273276 8784.724609
5.120000 5.000000 -0.880000 -46.688087 -26.904623 2903.636230
5.120000 5.000000 -0.840000 -9.445301 -10.042442 190.064362
5.120000 5.000000 -0.800000 -8.023782 18.876991 420.721863
5.120000 5.040000 -1.200000 0.108356 42.194809 1780.413574
5.120000 5.040000 -1.160000 8.208507 45.282211 2117.858398
5.120000 5.040000 -1.120000 9.831545 68.469543 4784.737793
5.120000 5.040000 -1.080000 -17.131300 96.054977 9520.040039
5.120000 5.040000 -1.040000 -68.780792 96.336845 14011.585938
5.120000 5.040000 -1.000000 -111.979179 54.300529 15487.884766
5.120000 5.040000 -0.960000 -113.246414 -8.750910 12901.328125
5.120000 5.040000 -0.920000 -71.531708 -51.464127 7765.341797
5.120000 5.040000 -0.880000 -20.507025 -49.973358 2917.874512
5.120000 5.040000 -0.840000 3.052761 -18.840801 364.295135
5.120000 5.040000 -0.800000 -7.209241 5.818192 85.824524
5.120000 5.080000 -1.200000 -21.579248 28.308495 1267.034790
5.120000 5.080000 -1.160000 -17.198072 31.050468 1259.905273
5.120000 5.080000 -1.120000 -24.166277 45.062965 2614.679688
5.120000 5.080000 -1.080000 -51.484859 51.136913 5265.674805
5.120000 5.080000 -1.040000 -84.000313 29.509533 7926.865234
5.120000 5.080000 -1.000000 -93.472107 -16.488243 9008.897461
5.120000 5.080000 -0.960000 -66.152245 -58.905754 7846.007812
5.120000 5.080000 -0.920000 -18.276615 -69.478493 5161.295410
5.120000 5.080000 -0.880000 17.714209 -45.782684 2409.847412
5.120000 5.080000 -0.840000 22.771439 -12.336193 670.720032
5.120000 5.080000 -0.800000 6.646330 4.121614 61.161407
5.120000 5.120000 -1.200000 -28.461905 7.259438 862.779419
5.120000 5.120000 -1.160000 -26.093294 6.006221 716.934692
5.120000 5.120000 -1.120000 -31.285564 7.661991 1037.492676
5.120000 5.120000 -1.080000 -43.174828 0.128811 1864.082397
5.120000 5.120000 -1.040000 -48.325062 -21.654858 2804.244385
5.120000 5.120000 -1.000000 -33.882710 -46.893688 3347.056152
5.120000 5.120000 -0.960000 -2.298103 -56.910797 3244.120117
5.120000 5.120000 -0.920000 28.519770 -42.623955 2630.178711
5.120000 5.120000 -0.880000 40.659897 -13.514212 1835.861084
5.120000 5.120000 -0.840000 31.685377 11.229677 1130.068848
5.120000 5.120000 -0.800000 14.663773 20.112307 619.531128
5.120000 5.160000 -1.200000 -21.141674 -9.610217 539.326660
5.120000 5.160000 -1.160000 -16.417820 -14.722364 486.292816
5.120000 5.160000 -1.120000 -11.661200 -18.431479 475.702972
5.120000 5.160000 -1.080000 -5.641312 -22.693985 546.841370
5.120000 5.160000 -1.040000 4.511103 -26.007748 696.752991
5.120000 5.160000 -1.000000 18.628525 -23.646935 906.199463
5.120000 5.160000 -0.960000 31.587128 -12.300903 1149.058838
5.120000 5.160000 -0.920000 36.686035 5.839231 1379.961792
5.120000 5.160000 -0.880000 31.042458 23.962551 1537.838013
5.120000 5.160000 -0.840000 17.599316 35.641026 1580.018555
5.120000 5.160000 -0.800000 2.096306 38.869312 1515.218018
5.120000 5.200000 -1.200000 -7.469314 -14.799085 274.803558
5.120000 5.200000 -1.160000 1.306225 -19.687862 389.318176
5.120000 5.200000 -1.120000 14.430115 -18.859726 563.917480
5.120000 5.200000 -1.080000 26.796070 -9.334057 805.153992
5.120000 5.200000 -1.040000 32.105522 6.662958 1075.159546
5.120000 5.200000 -1.000000 27.924610 22.668224 1293.632324
5.120000 5.200000 -0.960000 17.561855 33.033882 1399.656250
5.120000 5.200000 -0.920000 6.616944 37.201935 1427.767944
5.120000 5.200000 -0.880000 -2.424093 38.742809 1506.881470
5.120000 5.200000 -0.840000 -11.776411 40.171844 1752.460938
5.120000 5.200000 -0.800000 -24.312801 39.207302 2128.324707
5.160000 4.800000 -1.200000 -13.850281 -30.756794 1137.810669
5.160000 4.800000 -1.160000 7.331494 -31.623739 1053.811768
5.160000 4.800000 -1.120000 26.100262 -14.624216 895.091309
5.160000 4.800000 -1.080000 27.376896 13.346233 927.616394
5.160000 4.800000 -1.040000 7.520860 34.595188 1253.390381
5.160000 4.800000 -1.000000 -20.971668 35.130234 1673.944214
5.160000 4.800000 -0.960000 -39.579910 16.654274 1843.934204
5.160000 4.800000 -0.920000 -39.355740 -5.662966 1580.943481
5.160000 4.800000 -0.880000 -27.053625 -17.377846 1033.888184
5.160000 4.800000 -0.840000 -16.454945 -16.806416 553.220825
5.160000 4.800000 -0.800000 -14.383881 -13.596821 391.769562
5.160000 4.840000 -1.200000 9.667273 -39.714745 1670.717163
5.160000 4.840000 -1.160000 29.651558 -30.057215 1782.651123
5.160000 4.840000 -1.120000 39.225876 -6.951011 1586.985840
5.160000 4.840000 -1.080000 30.372017 17.694201 1235.544189
5.160000 4.840000 -1.040000 7.479140 29.560265 929.746826
5.160000 4.840000 -1.000000 -15.625751 22.980133 772.250549
5.160000 4.840000 -0.960000 -26.431658 4.710653 720.822754
5.160000 4.840000 -0.920000 -22.561045 -12.572446 667.067139
5.160000 4.840000 -0.880000 -11.327248 -20.536327 550.047302
5.160000 4.840000 -0.840000 -1.660328 -19.932785 400.072601
5.160000 4.840000 -0.800000 3.213626 -16.728319 290.164062
5.160000 4.880000 -1.200000 35.918320 -29.351181 2151.617676
5.160000 4.880000 -1.160000 47.816017 -12.109589 2433.013672
5.160000 4.880000 -1.120000 47.087463 9.907084 2315.379639
5.160000 4.880000 -1.080000 33.533710 27.126959 1860.381592
5.160000 4.880000 -1.040000 13.457283 32.627987 1245.684082
5.160000 4.880000 -1.000000 -4.237951 25.570452 671.808228
5.160000 4.880000 -0.960000 -12.716347 10.910507 280.744629
5.160000 4.880000 -0.920000 -10.178226 -3.642320 116.862770
5.160000 4.880000 -0.880000 -0.105162 -11.525618 132.850922
5.160000 4.880000 -0.840000 10.948272 -10.372379 227.450897
5.160000 4.880000 -0.800000 17.064423 -2.829912 299.202911
5.160000 4.920000 -1.200000 49.747185 -2.177492 2479.523926
5.160000 4.920000 -1.160000 50.607819 15.988519 2816.784180
5.160000 4.920000 -1.120000 43.050102 31.972244 2875.535645
5.160000 4.920000 -1.080000 29.407055 42.931309 2707.872070
5.160000 4.920000 -1.040000 11.913357 46.547344 2308.583252
5.160000 4.920000 -1.000000 -5.351791 40.477161 1667.042358
5.160000 4.920000 -0.960000 -15.614468 25.527224 895.450745
5.160000 4.920000 -0.920000 -13.457155 8.634993 255.658127
5.160000 4.920000 -0.880000 -0.913433 -0.032150 0.835393
5.160000 4.920000 -0.840000 11.800641 4.684454 161.199234
5.160000 4.920000 -0.800000 13.979496 17.273499 493.800049
5.160000 4.960000 -1.200000 42.023441 28.606052 2584.275879
5.160000 4.960000 -1.160000 33.838966 41.121616 2836.062988
5.160000 4.960000 -1.120000 23.805874 49.775009 3044.270996
5.160000 4.960000 -1.080000 10.907349 56.582909 3320.595703
5.160000 4.960000 -1.040000 -7.040619 58.091248 3424.163330
5.160000 4.960000 -1.000000 -25.659748 48.209431 2982.571777
5.160000 4.960000 -0.960000 -34.318878 27.703815 1945.286865
5.160000 4.960000 -0.920000 -26.506205 8.056809 767.491028
5.160000 4.960000 -0.880000 -9.008493 2.684779 88.360992
5.160000 4.960000 -0.840000 2.092437 13.256504 180.113190
5.160000 4.960000 -0.800000 -3.419178 26.470869 712.397705
5.160000 5.000000 -1.200000 15.917193 46.795597 2443.184814
5.160000 5.000000 -1.160000 3.934112 50.062016 2521.682617
5.160000 5.000000 -1.120000 -5.458888 51.910667 2724.516846
5.160000 5.000000 -1.080000 -17.789749 54.015785 3234.180176
5.160000 5.000000 -1.040000 -35.249157 49.399281 3682.791992
5.160000 5.000000 -1.000000 -49.499168 32.005226 3474.502197
5.160000 5.000000 -0.960000 -48.646721 7.746901 2426.517822
5.160000 5.000000 -0.920000 -31.527731 -7.741031 1053.921387
5.160000 5.000000 -0.880000 -12.209952 -4.377707 168.247253
5.160000 5.000000 -0.840000 -7.415339 10.540016 166.079193
5.160000 5.000000 -0.800000 -19.148264 18.431681 706.382874
5.160000 5.040000 -1.200000 -14.545573 43.267418 2083.643066
5.160000 5.040000 -1.160000 -24.474312 37.569180 2010.435181
5.160000 5.040000 -1.120000 -30.672241 33.462368 2060.516602
5.160000 5.040000 -1.080000 -39.661255 29.388666 2436.708984
5.160000 5.040000 -1.040000 -50.142647 17.847410 2832.814941
5.160000 5.040000 -1.000000 -52.135010 -2.306112 2723.377441
5.160000 5.040000 -0.960000 -38.895382 -20.360172 1927.387329
5.160000 5.040000 -0.920000 -17.462284 -23.284986 847.121948
5.160000 5.040000 -0.880000 -4.070205 -10.502518 126.869446
5.160000 5.040000 -0.840000 -7.777534 3.555853 73.134132
5.160000 5.040000 -0.800000 -20.173840 3.680846 420.532410
5.160000 5.080000 -1.200000 -33.138081 21.882042 1576.956177
5.160000 5.080000 -1.160000 -36.845085 10.710307 1472.270996
5.160000 5.080000 -1.120000 -37.024666 2.594419 1377.556885
5.160000 5.080000 -1.080000 -37.678123 -5.409405 1448.902710
5.160000 5.080000 -1.040000 -35.572098 -16.955059 1552.848145
5.160000 5.080000 -1.000000 -24.988443 -28.398233 1430.881958
5.160000 5.080000 -0.960000 -7.354506 -30.749416 999.615356
5.160000 5.080000 -0.920000 6.947102 -20.193180 456.026733
5.160000 5.080000 -0.880000 8.274358 -4.564221 89.297112
5.160000 5.080000 -0.840000 -1.397026 3.108844 11.616590
5.160000 5.080000 -0.800000 -9.455186 -1.921379 93.092239
5.160000 5.120000 -1.200000 -31.863422 -3.094919 1024.856201
5.160000 5.120000 -1.160000 -28.335766 -14.760269 1020.781189
5.160000 5.120000 -1.120000 -20.865860 -22.754173 953.136475
5.160000 5.120000 -1.080000 -11.315891 -27.627108 891.306458
5.160000 5.120000 -1.040000 0.549015 -28.798691 829.665955
5.160000 5.120000 -1.000000 13.175239 -23.561703 728.740723
5.160000 5.120000 -0.960000 21.312483 -11.187522 579.382568
5.160000 5.120000 -0.920000 20.019619 3.379074 412.203308
5.160000 5.120000 -0.880000 10.582064 12.134427 259.224396
5.160000 5.120000 -0.840000 0.838452 11.419532 131.108704
5.160000 5.120000 -0.800000 -1.886515 6.036173 39.994328
5.160000 5.160000 -1.200000 -15.907547 -16.777025 534.518616
5.160000 5.160000 -1.160000 -7.553113 -24.867336 675.433899
5.160000 5.160000 -1.120000 5.707235 -27.909185 811.495117
5.160000 5.160000 -1.080000 20.463638 -22.841604 940.499390
5.160000 5.160000 -1.040000 31.031382 -9.243101 1048.381592
5.160000 5.160000 -1.000000 32.052811 8.709897 1103.244995
5.160000 5.160000 -0.960000 22.641951 23.444427 1062.299072
5.160000 5.160000 -0.920000 8.119534 28.906002 901.483765
5.160000 5.160000 -0.880000 -3.484095 25.348560 654.688416
5.160000 5.160000 -0.840000 -7.850699 19.041599 424.215973
5.160000 5.160000 -0.800000 -7.686809 16.412682 328.463165
5.160000 5.200000 -1.200000 0.717466 -13.851745 192.385590
5.160000 5.200000 -1.160000 9.696673 -17.431049 397.866974
5.160000 5.200000 -1.120000 23.682640 -13.557933 744.684998
5.160000 5.200000 -1.080000 34.790955 1.748678 1213.468384
5.160000 5.200000 -1.040000 33.598541 23.778656 1694.286377
5.160000 5.200000 -1.000000 17.876740 40.969761 1998.099121
5.160000 5.200000 -0.960000 -4.129547 44.055798 1957.966431
5.160000 5.200000 -0.920000 -20.111736 34.117649 1568.495972
5.160000 5.200000 -0.880000 -24.234737 21.292068 1040.674683
5.160000 5.200000 -0.840000 -21.462465 14.986956 685.246277
5.160000 5.200000 -0.800000 -21.315733 15.295641 688.317139
5.200000 4.800000 -1.200000 -17.142815 -18.419880 633.168091
5.200000 4.800000 -1.160000 -3.805365 -20.824669 448.147644
5.200000 4.800000 -1.120000 8.100121 -8.467849 137.316406
5.200000 4.800000 -1.080000 4.551404 11.613800 155.595642
5.200000 4.800000 -1.040000 -15.823863 22.293179 747.380432
5.200000 4.800000 -1.000000 -38.427765 12.600907 1635.475952
5.200000 4.800000 -0.960000 -45.697365 -10.988118 2208.988037
5.200000 4.800000 -0.920000 -33.631050 -30.411606 2055.913330
5.200000 4.800000 -0.880000 -14.832006 -33.342751 1331.727417
5.200000 4.800000 -0.840000 -5.029657 -24.112745 606.721924
5.200000 4.800000 -0.800000 -7.378481 -17.268845 352.654968
5.200000 4.840000 -1.200000 1.834372 -30.038998 905.706299
5.200000 4.840000 -1.160000 15.805664 -20.901869 686.707153
5.200000 4.840000 -1.120000 17.282335 -2.108372 303.124329
5.200000 4.840000 -1.080000 2.339518 11.714493 142.702682
5.200000 4.840000 -1.040000 -18.632641 8.610960 421.323914
5.200000 4.840000 -1.000000 -29.667255 -9.593973 972.190369
5.200000 4.840000 -0.960000 -23.345680 -28.991035 1385.500977
5.200000 4.840000 -0.920000 -6.592003 -36.370110 1366.239380
5.200000 4.840000 -0.880000 7.065068 -30.419277 975.247559
5.200000 4.840000 -0.840000 10.455378 -20.689323 537.363037
5.200000 4.840000 -0.800000 7.911303 -16.495371 334.685974
5.200000 4.880000 -1.200000 27.013763 -22.608826 1240.902344
5.200000 4.880000 -1.160000 30.940271 -3.937208 972.802002
5.200000 4.880000 -1.120000 19.103277 11.171988 489.748535
5.200000 4.880000 -1.080000 0.553764 11.684090 136.824600
5.200000 4.880000 -1.040000 -10.849608 -1.536410 120.074562
5.200000 4.880000 -1.000000 -8.086163 -17.418591 368.793304
5.200000 4.880000 -0.960000 4.458910 -24.834480 636.633301
5.200000 4.880000 -0.920000 16.606117 -21.160748 723.540344
5.200000 4.880000 -0.880000 21.602276 -12.112898 613.380615
5.200000 4.880000 -0.840000 20.214073 -4.705062 430.746368
5.200000 4.880000 -0.800000 17.275558 -1.162078 299.795349
5.200000 4.920000 -1.200000 40.316452 3.942314 1640.958130
5.200000 4.920000 -1.160000 28.438971 21.634727 1276.836426
5.200000 4.920000 -1.120000 9.200325 23.784168 650.332642
5.200000 4.920000 -1.080000 -2.708065 12.029651 152.046112
5.200000 4.920000 -1.040000 -0.927200 -1.884447 4.410839
5.200000 4.920000 -1.000000 9.316234 -7.593883 144.459259
5.200000 4.920000 -0.960000 18.473221 -3.747921 355.306793
5.200000 4.920000 -0.920000 21.414362 4.119203 475.542725
5.200000 4.920000 -0.880000 19.300243 10.754168 488.151520
5.200000 4.920000 -0.840000 15.135504 14.939196 452.263062
5.200000 4.920000 -0.800000 9.934025 17.383146 400.858612
5.200000 4.960000 -1.200000 29.475586 34.225536 2040.197510
5.200000 4.960000 -1.160000 6.307341 38.999260 1560.724854
5.200000 4.960000 -1.120000 -9.436014 26.159529 773.359253
5.200000 4.960000 -1.080000 -8.800472 9.704427 171.624207
5.200000 4.960000 -1.040000 2.229625 2.895784 13.356793
5.200000 4.960000 -1.000000 11.550503 7.491249 189.532913
5.200000 4.960000 -0.960000 12.894495 16.046911 423.771362
5.200000 4.960000 -0.920000 8.619648 21.815243 550.203125
5.200000 4.960000 -0.880000 3.202735 24.147491 593.358826
5.200000 4.960000 -0.840000 -2.602314 24.969601 630.252991
5.200000 4.960000 -0.800000 -10.019957 23.369316 646.524475
5.200000 5.000000 -1.200000 -0.850002 47.927246 2297.743408
5.200000 5.000000 -1.160000 -23.108139 35.147766 1769.351562
5.200000 5.000000 -1.120000 -26.572676 13.493159 888.172485
5.200000 5.000000 -1.080000 -14.248219 0.726858 203.540054
5.200000 5.000000 -1.040000 -0.489446 3.077521 9.710694
5.200000 5.000000 -1.000000 3.948111 13.294826 192.339966
5.200000 5.000000 -0.960000 -0.561419 21.263767 452.462982
5.200000 5.000000 -0.920000 -7.736634 23.585741 616.142700
5.200000 5.000000 -0.880000 -14.199615 22.610508 712.864136
5.200000 5.000000 -0.840000 -20.793106 19.430342 809.891479
5.200000 5.000000 -0.800000 -26.829199 11.684708 856.338318
5.200000 5.040000 -1.200000 -31.339375 35.768173 2261.518555
5.200000 5.040000 -1.160000 -41.302097 11.283191 1833.173706
5.200000 5.040000 -1.120000 -30.649536 -9.372918 1027.245605
5.200000 5.040000 -1.080000 -11.690410 -13.630137 322.446320
5.200000 5.040000 -1.040000 0.639675 -3.960083 16.091442
5.200000 5.040000 -1.000000 0.969056 8.521532 73.555580
5.200000 5.040000 -0.960000 -6.247902 15.621843 283.078278
5.200000 5.040000 -0.920000 -14.891026 16.396141 490.576080
5.200000 5.040000 -0.880000 -22.499586 12.690772 667.287109
5.200000 5.040000 -0.840000 -27.972523 4.662396 804.199951
5.200000 5.040000 -0.800000 -27.804367 -7.257637 825.756104
5.200000 5.080000 -1.200000 -42.695469 7.153345 1874.073364
5.200000 5.080000 -1.160000 -37.275761 -17.437391 1693.544922
5.200000 5.080000 -1.120000 -17.307953 -29.582584 1174.694580
5.200000 5.080000 -1.080000 2.871416 -24.529652 609.948853
5.200000 5.080000 -1.040000 12.255169 -9.258861 235.915665
5.200000 5.080000 -1.000000 9.214508 5.665655 117.006805
5.200000 5.080000 -0.960000 -1.285851 13.585204 186.211182
5.200000 5.080000 -0.920000 -13.246272 12.949060 343.141907
5.200000 5.080000 -0.880000 -21.849888 4.938483 501.806213
5.200000 5.080000 -0.840000 -23.064383 -7.304545 585.322144
5.200000 5.080000 -0.800000 -14.865550 -17.747063 535.942810
5.200000 5.120000 -1.200000 -30.601440 -17.438866 1240.562256
5.200000 5.120000 -1.160000 -15.716467 -33.161011 1346.659912
5.200000 5.120000 -1.120000 6.187849 -34.779335 1247.891602
5.200000 5.120000 -1.080000 23.514637 -21.834766 1029.695190
5.200000 5.120000 -1.040000 28.225121 -1.578944 799.150452
5.200000 5.120000 -1.000000 19.348583 15.947823 628.700684
5.200000 5.120000 -0.960000 2.418897 22.959826 533.004639
5.200000 5.120000 -0.920000 -13.510439 17.228735 479.361267
5.200000 5.120000 -0.880000 -20.146597 3.166309 415.910889
5.200000 5.120000 -0.840000 -14.533504 -10.019268 311.608490
5.200000 5.120000 -0.800000 -1.510374 -13.539857 185.608963
5.200000 5.160000 -1.200000 -8.086293 -22.960245 592.560974
5.200000 5.160000 -1.160000 7.142499 -28.657173 872.248901
5.200000 5.160000 -1.120000 25.312706 -22.531321 1148.393555
5.200000 5.160000 -1.080000 36.890434 -4.212187 1378.646729
5.200000 5.160000 -1.040000 33.944508 19.005842 1513.451660
5.200000 5.160000 -1.000000 16.163681 35.204742 1500.638428
5.200000 5.160000 -0.960000 -7.245152 35.426552 1307.532715
5.200000 5.160000 -0.920000 -22.869318 20.692505 951.185425
5.200000 5.160000 -0.880000 -22.749668 2.160828 522.216614
5.200000 5.160000 -0.840000 -10.658844 -7.095878 163.962433
5.200000 5.160000 -0.800000 0.994951 -2.382392 6.665719
5.200000 5.200000 -1.200000 6.374470 -10.877083 158.944794
5.200000 5.200000 -1.160000 16.554268 -11.801378 413.316315
5.200000 5.200000 -1.120000 29.047787 -2.596149 850.513916
5.200000 5.200000 -1.080000 33.316280 17.442482 1414.214600
5.200000 5.200000 -1.040000 21.216032 38.565498 1937.417603
5.200000 5.200000 -1.000000 -3.926011 46.658936 2192.469727
5.200000 5.200000 -0.960000 -27.639248 35.373131 2015.186523
5.200000 5.200000 -0.920000 -35.641602 12.882372 1436.279297
5.200000 5.200000 -0.880000 -26.216547 -4.410700 706.761597
5.200000 5.200000 -0.840000 -11.549723 -6.113195 170.767242
5.200000 5.200000 -0.800000 -6.206668 3.432967 50.307987
