#kx 	ky 	kz 	real 	imag 	intensity
4.800000 0.800000 -5.200000 -27.051390 -1.104456 732.997559
4.800000 0.800000 -5.160000 -11.776070 -19.614855 523.418335
4.800000 0.800000 -5.120000 9.830276 -14.138364 296.527649
4.800000 0.800000 -5.080000 12.996226 7.421356 223.978424
4.800000 0.800000 -5.040000 -6.408856 19.595005 425.037659
4.800000 0.800000 -5.000000 -27.720222 7.249380 820.964233
4.800000 0.800000 -4.960000 -28.298748 -18.250786 1133.910400
4.800000 0.800000 -4.920000 -7.884607 -32.042450 1088.885620
4.800000 0.800000 -4.880000 12.091241 -22.904125 670.797058
4.800000 0.800000 -4.840000 12.714967 -4.499722 181.917877
4.800000 0.800000 -4.800000 -2.079544 1.067595 5.464263
4.800000 0.840000 -5.200000 -17.373013 -21.519131 764.894531
4.800000 0.840000 -5.160000 5.076625 -29.168978 876.601440
4.800000 0.840000 -5.120000 22.042248 -15.755537 734.097656
4.800000 0.840000 -5.080000 19.193306 3.011433 377.451721
4.800000 0.840000 -5.040000 3.173846 7.984787 73.830124
4.800000 0.840000 -5.000000 -7.134045 -3.711136 64.667122
4.800000 0.840000 -4.960000 -1.335852 -17.556177 310.003845
4.800000 0.840000 -4.920000 12.660032 -18.937357 518.899902
4.800000 0.840000 -4.880000 19.440313 -8.835838 455.997803
4.800000 0.840000 -4.840000 14.086454 -0.827873 199.113571
4.800000 0.840000 -4.800000 6.795489 -4.150042 63.401520
4.800000 0.880000 -5.200000 1.485533 -26.101477 683.493896
4.800000 0.880000 -5.160000 22.413319 -22.823498 1023.268921
4.800000 0.880000 -5.120000 32.639656 -6.373467 1105.968262
4.800000 0.880000 -5.080000 27.678503 9.093828 848.797241
4.800000 0.880000 -5.040000 16.107466 13.514013 442.078979
4.800000 0.880000 -5.000000 9.040226 8.781865 158.846832
4.800000 0.880000 -4.960000 9.434407 3.567200 101.732956
4.800000 0.880000 -4.920000 12.127332 2.748555 154.626724
4.800000 0.880000 -4.880000 12.428663 3.691587 168.099472
4.800000 0.880000 -4.840000 11.986908 2.267220 148.826248
4.800000 0.880000 -4.800000 15.258905 -0.155107 232.858261
4.800000 0.920000 -5.200000 13.651454 -16.261742 450.806458
4.800000 0.920000 -5.160000 28.512524 -7.072132 862.979004
4.800000 0.920000 -5.120000 33.233231 9.215945 1189.381226
4.800000 0.920000 -5.080000 26.877699 23.442486 1271.960938
4.800000 0.920000 -5.040000 14.707724 29.763195 1102.164917
4.800000 0.920000 -5.000000 3.070131 27.797544 782.129211
4.800000 0.920000 -4.960000 -4.016891 20.415365 432.922546
4.800000 0.920000 -4.920000 -4.946603 11.235189 150.698364
4.800000 0.920000 -4.880000 0.216937 4.071061 16.620600
4.800000 0.920000 -4.840000 9.126377 2.691820 90.536652
4.800000 0.920000 -4.800000 16.662184 8.773045 354.594666
4.800000 0.960000 -5.200000 12.799703 -4.326494 182.550934
4.800000 0.960000 -5.160000 21.866035 6.360816 518.583496
4.800000 0.960000 -5.120000 21.963100 21.556736 947.070679
4.800000 0.960000 -5.080000 11.913715 34.036762 1300.437866
4.800000 0.960000 -5.040000 -4.205584 37.434483 1419.027344
4.800000 0.960000 -5.000000 -18.767628 29.626703 1229.965332
4.800000 0.960000 -4.960000 -24.332354 14.435500 800.447083
4.800000 0.960000 -4.920000 -18.072268 0.240828 326.664825
4.800000 0.960000 -4.880000 -4.232504 -4.708567 40.084698
4.800000 0.960000 -4.840000 7.945376 2.117436 67.612534
4.800000 0.960000 -4.800000 10.363614 15.344588 342.860901
4.800000 1.000000 -5.200000 5.065393 -0.100799 25.668365
4.800000 1.000000 -5.160000 9.507193 10.560612 201.913239
4.800000 1.000000 -5.120000 4.381343 22.935457 545.231384
4.800000 1.000000 -5.080000 -9.412620 28.936607 925.924683
4.800000 1.000000 -5.040000 -24.721041 23.387190 1158.090576
4.800000 1.000000 -5.000000 -32.304535 8.224657 1111.228027
4.800000 1.000000 -4.960000 -27.179806 -7.959523 802.095825
4.800000 1.000000 -4.920000 -12.559950 -15.444497 396.284821
4.800000 1.000000 -4.880000 2.006324 -10.210690 108.283516
4.800000 1.000000 -4.840000 7.343663 3.152864 63.869946
4.800000 1.000000 -4.800000 1.162682 14.980792 225.775955
4.800000 1.040000 -5.200000 -0.361278 -2.982038 9.023072
4.800000 1.040000 -5.160000 -1.063996 6.454630 42.794334
4.800000 1.040000 -5.120000 -10.375498 11.812334 247.182190
4.800000 1.040000 -5.080000 -21.699705 7.257967 523.555298
4.800000 1.040000 -5.040000 -26.202801 -5.374644 715.473572
4.800000 1.040000 -5.000000 -19.893826 -17.911436 716.583862
4.800000 1.040000 -4.960000 -6.604328 -22.237595 538.127747
4.800000 1.040000 -4.920000 5.255832 -16.224188 290.848053
4.800000 1.040000 -4.880000 9.053263 -4.609884 103.212593
4.800000 1.040000 -4.840000 4.084356 5.174038 43.452637
4.800000 1.040000 -4.800000 -5.139826 8.304452 95.381729
4.800000 1.080000 -5.200000 -1.101975 -6.372802 41.826958
4.800000 1.080000 -5.160000 -7.081148 -1.781883 53.317764
4.800000 1.080000 -5.120000 -14.789085 -6.936027 266.825500
4.800000 1.080000 -5.080000 -14.242166 -18.746586 554.273743
4.800000 1.080000 -5.040000 -2.979236 -26.821926 728.291565
4.800000 1.080000 -5.000000 11.419420 -23.553043 685.148987
4.800000 1.080000 -4.960000 18.648430 -11.081978 470.574188
4.800000 1.080000 -4.920000 14.976089 1.374685 226.172989
4.800000 1.080000 -4.880000 5.382446 6.374621 69.606522
4.800000 1.080000 -4.840000 -2.508198 3.954162 21.926453
4.800000 1.080000 -4.800000 -5.552176 -0.715885 31.339149
4.800000 1.120000 -5.200000 -1.535020 -7.204327 54.258606
4.800000 1.120000 -5.160000 -8.865688 -11.809020 218.053375
4.800000 1.120000 -5.120000 -6.439207 -25.000996 666.513184
4.800000 1.120000 -5.080000 10.082697 -32.697426 1170.782471
4.800000 1.120000 -5.040000 29.695717 -23.510065 1434.558716
4.800000 1.120000 -5.000000 36.154404 -1.271894 1308.758545
4.800000 1.120000 -4.960000 23.976931 17.870516 894.248535
4.800000 1.120000 -4.920000 3.651983 20.803221 446.110962
4.800000 1.120000 -4.880000 -9.058249 9.241137 167.450485
4.800000 1.120000 -4.840000 -8.005623 -3.802249 78.547096
4.800000 1.120000 -4.800000 -0.469346 -8.038407 64.836273
4.800000 1.160000 -5.200000 -4.824864 -9.040313 105.006577
4.800000 1.160000 -5.160000 -5.793084 -22.921799 558.968689
4.800000 1.160000 -5.120000 11.361726 -34.662643 1330.587646
4.800000 1.160000 -5.080000 37.003773 -26.479643 2070.450684
4.800000 1.160000 -5.040000 49.003754 2.209514 2406.249756
4.800000 1.160000 -5.000000 34.446072 31.649035 2188.193359
4.800000 1.160000 -4.960000 3.282257 39.616825 1580.265991
4.800000 1.160000 -4.920000 -20.589626 22.350363 923.471436
4.800000 1.160000 -4.880000 -21.726799 -2.912811 480.538269
4.800000 1.160000 -4.840000 -6.049076 -15.665881 282.011139
4.800000 1.160000 -4.800000 7.990720 -11.167488 188.564392
4.800000 1.200000 -5.200000 -7.610638 -16.081974 316.551697
4.800000 1.200000 -5.160000 3.894426 -32.541214 1074.097168
4.800000 1.200000 -5.120000 31.329762 -32.101318 2012.048584
4.800000 1.200000 -5.080000 51.897331 -5.493749 2723.514160
4.800000 1.200000 -5.040000 44.047729 31.314207 2920.782227
4.800000 1.200000 -5.000000 9.729061 49.971020 2591.757324
4.800000 1.200000 -4.960000 -25.695660 36.160866 1967.875000
4.800000 1.200000 -4.920000 -36.539330 2.914491 1343.616821
4.800000 1.200000 -4.880000 -19.666298 -22.456848 891.073303
4.800000 1.200000 -4.840000 5.333127 -23.926357 600.912842
4.800000 1.200000 -4.800000 17.183237 -8.927776 374.968842
4.840000 0.800000 -5.200000 -2.307570 -11.073102 127.938461
4.840000 0.800000 -5.160000 12.757223 -8.031569 227.252838
4.840000 0.800000 -5.120000 15.505371 8.615728 314.647308
4.840000 0.800000 -5.080000 -0.375825 19.402260 376.588928
4.840000 0.800000 -5.040000 -19.519367 9.683750 474.780731
4.840000 0.800000 -5.000000 -21.310905 -13.063490 624.809448
4.840000 0.800000 -4.960000 -2.994026 -26.558969 714.343018
4.840000 0.800000 -4.920000 16.618067 -18.016949 600.770630
4.840000 0.800000 -4.880000 17.483812 1.566870 308.138763
4.840000 0.800000 -4.840000 0.378633 9.308682 86.794930
4.840000 0.800000 -4.800000 -13.856026 -4.394170 211.298172
4.840000 0.840000 -5.200000 7.987639 -13.697491 251.423630
4.840000 0.840000 -5.160000 23.179792 -6.891142 584.790649
4.840000 0.840000 -5.120000 26.451385 9.355204 787.195618
4.840000 0.840000 -5.080000 16.237602 20.651739 690.154053
4.840000 0.840000 -5.040000 3.595360 19.384796 388.696930
4.840000 0.840000 -5.000000 -0.899212 11.298045 128.454407
4.840000 0.840000 -4.960000 1.949493 6.877880 51.105759
4.840000 0.840000 -4.920000 3.229731 8.597530 84.348686
4.840000 0.840000 -4.880000 -1.578486 9.019467 83.842415
4.840000 0.840000 -4.840000 -6.253034 1.493563 41.331158
4.840000 0.840000 -4.800000 -1.404746 -9.886909 99.724289
4.840000 0.880000 -5.200000 14.437689 -7.193814 260.197815
4.840000 0.880000 -5.160000 30.067711 3.551557 916.680786
4.840000 0.880000 -5.120000 34.134922 24.626816 1771.672852
4.840000 0.880000 -5.080000 22.368740 44.219360 2455.712402
4.840000 0.880000 -5.040000 0.521927 51.840435 2687.703125
4.840000 0.880000 -5.000000 -20.813297 44.601021 2422.444336
4.840000 0.880000 -4.960000 -32.987526 27.043114 1819.506836
4.840000 0.880000 -4.920000 -32.672089 7.066532 1117.401245
4.840000 0.880000 -4.880000 -21.582827 -7.858973 527.581848
4.840000 0.880000 -4.840000 -5.047531 -12.771174 188.580460
4.840000 0.880000 -4.800000 9.609339 -6.712518 137.397293
4.840000 0.920000 -5.200000 12.127371 0.011473 147.073257
4.840000 0.920000 -5.160000 27.141258 17.054424 1027.501221
4.840000 0.920000 -5.120000 25.217257 46.074181 2758.740234
4.840000 0.920000 -5.080000 -0.255863 69.790802 4870.821289
4.840000 0.920000 -5.040000 -39.445427 70.298767 6497.858398
4.840000 0.920000 -5.000000 -70.931534 42.928070 6874.102051
4.840000 0.920000 -4.960000 -76.302086 1.182507 5823.406738
4.840000 0.920000 -4.920000 -53.400009 -31.969286 3873.596191
4.840000 0.920000 -4.880000 -17.684649 -40.031540 1915.270996
4.840000 0.920000 -4.840000 9.361501 -23.750690 651.732971
4.840000 0.920000 -4.800000 15.389273 1.384150 238.745575
4.840000 0.960000 -5.200000 5.961106 0.576344 35.866962
4.840000 0.960000 -5.160000 15.504105 25.309952 880.970947
4.840000 0.960000 -5.120000 -0.977570 56.633457 3208.303955
4.840000 0.960000 -5.080000 -43.224342 68.899841 6615.531738
4.840000 0.960000 -5.040000 -88.162262 44.675064 9768.445312
4.840000 0.960000 -5.000000 -105.255234 -8.161264 11145.270508
4.840000 0.960000 -4.960000 -80.735901 -59.361221 10042.040039
4.840000 0.960000 -4.920000 -29.643198 -78.633881 7062.006348
4.840000 0.960000 -4.880000 15.598886 -58.713448 3690.594238
4.840000 0.960000 -4.840000 30.378817 -19.295370 1295.183838
4.840000 0.960000 -4.800000 15.012217 10.744628 340.813690
4.840000 1.000000 -5.200000 3.810457 -4.171370 31.919909
4.840000 1.000000 -5.160000 1.544538 24.317270 593.715271
4.840000 1.000000 -5.120000 -30.320065 44.989830 2943.391113
4.840000 1.000000 -5.080000 -76.161179 32.228554 6839.204590
4.840000 1.000000 -5.040000 -102.549553 -16.860134 10800.674805
4.840000 1.000000 -5.000000 -85.051773 -75.348587 12911.213867
4.840000 1.000000 -4.960000 -30.228477 -105.693039 12084.779297
4.840000 1.000000 -4.920000 27.937288 -89.621758 8812.551758
4.840000 1.000000 -4.880000 54.871323 -42.191959 4791.023438
4.840000 1.000000 -4.840000 41.731308 2.166574 1746.196167
4.840000 1.000000 -4.800000 8.510453 18.082825 399.416382
4.840000 1.040000 -5.200000 7.244111 -7.119328 103.161987
4.840000 1.040000 -5.160000 -8.605386 15.755070 322.274902
4.840000 1.040000 -5.120000 -44.746956 15.366939 2238.432861
4.840000 1.040000 -5.080000 -72.944260 -19.929592 5718.053711
4.840000 1.040000 -5.040000 -64.743973 -72.320473 9422.033203
4.840000 1.040000 -5.000000 -17.334778 -106.018646 11540.447266
4.840000 1.040000 -4.960000 41.538345 -96.251053 10989.699219
4.840000 1.040000 -4.920000 75.225494 -49.824841 8141.389648
4.840000 1.040000 -4.880000 67.150269 1.242388 4510.702148
4.840000 1.040000 -4.840000 31.436230 26.466919 1688.734375
4.840000 1.040000 -4.800000 -2.522360 19.349386 380.761047
4.840000 1.080000 -5.200000 10.471244 -4.568839 130.521240
4.840000 1.080000 -5.160000 -12.358488 3.779061 167.013535
4.840000 1.080000 -5.120000 -36.165062 -15.845582 1558.994263
4.840000 1.080000 -5.080000 -34.493835 -54.339611 4142.618164
4.840000 1.080000 -5.040000 0.753593 -82.723221 6843.699219
4.840000 1.080000 -5.000000 49.849976 -76.304550 8307.404297
4.840000 1.080000 -4.960000 80.575226 -36.198277 7802.682617
4.840000 1.080000 -4.920000 74.544273 11.632626 5692.166504
4.840000 1.080000 -4.880000 40.626667 38.262466 3114.542480
4.840000 1.080000 -4.840000 4.676020 33.939373 1173.746094
4.840000 1.080000 -4.800000 -12.830544 11.381392 294.158936
4.840000 1.120000 -5.200000 8.101119 -0.716378 66.141327
4.840000 1.120000 -5.160000 -9.772919 -8.160730 162.107452
4.840000 1.120000 -5.120000 -11.362746 -32.818378 1206.157959
4.840000 1.120000 -5.080000 12.996737 -52.429657 2917.784180
4.840000 1.120000 -5.040000 49.167053 -45.570896 4494.105469
4.840000 1.120000 -5.000000 70.595444 -11.774280 5122.350586
4.840000 1.120000 -4.960000 61.382305 27.501558 4524.123047
4.840000 1.120000 -4.920000 29.161211 47.496361 3106.280518
4.840000 1.120000 -4.880000 -3.352667 40.080906 1617.719360
4.840000 1.120000 -4.840000 -18.282104 17.023308 624.028320
4.840000 1.120000 -4.800000 -14.598926 -3.786501 227.466217
4.840000 1.160000 -5.200000 2.249303 -2.402877 10.833183
4.840000 1.160000 -5.160000 -1.538408 -17.518034 309.248199
4.840000 1.160000 -5.120000 14.968514 -30.738167 1168.891357
4.840000 1.160000 -5.080000 41.228859 -23.115236 2234.133057
4.840000 1.160000 -5.040000 54.260807 6.304722 2983.984619
4.840000 1.160000 -5.000000 40.241791 38.039474 3066.403320
4.840000 1.160000 -4.960000 7.589943 49.539795 2511.798340
4.840000 1.160000 -4.920000 -21.117029 34.967831 1668.678101
4.840000 1.160000 -4.880000 -29.378910 8.272106 931.548096
4.840000 1.160000 -4.840000 -18.912312 -11.646686 493.320801
4.840000 1.160000 -4.800000 -3.435333 -17.259203 309.681610
4.840000 1.200000 -5.200000 0.570688 -10.449277 109.513069
4.840000 1.200000 -5.160000 10.929211 -21.455362 579.780212
4.840000 1.200000 -5.120000 31.397030 -16.096664 1244.876099
4.840000 1.200000 -5.080000 41.476402 8.961390 1800.598511
4.840000 1.200000 -5.040000 26.674461 36.601425 2051.191162
4.840000 1.200000 -5.000000 -6.062708 44.236191 1993.597046
4.840000 1.200000 -4.960000 -33.646042 24.932486 1753.685059
4.840000 1.200000 -4.920000 -37.651375 -6.497805 1459.847412
4.840000 1.200000 -4.880000 -19.675121 -27.927826 1167.073853
4.840000 1.200000 -4.840000 3.146073 -29.417253 875.272583
4.840000 1.200000 -4.800000 15.883493 -18.541491 596.072266
4.880000 0.800000 -5.200000 20.253408 6.272137 449.540253
4.880000 0.800000 -5.160000 17.381407 22.484076 807.646973
4.880000 0.800000 -5.120000 -1.755465 31.229641 978.372131
4.880000 0.800000 -5.080000 -22.772980 19.378540 894.136353
4.880000 0.800000 -5.040000 -25.543549 -5.867374 686.898987
4.880000 0.800000 -5.000000 -6.473328 -21.957790 524.048523
4.880000 0.800000 -4.960000 15.630962 -14.193119 445.771606
4.880000 0.800000 -4.920000 18.207787 7.715763 391.056488
4.880000 0.800000 -4.880000 -1.002159 18.811100 354.861816
4.880000 0.800000 -4.840000 -20.767017 5.009271 456.361816
4.880000 0.800000 -4.800000 -18.223534 -21.603214 798.796021
4.880000 0.840000 -5.200000 15.534727 13.731087 429.870483
4.880000 0.840000 -5.160000 15.535788 24.376331 835.566223
4.880000 0.840000 -5.120000 6.904150 33.185295 1148.931030
4.880000 0.840000 -5.080000 -5.145599 34.176540 1194.513062
4.880000 0.840000 -5.040000 -13.756470 29.045835 1032.901001
4.880000 0.840000 -5.000000 -18.015579 23.466526 875.238953
4.880000 0.840000 -4.960000 -22.173189 19.026329 853.651489
4.880000 0.840000 -4.920000 -27.824699 11.363449 903.341858
4.880000 0.840000 -4.880000 -29.431097 -2.753908 873.773438
4.880000 0.840000 -4.840000 -19.836529 -18.170822 723.666626
4.880000 0.840000 -4.800000 -0.086931 -23.809715 566.910095
4.880000 0.880000 -5.200000 5.525257 15.234683 262.624023
4.880000 0.880000 -5.160000 13.087551 29.249367 1026.809448
4.880000 0.880000 -5.120000 6.558212 51.488678 2694.094238
4.880000 0.880000 -5.080000 -18.683643 67.497360 4904.972168
4.880000 0.880000 -5.040000 -53.729782 63.039879 6860.916016
4.880000 0.880000 -5.000000 -80.774124 35.010372 7750.185059
4.880000 0.880000 -4.960000 -84.719559 -5.217186 7204.623047
4.880000 0.880000 -4.920000 -63.315010 -38.590034 5497.981445
4.880000 0.880000 -4.880000 -28.490395 -50.484261 3360.363281
4.880000 0.880000 -4.840000 1.787123 -39.388954 1554.683594
4.880000 0.880000 -4.800000 15.021276 -16.405165 494.768127
4.880000 0.920000 -5.200000 -2.242060 7.885306 67.204880
4.880000 0.920000 -5.160000 5.904755 34.893944 1252.453369
4.880000 0.920000 -5.120000 -16.683804 69.039581 5044.812988
4.880000 0.920000 -5.080000 -69.250923 78.894150 11019.977539
4.880000 0.920000 -5.040000 -122.747818 43.891861 16993.521484
4.880000 0.920000 -5.000000 -139.892075 -24.725395 20181.138672
4.880000 0.920000 -4.960000 -105.327950 -88.886139 18994.722656
4.880000 0.920000 -4.920000 -39.189930 -112.120193 14106.788086
4.880000 0.920000 -4.880000 18.504868 -87.171181 7941.245117
4.880000 0.920000 -4.840000 38.878002 -39.035347 3035.257324
4.880000 0.920000 -4.800000 23.576847 -2.152383 560.500488
4.880000 0.960000 -5.200000 -0.751377 -2.794616 8.374447
4.880000 0.960000 -5.160000 -6.118410 36.078102 1339.064331
4.880000 0.960000 -5.120000 -54.361416 63.226326 6952.731934
4.880000 0.960000 -5.080000 -122.279388 40.289604 16575.501953
4.880000 0.960000 -5.040000 -159.438049 -36.662609 26764.638672
4.880000 0.960000 -5.000000 -129.450256 -126.161285 32674.039062
4.880000 0.960000 -4.960000 -43.554390 -171.299957 31240.660156
4.880000 0.960000 -4.920000 45.806046 -145.640213 23309.265625
4.880000 0.960000 -4.880000 86.902786 -73.660370 12977.944336
4.880000 0.960000 -4.840000 68.379761 -7.791835 4736.504395
4.880000 0.960000 -4.800000 21.985411 15.456897 722.273926
4.880000 1.000000 -5.200000 8.874893 -7.362816 132.974792
4.880000 1.000000 -5.160000 -18.355986 29.417025 1202.303467
4.880000 1.000000 -5.120000 -81.151077 28.402235 7392.184570
4.880000 1.000000 -5.080000 -132.514587 -33.608055 18689.617188
4.880000 1.000000 -5.040000 -120.827744 -128.548462 31124.050781
4.880000 1.000000 -5.000000 -37.460217 -193.254486 38750.566406
4.880000 1.000000 -4.960000 70.244522 -180.659058 37571.988281
4.880000 1.000000 -4.920000 135.511078 -99.830383 28329.357422
4.880000 1.000000 -4.880000 125.863121 -7.660044 15900.201172
4.880000 1.000000 -4.840000 65.413567 39.513123 5840.221680
4.880000 1.000000 -4.800000 7.852017 29.090286 907.898926
4.880000 1.040000 -5.200000 17.682404 -1.746084 315.716187
4.880000 1.040000 -5.160000 -25.056419 16.381378 896.173706
4.880000 1.040000 -5.120000 -77.151085 -17.307051 6251.824219
4.880000 1.040000 -5.080000 -85.984222 -95.584183 16529.623047
4.880000 1.040000 -5.040000 -24.664192 -165.881454 28124.978516
4.880000 1.040000 -5.000000 78.034714 -171.435242 35479.460938
4.880000 1.040000 -4.960000 156.757278 -100.842216 34741.996094
4.880000 1.040000 -4.920000 162.633224 0.468525 26449.785156
4.880000 1.040000 -4.880000 102.009048 68.141418 15049.098633
4.880000 1.040000 -4.840000 26.350176 70.757935 5701.017578
4.880000 1.040000 -4.800000 -14.297817 28.730286 1029.856934
4.880000 1.080000 -5.200000 17.504059 8.410721 377.132324
4.880000 1.080000 -5.160000 -23.459166 2.050232 554.535889
4.880000 1.080000 -5.120000 -45.088577 -47.345230 4274.550781
4.880000 1.080000 -5.080000 -12.877769 -107.052055 11625.979492
4.880000 1.080000 -5.040000 65.136749 -125.380981 19963.187500
4.880000 1.080000 -5.000000 139.060425 -77.007004 25267.878906
4.880000 1.080000 -4.960000 157.016159 12.156265 24801.849609
4.880000 1.080000 -4.920000 108.416702 85.019203 18982.447266
4.880000 1.080000 -4.880000 30.926933 100.084290 10973.340820
4.880000 1.080000 -4.840000 -23.621429 61.949097 4395.662598
4.880000 1.080000 -4.800000 -30.909624 10.064733 1056.703735
4.880000 1.120000 -5.200000 9.075983 13.284508 258.851624
4.880000 1.120000 -5.160000 -14.958543 -8.481956 295.701599
4.880000 1.120000 -5.120000 -6.473421 -48.614143 2405.240234
4.880000 1.120000 -5.080000 40.194912 -69.756958 6481.664062
4.880000 1.120000 -5.040000 94.930130 -44.041977 10951.424805
4.880000 1.120000 -5.000000 115.182701 19.556725 13649.520508
4.880000 1.120000 -4.960000 82.524582 80.254868 13251.150391
4.880000 1.120000 -4.920000 18.427193 98.990112 10138.603516
4.880000 1.120000 -4.880000 -34.792389 69.439087 6032.296875
4.880000 1.120000 -4.840000 -48.762383 19.046701 2740.546875
4.880000 1.120000 -4.800000 -27.579580 -17.618908 1071.059082
4.880000 1.160000 -5.200000 1.125159 8.726430 77.416565
4.880000 1.160000 -5.160000 -3.308983 -12.585670 169.348465
4.880000 1.160000 -5.120000 17.774151 -29.261721 1172.168701
4.880000 1.160000 -5.080000 49.785107 -18.969233 2838.388672
4.880000 1.160000 -5.040000 64.136749 18.285568 4447.884277
4.880000 1.160000 -5.000000 43.856358 57.731377 5256.291992
4.880000 1.160000 -4.960000 -0.547516 70.490761 4969.247070
4.880000 1.160000 -4.920000 -39.890564 47.901264 3885.788086
4.880000 1.160000 -4.880000 -50.737991 7.111229 2624.913330
4.880000 1.160000 -4.840000 -32.349682 -25.353703 1689.312256
4.880000 1.160000 -4.800000 -2.452217 -34.809120 1217.688232
4.880000 1.200000 -5.200000 1.310688 0.196494 1.756513
4.880000 1.200000 -5.160000 7.572482 -10.216510 161.719559
4.880000 1.200000 -5.120000 22.534462 -7.365528 562.052979
4.880000 1.200000 -5.080000 29.220221 11.259102 980.588684
4.880000 1.200000 -5.040000 15.938517 31.507500 1246.758789
4.880000 1.200000 -5.000000 -11.465168 34.919491 1350.820923
4.880000 1.200000 -4.960000 -33.930588 15.688670 1397.419189
4.880000 1.200000 -4.920000 -35.666077 -14.228813 1474.528076
4.880000 1.200000 -4.880000 -16.710794 -35.955498 1572.048462
4.880000 1.200000 -4.840000 9.443607 -39.037796 1613.131226
4.880000 1.200000 -4.800000 28.744175 -26.892508 1549.434570
4.920000 0.800000 -5.200000 17.734221 37.014935 1684.607910
4.920000 0.800000 -5.160000 -7.104214 46.829109 2243.435547
4.920000 0.800000 -5.120000 -34.817322 32.835426 2290.411133
4.920000 0.800000 -5.080000 -42.428780 0.977871 1801.157471
4.920000 0.800000 -5.040000 -22.504944 -23.892971 1077.346558
4.920000 0.800000 -5.000000 6.534851 -21.504391 505.143097
4.920000 0.800000 -4.960000 17.042667 2.444176 296.426514
4.920000 0.800000 -4.920000 0.011255 20.719982 429.317780
4.920000 0.800000 -4.880000 -25.099995 11.865360 770.796509
4.920000 0.800000 -4.840000 -29.803017 -17.620190 1198.690918
4.920000 0.800000 -4.800000 -5.650236 -39.607677 1600.693237
4.920000 0.840000 -5.200000 -4.212574 37.004185 1387.055420
4.920000 0.840000 -5.160000 -16.345118 38.956764 1784.792358
4.920000 0.840000 -5.120000 -28.356743 34.298290 1980.477539
4.920000 0.840000 -5.080000 -35.886723 25.511208 1938.678467
4.920000 0.840000 -5.040000 -39.346390 17.173981 1843.083984
4.920000 0.840000 -5.000000 -42.766205 9.852768 1926.025269
4.920000 0.840000 -4.960000 -47.097694 -0.937065 2219.071045
4.920000 0.840000 -4.920000 -46.486820 -18.149521 2490.429443
4.920000 0.840000 -4.880000 -33.531902 -36.343979 2445.273193
4.920000 0.840000 -4.840000 -8.948486 -43.777641 1996.557373
4.920000 0.840000 -4.800000 15.477700 -33.136959 1337.617310
4.920000 0.880000 -5.200000 -19.178980 21.061132 811.404541
4.920000 0.880000 -5.160000 -19.766598 33.528709 1514.892700
4.920000 0.880000 -5.120000 -37.755100 48.789219 3805.835449
4.920000 0.880000 -5.080000 -72.375877 48.076889 7549.654785
4.920000 0.880000 -5.040000 -105.739212 19.111107 11546.015625
4.920000 0.880000 -5.000000 -114.572090 -31.191132 14099.650391
4.920000 0.880000 -4.960000 -88.315506 -78.898079 14024.535156
4.920000 0.880000 -4.920000 -38.421417 -99.479912 11372.458008
4.920000 0.880000 -4.880000 9.323975 -85.330559 7368.240723
4.920000 0.880000 -4.840000 33.225346 -50.082878 3612.218262
4.920000 0.880000 -4.800000 29.720339 -16.894197 1168.712402
4.920000 0.920000 -5.200000 -17.076885 0.324051 291.725006
4.920000 0.920000 -5.160000 -24.145542 31.536856 1577.580444
4.920000 0.920000 -5.120000 -69.638931 51.094891 7460.268555
4.920000 0.920000 -5.080000 -131.291977 23.609253 17794.980469
4.920000 0.920000 -5.040000 -161.708069 -53.405632 29001.662109
4.920000 0.920000 -5.000000 -127.607933 -139.886627 35852.050781
4.920000 0.920000 -4.960000 -40.970509 -182.137100 34852.503906
4.920000 0.920000 -4.920000 47.862194 -155.999420 26626.607422
4.920000 0.920000 -4.880000 90.019958 -85.392960 15395.550781
4.920000 0.920000 -4.840000 75.068459 -20.104343 6039.458008
4.920000 0.920000 -4.800000 33.004669 5.449464 1119.004883
4.920000 0.960000 -5.200000 -0.830532 -10.209043 104.914330
4.920000 0.960000 -5.160000 -32.248287 27.475727 1794.867676
4.920000 0.960000 -5.120000 -102.889130 21.797440 11061.300781
4.920000 0.960000 -5.080000 -158.473663 -53.310181 27955.876953
4.920000 0.960000 -5.040000 -139.948578 -164.369049 46602.789062
4.920000 0.960000 -5.000000 -38.841457 -237.892059 58101.292969
4.920000 0.960000 -4.960000 88.531494 -220.361115 56396.843750
4.920000 0.960000 -4.920000 164.665466 -124.176735 42534.578125
4.920000 0.960000 -4.880000 153.450790 -16.479849 23818.730469
4.920000 0.960000 -4.840000 84.732368 38.137466 8634.041016
4.920000 0.960000 -4.800000 21.148022 27.224566 1188.415771
4.920000 1.000000 -5.200000 15.933239 -4.071136 270.442261
4.920000 1.000000 -5.160000 -39.675831 16.756195 1854.941650
4.920000 1.000000 -5.120000 -107.597672 -30.305170 12495.662109
4.920000 1.000000 -5.080000 -117.746307 -136.753540 32565.724609
4.920000 1.000000 -5.040000 -33.265987 -232.475433 55151.453125
4.920000 1.000000 -5.000000 107.610199 -240.482025 69411.562500
4.920000 1.000000 -4.960000 216.318878 -144.782623 67755.859375
4.920000 1.000000 -4.920000 226.233643 -6.959849 51230.101562
4.920000 1.000000 -4.880000 146.142426 85.407700 28652.083984
4.920000 1.000000 -4.840000 46.540058 90.178818 10298.196289
4.920000 1.000000 -4.800000 -4.913013 36.610569 1364.471436
4.920000 1.040000 -5.200000 20.523148 11.752583 559.322754
4.920000 1.040000 -5.160000 -39.816261 1.499969 1587.584595
4.920000 1.040000 -5.120000 -74.190231 -73.904030 10965.996094
4.920000 1.040000 -5.080000 -27.490425 -168.929871 29293.023438
4.920000 1.040000 -5.040000 93.286079 -204.024445 50328.265625
4.920000 1.040000 -5.000000 213.830688 -135.124100 63982.085938
4.920000 1.040000 -4.960000 250.981857 2.672066 62999.035156
4.920000 1.040000 -4.920000 182.798752 121.147751 48092.160156
4.920000 1.040000 -4.880000 64.941010 151.920425 27297.152344
4.920000 1.040000 -4.840000 -20.407682 98.702255 10158.608398
4.920000 1.040000 -4.800000 -32.806461 23.249622 1616.808838
4.920000 1.080000 -5.200000 11.468794 23.788195 697.411499
4.920000 1.080000 -5.160000 -30.888100 -11.152054 1078.442993
4.920000 1.080000 -5.120000 -22.966457 -83.190369 7448.095215
4.920000 1.080000 -5.080000 54.721855 -131.789230 20362.882812
4.920000 1.080000 -5.040000 158.851074 -101.056412 35446.062500
4.920000 1.080000 -5.000000 213.208984 5.971573 45493.730469
4.920000 1.080000 -4.960000 173.289062 123.329140 45239.175781
4.920000 1.080000 -4.920000 65.515800 175.349960 35039.929688
4.920000 1.080000 -4.880000 -35.979145 138.477432 20470.498047
4.920000 1.080000 -4.840000 -72.183144 55.093151 8245.662109
4.920000 1.080000 -4.800000 -42.609020 -9.612003 1907.919189
4.920000 1.120000 -5.200000 -1.782143 24.025246 580.388428
4.920000 1.120000 -5.160000 -17.663555 -15.657766 557.166870
4.920000 1.120000 -5.120000 14.826717 -59.661942 3779.378906
4.920000 1.120000 -5.080000 83.241608 -60.041199 10534.110352
4.920000 1.120000 -5.040000 135.970276 1.473030 18490.085938
4.920000 1.120000 -5.000000 124.995331 90.843163 23876.312500
4.920000 1.120000 -4.960000 49.565437 146.702393 23978.324219
4.920000 1.120000 -4.920000 -41.108006 131.532761 18990.734375
4.920000 1.120000 -4.880000 -89.062103 61.677628 11736.187500
4.920000 1.120000 -4.840000 -73.887024 -10.272291 5564.812500
4.920000 1.120000 -4.800000 -22.523041 -41.365921 2218.426758
4.920000 1.160000 -5.200000 -8.651793 15.698485 321.295959
4.920000 1.160000 -5.160000 -6.865740 -12.419256 201.376312
4.920000 1.160000 -5.120000 24.025396 -27.097813 1311.511108
4.920000 1.160000 -5.080000 60.129826 -5.585804 3646.797119
4.920000 1.160000 -5.040000 66.289131 43.929031 6324.008789
4.920000 1.160000 -5.000000 28.429947 85.443344 8108.826660
4.920000 1.160000 -4.960000 -31.384636 85.182144 8240.993164
4.920000 1.160000 -4.920000 -72.355278 40.882233 6906.643066
4.920000 1.160000 -4.880000 -68.657333 -16.851006 4997.786133
4.920000 1.160000 -4.840000 -28.436640 -51.114910 3421.376465
4.920000 1.160000 -4.800000 17.368195 -47.338753 2542.611816
4.920000 1.200000 -5.200000 -6.818534 8.218948 114.043518
4.920000 1.200000 -5.160000 -1.776134 -6.112959 40.522919
4.920000 1.200000 -5.120000 14.063408 -7.533268 254.529556
4.920000 1.200000 -5.080000 23.504570 8.133827 618.623901
4.920000 1.200000 -5.040000 13.170628 27.468945 928.008362
4.920000 1.200000 -5.000000 -12.537224 30.783684 1104.817139
4.920000 1.200000 -4.960000 -33.886349 10.348972 1255.385864
4.920000 1.200000 -4.920000 -32.611454 -21.911789 1543.633423
4.920000 1.200000 -4.880000 -7.300865 -44.252567 2011.592285
4.920000 1.200000 -4.840000 26.400311 -42.647938 2515.822998
4.920000 1.200000 -4.800000 49.325726 -20.074493 2836.012451
4.960000 0.800000 -5.200000 -10.288406 53.988411 3020.599854
4.960000 0.800000 -5.160000 -44.055805 42.496059 3746.829102
4.960000 0.800000 -5.120000 -60.470795 6.588081 3700.119873
4.960000 0.800000 -5.080000 -44.355911 -29.946630 2864.247559
4.960000 0.800000 -5.040000 -8.390991 -39.633522 1641.224731
4.960000 0.800000 -5.000000 16.340622 -18.435287 606.875732
4.960000 0.800000 -4.960000 10.001270 8.945702 180.050980
4.960000 0.800000 -4.920000 -16.188591 12.943756 429.611267
4.960000 0.800000 -4.880000 -31.195969 -11.330046 1101.558350
4.960000 0.800000 -4.840000 -15.597397 -39.406868 1796.180054
4.960000 0.800000 -4.800000 19.018414 -42.493587 2167.405029
4.960000 0.840000 -5.200000 -36.128490 34.925545 2525.061523
4.960000 0.840000 -5.160000 -49.438595 22.934765 2970.177979
4.960000 0.840000 -5.120000 -54.797367 6.462673 3044.517578
4.960000 0.840000 -5.080000 -52.388756 -7.886349 2806.776367
4.960000 0.840000 -5.040000 -47.737797 -17.227127 2575.671143
4.960000 0.840000 -5.000000 -45.074600 -25.423935 2678.096191
4.960000 0.840000 -4.960000 -41.367195 -37.789379 3139.282227
4.960000 0.840000 -4.920000 -28.926979 -52.662231 3610.080566
4.960000 0.840000 -4.880000 -5.134186 -60.035107 3630.573975
4.960000 0.840000 -4.840000 21.308331 -50.504410 3004.740234
4.960000 0.840000 -4.800000 35.762135 -26.029821 1956.481934
4.960000 0.880000 -5.200000 -39.256912 4.255657 1559.215698
4.960000 0.880000 -5.160000 -45.500462 11.100348 2193.509766
4.960000 0.880000 -5.120000 -68.138962 11.559162 4776.532227
4.960000 0.880000 -5.080000 -96.081512 -11.279602 9358.886719
4.960000 0.880000 -5.040000 -105.720940 -58.134460 14556.532227
4.960000 0.880000 -5.000000 -80.111206 -108.350327 18157.597656
4.960000 0.880000 -4.960000 -24.964447 -133.460266 18434.867188
4.960000 0.880000 -4.920000 33.282410 -118.871521 15238.157227
4.960000 0.880000 -4.880000 66.483383 -75.084274 10057.688477
4.960000 0.880000 -4.840000 64.819809 -28.948833 5039.642578
4.960000 0.880000 -4.800000 41.286034 -2.997858 1713.523804
4.960000 0.920000 -5.200000 -19.784739 -16.332949 658.201050
4.960000 0.920000 -5.160000 -43.294220 6.649819 1918.609619
4.960000 0.920000 -5.120000 -95.091690 -4.362068 9061.457031
4.960000 0.920000 -5.080000 -132.195129 -68.403778 22154.628906
4.960000 0.920000 -5.040000 -109.176483 -157.507629 36728.156250
4.960000 0.920000 -5.000000 -21.417564 -213.274170 45944.582031
4.960000 0.920000 -4.960000 84.882919 -194.496063 45033.828125
4.960000 0.920000 -4.920000 147.958054 -112.620514 34574.964844
4.960000 0.920000 -4.880000 139.733643 -21.979916 20008.607422
4.960000 0.920000 -4.840000 84.565430 25.796446 7816.768555
4.960000 0.920000 -4.800000 32.640507 20.754490 1496.151611
4.960000 0.960000 -5.200000 5.490038 -14.442150 238.716217
4.960000 0.960000 -5.160000 -45.885826 1.042725 2106.596191
4.960000 0.960000 -5.120000 -106.810287 -48.557610 13766.279297
4.960000 0.960000 -5.080000 -109.582443 -153.156097 35465.101562
4.960000 0.960000 -5.040000 -20.501816 -243.385193 59656.675781
4.960000 0.960000 -5.000000 120.553474 -245.294235 74702.406250
4.960000 0.960000 -4.960000 226.309387 -146.155380 72577.328125
4.960000 0.960000 -4.920000 233.438690 -8.568111 54567.035156
4.960000 0.960000 -4.880000 153.465424 81.841896 30249.732422
4.960000 0.960000 -4.840000 56.958092 86.207840 10676.015625
4.960000 0.960000 -4.800000 9.067837 35.808228 1364.454834
4.960000 1.000000 -5.200000 17.919029 4.210148 338.816956
4.960000 1.000000 -5.160000 -46.704422 -10.597534 2293.610596
4.960000 1.000000 -5.120000 -80.653091 -97.232391 15959.058594
4.960000 1.000000 -5.080000 -22.630814 -203.490585 41920.570312
4.960000 1.000000 -5.040000 117.788498 -239.441910 71206.562500
4.960000 1.000000 -5.000000 255.102768 -156.715271 89637.093750
4.960000 1.000000 -4.960000 295.424561 2.622194 87282.546875
4.960000 1.000000 -4.920000 216.124466 137.334442 65570.531250
4.960000 1.000000 -4.880000 82.847946 171.157303 36158.605469
4.960000 1.000000 -4.840000 -10.813305 111.475876 12543.798828
4.960000 1.000000 -4.800000 -21.747349 30.778160 1420.242310
4.960000 1.040000 -5.200000 11.733568 22.942455 664.032898
4.960000 1.040000 -5.160000 -38.890602 -23.480513 2063.813477
4.960000 1.040000 -5.120000 -25.253237 -116.374397 14180.725586
4.960000 1.040000 -5.080000 78.089142 -178.364243 37911.718750
4.960000 1.040000 -5.040000 215.474670 -137.014542 65202.316406
4.960000 1.040000 -5.000000 287.851807 4.042257 82875.000000
4.960000 1.040000 -4.960000 237.038544 158.861847 81424.359375
4.960000 1.040000 -4.920000 97.688080 228.647308 61822.550781
4.960000 1.040000 -4.880000 -33.069458 183.254379 34675.757812
4.960000 1.040000 -4.840000 -78.922974 79.364494 12527.558594
4.960000 1.040000 -4.800000 -41.797943 2.461349 1753.126221
4.960000 1.080000 -5.200000 -4.122853 29.161800 867.408508
4.960000 1.080000 -5.160000 -24.140728 -28.838526 1414.435303
4.960000 1.080000 -5.120000 25.656029 -94.020721 9498.127930
4.960000 1.080000 -5.080000 129.931625 -95.894493 26077.980469
4.960000 1.080000 -5.040000 213.644684 -4.444836 45663.808594
4.960000 1.080000 -5.000000 203.210663 132.600189 58877.382812
4.960000 1.080000 -4.960000 93.742577 223.428772 58708.089844
4.960000 1.080000 -4.920000 -43.018314 208.897507 45488.742188
4.960000 1.080000 -4.880000 -119.144028 110.874260 26488.402344
4.960000 1.080000 -4.840000 -102.401413 7.978083 10549.699219
4.960000 1.080000 -4.800000 -33.538490 -34.865677 2340.445801
4.960000 1.120000 -5.200000 -16.637714 23.060656 808.607361
4.960000 1.120000 -5.160000 -11.292059 -23.912405 699.313721
4.960000 1.120000 -5.120000 44.036507 -50.627792 4502.387207
4.960000 1.120000 -5.080000 112.708725 -15.040119 12929.461914
4.960000 1.120000 -5.040000 132.881073 74.789673 23250.875000
4.960000 1.120000 -5.000000 73.389877 158.742950 30585.398438
4.960000 1.120000 -4.960000 -33.543427 173.336243 31170.615234
4.960000 1.120000 -4.920000 -116.536049 106.830414 24993.386719
4.960000 1.120000 -4.880000 -124.696884 8.635406 15623.882812
4.960000 1.120000 -4.840000 -67.011765 -54.860302 7500.229492
4.960000 1.120000 -4.800000 3.030215 -54.774967 3009.479248
4.960000 1.160000 -5.200000 -20.252790 13.555211 593.919250
4.960000 1.160000 -5.160000 -7.070440 -14.814781 269.468872
4.960000 1.160000 -5.120000 31.029387 -18.110783 1290.823242
4.960000 1.160000 -5.080000 60.214615 18.580467 3971.033691
4.960000 1.160000 -5.040000 46.276871 72.581558 7409.631348
4.960000 1.160000 -5.000000 -11.061462 99.379005 9998.541992
4.960000 1.160000 -4.960000 -73.416962 71.829926 10549.587891
4.960000 1.160000 -4.920000 -95.219879 5.645477 9098.696289
4.960000 1.160000 -4.880000 -62.275654 -53.481792 6738.559082
4.960000 1.160000 -4.840000 -1.591135 -68.542786 4700.645020
4.960000 1.160000 -4.800000 44.658775 -39.061340 3520.194580
4.960000 1.200000 -5.200000 -18.834152 7.769685 415.093292
4.960000 1.200000 -5.160000 -9.777346 -9.816895 191.967926
4.960000 1.200000 -5.120000 10.604263 -10.780888 228.677948
4.960000 1.200000 -5.080000 21.665977 7.739100 529.308228
4.960000 1.200000 -5.040000 9.477814 28.284798 889.858765
4.960000 1.200000 -5.000000 -17.886223 28.482838 1131.188965
4.960000 1.200000 -4.960000 -35.942520 2.751839 1299.437378
4.960000 1.200000 -4.920000 -25.664812 -31.019363 1620.883545
4.960000 1.200000 -4.880000 9.217640 -46.521351 2249.200928
4.960000 1.200000 -4.840000 45.587311 -31.315807 3058.882812
4.960000 1.200000 -4.800000 60.643208 4.281601 3695.930664
5.000000 0.800000 -5.200000 -41.274837 42.336849 3496.020996
5.000000 0.800000 -5.160000 -64.974480 10.792622 4338.163574
5.000000 0.800000 -5.120000 -58.453873 -31.881226 4433.267578
5.000000 0.800000 -5.080000 -22.669052 -56.080303 3658.886475
5.000000 0.800000 -5.040000 15.634053 -45.292171 2295.804443
5.000000 0.800000 -5.000000 27.389437 -13.309753 927.330811
5.000000 0.800000 -4.960000 8.943718 8.032318 144.508224
5.000000 0.800000 -4.920000 -14.715263 -0.323326 216.643509
5.000000 0.800000 -4.880000 -15.320457 -26.428108 933.161316
5.000000 0.800000 -4.840000 10.384742 -40.415176 1741.229370
5.000000 0.800000 -4.800000 38.304977 -25.236528 2104.153564
5.000000 0.840000 -5.200000 -54.325291 8.633036 3025.766602
5.000000 0.840000 -5.160000 -58.795475 -12.583092 3615.242188
5.000000 0.840000 -5.120000 -51.802761 -33.094307 3778.759277
5.000000 0.840000 -5.080000 -37.362690 -45.756104 3489.591797
5.000000 0.840000 -5.040000 -23.265167 -49.915436 3032.818848
5.000000 0.840000 -5.000000 -13.192596 -51.330673 2808.882812
5.000000 0.840000 -4.960000 -3.280380 -54.657066 2998.156006
5.000000 0.840000 -4.920000 12.233620 -56.815884 3377.706055
5.000000 0.840000 -4.880000 32.031532 -49.577106 3483.908447
5.000000 0.840000 -4.840000 46.083847 -29.489025 2993.323486
5.000000 0.840000 -4.800000 44.470367 -4.342188 1996.468140
5.000000 0.880000 -5.200000 -38.635460 -21.645767 1961.238037
5.000000 0.880000 -5.160000 -46.074574 -22.402506 2624.738525
5.000000 0.880000 -5.120000 -61.381218 -36.961353 5133.795410
5.000000 0.880000 -5.080000 -66.580109 -71.173973 9498.644531
5.000000 0.880000 -5.040000 -44.120064 -111.543015 14388.423828
5.000000 0.880000 -5.000000 5.877953 -132.964539 17714.119141
5.000000 0.880000 -4.960000 62.165329 -118.309814 17861.740234
5.000000 0.880000 -4.920000 96.905899 -72.953407 14712.953125
5.000000 0.880000 -4.880000 96.159683 -21.336441 9701.928711
5.000000 0.880000 -4.840000 68.961136 11.441217 4886.539551
5.000000 0.880000 -4.800000 38.013222 17.088966 1737.037842
5.000000 0.920000 -5.200000 -8.734056 -28.624039 895.619324
5.000000 0.920000 -5.160000 -38.898781 -24.096371 2093.750244
5.000000 0.920000 -5.120000 -72.084305 -62.331631 9081.378906
5.000000 0.920000 -5.080000 -63.294159 -133.678558 21876.107422
5.000000 0.920000 -5.040000 7.084114 -189.765259 36061.035156
5.000000 0.920000 -5.000000 108.660110 -182.010056 44934.679688
5.000000 0.920000 -4.960000 181.095581 -105.164459 43855.171875
5.000000 0.920000 -4.920000 182.839172 -4.524384 33450.632812
5.000000 0.920000 -4.880000 124.146301 60.962502 19128.730469
5.000000 0.920000 -4.840000 54.684387 65.696365 7306.394531
5.000000 0.920000 -4.800000 19.268196 32.128250 1403.487793
5.000000 0.960000 -5.200000 12.489227 -12.394892 309.614136
5.000000 0.960000 -5.160000 -36.876198 -28.244772 2157.621094
5.000000 0.960000 -5.120000 -57.566345 -102.116806 13741.725586
5.000000 0.960000 -5.080000 -0.247055 -187.601181 35194.265625
5.000000 0.960000 -5.040000 123.034164 -209.305969 58946.394531
5.000000 0.960000 -5.000000 237.783615 -130.113235 73470.500000
5.000000 0.960000 -4.960000 266.150177 10.176464 70939.476562
5.000000 0.960000 -4.920000 193.186142 124.494568 52819.785156
5.000000 0.960000 -4.880000 77.942322 150.609222 28758.144531
5.000000 0.960000 -4.840000 -0.100239 98.698730 9741.449219
5.000000 0.960000 -4.800000 -7.292139 32.497013 1109.231201
5.000000 1.000000 -5.200000 13.086711 10.342834 278.236237
5.000000 1.000000 -5.160000 -31.150677 -36.894409 2331.562012
5.000000 1.000000 -5.120000 -10.895348 -126.225250 16051.522461
5.000000 1.000000 -5.080000 95.724960 -180.860535 41873.800781
5.000000 1.000000 -5.040000 230.966934 -131.888885 70740.406250
5.000000 1.000000 -5.000000 297.277466 12.904106 88540.406250
5.000000 1.000000 -4.960000 240.837570 166.067474 85581.140625
5.000000 1.000000 -4.920000 100.292297 231.355103 63583.726562
5.000000 1.000000 -4.880000 -26.791786 183.456131 34373.953125
5.000000 1.000000 -4.840000 -67.738899 82.443863 11385.548828
5.000000 1.000000 -4.800000 -29.576080 13.053623 1045.141602
5.000000 1.040000 -5.200000 -1.198051 22.878464 524.859436
5.000000 1.040000 -5.160000 -17.615574 -41.929726 2068.410400
5.000000 1.040000 -5.120000 43.684830 -111.081741 14247.517578
5.000000 1.040000 -5.080000 162.923584 -106.483932 37882.921875
5.000000 1.040000 -5.040000 254.664520 2.639946 64860.988281
5.000000 1.040000 -5.000000 237.820541 159.604065 82032.062500
5.000000 1.040000 -4.960000 110.518707 260.474121 80061.148438
5.000000 1.040000 -4.920000 -43.621315 241.395950 60174.824219
5.000000 1.040000 -4.880000 -126.246506 131.238556 33161.738281
5.000000 1.040000 -4.840000 -105.344276 20.686371 11525.342773
5.000000 1.040000 -4.800000 -31.650919 -19.669004 1388.650391
5.000000 1.080000 -5.200000 -16.460840 21.293991 724.393311
5.000000 1.080000 -5.160000 -3.203424 -36.147629 1316.913086
5.000000 1.080000 -5.120000 71.710709 -64.502716 9303.026367
5.000000 1.080000 -5.080000 159.958282 -11.889027 25728.001953
5.000000 1.080000 -5.040000 182.496765 108.848885 45153.148438
5.000000 1.080000 -5.000000 101.358078 218.916260 58197.789062
5.000000 1.080000 -4.960000 -39.432327 237.282898 57858.082031
5.000000 1.080000 -4.920000 -146.986557 151.483429 44552.277344
5.000000 1.080000 -4.880000 -157.748108 27.697599 25651.621094
5.000000 1.080000 -4.840000 -87.194710 -48.974957 10001.463867
5.000000 1.080000 -4.800000 -6.616147 -45.648136 2127.525879
5.000000 1.120000 -5.200000 -24.347305 12.840906 757.680115
5.000000 1.120000 -5.160000 1.742286 -23.155231 539.200317
5.000000 1.120000 -5.120000 60.630775 -19.302341 4048.671143
5.000000 1.120000 -5.080000 101.543060 43.828484 12231.928711
5.000000 1.120000 -5.040000 74.725739 130.125214 22516.505859
5.000000 1.120000 -5.000000 -17.945541 172.251770 29992.714844
5.000000 1.120000 -4.960000 -117.065582 130.574890 30754.152344
5.000000 1.120000 -4.920000 -154.147385 30.646683 24700.634766
5.000000 1.120000 -4.880000 -109.783073 -58.037376 15420.660156
5.000000 1.120000 -4.840000 -26.641964 -81.748573 7392.623535
5.000000 1.120000 -4.800000 32.619053 -43.774162 2980.179688
5.000000 1.160000 -5.200000 -26.374943 5.106339 721.712341
5.000000 1.160000 -5.160000 -4.464630 -14.393366 227.101898
5.000000 1.160000 -5.120000 29.837746 -2.537441 896.729675
5.000000 1.160000 -5.080000 40.379402 41.023552 3313.427734
5.000000 1.160000 -5.040000 5.524422 81.999977 6754.515137
5.000000 1.160000 -5.000000 -56.195820 80.049088 9565.826172
5.000000 1.160000 -4.960000 -98.101562 27.341492 10371.474609
5.000000 1.160000 -4.920000 -85.862167 -41.203064 9070.004883
5.000000 1.160000 -4.880000 -27.918921 -77.299080 6754.614258
5.000000 1.160000 -4.840000 33.151993 -60.217052 4725.148438
5.000000 1.160000 -4.800000 58.552795 -10.709892 3543.131836
5.000000 1.200000 -5.200000 -27.301588 -1.170546 746.746887
5.000000 1.200000 -5.160000 -12.456857 -16.907373 441.032562
5.000000 1.200000 -5.120000 9.428116 -12.470678 244.407196
5.000000 1.200000 -5.080000 16.422379 9.132196 353.091522
5.000000 1.200000 -5.040000 -0.299789 26.052406 678.817688
5.000000 1.200000 -5.000000 -25.545355 18.494141 994.598389
5.000000 1.200000 -4.960000 -33.199471 -10.762207 1218.029907
5.000000 1.200000 -4.920000 -11.098278 -37.256680 1511.231934
5.000000 1.200000 -4.880000 26.894730 -36.794590 2077.168213
5.000000 1.200000 -4.840000 53.160339 -6.921034 2873.922363
5.000000 1.200000 -4.800000 50.244240 32.255943 3564.929688
5.040000 0.800000 -5.200000 -51.229576 12.729397 2786.507080
5.040000 0.800000 -5.160000 -55.113102 -24.162964 3621.302979
5.040000 0.800000 -5.120000 -29.428659 -56.442642 4051.817871
5.040000 0.800000 -5.080000 12.349176 -60.472099 3809.376953
5.040000 0.800000 -5.040000 41.326035 -33.918083 2858.277588
5.040000 0.800000 -5.000000 39.103081 0.016308 1529.051147
5.040000 0.800000 -4.960000 15.099823 13.611739 413.284119
5.040000 0.800000 -4.920000 -3.086025 0.667507 9.969118
5.040000 0.800000 -4.880000 2.872938 -18.926380 366.461639
5.040000 0.800000 -4.840000 24.716999 -20.605778 1035.528076
5.040000 0.800000 -4.800000 37.719673 -0.249473 1422.836060
5.040000 0.840000 -5.200000 -46.009644 -20.176603 2523.982422
5.040000 0.840000 -5.160000 -39.361359 -41.177490 3244.902344
5.040000 0.840000 -5.120000 -21.227446 -56.932846 3691.953369
5.040000 0.840000 -5.080000 2.060680 -60.318447 3642.561279
5.040000 0.840000 -5.040000 20.766418 -52.109020 3146.594238
5.040000 0.840000 -5.000000 30.302910 -40.089119 2525.403809
5.040000 0.840000 -4.960000 34.358650 -30.921602 2136.662354
5.040000 0.840000 -4.920000 38.979401 -23.804882 2086.066162
5.040000 0.840000 -4.880000 44.414886 -13.212765 2147.259277
5.040000 0.840000 -4.840000 44.363037 2.464354 1974.152100
5.040000 0.840000 -4.800000 33.878582 16.629854 1424.310303
5.040000 0.880000 -5.200000 -19.681528 -36.557537 1723.816040
5.040000 0.880000 -5.160000 -23.446621 -43.705193 2459.887695
5.040000 0.880000 -5.120000 -22.744009 -63.727539 4578.489258
5.040000 0.880000 -5.080000 -3.636105 -88.689667 7879.078125
5.040000 0.880000 -5.040000 35.502823 -100.046265 11269.705078
5.040000 0.880000 -5.000000 79.335663 -83.615372 13285.677734
5.040000 0.880000 -4.960000 105.624588 -42.365231 12951.366211
5.040000 0.880000 -4.920000 101.793404 4.453613 10381.732422
5.040000 0.880000 -4.880000 73.905609 35.154339 6697.866699
5.040000 0.880000 -4.840000 40.971519 40.644215 3330.617676
5.040000 0.880000 -4.800000 20.267490 28.547594 1225.736328
5.040000 0.920000 -5.200000 6.437895 -28.362753 845.892212
5.040000 0.920000 -5.160000 -15.430175 -41.370121 1949.577271
5.040000 0.920000 -5.120000 -16.659628 -84.638565 7441.229492
5.040000 0.920000 -5.080000 27.821899 -127.772980 17099.992188
5.040000 0.920000 -5.040000 105.496986 -127.926575 27494.824219
5.040000 0.920000 -5.000000 170.220093 -68.647186 33687.316406
5.040000 0.920000 -4.960000 178.749130 21.589325 32417.351562
5.040000 0.920000 -4.920000 127.234306 90.359520 24353.410156
5.040000 0.920000 -4.880000 53.882423 103.539818 13623.809570
5.040000 0.920000 -4.840000 5.718742 70.400864 4988.985840
5.040000 0.920000 -4.800000 0.918802 30.108810 907.384644
5.040000 0.960000 -5.200000 15.460583 -7.133915 289.922363
5.040000 0.960000 -5.160000 -10.395901 -42.587967 1921.809692
5.040000 0.960000 -5.120000 12.752195 -104.109772 11001.462891
5.040000 0.960000 -5.080000 96.195152 -134.533813 27352.855469
5.040000 0.960000 -5.040000 193.645569 -87.044060 45075.273438
5.040000 0.960000 -5.000000 234.065613 26.904144 55510.542969
5.040000 0.960000 -4.960000 182.797485 139.918518 52992.113281
5.040000 0.960000 -4.920000 73.574051 183.006317 38904.453125
5.040000 0.960000 -4.880000 -20.017792 142.438461 20689.427734
5.040000 0.960000 -4.840000 -46.957054 66.491379 6626.068359
5.040000 0.960000 -4.800000 -16.660791 18.093882 604.970520
5.040000 1.000000 -5.200000 7.262205 9.632459 145.523895
5.040000 1.000000 -5.160000 -0.565182 -44.515629 1981.960693
5.040000 1.000000 -5.120000 57.385330 -97.428024 12785.295898
5.040000 1.000000 -5.080000 159.933762 -83.859177 32611.169922
5.040000 1.000000 -5.040000 232.458893 17.684742 54349.886719
5.040000 1.000000 -5.000000 208.594391 154.183105 67284.046875
5.040000 1.000000 -4.960000 92.334625 236.182404 64307.812500
5.040000 1.000000 -4.920000 -40.813416 213.121872 47086.667969
5.040000 1.000000 -4.880000 -107.428223 115.323433 24840.316406
5.040000 1.000000 -4.840000 -84.995117 23.243580 7764.434082
5.040000 1.000000 -4.800000 -22.202087 -4.815351 516.120300
5.040000 1.040000 -5.200000 -6.556829 13.938082 237.262146
5.040000 1.040000 -5.160000 12.372040 -38.529274 1637.572388
5.040000 1.040000 -5.120000 88.391663 -58.334423 11215.991211
5.040000 1.040000 -5.080000 171.520416 1.728500 29422.242188
5.040000 1.040000 -5.040000 185.512756 124.325447 49871.800781
5.040000 1.040000 -5.000000 97.858589 230.026550 62488.519531
5.040000 1.040000 -4.960000 -43.432785 241.767929 60338.136719
5.040000 1.040000 -4.920000 -146.138779 152.786057 44700.121094
5.040000 1.040000 -4.880000 -151.724823 32.336994 24066.103516
5.040000 1.040000 -4.840000 -81.419807 -36.568443 7966.436035
5.040000 1.040000 -4.800000 -8.647097 -27.103838 809.390320
5.040000 1.080000 -5.200000 -16.422195 9.813853 366.000214
5.040000 1.080000 -5.160000 17.949825 -23.478561 873.439087
5.040000 1.080000 -5.120000 83.311615 -9.488050 7030.848145
5.040000 1.080000 -5.080000 122.248138 68.515182 19638.937500
5.040000 1.080000 -5.040000 82.674934 166.199554 34457.437500
5.040000 1.080000 -5.000000 -27.835636 208.444366 44223.878906
5.040000 1.080000 -4.960000 -139.522263 155.425659 43623.593750
5.040000 1.080000 -4.920000 -177.433685 41.185570 33178.964844
5.040000 1.080000 -4.880000 -125.499893 -54.659107 18737.841797
5.040000 1.080000 -4.840000 -36.541405 -75.809265 7082.319336
5.040000 1.080000 -4.800000 19.491810 -32.915543 1463.363647
5.040000 1.120000 -5.200000 -21.712927 3.886258 486.554199
5.040000 1.120000 -5.160000 9.845233 -10.034012 197.610016
5.040000 1.120000 -5.120000 48.915768 16.995733 2681.607422
5.040000 1.120000 -5.080000 50.748821 79.082451 8829.476562
5.040000 1.120000 -5.040000 -6.401291 129.181671 16728.880859
5.040000 1.120000 -5.000000 -92.541893 118.151840 22523.859375
5.040000 1.120000 -4.960000 -146.030212 42.337624 23117.296875
5.040000 1.120000 -4.920000 -126.887352 -48.453438 18448.136719
5.040000 1.120000 -4.880000 -52.327965 -92.952240 11378.334961
5.040000 1.120000 -4.840000 20.142445 -70.605637 5390.874023
5.040000 1.120000 -4.800000 44.668941 -14.222534 2197.594727
5.040000 1.160000 -5.200000 -25.702351 -2.914957 669.107788
5.040000 1.160000 -5.160000 -4.670031 -10.104542 123.910950
5.040000 1.160000 -5.120000 15.251724 9.388897 320.766479
5.040000 1.160000 -5.080000 6.828316 43.499809 1938.859253
5.040000 1.160000 -5.040000 -33.669197 58.652668 4573.750488
5.040000 1.160000 -5.000000 -76.808228 31.682083 6903.258301
5.040000 1.160000 -4.960000 -84.285202 -24.530937 7705.762207
5.040000 1.160000 -4.920000 -44.762714 -69.237938 6797.592773
5.040000 1.160000 -4.880000 14.441406 -69.516403 5041.084473
5.040000 1.160000 -4.840000 51.740257 -28.735411 3502.778076
5.040000 1.160000 -4.800000 47.395329 19.366699 2621.386230
5.040000 1.200000 -5.200000 -27.493668 -13.378799 934.894043
5.040000 1.200000 -5.160000 -10.603457 -23.156914 648.675964
5.040000 1.200000 -5.120000 6.874409 -14.287354 251.385986
5.040000 1.200000 -5.080000 7.715084 4.417076 79.033081
5.040000 1.200000 -5.040000 -8.551134 12.677170 233.832520
5.040000 1.200000 -5.000000 -23.556437 -0.194794 554.943665
5.040000 1.200000 -4.960000 -18.033035 -23.025517 855.364807
5.040000 1.200000 -4.920000 8.318741 -32.627014 1133.723511
5.040000 1.200000 -4.880000 35.544930 -16.048033 1520.981445
5.040000 1.200000 -4.840000 41.828270 17.233978 2046.614136
5.040000 1.200000 -4.800000 22.745928 44.730999 2518.239502
5.080000 0.800000 -5.200000 -36.452538 -10.134539 1431.496338
5.080000 0.800000 -5.160000 -25.810802 -37.602222 2080.124512
5.080000 0.800000 -5.120000 5.425587 -52.409657 2776.209229
5.080000 0.800000 -5.080000 40.326202 -40.058918 3230.919434
5.080000 0.800000 -5.040000 55.331009 -6.705973 3106.490479
5.080000 0.800000 -5.000000 41.748528 23.873905 2312.902832
5.080000 0.800000 -4.960000 14.352886 31.220198 1180.706055
5.080000 0.800000 -4.920000 -2.590481 16.608101 282.539612
5.080000 0.800000 -4.880000 1.674407 0.155872 2.827937
5.080000 0.800000 -4.840000 15.689342 -0.301311 246.246262
5.080000 0.800000 -4.800000 19.720055 13.331182 566.600952
5.080000 0.840000 -5.200000 -21.894611 -30.140970 1387.852051
5.080000 0.840000 -5.160000 -9.199430 -44.520187 2066.676758
5.080000 0.840000 -5.120000 13.845024 -50.617302 2753.795898
5.080000 0.840000 -5.080000 38.120186 -40.917755 3127.411133
5.080000 0.840000 -5.040000 51.054726 -18.839813 2961.523438
5.080000 0.840000 -5.000000 47.973282 3.214405 2311.768311
5.080000 0.840000 -4.960000 35.907494 14.910637 1511.675293
5.080000 0.840000 -4.920000 25.813864 16.485573 938.129700
5.080000 0.840000 -4.880000 21.859436 15.927130 731.508423
5.080000 0.840000 -4.840000 19.295044 18.700027 721.989746
5.080000 0.840000 -4.800000 12.487977 21.829941 632.495911
5.080000 0.880000 -5.200000 0.632459 -32.053684 1027.838745
5.080000 0.880000 -5.160000 3.385925 -41.449081 1729.490845
5.080000 0.880000 -5.120000 18.391264 -53.939308 3247.687500
5.080000 0.880000 -5.080000 46.318420 -55.580223 5234.557129
5.080000 0.880000 -5.040000 74.717201 -36.783806 6935.708496
5.080000 0.880000 -5.000000 87.127930 -1.833748 7594.639160
5.080000 0.880000 -4.960000 76.090164 33.359734 6902.584961
5.080000 0.880000 -4.920000 48.623062 52.985439 5171.659180
5.080000 0.880000 -4.880000 20.193985 52.127647 3125.088623
5.080000 0.880000 -4.840000 3.344276 38.144276 1466.169922
5.080000 0.880000 -4.800000 0.568106 23.229492 539.932068
5.080000 0.920000 -5.200000 14.807144 -18.819853 573.438354
5.080000 0.920000 -5.160000 10.009287 -37.249100 1487.681274
5.080000 0.920000 -5.120000 31.758505 -61.890110 4838.988281
5.080000 0.920000 -5.080000 78.625290 -63.654785 10233.867188
5.080000 0.920000 -5.040000 122.635864 -25.244953 15676.863281
5.080000 0.920000 -5.000000 130.391373 39.840473 18589.173828
5.080000 0.920000 -4.960000 91.831161 94.909279 17440.734375
5.080000 0.920000 -4.920000 30.104305 109.021988 12792.063477
5.080000 0.920000 -4.880000 -17.072607 81.478806 6930.270020
5.080000 0.920000 -4.840000 -27.646030 40.046116 2367.994385
5.080000 0.920000 -4.800000 -10.008271 15.779513 349.158539
5.080000 0.960000 -5.200000 15.044630 -3.252987 236.922821
5.080000 0.960000 -5.160000 16.699484 -34.667274 1480.692749
5.080000 0.960000 -5.120000 57.972057 -59.370762 6885.646973
5.080000 0.960000 -5.080000 120.464096 -39.356735 16060.550781
5.080000 0.960000 -5.040000 156.688232 32.526897 25609.203125
5.080000 0.960000 -5.000000 129.755539 118.460197 30869.318359
5.080000 0.960000 -4.960000 48.604630 163.143295 28978.144531
5.080000 0.960000 -4.920000 -36.111755 140.023132 20910.537109
5.080000 0.960000 -4.880000 -73.710861 73.445190 10827.486328
5.080000 0.960000 -4.840000 -54.577892 15.863060 3230.383057
5.080000 0.960000 -4.800000 -13.158609 2.084738 177.495132
5.080000 1.000000 -5.200000 7.316031 5.531986 84.127167
5.080000 1.000000 -5.160000 25.827627 -27.995956 1450.839844
5.080000 1.000000 -5.120000 82.015594 -33.896126 7875.504883
5.080000 1.000000 -5.080000 137.108582 17.972885 19121.789062
5.080000 1.000000 -5.040000 137.523834 110.196899 31056.160156
5.080000 1.000000 -5.000000 64.644966 183.255341 37761.492188
5.080000 1.000000 -4.960000 -41.949295 183.746750 35522.609375
5.080000 1.000000 -4.920000 -114.069733 111.940521 25542.585938
5.080000 1.000000 -4.880000 -112.222458 22.413330 13096.237305
5.080000 1.000000 -4.840000 -56.982094 -23.972443 3821.636963
5.080000 1.000000 -4.800000 -5.512175 -11.253586 157.027267
5.080000 1.040000 -5.200000 -0.901834 7.790179 61.500198
5.080000 1.040000 -5.160000 30.316555 -13.257683 1094.859619
5.080000 1.040000 -5.120000 82.009621 6.340454 6765.779297
5.080000 1.040000 -5.080000 106.680786 76.041046 17163.031250
5.080000 1.040000 -5.040000 64.665863 156.079880 28542.603516
5.080000 1.040000 -5.000000 -33.006062 184.736740 35217.062500
5.080000 1.040000 -4.960000 -125.614273 132.989197 33465.070312
5.080000 1.040000 -4.920000 -152.100403 34.010941 24291.277344
5.080000 1.040000 -4.880000 -103.772781 -43.675419 12676.332031
5.080000 1.040000 -4.840000 -29.591440 -55.467693 3952.318359
5.080000 1.040000 -4.800000 10.720293 -15.927996 368.625732
5.080000 1.080000 -5.200000 -8.162423 7.233146 118.943558
5.080000 1.080000 -5.160000 21.744572 2.563087 479.395813
5.080000 1.080000 -5.120000 52.596016 35.430923 4021.691162
5.080000 1.080000 -5.080000 44.508461 95.971130 11191.460938
5.080000 1.080000 -5.040000 -18.111935 138.531128 19518.916016
5.080000 1.080000 -5.000000 -102.567413 119.591095 24822.105469
5.080000 1.080000 -4.960000 -149.871796 41.009647 24143.345703
5.080000 1.080000 -4.920000 -125.927704 -46.036079 17977.107422
5.080000 1.080000 -4.880000 -52.751911 -83.974426 9834.468750
5.080000 1.080000 -4.840000 11.885792 -58.465084 3559.437988
5.080000 1.080000 -4.800000 26.863976 -6.815077 768.118408
5.080000 1.120000 -5.200000 -16.184929 3.484886 274.096375
5.080000 1.120000 -5.160000 2.953400 6.101964 45.956532
5.080000 1.120000 -5.120000 13.896751 33.290413 1301.371338
5.080000 1.120000 -5.080000 -7.813766 67.896851 4671.037598
5.080000 1.120000 -5.040000 -59.593529 74.622818 9119.953125
5.080000 1.120000 -5.000000 -105.955948 34.122070 12390.978516
5.080000 1.120000 -4.960000 -107.497208 -33.187996 12657.092773
5.080000 1.120000 -4.920000 -58.281666 -80.835190 9931.081055
5.080000 1.120000 -4.880000 6.452835 -76.930901 5960.002441
5.080000 1.120000 -4.840000 41.554195 -32.108894 2757.732178
5.080000 1.120000 -4.800000 31.721836 12.822168 1170.682861
5.080000 1.160000 -5.200000 -22.499960 -6.834315 552.956055
5.080000 1.160000 -5.160000 -10.931303 -7.662959 178.214325
5.080000 1.160000 -5.120000 -5.485229 5.808107 63.821854
5.080000 1.160000 -5.080000 -19.149660 19.818796 759.494141
5.080000 1.160000 -5.040000 -44.596325 13.735088 2177.484863
5.080000 1.160000 -5.000000 -57.282970 -16.754562 3562.053955
5.080000 1.160000 -4.960000 -38.952946 -50.935020 4111.708008
5.080000 1.160000 -4.920000 2.312267 -60.317791 3643.582520
5.080000 1.160000 -4.880000 37.369495 -35.569874 2661.695068
5.080000 1.160000 -4.840000 42.381031 4.477415 1816.198975
5.080000 1.160000 -4.800000 19.648735 31.024225 1348.575317
5.080000 1.200000 -5.200000 -19.883001 -22.304361 892.818237
5.080000 1.200000 -5.160000 -6.432203 -27.329872 788.295166
5.080000 1.200000 -5.120000 4.928743 -20.100819 428.335419
5.080000 1.200000 -5.080000 5.000772 -9.260601 110.766441
5.080000 1.200000 -5.040000 -2.386224 -6.865780 52.833000
5.080000 1.200000 -5.000000 -4.463913 -14.561710 231.969925
5.080000 1.200000 -4.960000 6.048145 -21.072908 480.647522
5.080000 1.200000 -4.920000 22.066193 -14.109365 685.991028
5.080000 1.200000 -4.880000 28.692713 6.205456 861.779480
5.080000 1.200000 -4.840000 18.069691 26.847076 1047.279297
5.080000 1.200000 -4.800000 -3.312511 34.475021 1199.499878
5.120000 0.800000 -5.200000 -14.586677 -11.125287 336.543152
5.120000 0.800000 -5.160000 -2.299971 -25.559366 658.571045
5.120000 0.800000 -5.120000 22.895885 -27.927967 1304.192871
5.120000 0.800000 -5.080000 45.942421 -8.612046 2184.873291
5.120000 0.800000 -5.040000 48.182850 24.056217 2900.288574
5.120000 0.800000 -5.000000 25.658016 48.288372 2990.100586
5.120000 0.800000 -4.960000 -5.435807 47.944992 2328.270264
5.120000 0.800000 -4.920000 -22.942167 27.327242 1273.121094
5.120000 0.800000 -4.880000 -18.848656 6.279774 394.707367
5.120000 0.800000 -4.840000 -4.939732 0.487646 24.638746
5.120000 0.800000 -4.800000 1.337893 7.366942 56.061790
5.120000 0.840000 -5.200000 -4.035022 -19.025490 378.250671
5.120000 0.840000 -5.160000 8.126908 -27.005781 795.358826
5.120000 0.840000 -5.120000 29.270519 -24.166452 1440.780762
5.120000 0.840000 -5.080000 46.047516 -4.110461 2137.269775
5.120000 0.840000 -5.040000 44.367603 24.242495 2556.182861
5.120000 0.840000 -5.000000 23.779417 43.124550 2425.187500
5.120000 0.840000 -4.960000 -1.209468 42.027222 1767.750122
5.120000 0.840000 -4.920000 -14.534924 26.777382 928.292236
5.120000 0.840000 -4.880000 -12.729258 12.422800 316.359955
5.120000 0.840000 -4.840000 -5.413991 8.080113 94.599533
5.120000 0.840000 -4.800000 -2.866382 9.971529 107.647530
5.120000 0.880000 -5.200000 7.456788 -17.058855 346.608246
5.120000 0.880000 -5.160000 15.864214 -23.940245 824.808594
5.120000 0.880000 -5.120000 34.411179 -22.322544 1682.425293
5.120000 0.880000 -5.080000 51.385353 -4.333132 2659.230713
5.120000 0.880000 -5.040000 52.639156 24.070265 3350.258545
5.120000 0.880000 -5.000000 34.602859 47.230343 3428.063232
5.120000 0.880000 -4.960000 7.540440 52.880833 2853.240723
5.120000 0.880000 -4.920000 -13.435291 41.489624 1901.895996
5.120000 0.880000 -4.880000 -20.209944 23.855814 977.541687
5.120000 0.880000 -4.840000 -15.563066 10.986147 362.904480
5.120000 0.880000 -4.800000 -7.541222 6.602868 100.467888
5.120000 0.920000 -5.200000 13.729572 -9.554298 279.785767
5.120000 0.920000 -5.160000 22.103891 -19.786766 880.098145
5.120000 0.920000 -5.120000 44.249252 -19.160189 2325.109131
5.120000 0.920000 -5.080000 65.409233 3.022966 4287.505859
5.120000 0.920000 -5.040000 66.311104 40.277550 6019.443359
5.120000 0.920000 -5.000000 39.928913 71.704216 6735.812500
5.120000 0.920000 -4.960000 -1.110886 77.946815 6076.939941
5.120000 0.920000 -4.920000 -33.549446 56.666237 4336.627930
5.120000 0.920000 -4.880000 -41.324657 24.081179 2287.630371
5.120000 0.920000 -4.840000 -26.927340 1.605839 727.660339
5.120000 0.920000 -4.800000 -7.228457 -0.472863 52.474190
5.120000 0.960000 -5.200000 14.930975 -1.475684 225.111649
5.120000 0.960000 -5.160000 28.701569 -12.522141 980.584045
5.120000 0.960000 -5.120000 55.882751 -5.799581 3156.517090
5.120000 0.960000 -5.080000 75.131943 27.777443 6416.395020
5.120000 0.960000 -5.040000 63.497158 74.199341 9537.431641
5.120000 0.960000 -5.000000 18.181767 103.472580 11037.151367
5.120000 0.960000 -4.960000 -36.911179 93.522263 10108.849609
5.120000 0.960000 -4.920000 -68.384308 50.072247 7183.643555
5.120000 0.960000 -4.880000 -60.486263 3.290556 3669.416016
5.120000 0.960000 -4.840000 -27.635027 -17.015411 1053.218994
5.120000 0.960000 -4.800000 -0.695228 -5.570796 31.517109
5.120000 1.000000 -5.200000 12.914274 6.108652 204.094101
5.120000 1.000000 -5.160000 31.497885 1.001493 993.119751
5.120000 1.000000 -5.120000 56.369308 18.902882 3534.817871
5.120000 1.000000 -5.080000 62.065372 61.205978 7598.282227
5.120000 1.000000 -5.040000 29.848669 103.811050 11667.677734
5.120000 1.000000 -5.000000 -30.486073 113.113503 13724.064453
5.120000 1.000000 -4.960000 -82.800911 75.808167 12602.869141
5.120000 1.000000 -4.920000 -93.074066 14.193913 8864.249023
5.120000 1.000000 -4.880000 -59.164398 -30.401976 4424.706055
5.120000 1.000000 -4.840000 -12.976524 -32.706078 1238.077637
5.120000 1.000000 -4.800000 8.359154 -4.353554 88.828888
5.120000 1.040000 -5.200000 6.777155 13.061316 216.527802
5.120000 1.040000 -5.160000 23.054110 16.596146 806.923950
5.120000 1.040000 -5.120000 36.178257 41.143570 3001.659668
5.120000 1.040000 -5.080000 23.552414 78.951591 6788.070312
5.120000 1.040000 -5.040000 -22.149122 101.453751 10783.447266
5.120000 1.040000 -5.000000 -78.303131 82.463135 12931.548828
5.120000 1.040000 -4.960000 -106.360657 25.564903 11966.153320
5.120000 1.040000 -4.920000 -85.355766 -33.501919 8407.985352
5.120000 1.040000 -4.880000 -32.748463 -55.867809 4193.673828
5.120000 1.040000 -4.840000 9.895643 -33.871262 1245.186035
5.120000 1.040000 -4.800000 14.374094 3.148917 216.530258
5.120000 1.080000 -5.200000 -4.682751 15.593680 265.091034
5.120000 1.080000 -5.160000 3.123234 22.444489 513.509644
5.120000 1.080000 -5.120000 3.168196 42.321648 1801.159302
5.120000 1.080000 -5.080000 -18.980780 63.159855 4349.437012
5.120000 1.080000 -5.040000 -59.493298 61.232712 7288.897461
5.120000 1.080000 -5.000000 -91.885117 24.797020 9057.767578
5.120000 1.080000 -4.960000 -88.029076 -28.704571 8573.070312
5.120000 1.080000 -4.920000 -46.066555 -63.284225 6127.020508
5.120000 1.080000 -4.880000 4.247623 -56.033371 3157.781006
5.120000 1.080000 -4.840000 27.199640 -18.833393 1094.517090
5.120000 1.080000 -4.800000 13.686075 12.980524 355.802673
5.120000 1.120000 -5.200000 -17.119186 8.215986 360.568970
5.120000 1.120000 -5.160000 -16.053291 10.300505 363.808563
5.120000 1.120000 -5.120000 -20.172112 18.167557 736.974243
5.120000 1.120000 -5.080000 -36.422718 21.979156 1809.697754
5.120000 1.120000 -5.040000 -56.946503 7.979904 3306.583008
5.120000 1.120000 -5.000000 -61.974346 -23.771227 4405.890625
5.120000 1.120000 -4.960000 -39.209854 -53.483410 4397.887695
5.120000 1.120000 -4.920000 0.380493 -57.531326 3309.998291
5.120000 1.120000 -4.880000 29.382505 -31.722189 1869.628906
5.120000 1.120000 -4.840000 28.895077 2.958717 843.679504
5.120000 1.120000 -4.800000 6.370041 19.866350 435.249298
5.120000 1.160000 -5.200000 -20.724979 -8.466490 501.206238
5.120000 1.160000 -5.160000 -18.574924 -13.251537 520.631104
5.120000 1.160000 -5.120000 -16.425480 -13.775413 459.558380
5.120000 1.160000 -5.080000 -18.477772 -15.008726 566.689880
5.120000 1.160000 -5.040000 -20.039288 -22.954296 928.472778
5.120000 1.160000 -5.000000 -11.993389 -34.505165 1334.447876
5.120000 1.160000 -4.960000 7.082363 -37.782204 1477.654785
5.120000 1.160000 -4.920000 25.805355 -24.409731 1261.751221
5.120000 1.160000 -4.880000 29.593624 -0.320801 875.885498
5.120000 1.160000 -4.840000 15.535838 18.133602 570.189758
5.120000 1.160000 -4.800000 -4.005763 19.876719 411.130096
5.120000 1.200000 -5.200000 -9.037632 -23.933197 654.476685
5.120000 1.200000 -5.160000 -0.734710 -29.481968 869.726257
5.120000 1.200000 -5.120000 9.343624 -28.382357 892.861450
5.120000 1.200000 -5.080000 16.416656 -22.675522 783.685913
5.120000 1.200000 -5.040000 20.201870 -16.056843 665.937744
5.120000 1.200000 -5.000000 22.749041 -9.128063 600.840393
5.120000 1.200000 -4.960000 23.709843 -0.086280 562.164062
5.120000 1.200000 -4.920000 19.838184 10.600250 505.918854
5.120000 1.200000 -4.880000 9.634727 18.338921 429.143982
5.120000 1.200000 -4.840000 -3.070497 18.604271 355.546844
5.120000 1.200000 -4.800000 -11.941207 12.282349 293.448517
5.160000 0.800000 -5.200000 -5.826665 3.231732 44.394115
5.160000 0.800000 -5.160000 -0.170347 -5.459028 29.830002
5.160000 0.800000 -5.120000 16.695677 -4.880772 302.567566
5.160000 0.800000 -5.080000 30.205090 14.022384 1108.974609
5.160000 0.800000 -5.040000 23.083153 41.758301 2276.587646
5.160000 0.800000 -5.000000 -5.762000 56.427227 3217.232666
5.160000 0.800000 -4.960000 -37.351727 44.339691 3361.159668
5.160000 0.800000 -4.920000 -49.309525 13.938334 2625.706299
5.160000 0.800000 -4.880000 -36.509010 -11.954308 1475.813354
5.160000 0.800000 -4.840000 -14.436257 -17.807781 525.522583
5.160000 0.800000 -4.800000 -2.271611 -8.524112 77.820702
5.160000 0.840000 -5.200000 -4.735806 -2.798775 30.261000
5.160000 0.840000 -5.160000 4.211049 -8.792219 95.036049
5.160000 0.840000 -5.120000 19.910385 -1.486804 398.634003
5.160000 0.840000 -5.080000 25.333649 21.153296 1089.255615
5.160000 0.840000 -5.040000 9.158095 43.705116 1994.007935
5.160000 0.840000 -5.000000 -20.838020 47.001991 2643.410400
5.160000 0.840000 -4.960000 -43.548241 26.991617 2624.996582
5.160000 0.840000 -4.920000 -44.054417 -1.046136 1941.885986
5.160000 0.840000 -4.880000 -26.726973 -17.324429 1014.466919
5.160000 0.840000 -4.840000 -8.820072 -15.677525 323.578430
5.160000 0.840000 -4.800000 -2.393668 -6.356981 46.140854
5.160000 0.880000 -5.200000 0.557233 -7.041178 49.888699
5.160000 0.880000 -5.160000 10.866066 -9.138057 201.575470
5.160000 0.880000 -5.120000 22.222492 2.361388 499.415314
5.160000 0.880000 -5.080000 20.394154 23.286955 958.203796
5.160000 0.880000 -5.040000 1.294569 38.166676 1458.370972
5.160000 0.880000 -5.000000 -23.845764 34.591473 1765.190430
5.160000 0.880000 -4.960000 -38.374702 14.825584 1692.415771
5.160000 0.880000 -4.920000 -34.895687 -6.822457 1264.254883
5.160000 0.880000 -4.880000 -20.171036 -17.340424 707.560974
5.160000 0.880000 -4.840000 -6.674662 -15.144899 273.919098
5.160000 0.880000 -4.800000 -0.940684 -7.856004 62.601688
5.160000 0.920000 -5.200000 8.963639 -6.573920 123.563255
5.160000 0.920000 -5.160000 18.500288 -4.168860 359.640045
5.160000 0.920000 -5.120000 24.596672 8.781203 682.105835
5.160000 0.920000 -5.080000 18.458561 25.794544 1006.077026
5.160000 0.920000 -5.040000 0.179726 35.273571 1244.257202
5.160000 0.920000 -5.000000 -20.744228 29.950148 1327.334351
5.160000 0.920000 -4.960000 -32.694805 12.526041 1225.852051
5.160000 0.920000 -4.920000 -30.318596 -6.810108 965.594849
5.160000 0.920000 -4.880000 -17.380501 -17.954781 624.455933
5.160000 0.920000 -4.840000 -2.961901 -17.171566 303.635529
5.160000 0.920000 -4.800000 4.882202 -8.001760 87.864044
5.160000 0.960000 -5.200000 16.382227 1.263651 269.974152
5.160000 0.960000 -5.160000 22.223524 7.786956 554.521729
5.160000 0.960000 -5.120000 22.827106 19.943682 918.827209
5.160000 0.960000 -5.080000 14.039038 32.769817 1270.955566
5.160000 0.960000 -5.040000 -3.597583 38.646851 1506.521729
5.160000 0.960000 -5.000000 -23.337650 31.648743 1546.288818
5.160000 0.960000 -4.960000 -34.832020 12.592275 1371.835083
5.160000 0.960000 -4.920000 -30.847790 -9.338919 1038.801514
5.160000 0.960000 -4.880000 -13.706081 -21.546118 652.091858
5.160000 0.960000 -4.840000 4.678883 -17.339403 322.546844
5.160000 0.960000 -4.800000 11.155511 -2.151864 129.075943
5.160000 1.000000 -5.200000 16.067732 14.755775 475.904907
5.160000 1.000000 -5.160000 15.301981 22.622059 745.908142
5.160000 1.000000 -5.120000 10.629524 31.118675 1081.358765
5.160000 1.000000 -5.080000 0.040861 38.539421 1485.288696
5.160000 1.000000 -5.040000 -17.010532 39.393738 1841.224854
5.160000 1.000000 -5.000000 -34.503597 27.558777 1949.984375
5.160000 1.000000 -4.960000 -40.946266 4.327007 1695.319702
5.160000 1.000000 -4.920000 -29.077265 -18.083307 1172.493286
5.160000 1.000000 -4.880000 -5.313500 -24.600779 633.431580
5.160000 1.000000 -4.840000 12.750853 -11.491144 294.630646
5.160000 1.000000 -4.800000 11.444029 7.963614 194.384933
5.160000 1.040000 -5.200000 4.242005 25.640146 675.411743
5.160000 1.040000 -5.160000 -3.429108 29.750690 896.862366
5.160000 1.040000 -5.120000 -10.990313 31.185398 1093.316040
5.160000 1.040000 -5.080000 -20.491442 31.274426 1397.988770
5.160000 1.040000 -5.040000 -33.211967 25.615623 1759.194946
5.160000 1.040000 -5.000000 -42.774406 9.333776 1916.769287
5.160000 1.040000 -4.960000 -38.537849 -13.138737 1657.792236
5.160000 1.040000 -4.920000 -18.010410 -27.349983 1072.396484
5.160000 1.040000 -4.880000 6.144160 -21.624907 505.387299
5.160000 1.040000 -4.840000 15.438602 -0.864781 239.098297
5.160000 1.040000 -4.800000 3.994200 15.370859 252.216949
5.160000 1.080000 -5.200000 -13.829233 24.107841 772.435730
5.160000 1.080000 -5.160000 -24.288836 20.092953 993.674255
5.160000 1.080000 -5.120000 -29.457832 13.187087 1041.663208
5.160000 1.080000 -5.080000 -32.558155 6.823386 1106.592041
5.160000 1.080000 -5.040000 -35.507526 -1.983611 1264.719116
5.160000 1.080000 -5.000000 -33.324394 -15.526744 1351.594971
5.160000 1.080000 -4.960000 -20.056440 -27.568459 1162.280762
5.160000 1.080000 -4.920000 0.565450 -26.990913 728.829163
5.160000 1.080000 -4.880000 14.462593 -10.854671 326.990479
5.160000 1.080000 -4.840000 10.515650 8.748127 187.108612
5.160000 1.080000 -4.800000 -6.002181 14.713194 252.504242
5.160000 1.120000 -5.200000 -25.248934 8.320501 706.739380
5.160000 1.120000 -5.160000 -31.919943 -3.533536 1031.368652
5.160000 1.120000 -5.120000 -29.305983 -15.330433 1093.862793
5.160000 1.120000 -5.080000 -22.250978 -22.419449 997.737732
5.160000 1.120000 -5.040000 -14.399126 -26.226345 895.156006
5.160000 1.120000 -5.000000 -4.752035 -27.946720 803.601013
5.160000 1.120000 -4.960000 7.165640 -24.329292 643.260864
5.160000 1.120000 -4.920000 15.948826 -12.313005 405.975159
5.160000 1.120000 -4.880000 13.980658 3.560327 208.134720
5.160000 1.120000 -4.840000 1.244562 12.263502 151.942413
5.160000 1.120000 -4.800000 -11.363783 7.365067 183.379776
5.160000 1.160000 -5.200000 -19.840080 -11.128383 517.469666
5.160000 1.160000 -5.160000 -18.723341 -25.299662 990.636353
5.160000 1.160000 -5.120000 -7.359020 -35.127777 1288.115845
5.160000 1.160000 -5.080000 7.699485 -35.540455 1322.406006
5.160000 1.160000 -5.040000 19.957327 -27.601164 1160.119141
5.160000 1.160000 -5.000000 26.186562 -14.905848 907.920288
5.160000 1.160000 -4.960000 25.228533 -0.927649 637.339417
5.160000 1.160000 -4.920000 16.929028 10.352135 393.758667
5.160000 1.160000 -4.880000 3.970221 14.282505 219.752594
5.160000 1.160000 -4.840000 -7.001121 9.054720 131.003647
5.160000 1.160000 -4.800000 -9.404114 -0.485612 88.673172
5.160000 1.200000 -5.200000 -0.613384 -18.449341 340.754425
5.160000 1.200000 -5.160000 6.136708 -28.521397 851.129272
5.160000 1.200000 -5.120000 21.361618 -31.388065 1441.529297
5.160000 1.200000 -5.080000 37.131775 -22.098824 1867.126709
5.160000 1.200000 -5.040000 44.246033 -3.147752 1967.619751
5.160000 1.200000 -5.000000 37.930599 17.033066 1728.855713
5.160000 1.200000 -4.960000 20.725355 28.942986 1267.236816
5.160000 1.200000 -4.920000 1.241748 27.523808 759.101929
5.160000 1.200000 -4.880000 -10.790577 15.495630 356.551117
5.160000 1.200000 -4.840000 -10.873838 1.938326 121.997475
5.160000 1.200000 -4.800000 -3.199202 -3.961111 25.925293
5.200000 0.800000 -5.200000 -14.454962 14.324634 414.141052
5.200000 0.800000 -5.160000 -13.558611 2.532612 190.250061
5.200000 0.800000 -5.120000 -0.154665 0.893065 0.821487
5.200000 0.800000 -5.080000 8.214948 17.082071 359.282532
5.200000 0.800000 -5.040000 -4.691660 37.726833 1445.325684
5.200000 0.800000 -5.000000 -34.689423 40.201389 2819.507812
5.200000 0.800000 -4.960000 -58.670837 15.971586 3697.358643
5.200000 0.800000 -4.920000 -56.447117 -19.303661 3558.908447
5.200000 0.800000 -4.880000 -30.396736 -40.222172 2541.784668
5.200000 0.800000 -4.840000 -2.353199 -35.701904 1280.163574
5.200000 0.800000 -4.800000 8.509804 -17.692574 385.443909
5.200000 0.840000 -5.200000 -17.475161 1.701822 308.277435
5.200000 0.840000 -5.160000 -9.689086 -5.878576 128.436050
5.200000 0.840000 -5.120000 1.363738 1.382306 3.770550
5.200000 0.840000 -5.080000 -1.556059 19.156565 369.395294
5.200000 0.840000 -5.040000 -22.974281 28.619104 1346.870850
5.200000 0.840000 -5.000000 -47.660248 15.509063 2512.030273
5.200000 0.840000 -4.960000 -54.483925 -14.278611 3172.376709
5.200000 0.840000 -4.920000 -37.028992 -39.402733 2923.721680
5.200000 0.840000 -4.880000 -9.437031 -43.367599 1969.806152
5.200000 0.840000 -4.840000 8.239873 -29.119446 915.837646
5.200000 0.840000 -4.800000 9.096533 -13.357696 261.174927
5.200000 0.880000 -5.200000 -8.567883 -9.176875 157.623657
5.200000 0.880000 -5.160000 0.206573 -7.894443 62.364895
5.200000 0.880000 -5.120000 2.157304 3.664402 18.081802
5.200000 0.880000 -5.080000 -10.056281 13.637162 287.100983
5.200000 0.880000 -5.040000 -29.135796 8.875855 927.675415
5.200000 0.880000 -5.000000 -39.167511 -11.218526 1659.949219
5.200000 0.880000 -4.960000 -30.822542 -33.222206 2053.744141
5.200000 0.880000 -4.920000 -10.035686 -42.174126 1879.371826
5.200000 0.880000 -4.880000 8.402720 -34.865105 1286.181274
5.200000 0.880000 -4.840000 14.877186 -20.720470 650.668579
5.200000 0.880000 -4.800000 11.856542 -10.718586 255.465668
5.200000 0.920000 -5.200000 7.019651 -8.130608 115.382278
5.200000 0.920000 -5.160000 8.741407 0.365892 76.546082
5.200000 0.920000 -5.120000 0.479467 7.799503 61.062141
5.200000 0.920000 -5.080000 -12.767488 5.255175 190.625610
5.200000 0.920000 -5.040000 -20.453636 -7.840310 479.821686
5.200000 0.920000 -5.000000 -16.211664 -23.079727 795.491882
5.200000 0.920000 -4.960000 -3.080709 -30.854517 961.492004
5.200000 0.920000 -4.920000 10.299701 -28.253370 904.336792
5.200000 0.920000 -4.880000 17.622322 -19.629618 695.868164
5.200000 0.920000 -4.840000 18.593657 -10.800019 462.364471
5.200000 0.920000 -4.800000 16.043903 -4.209035 275.122803
5.200000 0.960000 -5.200000 16.420219 6.844948 316.476898
5.200000 0.960000 -5.160000 6.789830 14.882770 267.598633
5.200000 0.960000 -5.120000 -6.245114 11.501060 171.275848
5.200000 0.960000 -5.080000 -11.867748 -0.988333 141.820251
5.200000 0.960000 -5.040000 -6.538894 -12.818836 207.079697
5.200000 0.960000 -5.000000 4.050835 -16.682177 294.704285
5.200000 0.960000 -4.960000 12.239738 -13.422339 329.970398
5.200000 0.960000 -4.920000 15.749153 -8.355167 317.844666
5.200000 0.960000 -4.880000 17.150578 -4.146976 311.339722
5.200000 0.960000 -4.840000 17.817923 0.742576 318.029785
5.200000 0.960000 -4.800000 15.156231 6.960981 278.166595
5.200000 1.000000 -5.200000 9.532528 25.441772 738.152893
5.200000 1.000000 -5.160000 -8.454576 24.355959 664.692566
5.200000 1.000000 -5.120000 -17.814089 9.287298 403.595673
5.200000 1.000000 -5.080000 -11.801021 -6.058402 175.968323
5.200000 1.000000 -5.040000 1.800920 -10.078041 104.810226
5.200000 1.000000 -5.000000 10.796811 -3.812349 131.105133
5.200000 1.000000 -4.960000 11.395603 3.301681 140.760864
5.200000 1.000000 -4.920000 9.330634 5.658513 119.079498
5.200000 1.000000 -4.880000 9.893675 6.534771 140.588043
5.200000 1.000000 -4.840000 10.477279 10.786706 226.126404
5.200000 1.000000 -4.800000 5.223070 15.851805 278.560181
5.200000 1.040000 -5.200000 -10.827034 32.289742 1159.852051
5.200000 1.040000 -5.160000 -28.697178 18.419912 1162.821167
5.200000 1.040000 -5.120000 -27.950111 -3.411610 792.847839
5.200000 1.040000 -5.080000 -11.660042 -14.810144 355.296936
5.200000 1.040000 -5.040000 4.351287 -9.819242 115.351227
5.200000 1.040000 -5.000000 8.900551 2.114594 83.691307
5.200000 1.040000 -4.960000 4.707911 9.263149 107.970360
5.200000 1.040000 -4.920000 0.979575 10.022787 101.415825
5.200000 1.040000 -4.880000 0.628505 10.778542 116.571976
5.200000 1.040000 -4.840000 -1.585456 14.212406 204.506165
5.200000 1.040000 -4.800000 -8.804064 14.462935 286.688049
5.200000 1.080000 -5.200000 -29.584106 20.501696 1295.538818
5.200000 1.080000 -5.160000 -39.165474 -2.544349 1540.408081
5.200000 1.080000 -5.120000 -26.923096 -23.808418 1291.693848
5.200000 1.080000 -5.080000 -4.493708 -27.486969 775.726868
5.200000 1.080000 -5.040000 10.554646 -14.940889 334.630737
5.200000 1.080000 -5.000000 11.359571 0.494751 129.284653
5.200000 1.080000 -4.960000 4.237192 8.749377 94.505402
5.200000 1.080000 -4.920000 -2.328877 10.428377 114.174721
5.200000 1.080000 -4.880000 -6.899674 10.448965 156.786377
5.200000 1.080000 -4.840000 -12.160385 9.074099 230.214233
5.200000 1.080000 -4.800000 -16.452747 2.875409 278.960876
5.200000 1.120000 -5.200000 -31.914797 -1.053079 1019.663208
5.200000 1.120000 -5.160000 -30.540493 -25.480915 1581.998779
5.200000 1.120000 -5.120000 -10.117970 -40.428120 1736.806152
5.200000 1.120000 -5.080000 14.151844 -35.414532 1454.463745
5.200000 1.120000 -5.040000 26.560293 -16.221403 968.583069
5.200000 1.120000 -5.000000 23.082714 3.329420 543.896729
5.200000 1.120000 -4.960000 10.485916 13.833258 301.313477
5.200000 1.120000 -4.920000 -2.738459 14.510521 218.054382
5.200000 1.120000 -4.880000 -12.093965 8.686531 221.719788
5.200000 1.120000 -4.840000 -15.675358 -0.580780 246.054153
5.200000 1.120000 -4.800000 -11.882099 -9.569265 232.755127
5.200000 1.160000 -5.200000 -16.784704 -14.701861 497.871033
5.200000 1.160000 -5.160000 -7.993947 -34.200005 1233.543457
5.200000 1.160000 -5.120000 15.251442 -40.894028 1904.927979
5.200000 1.160000 -5.080000 37.710583 -27.863382 2198.456055
5.200000 1.160000 -5.040000 45.046440 -2.475454 2035.309692
5.200000 1.160000 -5.000000 33.804409 20.522121 1563.895508
5.200000 1.160000 -4.960000 11.895904 29.663734 1021.449646
5.200000 1.160000 -4.920000 -8.194088 22.854900 589.489563
5.200000 1.160000 -4.880000 -16.967579 6.700716 332.798340
5.200000 1.160000 -4.840000 -12.255500 -8.180759 217.122101
5.200000 1.160000 -4.800000 0.217667 -12.906467 166.624283
5.200000 1.200000 -5.200000 1.545825 -9.586875 94.297745
5.200000 1.200000 -5.160000 11.801322 -23.088791 672.363464
5.200000 1.200000 -5.120000 33.454472 -23.209827 1657.897705
5.200000 1.200000 -5.080000 51.171394 -4.137126 2635.627441
5.200000 1.200000 -5.040000 50.191349 25.093052 3148.833008
5.200000 1.200000 -5.000000 28.175304 46.646400 2969.734375
5.200000 1.200000 -4.960000 -2.336769 47.070965 2221.136230
5.200000 1.200000 -4.920000 -22.917282 27.427467 1277.467773
5.200000 1.200000 -4.880000 -22.835381 2.430621 527.362488
5.200000 1.200000 -4.840000 -6.764686 -10.821690 162.869934
5.200000 1.200000 -4.800000 9.460762 -5.860020 123.845856
