#kx 	ky 	kz 	real 	imag 	intensity
8.800000 0.800000 -1.200000 -26.608871 24.296486 1298.351318
8.800000 0.800000 -1.160000 -29.231815 10.335642 961.324524
8.800000 0.800000 -1.120000 -27.605682 2.685869 769.287537
8.800000 0.800000 -1.080000 -29.089081 -3.450143 858.078125
8.800000 0.800000 -1.040000 -29.641527 -15.447099 1117.232910
8.800000 0.800000 -1.000000 -19.505381 -29.931906 1276.378906
8.800000 0.800000 -0.960000 1.681348 -33.644756 1134.796509
8.800000 0.800000 -0.920000 19.716164 -18.866564 744.674316
8.800000 0.800000 -0.880000 18.875526 4.675987 378.150360
8.800000 0.800000 -0.840000 -0.493103 16.969967 288.222931
8.800000 0.800000 -0.800000 -20.400455 7.735323 476.013794
8.800000 0.840000 -1.200000 -32.276760 -3.123485 1051.545288
8.800000 0.840000 -1.160000 -24.631680 -15.359940 842.647400
8.800000 0.840000 -1.120000 -16.165026 -19.822590 654.243103
8.800000 0.840000 -1.080000 -10.635358 -22.004192 597.295288
8.800000 0.840000 -1.040000 -4.501179 -25.107380 650.641174
8.800000 0.840000 -1.000000 5.167822 -25.350399 669.349060
8.800000 0.840000 -0.960000 13.992760 -18.052279 521.682068
8.800000 0.840000 -0.920000 14.197934 -6.240729 240.528030
8.800000 0.840000 -0.880000 4.815619 0.166039 23.217751
8.800000 0.840000 -0.840000 -4.888142 -5.036251 49.257751
8.800000 0.840000 -0.800000 -4.415651 -16.234324 283.051239
8.800000 0.880000 -1.200000 -16.962662 -24.795948 902.570923
8.800000 0.880000 -1.160000 -2.280802 -28.882374 839.393616
8.800000 0.880000 -1.120000 9.459465 -24.660528 697.623169
8.800000 0.880000 -1.080000 15.432326 -16.921694 524.500427
8.800000 0.880000 -1.040000 16.224709 -9.180928 347.530640
8.800000 0.880000 -1.000000 12.787453 -3.475180 175.595825
8.800000 0.880000 -0.960000 6.518219 -2.256208 47.577663
8.800000 0.880000 -0.920000 1.472935 -7.411708 57.102951
8.800000 0.880000 -0.880000 3.376032 -16.417936 280.946228
8.800000 0.880000 -0.840000 13.990870 -21.470182 656.713196
8.800000 0.880000 -0.800000 26.756535 -15.477253 955.457520
8.800000 0.920000 -1.200000 6.861068 -27.364555 795.893188
8.800000 0.920000 -1.160000 21.254379 -20.519739 872.808350
8.800000 0.920000 -1.120000 28.144642 -6.878129 839.429504
8.800000 0.920000 -1.080000 24.769171 7.550627 670.523804
8.800000 0.920000 -1.040000 12.349399 15.613283 396.282257
8.800000 0.920000 -1.000000 -2.662347 11.608881 141.854202
8.800000 0.920000 -0.960000 -9.875361 -4.040548 113.848801
8.800000 0.920000 -0.920000 -1.292610 -21.892418 480.948792
8.800000 0.920000 -0.880000 20.723911 -27.765587 1200.408325
8.800000 0.920000 -0.840000 41.997478 -13.687252 1951.129028
8.800000 0.920000 -0.800000 45.996815 13.402765 2295.341064
8.800000 0.960000 -1.200000 21.753101 -12.437008 627.876587
8.800000 0.960000 -1.160000 28.040159 1.901942 789.867920
8.800000 0.960000 -1.120000 23.567102 17.897167 875.716919
8.800000 0.960000 -1.080000 8.242196 27.542301 826.512146
8.800000 0.960000 -1.040000 -11.449993 22.940353 657.362183
8.800000 0.960000 -1.000000 -22.679686 2.840778 522.438171
8.800000 0.960000 -0.960000 -13.846659 -22.108694 680.524292
8.800000 0.960000 -0.920000 14.258825 -33.351746 1315.653076
8.800000 0.960000 -0.880000 44.625183 -18.234648 2323.909424
8.800000 0.960000 -0.840000 54.597809 17.201033 3276.796143
8.800000 0.960000 -0.800000 34.309204 49.812981 3658.454590
8.800000 1.000000 -1.200000 18.804802 6.170267 391.692780
8.800000 1.000000 -1.160000 13.862526 19.312500 565.142273
8.800000 1.000000 -1.120000 -0.045871 26.925083 724.962158
8.800000 1.000000 -1.080000 -18.040571 22.482567 830.928040
8.800000 1.000000 -1.040000 -29.557302 3.726338 887.519775
8.800000 1.000000 -1.000000 -23.015076 -21.578499 995.325317
8.800000 1.000000 -0.960000 3.892224 -36.309776 1333.549316
8.800000 1.000000 -0.920000 37.355736 -25.229727 2031.990234
8.800000 1.000000 -0.880000 53.833496 10.514107 3008.591797
8.800000 1.000000 -0.840000 37.963348 49.881016 3929.331543
8.800000 1.000000 -0.800000 -2.949409 66.031494 4368.857422
8.800000 1.040000 -1.200000 2.890367 14.112003 207.502853
8.800000 1.040000 -1.160000 -8.644395 17.355556 375.940887
8.800000 1.040000 -1.120000 -21.287683 11.152092 577.534607
8.800000 1.040000 -1.080000 -27.865978 -4.548598 797.202515
8.800000 1.040000 -1.040000 -21.105175 -24.167761 1029.509033
8.800000 1.040000 -1.000000 1.013649 -36.005157 1297.398804
8.800000 1.040000 -0.960000 29.657602 -27.986666 1662.826904
8.800000 1.040000 -0.920000 46.814064 1.787373 2194.751221
8.800000 1.040000 -0.880000 37.017914 39.013840 2892.405762
8.800000 1.040000 -0.840000 1.177242 60.162312 3620.889648
8.800000 1.040000 -0.800000 -40.754242 49.697121 4130.711914
8.800000 1.080000 -1.200000 -13.159080 6.652857 217.421875
8.800000 1.080000 -1.160000 -21.191618 -2.399699 454.843231
8.800000 1.080000 -1.120000 -21.003031 -16.862839 725.482605
8.800000 1.080000 -1.080000 -10.104326 -29.784565 989.217712
8.800000 1.080000 -1.040000 9.068364 -33.693645 1217.496948
8.800000 1.080000 -1.000000 29.183933 -23.448673 1401.542236
8.800000 1.080000 -0.960000 39.590424 0.263922 1567.471313
8.800000 1.080000 -0.920000 31.250652 28.407469 1783.587524
8.800000 1.080000 -0.880000 3.769294 45.982689 2128.615234
8.800000 1.080000 -0.840000 -31.093082 40.684258 2621.988770
8.800000 1.080000 -0.800000 -54.761364 12.519067 3155.533936
8.800000 1.120000 -1.200000 -18.820986 -10.219255 458.662659
8.800000 1.120000 -1.160000 -14.685169 -25.360689 858.818726
8.800000 1.120000 -1.120000 1.146109 -35.116722 1234.497803
8.800000 1.120000 -1.080000 21.446608 -31.739496 1467.352539
8.800000 1.120000 -1.040000 35.699341 -15.272879 1507.703857
8.800000 1.120000 -1.000000 36.661301 7.210405 1396.041016
8.800000 1.120000 -0.960000 23.461430 26.160156 1234.792480
8.800000 1.120000 -0.920000 0.910221 33.821198 1144.701904
8.800000 1.120000 -0.880000 -22.765364 26.555981 1223.481934
8.800000 1.120000 -0.840000 -38.414383 6.024350 1511.957642
8.800000 1.120000 -0.800000 -39.178589 -20.617605 1960.047363
8.800000 1.160000 -1.200000 -11.968408 -26.239941 831.777283
8.800000 1.160000 -1.160000 5.322593 -36.910652 1390.726196
8.800000 1.160000 -1.120000 28.422203 -31.762907 1816.703857
8.800000 1.160000 -1.080000 42.632710 -10.542261 1928.687256
8.800000 1.160000 -1.040000 38.389912 15.090174 1701.498657
8.800000 1.160000 -1.000000 18.525173 30.657928 1283.090576
8.800000 1.160000 -0.960000 -5.067601 29.364651 887.963318
8.800000 1.160000 -0.920000 -21.001379 14.967014 665.069458
8.800000 1.160000 -0.880000 -25.100859 -3.732600 643.985413
8.800000 1.160000 -0.840000 -19.614067 -19.907694 781.027954
8.800000 1.160000 -0.800000 -8.336891 -30.942307 1026.930054
8.800000 1.200000 -1.200000 2.278417 -34.165077 1172.443604
8.800000 1.200000 -1.160000 25.726456 -33.088879 1756.724365
8.800000 1.200000 -1.120000 43.609673 -13.225769 2076.724609
8.800000 1.200000 -1.080000 41.814308 15.052930 1975.027100
8.800000 1.200000 -1.040000 20.165165 33.420158 1523.540894
8.800000 1.200000 -1.000000 -6.846903 30.557516 980.641846
8.800000 1.200000 -0.960000 -22.123388 10.834373 606.827942
8.800000 1.200000 -0.920000 -19.262745 -10.896229 489.781128
8.800000 1.200000 -0.880000 -5.191295 -22.388605 528.199158
8.800000 1.200000 -0.840000 8.624100 -22.304062 571.846313
8.800000 1.200000 -0.800000 16.439505 -17.350355 571.292114
8.840000 0.800000 -1.200000 -30.131727 20.525684 1329.224609
8.840000 0.800000 -1.160000 -36.571281 7.361810 1391.654907
8.840000 0.800000 -1.120000 -37.529942 -7.260075 1461.205200
8.840000 0.800000 -1.080000 -32.042763 -22.700169 1542.036377
8.840000 0.800000 -1.040000 -17.479481 -35.035103 1532.990601
8.840000 0.800000 -1.000000 3.907726 -36.194061 1325.280518
8.840000 0.800000 -0.960000 21.303474 -21.757992 927.248230
8.840000 0.800000 -0.920000 22.348503 0.827507 500.140350
8.840000 0.800000 -0.880000 5.703922 15.134593 261.590637
8.840000 0.800000 -0.840000 -14.893993 9.862554 319.101013
8.840000 0.800000 -0.800000 -21.853943 -9.660618 570.922363
8.840000 0.840000 -1.200000 -29.005615 -5.945641 876.676392
8.840000 0.840000 -1.160000 -21.911572 -18.339279 816.446167
8.840000 0.840000 -1.120000 -9.938818 -24.265499 687.594543
8.840000 0.840000 -1.080000 2.244173 -23.069544 537.240173
8.840000 0.840000 -1.040000 11.148972 -16.060699 382.245636
8.840000 0.840000 -1.000000 13.948822 -5.751347 227.647629
8.840000 0.840000 -0.960000 9.149758 3.302330 94.623459
8.840000 0.840000 -0.920000 -0.796836 5.453253 30.372913
8.840000 0.840000 -0.880000 -8.824541 -1.639676 80.561066
8.840000 0.840000 -0.840000 -7.843813 -13.274721 237.743622
8.840000 0.840000 -0.800000 2.470338 -20.174053 413.095001
8.840000 0.880000 -1.200000 -9.848636 -21.070915 540.979065
8.840000 0.880000 -1.160000 6.798214 -21.455788 506.566528
8.840000 0.880000 -1.120000 19.506104 -9.179548 464.752167
8.840000 0.880000 -1.080000 19.305988 8.959337 452.990906
8.840000 0.880000 -1.040000 5.449780 21.161610 477.513824
8.840000 0.880000 -1.000000 -13.355438 18.733978 529.329712
8.840000 0.880000 -0.960000 -24.426279 2.446491 602.628418
8.840000 0.880000 -0.920000 -19.766336 -17.434845 694.681885
8.840000 0.880000 -0.880000 -1.893999 -27.943491 784.425903
8.840000 0.880000 -0.840000 17.626770 -22.546663 819.055054
8.840000 0.880000 -0.800000 26.448673 -5.970436 735.178406
8.840000 0.920000 -1.200000 10.950065 -16.051231 377.545959
8.840000 0.920000 -1.160000 24.510504 -0.108020 600.776428
8.840000 0.920000 -1.120000 21.349903 25.110554 1086.358276
8.840000 0.920000 -1.080000 -2.897915 42.321331 1799.493042
8.840000 0.920000 -1.040000 -35.892166 35.361225 2538.663818
8.840000 0.920000 -1.000000 -55.057159 3.624992 3044.431396
8.840000 0.920000 -0.960000 -44.515388 -34.352077 3161.685059
8.840000 0.920000 -0.920000 -8.882656 -53.303749 2920.191162
8.840000 0.920000 -0.880000 28.707554 -40.644093 2476.065918
8.840000 0.920000 -0.840000 43.984573 -6.616289 1978.417969
8.840000 0.920000 -0.800000 30.208834 23.973995 1487.326050
8.840000 0.960000 -1.200000 17.382410 1.263127 303.743683
8.840000 0.960000 -1.160000 15.727014 25.623665 903.911133
8.840000 0.960000 -1.120000 -9.064301 45.612850 2162.693604
8.840000 0.960000 -1.080000 -48.105896 40.447540 3950.180664
8.840000 0.960000 -1.040000 -75.685936 3.249878 5738.922363
8.840000 0.960000 -1.000000 -67.463768 -47.972092 6852.681641
8.840000 0.960000 -0.960000 -22.131351 -79.917404 6876.588379
8.840000 0.960000 -0.920000 33.503326 -69.274490 5921.427734
8.840000 0.960000 -0.880000 63.315620 -22.626738 4520.836914
8.840000 0.960000 -0.840000 49.984875 27.502302 3254.864502
8.840000 0.960000 -0.800000 8.125957 48.293400 2398.283691
8.840000 1.000000 -1.200000 6.655981 14.221852 246.563156
8.840000 1.000000 -1.160000 -11.439134 31.796547 1141.874146
8.840000 1.000000 -1.120000 -45.753933 30.312737 3012.284424
8.840000 1.000000 -1.080000 -75.153320 -2.111732 5652.480957
8.840000 1.000000 -1.040000 -72.806877 -54.489735 8269.972656
8.840000 1.000000 -1.000000 -29.238630 -94.766449 9835.577148
8.840000 1.000000 -0.960000 34.456985 -92.328430 9711.823242
8.840000 1.000000 -0.920000 78.415237 -44.067436 8090.888184
8.840000 1.000000 -0.880000 74.056725 19.777567 5875.550781
8.840000 1.000000 -0.840000 27.146950 57.679131 4063.838867
8.840000 1.000000 -0.800000 -26.997898 48.891628 3119.277832
8.840000 1.040000 -1.200000 -10.111746 11.554497 235.753799
8.840000 1.040000 -1.160000 -33.033833 11.855293 1231.782104
8.840000 1.040000 -1.120000 -55.963921 -10.896056 3250.684570
8.840000 1.040000 -1.080000 -56.928947 -52.918449 6041.267578
8.840000 1.040000 -1.040000 -22.740000 -90.735306 8750.002930
8.840000 1.040000 -1.000000 35.245399 -95.114204 10288.950195
8.840000 1.040000 -0.960000 83.577782 -54.950447 10004.796875
8.840000 1.040000 -0.920000 89.827164 9.520088 8159.551758
8.840000 1.040000 -0.880000 48.631592 58.566605 5795.079102
8.840000 1.040000 -0.840000 -12.332349 62.391159 4044.743652
8.840000 1.040000 -0.800000 -53.259407 23.594879 3393.282715
8.840000 1.080000 -1.200000 -18.364079 -4.674118 359.086761
8.840000 1.080000 -1.160000 -30.731274 -18.756672 1296.223877
8.840000 1.080000 -1.120000 -30.020542 -45.816841 3000.415771
8.840000 1.080000 -1.080000 -5.793145 -71.845642 5195.356934
8.840000 1.080000 -1.040000 37.309765 -76.113083 7185.219727
8.840000 1.080000 -1.000000 77.290161 -46.789188 8162.997070
8.840000 1.080000 -0.960000 87.621674 6.086002 7714.597168
8.840000 1.080000 -0.920000 57.508255 53.333549 6151.666992
8.840000 1.080000 -0.880000 2.814595 66.044769 4369.833496
8.840000 1.080000 -0.840000 -43.431595 37.177937 3268.502441
8.840000 1.080000 -0.800000 -54.712616 -12.957705 3161.372559
8.840000 1.120000 -1.200000 -11.439985 -22.700693 646.194702
8.840000 1.120000 -1.160000 -6.465633 -37.534771 1450.663452
8.840000 1.120000 -1.120000 11.744706 -49.611740 2599.262939
8.840000 1.120000 -1.080000 39.432091 -47.597057 3820.369629
8.840000 1.120000 -1.040000 63.739906 -25.316376 4703.694336
8.840000 1.120000 -1.000000 69.017685 11.482063 4895.278809
8.840000 1.120000 -0.960000 47.535900 45.473057 4327.460938
8.840000 1.120000 -0.920000 7.144670 57.203957 3323.339111
8.840000 1.120000 -0.880000 -31.281609 38.330963 2447.801758
8.840000 1.120000 -0.840000 -46.564648 -1.364228 2170.127441
8.840000 1.120000 -0.800000 -31.356440 -39.673065 2557.178467
8.840000 1.160000 -1.200000 6.171458 -31.142738 1007.957092
8.840000 1.160000 -1.160000 22.031708 -33.892761 1634.115356
8.840000 1.160000 -1.120000 39.850887 -24.945837 2210.388184
8.840000 1.160000 -1.080000 50.168648 -4.590240 2537.963623
8.840000 1.160000 -1.040000 45.944016 19.838770 2504.429199
8.840000 1.160000 -1.000000 26.907524 37.624504 2139.618164
8.840000 1.160000 -0.960000 0.165737 40.133068 1610.690674
8.840000 1.160000 -0.920000 -22.884502 25.238928 1160.703857
8.840000 1.160000 -0.880000 -31.773777 -1.231705 1011.089966
8.840000 1.160000 -0.840000 -22.108864 -27.775028 1260.254028
8.840000 1.160000 -0.800000 1.879113 -42.641056 1821.790649
8.840000 1.200000 -1.200000 24.189873 -26.442133 1284.336426
8.840000 1.200000 -1.160000 38.028893 -14.932117 1669.164795
8.840000 1.200000 -1.120000 41.729591 5.176383 1768.153687
8.840000 1.200000 -1.080000 31.044493 23.869045 1533.491821
8.840000 1.200000 -1.040000 10.886128 31.143978 1088.455200
8.840000 1.200000 -1.000000 -8.326777 23.992453 644.972961
8.840000 1.200000 -0.960000 -17.948999 7.446668 377.619415
8.840000 1.200000 -0.920000 -15.675610 -10.117601 348.090576
8.840000 1.200000 -0.880000 -4.600519 -22.343637 520.402893
8.840000 1.200000 -0.840000 10.471750 -26.700287 822.562866
8.840000 1.200000 -0.800000 25.446510 -23.175600 1184.633301
8.880000 0.800000 -1.200000 -33.729534 16.444878 1408.115479
8.880000 0.800000 -1.160000 -42.277218 -1.859201 1790.819824
8.880000 0.800000 -1.120000 -37.611721 -23.580271 1970.670776
8.880000 0.800000 -1.080000 -19.579885 -38.821980 1890.518066
8.880000 0.800000 -1.040000 4.555981 -39.151085 1553.564453
8.880000 0.800000 -1.000000 22.324947 -23.521755 1051.676270
8.880000 0.800000 -0.960000 23.475620 -1.220097 552.593384
8.880000 0.800000 -0.920000 8.358282 12.840591 234.741669
8.880000 0.800000 -0.880000 -10.627398 9.103313 195.811890
8.880000 0.800000 -0.840000 -17.997160 -8.277589 392.416260
8.880000 0.800000 -0.800000 -8.036995 -24.317238 655.921326
8.880000 0.840000 -1.200000 -27.344675 -5.829515 781.714539
8.880000 0.840000 -1.160000 -18.620792 -18.787043 699.686890
8.880000 0.840000 -1.120000 -3.168091 -21.384174 467.319702
8.880000 0.840000 -1.080000 8.711739 -12.277261 226.625519
8.880000 0.840000 -1.040000 9.547066 1.644505 93.850861
8.880000 0.840000 -1.000000 -0.298981 10.410431 108.466461
8.880000 0.840000 -0.960000 -13.202908 7.829403 235.616318
8.880000 0.840000 -0.920000 -19.567636 -4.498276 403.126892
8.880000 0.840000 -0.880000 -14.305016 -18.357866 541.644714
8.880000 0.840000 -0.840000 -0.271527 -24.633232 606.869873
8.880000 0.840000 -0.800000 13.869986 -19.715860 581.091675
8.880000 0.880000 -1.200000 -9.048548 -13.589378 266.547424
8.880000 0.880000 -1.160000 6.153027 -7.664863 96.609856
8.880000 0.880000 -1.120000 10.076424 11.897511 243.085068
8.880000 0.880000 -1.080000 -6.104767 29.532335 909.427002
8.880000 0.880000 -1.040000 -33.916195 27.862991 1926.654541
8.880000 0.880000 -1.000000 -53.154106 3.346458 2836.557617
8.880000 0.880000 -0.960000 -48.291126 -29.525764 3203.803711
8.880000 0.880000 -0.920000 -21.279011 -49.446297 2897.732666
8.880000 0.880000 -0.880000 10.307484 -45.033340 2134.245850
8.880000 0.880000 -0.840000 27.670856 -22.728863 1282.277466
8.880000 0.880000 -0.800000 24.884861 0.137246 619.275146
8.880000 0.920000 -1.200000 4.317591 -4.933291 42.978951
8.880000 0.920000 -1.160000 7.360561 18.740440 405.381958
8.880000 0.920000 -1.120000 -16.532452 41.924141 2030.955566
8.880000 0.920000 -1.080000 -59.153000 38.174080 4956.337891
8.880000 0.920000 -1.040000 -90.628944 -2.056324 8217.833984
8.880000 0.920000 -1.000000 -83.075951 -58.574741 10332.614258
8.880000 0.920000 -0.960000 -35.623856 -94.851768 10265.917969
8.880000 0.920000 -0.920000 22.659866 -87.261551 8128.047852
8.880000 0.920000 -0.880000 55.642860 -44.193562 5049.198730
8.880000 0.920000 -0.840000 48.602058 2.063169 2366.416748
8.880000 0.920000 -0.800000 17.230595 22.626616 808.857178
8.880000 0.960000 -1.200000 2.597883 7.722684 66.388847
8.880000 0.960000 -1.160000 -16.922253 32.506107 1343.009644
8.880000 0.960000 -1.120000 -62.176430 33.699631 5001.573730
8.880000 0.960000 -1.080000 -103.426285 -8.230907 10764.744141
8.880000 0.960000 -1.040000 -102.379646 -78.570755 16654.955078
8.880000 0.960000 -1.000000 -46.565018 -133.431671 19972.312500
8.880000 0.960000 -0.960000 34.928730 -133.514893 19046.242188
8.880000 0.960000 -0.920000 91.603737 -77.521080 14400.761719
8.880000 0.960000 -0.880000 91.465523 -4.320199 8384.605469
8.880000 0.960000 -0.840000 45.300171 38.854492 3561.776855
8.880000 0.960000 -0.800000 -5.764236 33.537067 1157.961304
8.880000 1.000000 -1.200000 -9.438388 9.991852 188.920273
8.880000 1.000000 -1.160000 -43.917980 17.292072 2227.804688
8.880000 1.000000 -1.120000 -84.931396 -13.479239 7395.032227
8.880000 1.000000 -1.080000 -93.417160 -80.020264 15130.007812
8.880000 1.000000 -1.040000 -44.695206 -144.056061 22749.810547
8.880000 1.000000 -1.000000 43.890812 -157.588287 26760.472656
8.880000 1.000000 -0.960000 119.990845 -103.494942 25109.005859
8.880000 1.000000 -0.920000 135.907288 -13.468227 18652.183594
8.880000 1.000000 -0.880000 86.952637 55.267475 10615.254883
8.880000 1.000000 -0.840000 13.972517 65.044075 4425.963379
8.880000 1.000000 -0.800000 -31.873911 24.780823 1630.035400
8.880000 1.040000 -1.200000 -17.817270 -1.640701 320.147003
8.880000 1.040000 -1.160000 -47.846519 -16.526089 2562.400879
8.880000 1.040000 -1.120000 -61.311874 -64.333359 7897.927246
8.880000 1.040000 -1.080000 -29.232813 -121.639305 15650.677734
8.880000 1.040000 -1.040000 46.641560 -144.733856 23123.324219
8.880000 1.040000 -1.000000 126.032303 -104.977600 26904.437500
8.880000 1.040000 -0.960000 157.322418 -17.396826 25052.994141
8.880000 1.040000 -0.920000 119.014694 65.950714 18513.994141
8.880000 1.040000 -0.880000 38.556637 95.220551 10553.567383
8.880000 1.040000 -0.840000 -29.366375 61.110622 4596.892090
8.880000 1.040000 -0.800000 -46.164879 -1.257293 2132.776855
8.880000 1.080000 -1.200000 -12.405123 -17.854004 472.652527
8.880000 1.080000 -1.160000 -23.352503 -42.394234 2342.610352
8.880000 1.080000 -1.120000 -7.548141 -80.417007 6523.869629
8.880000 1.080000 -1.080000 43.239830 -102.627731 12402.133789
8.880000 1.080000 -1.040000 107.164810 -80.222946 17920.017578
8.880000 1.080000 -1.000000 142.895996 -12.491421 20575.300781
8.880000 1.080000 -0.960000 121.290077 65.631821 19018.818359
8.880000 1.080000 -0.920000 51.519485 106.800560 14060.617188
8.880000 1.080000 -0.880000 -23.045902 87.606857 8206.075195
8.880000 1.080000 -0.840000 -57.512383 26.588642 4014.629883
8.880000 1.080000 -0.800000 -38.794548 -31.980221 2527.751465
8.880000 1.120000 -1.200000 5.009385 -25.665127 683.792664
8.880000 1.120000 -1.160000 11.525768 -41.938210 1891.656860
8.880000 1.120000 -1.120000 37.340668 -54.103291 4321.491211
8.880000 1.120000 -1.080000 75.314423 -43.117245 7531.358887
8.880000 1.120000 -1.040000 101.815315 -1.657314 10369.105469
8.880000 1.120000 -1.000000 92.824631 54.146652 11548.271484
8.880000 1.120000 -0.960000 45.089569 91.927078 10483.657227
8.880000 1.120000 -0.920000 -16.849831 86.473465 7761.577148
8.880000 1.120000 -0.880000 -56.422165 40.329414 4809.922363
8.880000 1.120000 -0.840000 -51.855553 -16.826048 2972.114258
8.880000 1.120000 -0.800000 -11.542682 -50.380409 2671.418945
8.880000 1.160000 -1.200000 23.632767 -19.142447 924.940918
8.880000 1.160000 -1.160000 33.447147 -19.143589 1485.188721
8.880000 1.160000 -1.120000 47.556965 -11.138048 2385.720947
8.880000 1.160000 -1.080000 57.555855 9.387196 3400.795898
8.880000 1.160000 -1.040000 51.948528 37.764923 4124.838867
8.880000 1.160000 -1.000000 25.833317 59.464127 4203.342773
8.880000 1.160000 -0.960000 -11.769547 58.807793 3596.878662
8.880000 1.160000 -0.920000 -40.875404 31.603050 2669.551514
8.880000 1.160000 -0.880000 -43.629532 -9.085449 1986.081421
8.880000 1.160000 -0.840000 -17.724373 -40.323326 1940.124023
8.880000 1.160000 -0.800000 21.294292 -45.062805 2484.103271
8.880000 1.200000 -1.200000 33.026047 -2.638952 1097.683838
8.880000 1.200000 -1.160000 33.461739 7.109393 1170.231445
8.880000 1.200000 -1.120000 29.463839 17.119768 1161.204224
8.880000 1.200000 -1.080000 20.654823 25.212162 1062.274902
8.880000 1.200000 -1.040000 7.618420 28.530323 872.019653
8.880000 1.200000 -1.000000 -6.922504 23.969322 622.449463
8.880000 1.200000 -0.960000 -17.434990 10.300577 410.080780
8.880000 1.200000 -0.920000 -17.431915 -9.061241 385.977783
8.880000 1.200000 -0.880000 -3.904749 -25.721975 676.867065
8.880000 1.200000 -0.840000 18.937149 -30.326019 1278.282959
8.880000 1.200000 -0.800000 40.642483 -18.869831 2007.881958
8.920000 0.800000 -1.200000 -36.789436 10.079370 1455.056396
8.920000 0.800000 -1.160000 -40.988121 -14.466798 1889.314331
8.920000 0.800000 -1.120000 -26.228352 -36.255936 2002.419434
8.920000 0.800000 -1.080000 -0.351650 -41.772705 1745.082520
8.920000 0.800000 -1.040000 20.863483 -28.036488 1221.329590
8.920000 0.800000 -1.000000 24.778515 -5.345989 642.554382
8.920000 0.800000 -0.960000 11.373062 9.933468 228.020325
8.920000 0.800000 -0.920000 -6.602409 7.745180 103.579620
8.920000 0.800000 -0.880000 -13.700842 -7.920258 250.443558
8.920000 0.800000 -0.840000 -4.145972 -22.617990 528.762573
8.920000 0.800000 -0.800000 13.928112 -23.704346 755.888306
8.920000 0.840000 -1.200000 -28.684767 -6.040897 859.308289
8.920000 0.840000 -1.160000 -17.477840 -17.455006 610.152100
8.920000 0.840000 -1.120000 -3.214989 -14.873941 231.570282
8.920000 0.840000 -1.080000 1.282761 -2.451424 7.654953
8.920000 0.840000 -1.040000 -7.638472 7.104172 108.815506
8.920000 0.840000 -1.000000 -21.679268 3.691704 483.619324
8.920000 0.840000 -0.960000 -27.896000 -11.790298 917.197998
8.920000 0.840000 -0.920000 -19.383003 -28.513872 1188.741699
8.920000 0.840000 -0.880000 -0.419382 -34.657814 1201.339966
8.920000 0.840000 -0.840000 17.522072 -26.408842 1004.449951
8.920000 0.840000 -0.800000 24.915222 -9.933064 719.434082
8.920000 0.880000 -1.200000 -15.649366 -9.223877 329.982574
8.920000 0.880000 -1.160000 -7.320681 0.904827 54.411076
8.920000 0.880000 -1.120000 -17.069519 17.102055 583.848755
8.920000 0.880000 -1.080000 -43.696037 18.203529 2240.712158
8.920000 0.880000 -1.040000 -66.826248 -6.905823 4513.437988
8.920000 0.880000 -1.000000 -64.258354 -46.758976 6315.538086
8.920000 0.880000 -0.960000 -32.159714 -75.455170 6727.729492
8.920000 0.880000 -0.920000 10.818161 -74.184738 5620.408203
8.920000 0.880000 -0.880000 39.071125 -46.245033 3665.155762
8.920000 0.880000 -0.840000 40.482162 -12.567724 1796.753174
8.920000 0.880000 -0.800000 23.561907 6.824658 601.739441
8.920000 0.920000 -1.200000 -9.924555 -3.480303 110.609299
8.920000 0.920000 -1.160000 -22.521717 16.989914 795.884888
8.920000 0.920000 -1.120000 -60.296997 18.978043 3995.893799
8.920000 0.920000 -1.080000 -96.522873 -17.942081 9638.583008
8.920000 0.920000 -1.040000 -95.140007 -81.373055 15673.195312
8.920000 0.920000 -1.000000 -44.250557 -131.198883 19171.257812
8.920000 0.920000 -0.960000 29.654785 -132.027557 18310.681641
8.920000 0.920000 -0.920000 81.682304 -83.483429 13641.482422
8.920000 0.920000 -0.880000 84.914406 -20.140194 7616.083984
8.920000 0.920000 -0.840000 50.031822 18.316216 2838.666992
8.920000 0.920000 -0.800000 11.627319 18.514767 477.991150
8.920000 0.960000 -1.200000 -13.648388 -0.484280 186.513016
8.920000 0.960000 -1.160000 -48.041275 8.389404 2378.346191
8.920000 0.960000 -1.120000 -91.697601 -23.990091 8983.974609
8.920000 0.960000 -1.080000 -100.373108 -96.085266 19307.138672
8.920000 0.960000 -1.040000 -46.708359 -165.228348 29482.078125
8.920000 0.960000 -1.000000 49.152939 -179.270142 34553.792969
8.920000 0.960000 -0.960000 130.258362 -121.857941 31816.597656
8.920000 0.960000 -0.920000 148.036621 -28.813683 22745.070312
8.920000 0.960000 -0.880000 101.323036 40.801559 11931.125000
8.920000 0.960000 -0.840000 33.805336 52.574127 3906.839600
8.920000 0.960000 -0.800000 -5.928461 20.053350 437.283508
8.920000 1.000000 -1.200000 -17.876118 -7.046492 369.208618
8.920000 1.000000 -1.160000 -56.383049 -23.066662 3711.118896
8.920000 1.000000 -1.120000 -75.659882 -83.156487 12639.418945
8.920000 1.000000 -1.080000 -36.287197 -157.064423 25985.992188
8.920000 1.000000 -1.040000 59.449646 -187.629791 38739.199219
8.920000 1.000000 -1.000000 159.235916 -139.134186 44714.398438
8.920000 1.000000 -0.960000 199.030548 -32.684570 40681.441406
8.920000 1.000000 -0.920000 155.766388 66.735703 28716.822266
8.920000 1.000000 -0.880000 66.075752 102.059448 14782.135742
8.920000 1.000000 -0.840000 -6.060688 68.111519 4675.911133
8.920000 1.000000 -0.800000 -22.148287 8.984244 571.263245
8.920000 1.040000 -1.200000 -12.588972 -18.374231 496.094604
8.920000 1.040000 -1.160000 -34.661667 -52.622795 3970.589600
8.920000 1.040000 -1.120000 -17.142246 -112.113739 12863.346680
8.920000 1.040000 -1.080000 55.799965 -151.069077 25935.501953
8.920000 1.040000 -1.040000 151.656158 -123.776154 38320.125000
8.920000 1.040000 -1.000000 207.946625 -28.673752 44063.980469
8.920000 1.040000 -0.960000 182.488342 82.268768 40070.148438
8.920000 1.040000 -0.920000 90.684814 141.880737 28353.878906
8.920000 1.040000 -0.880000 -5.643188 121.203285 14722.082031
8.920000 1.040000 -0.840000 -48.605141 50.017925 4864.252930
8.920000 1.040000 -0.800000 -28.051670 -12.743721 949.298584
8.920000 1.080000 -1.200000 2.937551 -23.223118 547.942383
8.920000 1.080000 -1.160000 3.274899 -56.233864 3172.972412
8.920000 1.080000 -1.120000 42.855095 -89.497910 9846.435547
8.920000 1.080000 -1.080000 112.758804 -83.081154 19617.025391
8.920000 1.080000 -1.040000 168.954880 -18.321089 28881.414062
8.920000 1.080000 -1.000000 164.899963 77.790657 33243.382812
8.920000 1.080000 -0.960000 92.830704 147.558121 30390.937500
8.920000 1.080000 -0.920000 -5.092632 147.492432 21779.953125
8.920000 1.080000 -0.880000 -68.504364 83.691116 11697.050781
8.920000 1.080000 -0.840000 -66.084991 5.586786 4398.438477
8.920000 1.080000 -0.800000 -16.405128 -35.745987 1546.903809
8.920000 1.120000 -1.200000 19.429150 -14.883404 599.007568
8.920000 1.120000 -1.160000 30.698444 -32.218018 1980.395020
8.920000 1.120000 -1.120000 65.519821 -36.324368 5612.306641
8.920000 1.120000 -1.080000 104.481461 -5.442356 10945.995117
8.920000 1.120000 -1.040000 113.207001 56.451706 16002.620117
8.920000 1.120000 -1.000000 71.817886 115.093704 18404.369141
8.920000 1.120000 -0.960000 -3.257519 130.076218 16930.433594
8.920000 1.120000 -0.920000 -67.653107 88.473015 12404.416992
8.920000 1.120000 -0.880000 -82.807053 17.374718 7158.888672
8.920000 1.120000 -0.840000 -45.827423 -37.028763 3471.281738
8.920000 1.120000 -0.800000 10.781029 -45.440529 2181.072021
8.920000 1.160000 -1.200000 26.189926 2.898692 694.314636
8.920000 1.160000 -1.160000 32.389801 -0.269512 1049.171875
8.920000 1.160000 -1.120000 46.954887 7.193707 2256.510986
8.920000 1.160000 -1.080000 55.208977 32.271431 4089.476318
8.920000 1.160000 -1.040000 40.200020 64.624725 5792.396484
8.920000 1.160000 -1.000000 0.242867 80.805588 6529.602051
8.920000 1.160000 -0.960000 -44.505192 63.177193 5972.069824
8.920000 1.160000 -0.920000 -65.205872 17.150375 4545.940918
8.920000 1.160000 -0.880000 -47.261772 -30.004364 3133.937012
8.920000 1.160000 -0.840000 -2.758292 -49.363937 2444.406494
8.920000 1.160000 -0.800000 39.013390 -32.197205 2558.704590
8.920000 1.200000 -1.200000 19.930899 19.835926 790.704712
8.920000 1.200000 -1.160000 15.232267 18.591450 577.663940
8.920000 1.200000 -1.120000 14.732563 18.924700 575.192688
8.920000 1.200000 -1.080000 12.837635 24.243843 752.568787
8.920000 1.200000 -1.040000 3.194126 30.058706 913.728271
8.920000 1.200000 -1.000000 -12.972481 26.819574 887.574829
8.920000 1.200000 -0.960000 -24.975121 9.555489 715.064026
8.920000 1.200000 -0.920000 -20.737442 -14.847843 650.499939
8.920000 1.200000 -0.880000 1.867073 -30.815704 953.093567
8.920000 1.200000 -0.840000 31.134748 -26.025541 1646.701416
8.920000 1.200000 -0.800000 49.535202 -1.680475 2456.560303
8.960000 0.800000 -1.200000 -36.370262 1.687712 1325.644409
8.960000 0.800000 -1.160000 -31.900518 -23.704184 1579.531372
8.960000 0.800000 -1.120000 -10.498703 -38.233276 1572.006226
8.960000 0.800000 -1.080000 13.584480 -32.955303 1270.590088
8.960000 0.800000 -1.040000 24.477489 -13.546299 782.649658
8.960000 0.800000 -1.000000 17.157711 4.126381 311.414062
8.960000 0.800000 -0.960000 1.225105 6.948891 49.787964
8.960000 0.800000 -0.920000 -7.510548 -4.798234 79.431374
8.960000 0.800000 -0.880000 -0.609026 -18.273441 334.289581
8.960000 0.800000 -0.840000 16.126793 -19.683693 647.521240
8.960000 0.800000 -0.800000 28.402557 -6.292498 846.300781
8.960000 0.840000 -1.200000 -30.857779 -9.325029 1039.158691
8.960000 0.840000 -1.160000 -19.110132 -17.465517 670.241455
8.960000 0.840000 -1.120000 -9.904480 -13.496498 280.254181
8.960000 0.840000 -1.080000 -11.462053 -6.510822 173.769470
8.960000 0.840000 -1.040000 -20.266960 -7.865417 472.614441
8.960000 0.840000 -1.000000 -24.754963 -20.415878 1029.616211
8.960000 0.840000 -0.960000 -16.084671 -35.768749 1538.120117
8.960000 0.840000 -0.920000 3.839016 -41.552727 1741.367188
8.960000 0.840000 -0.880000 23.811340 -31.836134 1580.519287
8.960000 0.840000 -0.840000 32.418423 -11.714448 1188.182373
8.960000 0.840000 -0.800000 26.615681 7.277706 761.359497
8.960000 0.880000 -1.200000 -24.183380 -13.356882 763.242188
8.960000 0.880000 -1.160000 -24.425535 -5.848877 630.816101
8.960000 0.880000 -1.120000 -40.572834 -4.279198 1664.466431
8.960000 0.880000 -1.080000 -59.037018 -23.970531 4059.955811
8.960000 0.880000 -1.040000 -57.400444 -60.550774 6961.207031
8.960000 0.880000 -1.000000 -26.076248 -90.853249 8934.283203
8.960000 0.880000 -0.960000 20.879490 -92.265121 8948.805664
8.960000 0.880000 -0.920000 56.415756 -62.356331 7071.049805
8.960000 0.880000 -0.880000 62.519970 -20.575392 4332.093262
8.960000 0.880000 -0.840000 43.272148 8.691212 1948.015869
8.960000 0.880000 -0.800000 18.185627 15.260889 563.611755
8.960000 0.920000 -1.200000 -21.023235 -15.367815 678.146118
8.960000 0.920000 -1.160000 -42.488941 -10.149723 1908.327026
8.960000 0.920000 -1.120000 -72.167084 -35.245377 6450.324219
8.960000 0.920000 -1.080000 -75.260857 -90.419968 13839.966797
8.960000 0.920000 -1.040000 -30.338417 -142.284256 21165.228516
8.960000 0.920000 -1.000000 46.206291 -150.375153 24747.707031
8.960000 0.920000 -0.960000 109.722610 -103.114456 22671.640625
8.960000 0.920000 -0.920000 123.548279 -29.376839 16127.175781
8.960000 0.920000 -0.880000 88.368423 25.640121 8466.393555
8.960000 0.920000 -0.840000 38.122261 37.297550 2844.414062
8.960000 0.920000 -0.800000 8.230662 17.301382 367.081635
8.960000 0.960000 -1.200000 -18.277748 -20.555546 756.606567
8.960000 0.960000 -1.160000 -50.629532 -35.627293 3832.653564
8.960000 0.960000 -1.120000 -65.135155 -91.225082 12564.603516
8.960000 0.960000 -1.080000 -24.775990 -158.151215 25625.656250
8.960000 0.960000 -1.040000 66.555222 -182.615005 37777.835938
8.960000 0.960000 -1.000000 158.397858 -133.403366 42886.339844
8.960000 0.960000 -0.960000 192.451859 -33.329346 38148.562500
8.960000 0.960000 -0.920000 151.323807 56.737965 26118.091797
8.960000 0.960000 -0.880000 71.804504 87.678970 12843.488281
8.960000 0.960000 -0.840000 10.972321 59.708496 3685.496338
8.960000 0.960000 -0.800000 -1.728642 14.542599 214.475388
8.960000 1.000000 -1.200000 -9.751188 -27.087891 828.839539
8.960000 1.000000 -1.160000 -32.207573 -63.879963 5117.977539
8.960000 1.000000 -1.120000 -11.089924 -127.850601 16468.763672
8.960000 1.000000 -1.080000 70.042725 -167.709106 33032.328125
8.960000 1.000000 -1.040000 173.456436 -134.551132 48191.140625
8.960000 1.000000 -1.000000 231.097687 -30.176105 54316.738281
8.960000 1.000000 -0.960000 201.153351 86.819443 48000.289062
8.960000 1.000000 -0.920000 105.111282 146.673492 32561.496094
8.960000 1.000000 -0.880000 9.673176 124.934082 15702.094727
8.960000 1.000000 -0.840000 -29.595682 57.989445 4238.680176
8.960000 1.000000 -0.800000 -10.277981 5.571608 136.679703
8.960000 1.040000 -1.200000 5.244732 -27.238813 769.460144
8.960000 1.040000 -1.160000 5.238277 -69.913658 4915.358887
8.960000 1.040000 -1.120000 56.187927 -112.734940 15866.250000
8.960000 1.040000 -1.080000 145.247406 -103.845612 31880.718750
8.960000 1.040000 -1.040000 214.924728 -21.435514 46652.121094
8.960000 1.040000 -1.000000 208.158661 97.400055 52816.796875
8.960000 1.040000 -0.960000 119.869339 180.519684 46956.015625
8.960000 1.040000 -0.920000 5.324286 179.108612 32108.242188
8.960000 1.040000 -0.880000 -64.614639 107.185822 15663.852539
8.960000 1.040000 -0.840000 -60.508171 26.075411 4341.166016
8.960000 1.040000 -0.800000 -11.756104 -10.017473 238.555725
8.960000 1.080000 -1.200000 19.058834 -15.823847 613.633301
8.960000 1.080000 -1.160000 36.002140 -46.428108 3451.723389
8.960000 1.080000 -1.120000 90.947876 -55.769310 11381.732422
8.960000 1.080000 -1.080000 152.100189 -10.244534 23239.417969
8.960000 1.080000 -1.040000 166.571259 81.823853 34441.128906
8.960000 1.080000 -1.000000 107.189835 167.316620 39484.511719
8.960000 1.080000 -0.960000 1.905674 188.762238 35634.816406
8.960000 1.080000 -0.920000 -84.844833 133.053131 24901.781250
8.960000 1.080000 -0.880000 -103.996841 42.869576 12653.143555
8.960000 1.080000 -0.840000 -59.741615 -20.062737 3971.573975
8.960000 1.080000 -0.800000 0.160946 -25.298094 640.019409
8.960000 1.120000 -1.200000 22.078207 3.190737 497.628052
8.960000 1.120000 -1.160000 40.042107 -10.541151 1714.486206
8.960000 1.120000 -1.120000 76.230362 1.402790 5813.035645
8.960000 1.120000 -1.080000 98.232590 51.054832 12256.237305
8.960000 1.120000 -1.040000 73.440979 114.800308 18572.687500
8.960000 1.120000 -1.000000 2.222527 147.321228 21708.484375
8.960000 1.120000 -0.960000 -75.750015 119.621414 20047.347656
8.960000 1.120000 -0.920000 -111.339668 46.303631 14540.547852
8.960000 1.120000 -0.880000 -86.096756 -24.605431 8018.078613
8.960000 1.120000 -0.840000 -25.987627 -50.746311 3250.544678
8.960000 1.120000 -0.800000 23.038113 -27.644384 1294.966553
8.960000 1.160000 -1.200000 11.746376 19.119373 503.527802
8.960000 1.160000 -1.160000 20.197258 12.996326 576.833740
8.960000 1.160000 -1.120000 34.988480 24.404400 1819.768433
8.960000 1.160000 -1.080000 34.339096 53.776493 4071.084473
8.960000 1.160000 -1.040000 4.523430 79.843704 6395.478516
8.960000 1.160000 -1.000000 -43.057095 76.162018 7654.566406
8.960000 1.160000 -0.960000 -77.342728 36.032063 7280.207031
8.960000 1.160000 -0.920000 -72.842377 -18.240227 5638.717773
8.960000 1.160000 -0.880000 -31.894335 -51.929001 3713.869629
8.960000 1.160000 -0.840000 16.910103 -45.838799 2387.147217
8.960000 1.160000 -0.800000 42.452003 -10.281759 1907.887207
8.960000 1.200000 -1.200000 -4.990043 23.558819 579.918457
8.960000 1.200000 -1.160000 -3.515133 13.949741 206.951447
8.960000 1.200000 -1.120000 3.502602 13.587677 196.893188
8.960000 1.200000 -1.080000 3.889534 22.323465 513.465576
8.960000 1.200000 -1.040000 -8.425316 28.464575 881.217957
8.960000 1.200000 -1.000000 -25.518496 19.781944 1042.518921
8.960000 1.200000 -0.960000 -31.217701 -3.397736 986.089478
8.960000 1.200000 -0.920000 -15.926308 -26.179398 939.008118
8.960000 1.200000 -0.880000 13.438721 -30.967014 1139.555176
8.960000 1.200000 -0.840000 38.077904 -12.483713 1605.769897
8.960000 1.200000 -0.800000 42.323601 17.807829 2108.406006
9.000000 0.800000 -1.200000 -31.043831 -5.065578 989.379517
9.000000 0.800000 -1.160000 -20.375835 -24.750441 1027.759033
9.000000 0.800000 -1.120000 0.273470 -31.227131 975.208496
9.000000 0.800000 -1.080000 17.635693 -21.897175 790.503906
9.000000 0.800000 -1.040000 21.515537 -5.585793 494.119415
9.000000 0.800000 -1.000000 12.964703 4.518421 188.499634
9.000000 0.800000 -0.960000 3.147800 2.030397 14.031161
9.000000 0.800000 -0.920000 3.185482 -7.225687 62.357849
9.000000 0.800000 -0.880000 13.889779 -10.831900 310.256012
9.000000 0.800000 -0.840000 24.971889 -1.609624 626.186157
9.000000 0.800000 -0.800000 24.702946 15.382204 846.847717
9.000000 0.840000 -1.200000 -30.364784 -15.056114 1148.706665
9.000000 0.840000 -1.160000 -20.788036 -21.081785 876.584106
9.000000 0.840000 -1.120000 -14.745033 -21.331928 672.467163
9.000000 0.840000 -1.080000 -13.244483 -22.599754 686.165222
9.000000 0.840000 -1.040000 -11.000340 -28.471222 931.617920
9.000000 0.840000 -1.000000 -2.239601 -35.686279 1278.526367
9.000000 0.840000 -0.960000 13.224060 -36.897942 1536.333862
9.000000 0.840000 -0.920000 28.854462 -27.125114 1568.351807
9.000000 0.840000 -0.880000 35.952011 -8.465797 1364.216797
9.000000 0.840000 -0.840000 30.153263 10.757965 1024.953125
9.000000 0.840000 -0.800000 14.741718 21.661081 686.520691
9.000000 0.880000 -1.200000 -26.569349 -24.520016 1307.161499
9.000000 0.880000 -1.160000 -30.366325 -25.634415 1579.236938
9.000000 0.880000 -1.120000 -38.293682 -39.061657 2992.219238
9.000000 0.880000 -1.080000 -33.554688 -65.364090 5398.381348
9.000000 0.880000 -1.040000 -5.809372 -88.214020 7815.462402
9.000000 0.880000 -1.000000 36.319458 -87.755363 9020.107422
9.000000 0.880000 -0.960000 70.197815 -58.689140 8372.148438
9.000000 0.880000 -0.920000 77.276756 -15.896568 6224.397949
9.000000 0.880000 -0.880000 57.523544 17.470625 3614.180908
9.000000 0.880000 -0.840000 27.625751 27.960993 1544.999268
9.000000 0.880000 -0.800000 5.929057 19.791367 426.851898
9.000000 0.920000 -1.200000 -18.649736 -33.555103 1473.757568
9.000000 0.920000 -1.160000 -34.283470 -45.424095 3238.704590
9.000000 0.920000 -1.120000 -37.108002 -82.363632 8160.771973
9.000000 0.920000 -1.080000 -3.257172 -123.610497 15290.164062
9.000000 0.920000 -1.040000 62.233521 -133.132660 21597.316406
9.000000 0.920000 -1.000000 123.652168 -92.387527 23825.312500
9.000000 0.920000 -0.960000 142.672943 -19.856010 20749.830078
9.000000 0.920000 -0.920000 110.563034 42.378574 14020.127930
9.000000 0.920000 -0.880000 54.409096 62.941391 6921.968262
9.000000 0.920000 -0.840000 12.308133 44.448006 2127.115479
9.000000 0.920000 -0.800000 1.917933 15.581604 246.464844
9.000000 0.960000 -1.200000 -4.769872 -39.156151 1555.955811
9.000000 0.960000 -1.160000 -17.503942 -68.846016 5046.162109
9.000000 0.960000 -1.120000 5.693138 -117.860481 13923.504883
9.000000 0.960000 -1.080000 75.774475 -143.584381 26358.246094
9.000000 0.960000 -1.040000 159.071869 -108.323708 37037.882812
9.000000 0.960000 -1.000000 200.188354 -17.966564 40398.175781
9.000000 0.960000 -0.960000 169.130737 76.936760 34524.472656
9.000000 0.960000 -0.920000 88.299988 121.466240 22550.935547
9.000000 0.960000 -0.880000 13.089127 101.023994 10377.172852
9.000000 0.960000 -0.840000 -15.318541 49.040337 2639.612305
9.000000 0.960000 -0.800000 -0.499292 12.610195 159.266327
9.000000 1.000000 -1.200000 12.919145 -35.611153 1435.058472
9.000000 1.000000 -1.160000 17.207443 -74.429611 5835.863281
9.000000 1.000000 -1.120000 69.206757 -110.380562 16973.443359
9.000000 1.000000 -1.080000 153.678070 -94.864136 32616.152344
9.000000 1.000000 -1.040000 214.509521 -11.129568 46138.203125
9.000000 1.000000 -1.000000 200.555206 101.351883 50494.593750
9.000000 1.000000 -0.960000 113.035248 174.324554 43166.015625
9.000000 1.000000 -0.920000 7.880224 167.271790 28041.949219
9.000000 1.000000 -0.880000 -50.974457 100.188225 12636.076172
9.000000 1.000000 -0.840000 -43.681850 32.226109 2946.625977
9.000000 1.000000 -0.800000 -3.884234 8.150852 81.523666
9.000000 1.040000 -1.200000 26.363947 -20.208817 1103.453979
9.000000 1.040000 -1.160000 48.326797 -51.971062 5036.470703
9.000000 1.040000 -1.120000 110.308792 -57.516865 15476.218750
9.000000 1.040000 -1.080000 174.633881 -2.272512 30502.156250
9.000000 1.040000 -1.040000 184.028198 99.963867 43859.152344
9.000000 1.040000 -1.000000 114.056427 188.761719 48639.855469
9.000000 1.040000 -0.960000 0.861660 205.186707 42102.328125
9.000000 1.040000 -0.920000 -85.586090 142.766815 27707.341797
9.000000 1.040000 -0.880000 -99.514297 52.539219 12663.464844
9.000000 1.040000 -0.840000 -54.528122 -2.693207 2980.569580
9.000000 1.040000 -0.800000 -4.325264 -0.789854 19.331778
9.000000 1.080000 -1.200000 26.663565 1.523963 713.268127
9.000000 1.080000 -1.160000 54.216408 -14.239601 3142.185059
9.000000 1.080000 -1.120000 102.080414 6.196718 10458.810547
9.000000 1.080000 -1.080000 126.609634 74.035789 21511.298828
9.000000 1.080000 -1.040000 89.250854 154.394470 31803.367188
9.000000 1.080000 -1.000000 -3.007027 189.940765 36086.539062
9.000000 1.080000 -0.960000 -96.411186 150.598145 31974.917969
9.000000 1.080000 -0.920000 -133.448151 62.152508 21671.341797
9.000000 1.080000 -0.880000 -100.814178 -14.912575 10385.883789
9.000000 1.080000 -0.840000 -37.344257 -36.832840 2751.251465
9.000000 1.080000 -0.800000 4.057817 -9.758070 111.685814
9.000000 1.120000 -1.200000 12.254664 17.780663 466.328735
9.000000 1.120000 -1.160000 33.059807 13.494577 1275.054443
9.000000 1.120000 -1.120000 57.022659 40.123058 4861.443359
9.000000 1.120000 -1.080000 50.052162 91.118660 10807.829102
9.000000 1.120000 -1.040000 -2.595078 129.366623 16742.457031
9.000000 1.120000 -1.000000 -76.091125 117.922966 19695.685547
9.000000 1.120000 -0.960000 -122.664169 55.338699 18108.869141
9.000000 1.120000 -0.920000 -111.911957 -19.534218 12905.872070
9.000000 1.120000 -0.880000 -56.884804 -59.508938 6777.194336
9.000000 1.120000 -0.840000 -1.265803 -48.026791 2308.174805
9.000000 1.120000 -0.800000 19.275053 -8.905708 450.839325
9.000000 1.160000 -1.200000 -8.119049 19.377575 441.409363
9.000000 1.160000 -1.160000 3.927692 15.985619 270.966766
9.000000 1.160000 -1.120000 12.793591 32.397346 1213.263916
9.000000 1.160000 -1.080000 -1.356728 56.831749 3231.688477
9.000000 1.160000 -1.040000 -38.588234 63.250694 5489.702148
9.000000 1.160000 -1.000000 -74.691086 35.904575 6867.896973
9.000000 1.160000 -0.960000 -80.853477 -13.290565 6713.923828
9.000000 1.160000 -0.920000 -49.685047 -52.649094 5240.531250
9.000000 1.160000 -0.880000 -2.489964 -57.321251 3291.925781
9.000000 1.160000 -0.840000 29.122711 -29.574024 1722.755249
9.000000 1.160000 -0.800000 29.418348 5.680188 897.703735
9.000000 1.200000 -1.200000 -21.737442 7.547392 529.479492
9.000000 1.200000 -1.160000 -11.734304 0.035417 137.695145
9.000000 1.200000 -1.120000 -3.370197 5.073126 37.094837
9.000000 1.200000 -1.080000 -7.051517 14.183371 250.891907
9.000000 1.200000 -1.040000 -20.382771 13.587814 600.086060
9.000000 1.200000 -1.000000 -29.517475 -1.831665 874.636292
9.000000 1.200000 -0.960000 -22.104591 -22.453217 992.759888
9.000000 1.200000 -0.920000 0.623917 -31.895901 1017.737793
9.000000 1.200000 -0.880000 24.228077 -21.484362 1048.577515
9.000000 1.200000 -0.840000 33.232819 2.439037 1110.369141
9.000000 1.200000 -0.800000 23.351793 24.482502 1144.699219
9.040000 0.800000 -1.200000 -23.693092 -6.427629 602.677002
9.040000 0.800000 -1.160000 -13.490256 -19.263020 553.050964
9.040000 0.800000 -1.120000 2.755714 -23.111261 541.724365
9.040000 0.800000 -1.080000 16.930103 -15.768555 535.275696
9.040000 0.800000 -1.040000 21.633778 -2.492138 474.231079
9.040000 0.800000 -1.000000 16.667015 7.457570 333.404755
9.040000 0.800000 -0.960000 9.491982 8.897852 169.269470
9.040000 0.800000 -0.920000 8.041374 5.600693 96.031456
9.040000 0.800000 -0.880000 12.494638 6.217985 194.779327
9.040000 0.800000 -0.840000 14.805252 14.734610 436.304199
9.040000 0.800000 -0.800000 7.237144 25.265415 690.717407
9.040000 0.840000 -1.200000 -26.017620 -19.769352 1067.743896
9.040000 0.840000 -1.160000 -18.875572 -26.913788 1080.639160
9.040000 0.840000 -1.120000 -9.564573 -32.440453 1143.864014
9.040000 0.840000 -1.080000 2.406075 -34.595737 1202.654175
9.040000 0.840000 -1.040000 15.174248 -31.230106 1205.577271
9.040000 0.840000 -1.000000 25.386806 -22.211208 1137.827637
9.040000 0.840000 -0.960000 30.463079 -9.611565 1020.381348
9.040000 0.840000 -0.920000 29.502905 3.826935 885.066833
9.040000 0.840000 -0.880000 22.592932 15.568262 752.811340
9.040000 0.840000 -0.840000 10.548893 22.827047 632.353271
9.040000 0.840000 -0.800000 -3.951422 22.709675 531.343018
9.040000 0.880000 -1.200000 -19.227701 -34.883003 1586.528442
9.040000 0.880000 -1.160000 -18.439425 -44.141685 2288.500732
9.040000 0.880000 -1.120000 -9.074635 -60.351891 3724.699463
9.040000 0.880000 -1.080000 15.722580 -71.989410 5429.674805
9.040000 0.880000 -1.040000 48.911987 -64.978462 6614.583008
9.040000 0.880000 -1.000000 73.133804 -36.319729 6667.675781
9.040000 0.880000 -0.960000 74.458511 1.623016 5546.704102
9.040000 0.880000 -0.920000 53.438629 30.207748 3768.195068
9.040000 0.880000 -0.880000 23.839417 38.370499 2040.612915
9.040000 0.880000 -0.840000 1.197983 29.017879 843.472534
9.040000 0.880000 -0.800000 -7.911146 13.741354 251.411041
9.040000 0.920000 -1.200000 -2.262631 -44.753838 2008.025513
9.040000 0.920000 -1.160000 -1.726952 -62.825451 3950.019775
9.040000 0.920000 -1.120000 21.101774 -87.211433 8051.118652
9.040000 0.920000 -1.080000 68.067032 -92.141357 13123.150391
9.040000 0.920000 -1.040000 115.406654 -59.294174 16834.496094
9.040000 0.920000 -1.000000 131.167160 1.904598 17208.451172
9.040000 0.920000 -0.960000 102.801819 58.508812 13991.495117
9.040000 0.920000 -0.920000 48.784859 80.166054 8806.558594
9.040000 0.920000 -0.880000 3.042740 63.037876 3983.032227
9.040000 0.920000 -0.840000 -12.863119 29.858088 1056.965210
9.040000 0.920000 -0.800000 -4.166122 7.633631 75.628906
9.040000 0.960000 -1.200000 19.933184 -41.933212 2155.726074
9.040000 0.960000 -1.160000 29.802992 -66.380875 5294.638672
9.040000 0.960000 -1.120000 71.915604 -84.059875 12237.916016
9.040000 0.960000 -1.080000 131.397232 -62.218464 21136.369141
9.040000 0.960000 -1.040000 167.015381 5.841650 27928.261719
9.040000 0.960000 -1.000000 146.043350 87.219467 28935.894531
9.040000 0.960000 -0.960000 75.741310 133.233154 23487.820312
9.040000 0.960000 -0.920000 -0.068558 120.080383 14419.303711
9.040000 0.960000 -0.880000 -37.517033 68.036766 6036.529297
9.040000 0.960000 -0.840000 -28.066147 21.211420 1237.632935
9.040000 0.960000 -0.800000 -0.142159 8.119606 65.948212
9.040000 1.000000 -1.200000 36.757889 -24.191479 1936.369995
9.040000 1.000000 -1.160000 59.052078 -44.928368 5505.706055
9.040000 1.000000 -1.120000 110.619301 -41.062729 13922.777344
9.040000 1.000000 -1.080000 158.093658 12.458763 25148.826172
9.040000 1.000000 -1.040000 155.762604 99.308754 34124.218750
9.040000 1.000000 -1.000000 89.077103 167.419281 35963.945312
9.040000 1.000000 -0.960000 -6.411887 171.576187 29479.500000
9.040000 1.000000 -0.920000 -72.201019 113.523407 18100.550781
9.040000 1.000000 -0.880000 -76.039818 40.355122 7410.589844
9.040000 1.000000 -0.840000 -36.637218 2.218767 1347.208740
9.040000 1.000000 -0.800000 -1.283542 10.091127 103.478325
9.040000 1.040000 -1.200000 37.809269 1.354216 1431.374634
9.040000 1.040000 -1.160000 65.728172 -7.426266 4375.342285
9.040000 1.040000 -1.120000 108.139267 19.115313 12059.496094
9.040000 1.040000 -1.080000 123.409782 87.280609 22847.878906
9.040000 1.040000 -1.040000 78.975677 160.397690 31964.576172
9.040000 1.040000 -1.000000 -12.312243 185.250977 34469.515625
9.040000 1.040000 -0.960000 -96.336212 139.741089 28808.238281
9.040000 1.040000 -0.920000 -122.281242 55.293045 18010.023438
9.040000 1.040000 -0.880000 -86.070328 -9.658899 7501.395996
9.040000 1.040000 -0.840000 -30.780397 -20.487814 1367.183350
9.040000 1.040000 -0.800000 -4.466045 7.262075 72.683304
9.040000 1.080000 -1.200000 21.146267 20.767733 878.463318
9.040000 1.080000 -1.160000 44.607986 23.020054 2519.795410
9.040000 1.080000 -1.120000 65.802330 58.475754 7749.360352
9.040000 1.080000 -1.080000 49.297707 115.052513 15667.344727
9.040000 1.080000 -1.040000 -15.020897 150.421280 22852.187500
9.040000 1.080000 -1.000000 -94.376534 128.635849 25454.111328
9.040000 1.080000 -0.960000 -137.069611 56.121437 21937.693359
9.040000 1.080000 -0.920000 -117.516685 -20.158440 14216.533203
9.040000 1.080000 -0.880000 -58.802563 -52.855114 6251.404297
9.040000 1.080000 -0.840000 -10.312553 -34.453537 1293.395020
9.040000 1.080000 -0.800000 -2.658169 0.925277 7.921999
9.040000 1.120000 -1.200000 -3.301793 22.662491 524.490356
9.040000 1.120000 -1.160000 11.507366 28.112408 922.726990
9.040000 1.120000 -1.120000 14.714680 56.051270 3358.266602
9.040000 1.120000 -1.080000 -14.381401 85.894325 7584.659668
9.040000 1.120000 -1.040000 -67.853531 84.985458 11826.629883
9.040000 1.120000 -1.000000 -110.412659 40.747913 13851.347656
9.040000 1.120000 -0.960000 -109.485977 -23.305981 12530.347656
9.040000 1.120000 -0.920000 -65.532127 -65.798813 8623.943359
9.040000 1.120000 -0.880000 -12.273037 -63.529816 4186.665039
9.040000 1.120000 -0.840000 13.901453 -30.365391 1115.307373
9.040000 1.120000 -0.800000 5.191024 -1.207059 28.403727
9.040000 1.160000 -1.200000 -19.902666 7.401911 450.904419
9.040000 1.160000 -1.160000 -10.012260 9.950809 199.263947
9.040000 1.160000 -1.120000 -11.956230 24.262222 731.606934
9.040000 1.160000 -1.080000 -32.897255 32.190666 2118.468262
9.040000 1.160000 -1.040000 -59.190414 16.784359 3785.219727
9.040000 1.160000 -1.000000 -67.131668 -19.003681 4867.800781
9.040000 1.160000 -0.960000 -45.434849 -52.301353 4799.756836
9.040000 1.160000 -0.920000 -6.972260 -60.204903 3673.242676
9.040000 1.160000 -0.880000 22.342670 -40.199173 2115.168457
9.040000 1.160000 -0.840000 26.476376 -11.175976 825.900879
9.040000 1.160000 -0.800000 11.508842 5.067961 158.137695
9.040000 1.200000 -1.200000 -19.228004 -12.509665 526.207886
9.040000 1.200000 -1.160000 -8.968138 -12.097105 226.767456
9.040000 1.200000 -1.120000 -6.507395 -5.800383 75.990631
9.040000 1.200000 -1.080000 -12.218157 -4.051910 165.701340
9.040000 1.200000 -1.040000 -16.985008 -12.094887 434.776794
9.040000 1.200000 -1.000000 -11.577080 -24.319313 725.457764
9.040000 1.200000 -0.960000 3.845387 -29.585358 890.080383
9.040000 1.200000 -0.920000 19.672497 -21.945831 868.626648
9.040000 1.200000 -0.880000 25.770966 -5.913450 699.111511
9.040000 1.200000 -0.840000 20.047523 8.335696 471.387024
9.040000 1.200000 -0.800000 8.635397 13.974545 269.857971
9.080000 0.800000 -1.200000 -19.563246 -2.810647 390.620331
9.080000 0.800000 -1.160000 -13.753130 -13.829103 380.392700
9.080000 0.800000 -1.120000 1.357826 -19.862906 396.378693
9.080000 0.800000 -1.080000 18.533150 -12.925643 510.549866
9.080000 0.800000 -1.040000 25.767672 4.710085 686.157776
9.080000 0.800000 -1.000000 18.265530 20.994574 774.401733
9.080000 0.800000 -0.960000 3.668519 25.455540 661.442505
9.080000 0.800000 -0.920000 -5.760137 19.294098 405.441376
9.080000 0.800000 -0.880000 -5.771052 12.995419 202.185944
9.080000 0.800000 -0.840000 -3.608267 14.015176 209.444748
9.080000 0.800000 -0.800000 -8.474490 18.354034 408.687561
9.080000 0.840000 -1.200000 -20.317396 -20.589991 836.744324
9.080000 0.840000 -1.160000 -12.715740 -30.856028 1113.784424
9.080000 0.840000 -1.120000 4.440311 -36.186790 1329.200073
9.080000 0.840000 -1.080000 24.106901 -28.202126 1376.502563
9.080000 0.840000 -1.040000 34.295753 -8.508635 1248.595581
9.080000 0.840000 -1.000000 29.428310 11.781784 1004.835876
9.080000 0.840000 -0.960000 15.153248 22.265915 725.391907
9.080000 0.840000 -0.920000 1.805317 21.951475 485.126404
9.080000 0.840000 -0.880000 -5.686758 17.488869 338.199768
9.080000 0.840000 -0.840000 -10.317423 14.068801 304.380371
9.080000 0.840000 -0.800000 -16.158861 10.004889 361.206604
9.080000 0.880000 -1.200000 -6.697539 -36.908249 1407.075928
9.080000 0.880000 -1.160000 3.034437 -47.558327 2271.002197
9.080000 0.880000 -1.120000 25.048441 -52.153351 3347.396240
9.080000 0.880000 -1.080000 50.790497 -39.390026 4131.248535
9.080000 0.880000 -1.040000 64.313698 -9.976204 4235.776367
9.080000 0.880000 -1.000000 56.000156 22.087898 3623.892822
9.080000 0.880000 -0.960000 30.838827 40.514965 2592.495605
9.080000 0.880000 -0.920000 3.711552 39.213974 1551.511353
9.080000 0.880000 -0.880000 -12.822870 24.911118 784.989746
9.080000 0.880000 -0.840000 -16.491779 9.121375 355.178284
9.080000 0.880000 -0.800000 -13.027454 -1.403670 171.684860
9.080000 0.920000 -1.200000 17.416985 -40.356487 1931.997437
9.080000 0.920000 -1.160000 31.421484 -50.432323 3530.728760
9.080000 0.920000 -1.120000 60.213524 -49.383961 6064.444336
9.080000 0.920000 -1.080000 89.322258 -23.688057 8539.589844
9.080000 0.920000 -1.040000 96.188934 21.699528 9723.180664
9.080000 0.920000 -1.000000 70.261635 63.449249 8962.503906
9.080000 0.920000 -0.960000 24.132242 77.677399 6616.143555
9.080000 0.920000 -0.920000 -15.538904 59.461720 3777.153564
9.080000 0.920000 -0.880000 -29.297560 25.988638 1533.756348
9.080000 0.920000 -0.840000 -18.870352 0.973504 357.037903
9.080000 0.920000 -0.800000 -2.063461 -4.648883 25.869984
9.080000 0.960000 -1.200000 39.594120 -25.331833 2209.395996
9.080000 0.960000 -1.160000 58.185585 -31.022886 4347.981934
9.080000 0.960000 -1.120000 89.495804 -17.829466 8327.388672
9.080000 0.960000 -1.080000 110.524849 24.503412 12816.159180
9.080000 0.960000 -1.040000 95.934296 79.971947 15598.900391
9.080000 0.960000 -1.000000 43.688114 114.727699 15071.096680
9.080000 0.960000 -0.960000 -18.299841 105.216042 11405.298828
9.080000 0.960000 -0.920000 -53.454601 59.801765 6433.645508
9.080000 0.960000 -0.880000 -46.966736 12.301578 2357.203125
9.080000 0.960000 -0.840000 -16.712854 -7.305639 332.691864
9.080000 0.960000 -0.800000 5.358085 2.693331 35.963104
9.080000 1.000000 -1.200000 45.924988 2.219209 2114.029297
9.080000 1.000000 -1.160000 65.319527 4.181582 4284.126465
9.080000 1.000000 -1.120000 89.373459 30.498177 8917.753906
9.080000 1.000000 -1.080000 89.760338 81.411835 14684.804688
9.080000 1.000000 -1.040000 47.879829 128.400757 18779.232422
9.080000 1.000000 -1.000000 -21.615871 135.408310 18802.656250
9.080000 1.000000 -0.960000 -77.571411 92.453438 14564.960938
9.080000 1.000000 -0.920000 -86.505554 28.040308 8269.469727
9.080000 1.000000 -0.880000 -52.155746 -14.217398 2922.356445
9.080000 1.000000 -0.840000 -11.081980 -13.603189 307.857056
9.080000 1.000000 -0.800000 1.955936 11.658863 139.754776
9.080000 1.040000 -1.200000 31.138420 26.746140 1684.957153
9.080000 1.040000 -1.160000 45.782681 35.254333 3338.921875
9.080000 1.040000 -1.120000 54.562077 66.966209 7461.493164
9.080000 1.040000 -1.080000 31.975109 109.729950 13063.069336
9.080000 1.040000 -1.040000 -25.577675 129.660706 17466.115234
9.080000 1.040000 -1.000000 -88.063255 101.659088 18089.707031
9.080000 1.040000 -0.960000 -114.158218 36.928177 14395.789062
9.080000 1.040000 -0.920000 -88.557045 -22.505426 8348.844727
9.080000 1.040000 -0.880000 -37.128548 -40.034950 2981.326172
9.080000 1.040000 -0.840000 -3.234341 -16.843376 294.160278
9.080000 1.040000 -0.800000 -7.669540 11.816576 198.453323
9.080000 1.080000 -1.200000 3.986663 33.203529 1118.367798
9.080000 1.080000 -1.160000 11.346696 43.143917 1990.145142
9.080000 1.080000 -1.120000 5.514294 68.717110 4752.448242
9.080000 1.080000 -1.080000 -28.453777 89.958817 8902.206055
9.080000 1.080000 -1.040000 -78.944527 79.214432 12507.164062
9.080000 1.080000 -1.000000 -112.002296 30.431351 13470.582031
9.080000 1.080000 -0.960000 -101.226601 -29.305288 11105.624023
9.080000 1.080000 -0.920000 -54.342743 -61.106285 6687.111816
9.080000 1.080000 -0.880000 -8.084932 -49.454762 2511.139648
9.080000 1.080000 -0.840000 5.392962 -16.003035 285.181152
9.080000 1.080000 -0.800000 -12.398534 2.505779 160.002579
9.080000 1.120000 -1.200000 -17.744186 18.476654 656.242920
9.080000 1.120000 -1.160000 -15.283407 25.282957 872.810425
9.080000 1.120000 -1.120000 -26.930294 38.070072 2174.571289
9.080000 1.120000 -1.080000 -54.989300 37.739300 4448.077637
9.080000 1.120000 -1.040000 -80.976501 10.831570 6674.516602
9.080000 1.120000 -1.000000 -80.628494 -32.791061 7576.208008
9.080000 1.120000 -0.960000 -48.388916 -64.974472 6563.169434
9.080000 1.120000 -0.920000 -5.540401 -64.429657 4181.876953
9.080000 1.120000 -0.880000 18.201611 -37.152115 1711.578247
9.080000 1.120000 -0.840000 12.129932 -10.623112 259.985748
9.080000 1.120000 -0.800000 -6.727080 -7.054575 95.020638
9.080000 1.160000 -1.200000 -20.240654 -5.408320 438.934021
9.080000 1.160000 -1.160000 -18.552916 -2.020447 348.292877
9.080000 1.160000 -1.120000 -26.630548 0.214817 709.232239
9.080000 1.160000 -1.080000 -38.465031 -9.785034 1575.305542
9.080000 1.160000 -1.040000 -39.492615 -31.813854 2571.788086
9.080000 1.160000 -1.000000 -21.616856 -51.552513 3124.950195
9.080000 1.160000 -0.960000 6.649769 -53.237061 2878.404053
9.080000 1.160000 -0.920000 26.638781 -35.369659 1960.637451
9.080000 1.160000 -0.880000 26.896626 -12.861864 888.856018
9.080000 1.160000 -0.840000 13.729949 -2.780443 196.242371
9.080000 1.160000 -0.800000 3.982157 -8.249445 83.910919
9.080000 1.200000 -1.200000 -4.530334 -20.247391 430.480743
9.080000 1.200000 -1.160000 -2.375476 -17.576715 314.583801
9.080000 1.200000 -1.120000 -3.718588 -18.963402 373.438477
9.080000 1.200000 -1.080000 -1.408951 -25.466320 650.518616
9.080000 1.200000 -1.040000 8.817608 -30.378765 1000.619568
9.080000 1.200000 -1.000000 22.475979 -26.101109 1186.437500
9.080000 1.200000 -0.960000 29.984612 -12.796139 1062.818115
9.080000 1.200000 -0.920000 26.323460 0.874619 693.689453
9.080000 1.200000 -0.880000 16.287479 6.121698 302.757172
9.080000 1.200000 -0.840000 9.471938 2.619567 96.579742
9.080000 1.200000 -0.800000 10.442380 -1.957064 112.873398
9.120000 0.800000 -1.200000 -21.387297 0.924788 458.271698
9.120000 0.800000 -1.160000 -17.258263 -13.757799 487.124664
9.120000 0.800000 -1.120000 2.289917 -20.447842 423.357941
9.120000 0.800000 -1.080000 22.720783 -6.882008 563.596069
9.120000 0.800000 -1.040000 24.869934 19.646622 1004.503357
9.120000 0.800000 -1.000000 5.143790 37.986393 1469.424683
9.120000 0.800000 -0.960000 -20.049559 34.032463 1560.193359
9.120000 0.800000 -0.920000 -30.794535 14.453682 1157.212280
9.120000 0.800000 -0.880000 -23.280861 -1.404243 543.970398
9.120000 0.800000 -0.840000 -11.592537 -2.218573 139.308990
9.120000 0.800000 -0.800000 -10.563290 4.721534 133.875977
9.120000 0.840000 -1.200000 -17.188126 -18.234894 627.942993
9.120000 0.840000 -1.160000 -5.672631 -30.182508 943.162598
9.120000 0.840000 -1.120000 17.150600 -28.066940 1081.896240
9.120000 0.840000 -1.080000 33.111561 -6.002949 1132.410889
9.120000 0.840000 -1.040000 26.886499 22.445286 1226.674683
9.120000 0.840000 -1.000000 1.967190 36.476627 1334.414185
9.120000 0.840000 -0.960000 -22.510460 27.959370 1288.447144
9.120000 0.840000 -0.920000 -30.501022 8.062360 995.314026
9.120000 0.840000 -0.880000 -23.261248 -5.736441 573.992371
9.120000 0.840000 -0.840000 -14.606085 -7.345204 267.289734
9.120000 0.840000 -0.800000 -13.970164 -5.450784 224.876541
9.120000 0.880000 -1.200000 2.201454 -30.183590 915.895447
9.120000 0.880000 -1.160000 18.140312 -35.274086 1573.332031
9.120000 0.880000 -1.120000 39.131847 -23.945118 2104.670166
9.120000 0.880000 -1.080000 47.645420 3.747272 2284.127930
9.120000 0.880000 -1.040000 33.310600 31.815447 2121.818848
9.120000 0.880000 -1.000000 3.596497 41.937454 1771.684937
9.120000 0.880000 -0.960000 -22.473701 29.542934 1377.852295
9.120000 0.880000 -0.920000 -30.983099 6.562798 1003.022705
9.120000 0.880000 -0.880000 -23.420723 -10.845016 666.144653
9.120000 0.880000 -0.840000 -11.625074 -16.205311 397.754456
9.120000 0.880000 -0.800000 -4.656990 -14.850088 242.212677
9.120000 0.920000 -1.200000 27.061243 -24.005545 1308.577026
9.120000 0.920000 -1.160000 42.354061 -20.758368 2224.776367
9.120000 0.920000 -1.120000 56.998127 -2.265768 3253.920166
9.120000 0.920000 -1.080000 55.889309 27.877104 3900.747559
9.120000 0.920000 -1.040000 32.282864 53.065243 3858.103027
9.120000 0.920000 -1.000000 -3.762959 56.376381 3192.456299
9.120000 0.920000 -0.960000 -31.825109 35.160233 2249.079590
9.120000 0.920000 -0.920000 -37.133339 3.771855 1393.111816
9.120000 0.920000 -0.880000 -21.735485 -18.188869 803.266235
9.120000 0.920000 -0.840000 -1.042931 -21.245070 452.440674
9.120000 0.920000 -0.800000 10.121213 -11.416812 232.782547
9.120000 0.960000 -1.200000 41.218353 -0.060313 1698.956299
9.120000 0.960000 -1.160000 50.880169 9.409675 2677.333496
9.120000 0.960000 -1.120000 56.050690 30.973009 4101.007324
9.120000 0.960000 -1.080000 43.729881 58.868652 5377.820801
9.120000 0.960000 -1.040000 10.549398 75.502190 5811.870605
9.120000 0.960000 -1.000000 -29.176014 65.283981 5113.237793
9.120000 0.960000 -0.960000 -51.917679 30.347153 3616.395020
9.120000 0.960000 -0.920000 -44.252617 -8.064839 2023.335693
9.120000 0.960000 -0.880000 -15.257836 -26.012238 909.438049
9.120000 0.960000 -0.840000 10.796017 -16.874155 401.291107
9.120000 0.960000 -0.800000 15.528759 3.854750 256.001434
9.120000 1.000000 -1.200000 33.653481 28.013870 1917.333740
9.120000 1.000000 -1.160000 35.289318 38.858795 2755.341797
9.120000 1.000000 -1.120000 30.359859 57.912743 4275.606934
9.120000 1.000000 -1.080000 8.122441 76.931152 5984.376465
9.120000 1.000000 -1.040000 -29.458324 77.901855 6936.492188
9.120000 1.000000 -1.000000 -62.621086 50.273155 6448.790527
9.120000 1.000000 -0.960000 -68.144569 5.584778 4674.872070
9.120000 1.000000 -0.920000 -41.443745 -28.122246 2508.444824
9.120000 1.000000 -0.880000 -3.747875 -29.970604 912.283691
9.120000 1.000000 -0.840000 15.412885 -5.814323 271.363373
9.120000 1.000000 -0.800000 5.051850 16.743080 305.851898
9.120000 1.040000 -1.200000 7.994133 41.969067 1825.308716
9.120000 1.040000 -1.160000 3.054717 49.207581 2430.717285
9.120000 1.040000 -1.120000 -9.067696 60.380802 3728.064453
9.120000 1.040000 -1.080000 -34.832336 64.893929 5424.513672
9.120000 1.040000 -1.040000 -65.508072 48.061928 6601.256836
9.120000 1.040000 -1.000000 -79.469658 9.314513 6402.187012
9.120000 1.040000 -0.960000 -61.922020 -30.572058 4768.987305
9.120000 1.040000 -0.920000 -22.651688 -44.970367 2535.432861
9.120000 1.040000 -0.880000 9.074004 -26.673092 793.791382
9.120000 1.040000 -0.840000 10.664141 3.170659 123.776978
9.120000 1.040000 -0.800000 -11.792309 14.084163 337.422180
9.120000 1.080000 -1.200000 -18.669474 32.721657 1419.256104
9.120000 1.080000 -1.160000 -26.073668 34.069107 1840.540283
9.120000 1.080000 -1.120000 -39.523750 34.818710 2774.469238
9.120000 1.080000 -1.080000 -58.991463 24.810511 4095.554199
9.120000 1.080000 -1.040000 -71.563080 -2.253335 5126.352051
9.120000 1.080000 -1.000000 -61.664764 -36.361992 5124.737793
9.120000 1.080000 -0.960000 -29.103359 -55.415268 3917.857422
9.120000 1.080000 -0.920000 5.592117 -45.444687 2096.491211
9.120000 1.080000 -0.880000 17.794617 -16.615692 592.729614
9.120000 1.080000 -0.840000 2.716477 3.857923 22.262817
9.120000 1.080000 -0.800000 -18.502058 -2.566266 348.911865
9.120000 1.120000 -1.200000 -28.199436 8.138109 861.437012
9.120000 1.120000 -1.160000 -34.341770 4.885123 1203.221558
9.120000 1.120000 -1.120000 -43.121513 -2.945342 1868.140015
9.120000 1.120000 -1.080000 -48.632698 -20.325975 2778.284668
9.120000 1.120000 -1.040000 -40.461685 -43.222321 3505.316895
9.120000 1.120000 -1.000000 -15.738944 -57.438416 3546.885986
9.120000 1.120000 -0.960000 13.357474 -50.634193 2742.243652
9.120000 1.120000 -0.920000 27.622871 -26.393801 1459.655762
9.120000 1.120000 -0.880000 18.861694 -4.094345 372.527191
9.120000 1.120000 -0.840000 -0.470080 -1.818911 3.529411
9.120000 1.120000 -0.800000 -7.870296 -18.342129 398.375244
9.120000 1.160000 -1.200000 -15.711428 -12.508997 403.323975
9.120000 1.160000 -1.160000 -19.755823 -17.512527 696.981201
9.120000 1.160000 -1.120000 -20.937660 -29.048660 1282.210205
9.120000 1.160000 -1.080000 -11.998399 -43.427151 2029.879028
9.120000 1.160000 -1.040000 8.281065 -50.135468 2582.141113
9.120000 1.160000 -1.000000 30.283619 -40.667927 2570.977783
9.120000 1.160000 -0.960000 39.694439 -18.426691 1915.191406
9.120000 1.160000 -0.920000 30.601274 1.600328 938.999023
9.120000 1.160000 -0.880000 12.590112 5.360629 187.247253
9.120000 1.160000 -0.840000 3.176618 -6.811779 56.491241
9.120000 1.160000 -0.800000 11.545988 -19.723955 522.344238
9.120000 1.200000 -1.200000 6.375649 -13.894501 233.706055
9.120000 1.200000 -1.160000 2.761477 -19.432602 385.251770
9.120000 1.200000 -1.120000 8.245817 -30.142036 976.535889
9.120000 1.200000 -1.080000 25.225492 -34.416721 1820.836182
9.120000 1.200000 -1.040000 43.706326 -22.990252 2438.794434
9.120000 1.200000 -1.000000 48.936901 0.292070 2394.905518
9.120000 1.200000 -0.960000 35.621937 19.790936 1660.603516
9.120000 1.200000 -0.920000 14.377515 21.822033 682.914062
9.120000 1.200000 -0.880000 2.809475 7.808471 68.865372
9.120000 1.200000 -0.840000 9.174993 -6.707039 129.164856
9.120000 1.200000 -0.800000 24.798031 -6.810255 661.321899
9.160000 0.800000 -1.200000 -26.660252 -0.296667 710.857056
9.160000 0.800000 -1.160000 -18.054792 -18.606443 672.175293
9.160000 0.800000 -1.120000 6.763305 -19.576700 428.989471
9.160000 0.800000 -1.080000 22.959229 4.417883 546.643860
9.160000 0.800000 -1.040000 10.923868 34.083904 1281.043457
9.160000 0.800000 -1.000000 -21.945780 41.711128 2221.435547
9.160000 0.800000 -0.960000 -47.509495 19.553345 2639.485352
9.160000 0.800000 -0.920000 -45.008842 -12.285295 2176.724365
9.160000 0.800000 -0.880000 -21.158138 -26.804153 1166.129395
9.160000 0.800000 -0.840000 -1.223725 -17.175459 296.493896
9.160000 0.800000 -0.800000 -1.639321 -1.249029 4.247448
9.160000 0.840000 -1.200000 -18.163536 -16.644224 606.944214
9.160000 0.840000 -1.160000 -1.832337 -26.589401 710.353760
9.160000 0.840000 -1.120000 19.425461 -14.565557 589.503967
9.160000 0.840000 -1.080000 21.784384 14.392717 681.709717
9.160000 0.840000 -1.040000 -2.504789 35.608158 1274.214844
9.160000 0.840000 -1.000000 -35.495647 29.085327 2105.897217
9.160000 0.840000 -0.960000 -50.554771 -0.233682 2555.839600
9.160000 0.840000 -0.920000 -38.233707 -27.713551 2229.857422
9.160000 0.840000 -0.880000 -13.843334 -33.835869 1336.503906
9.160000 0.840000 -0.840000 0.271863 -21.988010 483.546509
9.160000 0.840000 -0.800000 -2.290843 -11.282929 132.552460
9.160000 0.880000 -1.200000 2.398589 -21.837555 482.632050
9.160000 0.880000 -1.160000 18.226011 -19.939749 729.781067
9.160000 0.880000 -1.120000 28.017479 -0.593535 785.331421
9.160000 0.880000 -1.080000 16.876854 23.500198 837.087524
9.160000 0.880000 -1.040000 -11.842823 31.476974 1131.052368
9.160000 0.880000 -1.000000 -37.882359 14.446777 1643.782471
9.160000 0.880000 -0.960000 -42.455204 -15.568476 2044.821777
9.160000 0.880000 -0.920000 -25.040699 -37.003819 1996.319214
9.160000 0.880000 -0.880000 -1.987787 -38.405132 1478.905518
9.160000 0.880000 -0.840000 10.415773 -26.527868 812.216125
9.160000 0.880000 -0.800000 10.164555 -16.146393 364.024170
9.160000 0.920000 -1.200000 22.011805 -8.407648 555.208069
9.160000 0.920000 -1.160000 28.886372 1.569981 836.887329
9.160000 0.920000 -1.120000 25.474003 18.865200 1004.820557
9.160000 0.920000 -1.080000 7.003983 31.517969 1042.438110
9.160000 0.920000 -1.040000 -18.499504 27.209316 1082.578491
9.160000 0.920000 -1.000000 -34.971546 4.881475 1246.837891
9.160000 0.920000 -0.960000 -31.224867 -22.792406 1494.486084
9.160000 0.920000 -0.920000 -10.310127 -39.078743 1633.446899
9.160000 0.920000 -0.880000 13.245106 -36.280216 1491.686890
9.160000 0.920000 -0.840000 25.524128 -20.617151 1076.547974
9.160000 0.920000 -0.800000 23.419779 -5.340142 577.003113
9.160000 0.960000 -1.200000 25.232693 17.296268 935.849670
9.160000 0.960000 -1.160000 20.175703 26.674549 1118.590576
9.160000 0.960000 -1.120000 8.361023 34.357830 1250.367188
9.160000 0.960000 -1.080000 -9.641525 34.410572 1277.046509
9.160000 0.960000 -1.040000 -27.226641 21.618872 1208.665527
9.160000 0.960000 -1.000000 -33.682636 -2.234319 1139.512207
9.160000 0.960000 -0.960000 -22.126543 -26.038822 1167.604126
9.160000 0.960000 -0.920000 2.876359 -35.597145 1275.430176
9.160000 0.960000 -0.880000 26.225859 -24.921993 1308.901367
9.160000 0.960000 -0.840000 33.167664 -2.521692 1106.452759
9.160000 0.960000 -0.800000 21.516855 14.452523 671.850464
9.160000 1.000000 -1.200000 7.253264 37.832783 1483.929321
9.160000 1.000000 -1.160000 -5.622192 38.931080 1547.238037
9.160000 1.000000 -1.120000 -18.095211 34.793972 1538.057129
9.160000 1.000000 -1.080000 -29.635456 25.117716 1509.159912
9.160000 1.000000 -1.040000 -36.815506 8.025337 1419.787476
9.160000 1.000000 -1.000000 -32.475739 -13.891810 1247.656006
9.160000 1.000000 -0.960000 -12.990602 -30.013824 1069.585449
9.160000 1.000000 -0.920000 13.637922 -28.253616 984.259766
9.160000 1.000000 -0.880000 30.205151 -7.653121 970.921387
9.160000 1.000000 -0.840000 24.554531 16.704372 881.961060
9.160000 1.000000 -0.800000 2.639207 24.767620 620.400391
9.160000 1.040000 -1.200000 -20.391499 37.925522 1854.158447
9.160000 1.040000 -1.160000 -33.471676 28.786535 1949.017578
9.160000 1.040000 -1.120000 -40.298248 15.650007 1868.871582
9.160000 1.040000 -1.080000 -42.036076 0.792600 1767.659790
9.160000 1.040000 -1.040000 -37.288498 -15.873923 1642.413574
9.160000 1.040000 -1.000000 -22.232693 -30.262199 1410.093384
9.160000 1.040000 -0.960000 1.439251 -32.792526 1077.421143
9.160000 1.040000 -0.920000 21.550655 -17.518307 771.321838
9.160000 1.040000 -0.880000 23.298931 7.467597 598.605225
9.160000 1.040000 -0.840000 4.735233 22.632725 534.662659
9.160000 1.040000 -0.800000 -17.183369 14.179497 496.326294
9.160000 1.080000 -1.200000 -37.880322 17.550091 1742.924316
9.160000 1.080000 -1.160000 -45.620506 1.883054 2084.776611
9.160000 1.080000 -1.120000 -44.129906 -15.301310 2181.578613
9.160000 1.080000 -1.080000 -34.920475 -30.257269 2134.941895
9.160000 1.080000 -1.040000 -18.683180 -40.253311 1969.390381
9.160000 1.080000 -1.000000 2.560704 -40.377968 1636.937500
9.160000 1.080000 -0.960000 20.941618 -26.621376 1147.249023
9.160000 1.080000 -0.920000 25.033470 -3.580950 639.497803
9.160000 1.080000 -0.880000 10.650049 13.862007 305.578796
9.160000 1.080000 -0.840000 -10.885501 11.495557 250.641968
9.160000 1.080000 -0.800000 -19.118357 -9.165345 449.515137
9.160000 1.120000 -1.200000 -33.177235 -7.111728 1151.305542
9.160000 1.120000 -1.160000 -35.030895 -24.115610 1808.726196
9.160000 1.120000 -1.120000 -25.672070 -41.030426 2342.551025
9.160000 1.120000 -1.080000 -6.611259 -50.821114 2626.494385
9.160000 1.120000 -1.040000 16.462513 -47.836334 2559.329346
9.160000 1.120000 -1.000000 33.996658 -30.805920 2104.777588
9.160000 1.120000 -0.960000 36.395260 -6.398549 1365.556396
9.160000 1.120000 -0.920000 21.588928 11.708005 603.159180
9.160000 1.120000 -0.880000 -0.003788 11.559475 133.621475
9.160000 1.120000 -0.840000 -10.738726 -5.914021 150.295868
9.160000 1.120000 -0.800000 -0.018035 -24.606899 605.499817
9.160000 1.160000 -1.200000 -12.320366 -16.787668 433.617218
9.160000 1.160000 -1.160000 -11.106117 -32.732449 1194.759033
9.160000 1.160000 -1.120000 4.300877 -46.775505 2206.445312
9.160000 1.160000 -1.080000 29.388691 -47.037506 3076.222168
9.160000 1.160000 -1.040000 50.518692 -28.623318 3371.432617
9.160000 1.160000 -1.000000 53.685001 0.366013 2882.213379
9.160000 1.160000 -0.960000 35.991035 22.545767 1803.666260
9.160000 1.160000 -0.920000 9.949585 23.910789 670.720093
9.160000 1.160000 -0.880000 -4.852591 5.843531 57.694489
9.160000 1.160000 -0.840000 2.517926 -14.676193 221.730606
9.160000 1.160000 -0.800000 24.606068 -18.481083 947.008972
9.160000 1.200000 -1.200000 5.638578 -5.307063 59.958485
9.160000 1.200000 -1.160000 7.782761 -21.418930 519.341919
9.160000 1.200000 -1.120000 27.365532 -31.313240 1729.391357
9.160000 1.200000 -1.080000 52.588509 -20.505478 3186.025879
9.160000 1.200000 -1.040000 62.895508 9.172264 4039.975342
9.160000 1.200000 -1.000000 47.281212 38.328453 3704.583252
9.160000 1.200000 -0.960000 15.877125 45.748890 2345.043945
9.160000 1.200000 -0.920000 -7.426987 27.505260 811.699524
9.160000 1.200000 -0.880000 -5.719897 1.190156 34.133694
9.160000 1.200000 -0.840000 15.964291 -9.564754 346.343109
9.160000 1.200000 -0.800000 35.692467 3.903886 1289.192505
9.200000 0.800000 -1.200000 -29.923738 -7.379575 949.888245
9.200000 0.800000 -1.160000 -13.769394 -23.717827 752.131531
9.200000 0.800000 -1.120000 10.557213 -14.651341 326.116547
9.200000 0.800000 -1.080000 14.276086 14.749868 421.365234
9.200000 0.800000 -1.040000 -12.071920 35.189819 1384.054688
9.200000 0.800000 -1.000000 -46.468048 23.206392 2697.816162
9.200000 0.800000 -0.960000 -56.726017 -13.500181 3400.095947
9.200000 0.800000 -0.920000 -33.243389 -43.011234 2955.089355
9.200000 0.800000 -0.880000 1.579372 -41.374359 1714.332031
9.200000 0.800000 -0.840000 17.045958 -15.894501 543.199829
9.200000 0.800000 -0.800000 5.256872 4.640071 49.164967
9.200000 0.840000 -1.200000 -20.562038 -19.541922 804.684082
9.200000 0.840000 -1.160000 -1.504074 -24.603033 607.571533
9.200000 0.840000 -1.120000 12.281125 -6.729714 196.115082
9.200000 0.840000 -1.080000 1.048940 17.411579 304.263367
9.200000 0.840000 -1.040000 -29.606365 21.056824 1319.926758
9.200000 0.840000 -1.000000 -52.407707 -4.500644 2766.823730
9.200000 0.840000 -0.960000 -45.468708 -39.667843 3640.940918
9.200000 0.840000 -0.920000 -14.332554 -55.595688 3296.302734
9.200000 0.840000 -0.880000 14.206299 -42.536572 2011.178833
9.200000 0.840000 -0.840000 19.505589 -17.711250 694.156372
9.200000 0.840000 -0.800000 6.317121 -5.399398 69.059517
9.200000 0.880000 -1.200000 -2.746009 -19.859718 401.948975
9.200000 0.880000 -1.160000 9.429404 -14.703503 305.106659
9.200000 0.880000 -1.120000 8.987152 1.784160 83.952133
9.200000 0.880000 -1.080000 -9.631298 11.624625 227.893814
9.200000 0.880000 -1.040000 -32.468231 -0.010885 1054.186157
9.200000 0.880000 -1.000000 -38.348160 -28.547478 2285.539795
9.200000 0.880000 -0.960000 -19.560457 -52.935055 3184.731689
9.200000 0.880000 -0.920000 10.440989 -55.230728 3159.447510
9.200000 0.880000 -0.880000 30.111332 -36.841862 2264.015137
9.200000 0.880000 -0.840000 29.851166 -15.261144 1123.994629
9.200000 0.880000 -0.800000 18.564964 -5.797180 378.265198
9.200000 0.920000 -1.200000 9.763145 -4.179060 112.783554
9.200000 0.920000 -1.160000 9.161011 2.522757 90.288422
9.200000 0.920000 -1.120000 -0.457963 7.685286 59.273342
9.200000 0.920000 -1.080000 -14.890564 2.220650 226.660187
9.200000 0.920000 -1.040000 -22.674129 -15.738644 761.821045
9.200000 0.920000 -1.000000 -14.589249 -37.020149 1583.337646
9.200000 0.920000 -0.960000 7.529965 -47.748814 2336.649658
9.200000 0.920000 -0.920000 31.230053 -40.557526 2620.229004
9.200000 0.920000 -0.880000 43.137367 -20.541735 2282.795166
9.200000 0.920000 -0.840000 39.104187 -0.610486 1529.510132
9.200000 0.920000 -0.800000 25.984779 9.044449 757.010803
9.200000 0.960000 -1.200000 4.445837 17.321171 319.788422
9.200000 0.960000 -1.160000 -6.092340 15.282529 270.672302
9.200000 0.960000 -1.120000 -14.381689 6.028435 243.175003
9.200000 0.960000 -1.080000 -16.251451 -7.833331 325.470764
9.200000 0.960000 -1.040000 -9.654305 -21.962587 575.560852
9.200000 0.960000 -1.000000 5.026760 -31.158915 996.146240
9.200000 0.960000 -0.960000 24.044855 -30.393375 1501.912354
9.200000 0.960000 -0.920000 39.942223 -17.611612 1905.550049
9.200000 0.960000 -0.880000 44.436874 2.966647 1983.436890
9.200000 0.960000 -0.840000 34.335831 21.116741 1624.865967
9.200000 0.960000 -0.800000 15.673770 26.693378 958.203491
9.200000 1.000000 -1.200000 -17.300972 27.125397 1035.110840
9.200000 1.000000 -1.160000 -28.365738 11.974843 948.011963
9.200000 1.000000 -1.120000 -26.467060 -6.613121 744.238647
9.200000 1.000000 -1.080000 -14.586649 -19.391415 588.797241
9.200000 1.000000 -1.040000 0.612409 -23.717861 562.911987
9.200000 1.000000 -1.000000 15.329977 -21.146360 682.176758
9.200000 1.000000 -0.960000 28.131786 -12.082639 937.387573
9.200000 1.000000 -0.920000 35.237106 3.996186 1257.623169
9.200000 1.000000 -0.880000 30.597422 22.963703 1463.533936
9.200000 1.000000 -0.840000 13.177766 34.260971 1347.467651
9.200000 1.000000 -0.800000 -7.190265 28.722612 876.688354
9.200000 1.040000 -1.200000 -39.357941 15.885164 1801.385986
9.200000 1.040000 -1.160000 -42.271347 -8.372236 1856.961182
9.200000 1.040000 -1.120000 -27.946270 -27.607664 1543.177124
9.200000 1.040000 -1.080000 -6.687857 -32.854290 1124.131836
9.200000 1.040000 -1.040000 11.052990 -26.240114 810.712158
9.200000 1.040000 -1.000000 21.908760 -13.902004 673.259521
9.200000 1.040000 -0.960000 26.319420 1.165870 694.071106
9.200000 1.040000 -0.920000 22.575699 17.475210 815.045166
9.200000 1.040000 -0.880000 8.439928 29.207684 924.321167
9.200000 1.040000 -0.840000 -11.226520 27.424065 878.114075
9.200000 1.040000 -0.800000 -22.860191 10.155947 625.731567
9.200000 1.080000 -1.200000 -44.277668 -8.137070 2026.723755
9.200000 1.080000 -1.160000 -36.900497 -33.524887 2485.564941
9.200000 1.080000 -1.120000 -13.843555 -47.137268 2413.566162
9.200000 1.080000 -1.080000 11.312609 -43.017624 1978.491089
9.200000 1.080000 -1.040000 27.499224 -26.412956 1453.851562
9.200000 1.080000 -1.000000 31.455175 -5.960551 1024.956177
9.200000 1.080000 -0.960000 24.513861 12.004400 745.035034
9.200000 1.080000 -0.920000 9.096909 22.557949 591.614807
9.200000 1.080000 -0.880000 -9.544758 20.705502 519.820190
9.200000 1.080000 -0.840000 -21.242958 5.523236 481.769409
9.200000 1.080000 -0.800000 -16.152153 -14.017645 457.386414
9.200000 1.120000 -1.200000 -29.014051 -25.565842 1495.427490
9.200000 1.120000 -1.160000 -15.297429 -46.818810 2426.012207
9.200000 1.120000 -1.120000 11.406698 -53.401943 2981.880371
9.200000 1.120000 -1.080000 36.683388 -40.579826 2992.393066
9.200000 1.120000 -1.040000 48.051678 -15.016997 2534.473877
9.200000 1.120000 -1.000000 41.311241 10.870248 1824.780884
9.200000 1.120000 -0.960000 21.056465 25.613987 1099.451050
9.200000 1.120000 -0.920000 -2.036540 23.286724 546.419067
9.200000 1.120000 -0.880000 -15.445090 6.373995 279.178619
9.200000 1.120000 -0.840000 -11.074575 -13.877274 315.224945
9.200000 1.120000 -0.800000 8.257185 -22.443829 571.906555
9.200000 1.160000 -1.200000 -7.953875 -23.045750 594.370667
9.200000 1.160000 -1.160000 7.369055 -40.439590 1689.663452
9.200000 1.160000 -1.120000 34.909786 -41.431347 2935.249512
9.200000 1.160000 -1.080000 57.828152 -20.750744 3774.688477
9.200000 1.160000 -1.040000 60.534157 11.771812 3802.959473
9.200000 1.160000 -1.000000 40.136253 37.293564 3001.728760
9.200000 1.160000 -0.960000 9.206676 40.896797 1757.310913
9.200000 1.160000 -0.920000 -12.461353 22.303316 652.723206
9.200000 1.160000 -0.880000 -11.728627 -3.476083 149.643845
9.200000 1.160000 -0.840000 8.210885 -16.693270 346.083893
9.200000 1.160000 -0.800000 29.981333 -7.464594 954.600464
9.200000 1.200000 -1.200000 0.023279 -5.133675 26.355156
9.200000 1.200000 -1.160000 15.943674 -21.681583 724.291809
9.200000 1.200000 -1.120000 43.828201 -18.098364 2248.461914
9.200000 1.200000 -1.080000 61.712685 9.433259 3897.441895
9.200000 1.200000 -1.040000 52.520157 44.228577 4714.534180
9.200000 1.200000 -1.000000 19.805553 61.425983 4165.411133
9.200000 1.200000 -0.960000 -13.579333 48.787083 2564.577637
9.200000 1.200000 -0.920000 -23.978872 17.694010 888.064331
9.200000 1.200000 -0.880000 -6.801255 -6.153984 84.128593
9.200000 1.200000 -0.840000 20.021177 -4.493058 421.035095
9.200000 1.200000 -0.800000 32.034145 18.544922 1370.100586
