#kx 	ky 	kz 	real 	imag 	intensity
4.800000 -5.200000 6.800000 -37.816109 -3.600551 1443.022095
4.800000 -5.200000 6.840000 -32.877029 -17.286335 1379.716431
4.800000 -5.200000 6.880000 -21.022102 -27.044891 1173.354980
4.800000 -5.200000 6.920000 -5.815861 -28.812904 864.007690
4.800000 -5.200000 6.960000 6.835575 -22.307339 544.342468
4.800000 -5.200000 7.000000 12.772001 -11.718785 300.453949
4.800000 -5.200000 7.040000 12.553675 -2.417411 163.438614
4.800000 -5.200000 7.080000 10.114496 3.424938 114.033234
4.800000 -5.200000 7.120000 8.304768 7.814950 130.042603
4.800000 -5.200000 7.160000 5.980459 13.426090 216.025787
4.800000 -5.200000 7.200000 -0.066431 19.473902 379.237274
4.800000 -5.160000 6.800000 -30.394825 -21.111517 1369.541504
4.800000 -5.160000 6.840000 -20.023546 -25.962055 1074.970703
4.800000 -5.160000 6.880000 -8.580271 -26.134686 756.642822
4.800000 -5.160000 6.920000 1.426807 -20.312578 414.636597
4.800000 -5.160000 6.960000 5.615503 -9.977037 131.075150
4.800000 -5.160000 7.000000 1.896092 -0.736851 4.138113
4.800000 -5.160000 7.040000 -5.977049 1.667545 38.505829
4.800000 -5.160000 7.080000 -10.671748 -2.867260 122.107391
4.800000 -5.160000 7.120000 -8.125427 -7.986177 129.801605
4.800000 -5.160000 7.160000 -1.880367 -6.905052 51.215527
4.800000 -5.160000 7.200000 0.277048 0.584209 0.418056
4.800000 -5.120000 6.800000 -14.923504 -29.007767 1064.161499
4.800000 -5.120000 6.840000 -6.480064 -24.838879 658.961121
4.800000 -5.120000 6.880000 -1.204822 -18.367765 338.826416
4.800000 -5.120000 6.920000 -0.527083 -9.963764 99.554413
4.800000 -5.120000 6.960000 -6.630946 -3.186146 54.120972
4.800000 -5.120000 7.000000 -17.127270 -4.227028 311.211151
4.800000 -5.120000 7.040000 -23.518257 -15.290437 786.905884
4.800000 -5.120000 7.080000 -17.742821 -29.476189 1183.653320
4.800000 -5.120000 7.120000 -1.068403 -34.757706 1209.239624
4.800000 -5.120000 7.160000 14.897266 -24.826664 838.291748
4.800000 -5.120000 7.200000 17.765945 -5.985859 351.459320
4.800000 -5.080000 6.800000 -1.158163 -25.547062 653.993713
4.800000 -5.080000 6.840000 1.051246 -17.277018 299.600433
4.800000 -5.080000 6.880000 -1.618377 -10.028589 103.191742
4.800000 -5.080000 6.920000 -9.501268 -5.907590 125.173721
4.800000 -5.080000 6.960000 -20.798939 -9.737661 527.417908
4.800000 -5.080000 7.000000 -27.715397 -24.541803 1370.443359
4.800000 -5.080000 7.040000 -20.393585 -44.491035 2395.350586
4.800000 -5.080000 7.080000 2.840115 -55.433060 3080.890381
4.800000 -5.080000 7.120000 30.008854 -45.842354 3002.052734
4.800000 -5.080000 7.160000 42.947891 -18.616407 2191.092041
4.800000 -5.080000 7.200000 32.562923 9.095482 1143.071777
4.800000 -5.040000 6.800000 4.254944 -17.283573 316.826447
4.800000 -5.040000 6.840000 1.281196 -10.179855 105.270920
4.800000 -5.040000 6.880000 -6.554395 -6.871790 90.181587
4.800000 -5.040000 6.920000 -17.375156 -11.147166 426.155365
4.800000 -5.040000 6.960000 -24.517883 -26.210495 1288.116699
4.800000 -5.040000 7.000000 -17.902870 -47.995705 2624.100342
4.800000 -5.040000 7.040000 6.833048 -62.826996 3993.921875
4.800000 -5.040000 7.080000 39.991154 -56.049614 4740.851562
4.800000 -5.040000 7.120000 61.362495 -25.900242 4436.178711
4.800000 -5.040000 7.160000 55.684917 11.444004 3231.775391
4.800000 -5.040000 7.200000 26.407431 32.947163 1782.867920
4.800000 -5.000000 6.800000 3.114421 -12.376572 162.879135
4.800000 -5.000000 6.840000 -1.311509 -7.941757 64.791565
4.800000 -5.000000 6.880000 -9.810366 -9.404148 184.681274
4.800000 -5.000000 6.920000 -17.029720 -20.600161 714.377991
4.800000 -5.000000 6.960000 -13.515762 -39.843918 1770.213623
4.800000 -5.000000 7.000000 7.279745 -55.989159 3187.780518
4.800000 -5.000000 7.040000 39.753155 -53.767265 4471.231934
4.800000 -5.000000 7.080000 65.586349 -26.914597 5025.964844
4.800000 -5.000000 7.120000 66.223709 12.866863 4551.135742
4.800000 -5.000000 7.160000 38.979668 41.996040 3283.082031
4.800000 -5.000000 7.200000 1.265795 43.078087 1857.323853
4.800000 -4.960000 6.800000 2.421661 -12.750353 168.435944
4.800000 -4.960000 6.840000 -1.497322 -9.069894 84.504951
4.800000 -4.960000 6.880000 -7.975286 -12.965758 231.716080
4.800000 -4.960000 6.920000 -8.835462 -25.576199 732.207275
4.800000 -4.960000 6.960000 3.785100 -39.706566 1590.938354
4.800000 -4.960000 7.000000 28.998709 -42.073837 2611.132812
4.800000 -4.960000 7.040000 53.617424 -23.560638 3429.931885
4.800000 -4.960000 7.080000 59.859375 10.478989 3692.954102
4.800000 -4.960000 7.120000 40.038857 40.872025 3273.632324
4.800000 -4.960000 7.160000 5.064286 48.419067 2370.052979
4.800000 -4.960000 7.200000 -22.590921 29.705355 1392.757812
4.800000 -4.920000 6.800000 6.145709 -13.322629 215.262177
4.800000 -4.920000 6.840000 1.435506 -8.836360 80.141937
4.800000 -4.920000 6.880000 -3.325373 -12.696657 172.263214
4.800000 -4.920000 6.920000 -0.193191 -21.816652 476.003632
4.800000 -4.920000 6.960000 13.602859 -26.758263 901.042419
4.800000 -4.920000 7.000000 31.273571 -18.329386 1314.002686
4.800000 -4.920000 7.040000 39.683079 3.685316 1588.328247
4.800000 -4.920000 7.080000 29.598316 27.736895 1645.395630
4.800000 -4.920000 7.120000 4.783855 38.106186 1474.966675
4.800000 -4.920000 7.160000 -19.160124 27.718441 1135.422363
4.800000 -4.920000 7.200000 -26.713888 4.879271 737.439087
4.800000 -4.880000 6.800000 10.933518 -8.855130 197.955154
4.800000 -4.880000 6.840000 3.569718 -5.061442 38.361084
4.800000 -4.880000 6.880000 -0.945179 -8.444560 72.203957
4.800000 -4.880000 6.920000 1.630003 -13.309102 179.789108
4.800000 -4.880000 6.960000 9.331007 -12.805531 251.049301
4.800000 -4.880000 7.000000 15.221296 -4.355465 250.657944
4.800000 -4.880000 7.040000 12.730042 7.699539 221.336853
4.800000 -4.880000 7.080000 1.439045 14.906111 224.262985
4.800000 -4.880000 7.120000 -11.628685 11.548841 268.602051
4.800000 -4.880000 7.160000 -17.232357 0.055340 296.957184
4.800000 -4.880000 7.200000 -11.840496 -10.285421 245.987244
4.800000 -4.840000 6.800000 10.323101 -0.707933 107.067581
4.800000 -4.840000 6.840000 1.374972 -0.736579 2.433098
4.800000 -4.840000 6.880000 -3.111270 -4.635218 31.165247
4.800000 -4.840000 6.920000 -3.613819 -7.993730 76.959404
4.800000 -4.840000 6.960000 -2.919265 -9.262655 94.318893
4.800000 -4.840000 7.000000 -2.926166 -9.572157 100.188637
4.800000 -4.840000 7.040000 -3.358109 -10.515668 121.856163
4.800000 -4.840000 7.080000 -2.719791 -12.246975 157.385651
4.800000 -4.840000 7.120000 -0.140457 -13.199307 174.241440
4.800000 -4.840000 7.160000 3.290967 -11.348408 139.616821
4.800000 -4.840000 7.200000 4.649596 -6.200962 60.070671
4.800000 -4.800000 6.800000 2.683529 4.013328 23.308125
4.800000 -4.800000 6.840000 -3.701119 -0.708544 14.200318
4.800000 -4.800000 6.880000 -6.791532 -5.247232 73.658348
4.800000 -4.800000 6.920000 -9.470087 -9.804555 185.811844
4.800000 -4.800000 6.960000 -11.048313 -16.894386 407.485504
4.800000 -4.800000 7.000000 -7.603939 -26.020895 734.906860
4.800000 -4.800000 7.040000 2.802128 -31.922709 1026.911255
4.800000 -4.800000 7.080000 16.114206 -28.804588 1089.371948
4.800000 -4.800000 7.120000 24.118992 -16.267349 846.352417
4.800000 -4.800000 7.160000 20.746508 -0.950008 431.320099
4.800000 -4.800000 7.200000 7.030080 7.771705 109.821419
4.840000 -5.200000 6.800000 -46.192249 -15.509898 2374.280762
4.840000 -5.200000 6.840000 -34.046741 -30.328579 2079.003418
4.840000 -5.200000 6.880000 -15.573138 -36.239136 1555.797485
4.840000 -5.200000 6.920000 2.125677 -30.825089 954.704590
4.840000 -5.200000 6.960000 12.112198 -17.598560 456.414673
4.840000 -5.200000 7.000000 12.254572 -3.775051 164.425537
4.840000 -5.200000 7.040000 6.094340 4.877285 60.928894
4.840000 -5.200000 7.080000 -0.758423 7.488798 56.657303
4.840000 -5.200000 7.120000 -5.129219 7.095052 76.648651
4.840000 -5.200000 7.160000 -7.621378 6.773479 103.965416
4.840000 -5.200000 7.200000 -10.309191 7.000031 155.279846
4.840000 -5.160000 6.800000 -27.112583 -38.775188 2238.607422
4.840000 -5.160000 6.840000 -9.869663 -39.271675 1639.674805
4.840000 -5.160000 6.880000 4.989721 -30.761274 971.153320
4.840000 -5.160000 6.920000 11.550753 -15.621089 377.438293
4.840000 -5.160000 6.960000 6.665232 -1.205360 45.878204
4.840000 -5.160000 7.000000 -5.751193 4.207710 50.781044
4.840000 -5.160000 7.040000 -16.149815 -1.745911 263.864716
4.840000 -5.160000 7.080000 -16.638634 -12.727448 438.832062
4.840000 -5.160000 7.120000 -7.733725 -18.641171 407.303711
4.840000 -5.160000 7.160000 2.164084 -14.245523 207.618195
4.840000 -5.160000 7.200000 4.292713 -3.361726 29.728588
4.840000 -5.120000 6.800000 1.993973 -42.780609 1834.156494
4.840000 -5.120000 6.840000 14.465604 -28.886978 1043.711182
4.840000 -5.120000 6.880000 16.311871 -10.178420 369.677368
4.840000 -5.120000 6.920000 4.775652 5.185480 49.696053
4.840000 -5.120000 6.960000 -15.130247 7.083906 279.106110
4.840000 -5.120000 7.000000 -30.220816 -7.993855 977.199463
4.840000 -5.120000 7.040000 -27.894966 -30.950661 1736.072510
4.840000 -5.120000 7.080000 -7.447802 -44.844368 2066.487061
4.840000 -5.120000 7.120000 17.395605 -38.210514 1762.650391
4.840000 -5.120000 7.160000 28.836134 -15.153273 1061.144287
4.840000 -5.120000 7.200000 19.497749 7.802145 441.035706
4.840000 -5.080000 6.800000 23.628250 -27.106976 1293.082275
4.840000 -5.080000 6.840000 23.915535 -4.952334 596.478455
4.840000 -5.080000 6.880000 8.067370 13.349257 243.285126
4.840000 -5.080000 6.920000 -18.959497 14.990459 584.176392
4.840000 -5.080000 6.960000 -40.980057 -6.340317 1719.564697
4.840000 -5.080000 7.000000 -39.813992 -40.856255 3254.387451
4.840000 -5.080000 7.040000 -11.001489 -65.592873 4423.457520
4.840000 -5.080000 7.080000 28.965105 -61.133423 4576.272461
4.840000 -5.080000 7.120000 53.334846 -28.455185 3654.303467
4.840000 -5.080000 7.160000 46.156952 10.409454 2238.820801
4.840000 -5.080000 7.200000 14.944584 29.813038 1112.157837
4.840000 -5.040000 6.800000 27.212831 -4.927605 764.819519
4.840000 -5.040000 6.840000 13.598537 16.492451 456.921143
4.840000 -5.040000 6.880000 -15.731074 22.680431 761.868652
4.840000 -5.040000 6.920000 -44.693577 2.231356 2002.494873
4.840000 -5.040000 6.960000 -50.109203 -38.730305 4010.968750
4.840000 -5.040000 7.000000 -20.533398 -74.883957 6029.227539
4.840000 -5.040000 7.040000 30.005817 -78.661964 7088.053711
4.840000 -5.040000 7.080000 68.963989 -43.465652 6645.294922
4.840000 -5.040000 7.120000 70.073074 8.416721 4981.077148
4.840000 -5.040000 7.160000 34.719563 42.419121 3004.829834
4.840000 -5.040000 7.200000 -9.698609 39.066948 1620.289429
4.840000 -5.000000 6.800000 16.730967 8.776264 356.948059
4.840000 -5.000000 6.840000 -6.723877 21.973112 528.028198
4.840000 -5.000000 6.880000 -38.004028 10.591049 1556.476440
4.840000 -5.000000 6.920000 -52.780834 -27.083944 3519.356445
4.840000 -5.000000 6.960000 -31.874481 -69.769348 5883.744141
4.840000 -5.000000 7.000000 19.097448 -85.552094 7683.873047
4.840000 -5.000000 7.040000 68.862289 -57.793083 8082.055664
4.840000 -5.000000 7.080000 83.193024 -1.747308 6924.132324
4.840000 -5.000000 7.120000 52.901096 45.299503 4850.570801
4.840000 -5.000000 7.160000 1.739270 53.475998 2862.707520
4.840000 -5.000000 7.200000 -33.546604 23.535686 1679.303223
4.840000 -4.960000 6.800000 4.916832 9.438820 113.266556
4.840000 -4.960000 6.840000 -21.205019 11.422910 580.135681
4.840000 -4.960000 6.880000 -42.761726 -13.137055 2001.147461
4.840000 -4.960000 6.920000 -36.512882 -52.613735 4101.395508
4.840000 -4.960000 6.960000 2.797424 -77.989273 6090.152344
4.840000 -4.960000 7.000000 53.151741 -65.298409 7088.990234
4.840000 -4.960000 7.040000 79.782677 -17.728703 6679.582031
4.840000 -4.960000 7.080000 63.290154 33.937622 5157.405762
4.840000 -4.960000 7.120000 16.523451 55.155991 3315.207764
4.840000 -4.960000 7.160000 -25.764801 35.452065 1920.673828
4.840000 -4.960000 7.200000 -35.605721 -4.511592 1288.121826
4.840000 -4.920000 6.800000 0.598549 4.006925 16.413706
4.840000 -4.920000 6.840000 -21.503914 -3.301301 473.316895
4.840000 -4.920000 6.880000 -28.904829 -30.279963 1752.365234
4.840000 -4.920000 6.920000 -8.771237 -57.168575 3345.180664
4.840000 -4.920000 6.960000 29.833555 -59.921322 4480.605469
4.840000 -4.920000 7.000000 60.465012 -30.965851 4614.901367
4.840000 -4.920000 7.040000 60.164722 12.291012 3770.862793
4.840000 -4.920000 7.080000 29.039242 40.370148 2473.026367
4.840000 -4.920000 7.120000 -9.264093 35.710964 1361.096436
4.840000 -4.920000 7.160000 -27.255623 6.655899 787.169922
4.840000 -4.920000 7.200000 -15.947536 -20.898258 691.061096
4.840000 -4.880000 6.800000 2.205397 1.282177 6.507752
4.840000 -4.880000 6.840000 -12.342049 -10.337328 259.186523
4.840000 -4.880000 6.880000 -10.067478 -30.443777 1028.177612
4.840000 -4.880000 6.920000 9.723207 -41.709625 1834.233643
4.840000 -4.880000 6.960000 33.195152 -32.945107 2187.298096
4.840000 -4.880000 7.000000 42.831200 -8.623125 1908.869995
4.840000 -4.880000 7.040000 31.735865 14.482414 1216.905396
4.840000 -4.880000 7.080000 9.185318 21.058590 527.834290
4.840000 -4.880000 7.120000 -7.483673 9.628311 148.709747
4.840000 -4.880000 7.160000 -7.502210 -7.078651 106.390465
4.840000 -4.880000 7.200000 4.955763 -13.795123 214.865005
4.840000 -4.840000 6.800000 2.835575 2.714427 15.408603
4.840000 -4.840000 6.840000 -4.434703 -7.981163 83.365555
4.840000 -4.840000 6.880000 -0.831245 -19.004597 361.865662
4.840000 -4.840000 6.920000 9.184829 -22.923897 609.866150
4.840000 -4.840000 6.960000 18.196026 -18.629829 678.165894
4.840000 -4.840000 7.000000 21.500580 -10.367939 569.769104
4.840000 -4.840000 7.040000 19.401325 -3.340715 387.571777
4.840000 -4.840000 7.080000 15.341070 0.143343 235.368988
4.840000 -4.840000 7.120000 12.294534 1.338978 152.948425
4.840000 -4.840000 7.160000 10.387719 2.810596 115.804161
4.840000 -4.840000 7.200000 7.382786 5.424810 83.934090
4.840000 -4.800000 6.800000 -0.209963 2.992462 8.998915
4.840000 -4.800000 6.840000 -3.087608 -3.490923 21.719868
4.840000 -4.800000 6.880000 -3.590855 -9.432246 101.861511
4.840000 -4.800000 6.920000 -2.110970 -16.215317 267.392700
4.840000 -4.800000 6.960000 4.093811 -23.266081 558.069824
4.840000 -4.800000 7.000000 16.133179 -25.671919 919.326904
4.840000 -4.800000 7.040000 29.149958 -18.249720 1182.772339
4.840000 -4.800000 7.080000 34.395420 -1.936829 1186.796265
4.840000 -4.800000 7.120000 26.517384 14.801422 922.253723
4.840000 -4.800000 7.160000 8.870652 21.832973 555.367188
4.840000 -4.800000 7.200000 -8.577902 15.123827 302.310547
4.880000 -5.200000 6.800000 -46.129074 -37.670715 3546.974121
4.880000 -5.200000 6.840000 -25.519346 -47.606850 2917.649170
4.880000 -5.200000 6.880000 -3.600064 -44.226589 1968.951660
4.880000 -5.200000 6.920000 10.657640 -29.943691 1010.209961
4.880000 -5.200000 6.960000 12.742069 -12.801557 326.240173
4.880000 -5.200000 7.000000 5.125725 -1.123474 27.535248
4.880000 -5.200000 7.040000 -5.270740 1.494869 30.015329
4.880000 -5.200000 7.080000 -12.046611 -2.814108 153.040039
4.880000 -5.200000 7.120000 -12.692638 -8.932112 240.885696
4.880000 -5.200000 7.160000 -8.728378 -12.281098 227.009964
4.880000 -5.200000 7.200000 -3.874858 -10.843560 132.597336
4.880000 -5.160000 6.800000 -10.415004 -55.273827 3163.668213
4.880000 -5.160000 6.840000 9.715880 -45.716747 2184.419434
4.880000 -5.160000 6.880000 20.079172 -26.439390 1102.214600
4.880000 -5.160000 6.920000 15.533241 -6.354535 281.661713
4.880000 -5.160000 6.960000 -0.514172 3.424271 11.990003
4.880000 -5.160000 7.000000 -16.720825 -2.216415 284.498505
4.880000 -5.160000 7.040000 -21.555550 -17.759756 780.050659
4.880000 -5.160000 7.080000 -11.973183 -30.805063 1092.308960
4.880000 -5.160000 7.120000 4.449581 -31.437475 1008.113586
4.880000 -5.160000 7.160000 15.751671 -19.334391 621.933777
4.880000 -5.160000 7.200000 14.528452 -3.031662 220.266891
4.880000 -5.120000 6.800000 27.759239 -42.640488 2588.786621
4.880000 -5.120000 6.840000 34.776932 -16.254971 1473.658936
4.880000 -5.120000 6.880000 22.033581 9.502533 575.776794
4.880000 -5.120000 6.920000 -6.296772 18.833107 394.335266
4.880000 -5.120000 6.960000 -33.023331 3.332558 1101.646362
4.880000 -5.120000 7.000000 -38.744896 -28.280144 2300.933594
4.880000 -5.120000 7.040000 -17.646461 -54.048195 3232.604980
4.880000 -5.120000 7.080000 16.284763 -55.117054 3303.083252
4.880000 -5.120000 7.120000 39.486649 -30.769461 2505.955078
4.880000 -5.120000 7.160000 37.182938 1.379471 1384.473755
4.880000 -5.120000 7.200000 13.773607 19.980043 588.914429
4.880000 -5.080000 6.800000 44.825615 -8.197767 2076.539062
4.880000 -5.080000 6.840000 29.548275 23.968487 1447.588867
4.880000 -5.080000 6.880000 -8.521013 38.018147 1517.987183
4.880000 -5.080000 6.920000 -49.047592 17.988171 2729.240479
4.880000 -5.080000 6.960000 -62.717186 -29.368652 4795.962891
4.880000 -5.080000 7.000000 -35.114075 -73.917732 6696.829102
4.880000 -5.080000 7.040000 18.023924 -83.630798 7318.972168
4.880000 -5.080000 7.080000 60.634312 -50.920414 6269.408203
4.880000 -5.080000 7.120000 64.579010 0.359883 4170.578125
4.880000 -5.080000 7.160000 31.509102 34.440907 2178.999512
4.880000 -5.080000 7.200000 -10.897193 32.093834 1148.762939
4.880000 -5.040000 6.800000 33.021397 24.535324 1692.394775
4.880000 -5.040000 6.840000 -4.375041 46.828415 2212.041260
4.880000 -5.040000 6.880000 -54.623123 32.694275 4052.601074
4.880000 -5.040000 6.920000 -82.077629 -20.797466 7169.271973
4.880000 -5.040000 6.960000 -59.224289 -83.279228 10442.946289
4.880000 -5.040000 7.000000 5.927685 -110.432632 12230.503906
4.880000 -5.040000 7.040000 70.981140 -80.339050 11492.685547
4.880000 -5.040000 7.080000 91.659859 -13.829225 8592.776367
4.880000 -5.040000 7.120000 57.793396 41.560566 5067.357422
4.880000 -5.040000 7.160000 0.088658 50.425011 2542.689453
4.880000 -5.040000 7.200000 -37.736088 16.074711 1682.408691
4.880000 -5.000000 6.800000 5.576453 36.157478 1338.460083
4.880000 -5.000000 6.840000 -42.715363 36.422241 3151.181885
4.880000 -5.000000 6.880000 -82.369949 -7.792606 6845.533203
4.880000 -5.000000 6.920000 -75.291809 -76.792404 11565.929688
4.880000 -5.000000 6.960000 -13.772745 -122.944740 15305.097656
4.880000 -5.000000 7.000000 65.874298 -108.536003 16119.488281
4.880000 -5.000000 7.040000 109.148056 -40.171707 13527.064453
4.880000 -5.000000 7.080000 88.110130 33.874012 8910.843750
4.880000 -5.000000 7.120000 24.416027 63.077099 4574.862793
4.880000 -5.000000 7.160000 -30.673086 35.434433 2196.437256
4.880000 -5.000000 7.200000 -40.128887 -16.920080 1896.616699
4.880000 -4.960000 6.800000 -16.196962 25.783382 927.124390
4.880000 -4.960000 6.840000 -58.573959 2.911656 3439.386475
4.880000 -4.960000 6.880000 -70.394852 -55.449932 8030.129883
4.880000 -4.960000 6.920000 -28.527966 -111.120926 13161.705078
4.880000 -4.960000 6.960000 47.952850 -118.719940 16393.900391
4.880000 -4.960000 7.000000 107.933289 -65.845085 15985.169922
4.880000 -4.960000 7.040000 109.552261 12.665549 12162.114258
4.880000 -4.960000 7.080000 55.883797 62.175682 6988.814453
4.880000 -4.960000 7.120000 -8.277105 53.554161 2936.558594
4.880000 -4.960000 7.160000 -35.565601 5.130627 1291.235352
4.880000 -4.960000 7.200000 -14.571984 -37.403610 1611.372803
4.880000 -4.920000 6.800000 -20.898941 8.016522 501.030396
4.880000 -4.920000 6.840000 -44.921692 -27.177427 2756.570801
4.880000 -4.920000 6.880000 -29.378277 -76.787674 6759.429688
4.880000 -4.920000 6.920000 25.805317 -100.951035 10857.025391
4.880000 -4.920000 6.960000 85.904915 -74.488449 12928.183594
4.880000 -4.920000 7.000000 108.171768 -11.145863 11825.362305
4.880000 -4.920000 7.040000 78.090668 45.777008 8193.686523
4.880000 -4.920000 7.080000 21.732004 59.393948 3999.921143
4.880000 -4.920000 7.120000 -17.428720 29.264660 1160.180542
4.880000 -4.920000 7.160000 -15.489943 -11.448544 371.007477
4.880000 -4.920000 7.200000 14.776085 -27.340939 965.859619
4.880000 -4.880000 6.800000 -13.274143 -2.556492 182.738525
4.880000 -4.880000 6.840000 -18.146469 -34.657906 1530.464722
4.880000 -4.880000 6.880000 8.348850 -62.065231 3921.796387
4.880000 -4.880000 6.920000 51.299385 -59.698009 6195.479492
4.880000 -4.880000 6.960000 80.619186 -24.641460 7106.654785
4.880000 -4.880000 7.000000 75.850571 20.407757 6169.785645
4.880000 -4.880000 7.040000 42.984810 45.989822 3962.757568
4.880000 -4.880000 7.080000 8.203087 40.103870 1675.611084
4.880000 -4.880000 7.120000 -5.191015 16.195171 289.230225
4.880000 -4.880000 7.160000 4.669971 -1.197132 23.241758
4.880000 -4.880000 7.200000 20.126766 1.440179 407.160858
4.880000 -4.840000 6.800000 -5.031984 -3.148541 35.234177
4.880000 -4.840000 6.840000 -0.400970 -22.294924 497.224396
4.880000 -4.840000 6.880000 18.759373 -31.219307 1326.559204
4.880000 -4.840000 6.920000 39.394394 -22.837704 2073.479004
4.880000 -4.840000 6.960000 48.616009 -2.552383 2370.031006
4.880000 -4.840000 7.000000 42.859612 17.417276 2140.307861
4.880000 -4.840000 7.040000 28.490116 27.894028 1589.763428
4.880000 -4.840000 7.080000 14.819523 28.296505 1020.310425
4.880000 -4.840000 7.120000 6.621138 24.268618 632.805298
4.880000 -4.840000 7.160000 2.259806 21.095718 450.136047
4.880000 -4.840000 7.200000 -2.292492 19.318222 378.449219
4.880000 -4.800000 6.800000 -1.948619 -0.556849 4.107199
4.880000 -4.800000 6.840000 0.478054 -7.408382 55.112663
4.880000 -4.800000 6.880000 5.552127 -11.852905 171.317474
4.880000 -4.800000 6.920000 13.072659 -14.157143 371.319092
4.880000 -4.800000 6.960000 23.470873 -11.974533 694.271362
4.880000 -4.800000 7.000000 33.304863 -1.582798 1111.719116
4.880000 -4.800000 7.040000 34.997192 16.427561 1494.668213
4.880000 -4.800000 7.080000 23.006067 33.971546 1683.344971
4.880000 -4.800000 7.120000 0.561249 39.993610 1599.803833
4.880000 -4.800000 7.160000 -20.758604 29.527531 1302.794678
4.880000 -4.800000 7.200000 -29.387516 8.499443 935.866638
4.920000 -5.200000 6.800000 -27.563686 -60.629852 4435.735840
4.920000 -5.200000 6.840000 -2.693747 -59.124123 3502.918213
4.920000 -5.200000 6.880000 15.046692 -44.464676 2203.510254
4.920000 -5.200000 6.920000 19.372438 -25.117237 1006.166992
4.920000 -5.200000 6.960000 11.928597 -10.885120 260.777283
4.920000 -5.200000 7.000000 0.034236 -6.939701 48.160622
4.920000 -5.200000 7.040000 -8.523075 -12.121639 219.576950
4.920000 -5.200000 7.080000 -9.330259 -21.119276 533.077576
4.920000 -5.200000 7.120000 -2.354372 -27.627474 768.820374
4.920000 -5.200000 7.160000 8.531826 -26.747978 788.246399
4.920000 -5.200000 7.200000 16.720905 -17.152590 573.800049
4.920000 -5.160000 6.800000 18.163595 -58.906307 3799.869385
4.920000 -5.160000 6.840000 33.024830 -37.891338 2526.393066
4.920000 -5.160000 6.880000 30.874321 -12.989981 1121.963257
4.920000 -5.160000 6.920000 13.268763 2.146919 180.669327
4.920000 -5.160000 6.960000 -7.787382 -0.783016 61.256435
4.920000 -5.160000 7.000000 -17.876637 -18.068733 646.053223
4.920000 -5.160000 7.040000 -10.452730 -36.480614 1440.094727
4.920000 -5.160000 7.080000 8.951988 -42.823906 1914.025024
4.920000 -5.160000 7.120000 27.404295 -32.700249 1820.301636
4.920000 -5.160000 7.160000 33.591324 -12.293705 1279.512207
4.920000 -5.160000 7.200000 24.317436 6.726728 636.586609
4.920000 -5.120000 6.800000 49.884529 -23.823742 3056.037109
4.920000 -5.120000 6.840000 41.851887 8.753805 1828.209595
4.920000 -5.120000 6.880000 11.143185 27.860432 900.374268
4.920000 -5.120000 6.920000 -25.473972 17.932644 970.502991
4.920000 -5.120000 6.960000 -42.774490 -17.329674 2129.974609
4.920000 -5.120000 7.000000 -26.984364 -54.433693 3691.182617
4.920000 -5.120000 7.040000 11.836647 -67.158783 4650.408691
4.920000 -5.120000 7.080000 46.929169 -46.994049 4410.787598
4.920000 -5.120000 7.120000 55.573093 -9.045274 3170.185547
4.920000 -5.120000 7.160000 35.382893 21.032213 1694.303101
4.920000 -5.120000 7.200000 3.151608 26.657362 720.547546
4.920000 -5.080000 6.800000 46.443703 22.700615 2672.335449
4.920000 -5.080000 6.840000 9.553884 49.483677 2539.910889
4.920000 -5.080000 6.880000 -42.711468 40.297791 3448.181396
4.920000 -5.080000 6.920000 -74.910828 -9.353420 5699.118652
4.920000 -5.080000 6.960000 -58.882179 -70.854553 8487.478516
4.920000 -5.080000 7.000000 -0.585773 -101.363266 10274.854492
4.920000 -5.080000 7.040000 60.932030 -78.635788 9896.298828
4.920000 -5.080000 7.080000 84.029678 -20.162910 7467.529785
4.920000 -5.080000 7.120000 57.594513 31.477848 4307.982910
4.920000 -5.080000 7.160000 7.307200 43.593056 1953.749634
4.920000 -5.080000 7.200000 -28.762335 16.941740 1114.294434
4.920000 -5.040000 6.800000 12.159204 50.261364 2674.050781
4.920000 -5.040000 6.840000 -45.139061 51.725868 4713.100098
4.920000 -5.040000 6.880000 -93.730896 2.061874 8789.731445
4.920000 -5.040000 6.920000 -89.955612 -77.289261 14065.642578
4.920000 -5.040000 6.960000 -24.155315 -132.840759 18230.146484
4.920000 -5.040000 7.000000 63.871513 -121.878273 18933.882812
4.920000 -5.040000 7.040000 113.960846 -50.792114 15566.913086
4.920000 -5.040000 7.080000 95.079002 28.306421 9841.270508
4.920000 -5.040000 7.120000 29.926254 61.016113 4618.546875
4.920000 -5.040000 7.160000 -27.435827 34.323753 1930.844604
4.920000 -5.040000 7.200000 -38.429276 -18.463821 1817.721924
4.920000 -5.000000 6.800000 -27.037491 44.162113 2681.318115
4.920000 -5.000000 6.840000 -83.048645 11.400679 7027.053223
4.920000 -5.000000 6.880000 -99.060692 -67.103951 14315.960938
4.920000 -5.000000 6.920000 -45.003098 -142.128647 22225.832031
4.920000 -5.000000 6.960000 54.447624 -154.847321 26942.236328
4.920000 -5.000000 7.000000 133.179871 -89.336739 25717.931641
4.920000 -5.000000 7.040000 137.577850 9.399321 19016.011719
4.920000 -5.000000 7.080000 72.117760 71.722969 10345.155273
4.920000 -5.000000 7.120000 -6.171078 61.596416 3832.200684
4.920000 -5.000000 7.160000 -38.607037 3.060436 1499.869507
4.920000 -5.000000 7.200000 -12.682969 -47.160469 2384.967529
4.920000 -4.960000 6.800000 -45.575676 15.453274 2315.946045
4.920000 -4.960000 6.840000 -77.722687 -41.793388 7787.502930
4.920000 -4.960000 6.880000 -50.118309 -118.401123 16530.671875
4.920000 -4.960000 6.920000 36.692070 -154.631195 25257.115234
4.920000 -4.960000 6.960000 129.318130 -113.058174 29505.330078
4.920000 -4.960000 7.000000 162.737579 -16.031590 26740.531250
4.920000 -4.960000 7.040000 116.255363 69.465286 18340.734375
4.920000 -4.960000 7.080000 31.430578 88.037460 8738.475586
4.920000 -4.960000 7.120000 -25.340593 41.295052 2347.427002
4.920000 -4.960000 7.160000 -19.905535 -18.983103 756.588501
4.920000 -4.960000 7.200000 25.909172 -40.552750 2315.810791
4.920000 -4.920000 6.800000 -37.810898 -11.495699 1561.815063
4.920000 -4.920000 6.840000 -37.776005 -70.146301 6347.529785
4.920000 -4.920000 6.880000 17.584805 -116.611855 13907.549805
4.920000 -4.920000 6.920000 99.867027 -105.559570 21116.246094
4.920000 -4.920000 6.960000 151.801727 -33.548149 24169.242188
4.920000 -4.920000 7.000000 135.611115 53.383648 21240.189453
4.920000 -4.920000 7.040000 66.420990 97.342422 13887.294922
4.920000 -4.920000 7.080000 -1.399252 77.392654 5991.581055
4.920000 -4.920000 7.120000 -22.108829 24.241051 1076.428955
4.920000 -4.920000 7.160000 4.557264 -11.301164 148.484955
4.920000 -4.920000 7.200000 40.183041 -3.966378 1630.408936
4.920000 -4.880000 6.800000 -18.039047 -20.553650 747.859741
4.920000 -4.880000 6.840000 3.174934 -60.079483 3619.624512
4.920000 -4.880000 6.880000 56.370552 -70.739021 8181.648438
4.920000 -4.880000 6.920000 106.040268 -34.570267 12439.641602
4.920000 -4.880000 6.960000 115.284164 29.402683 14154.956055
4.920000 -4.880000 7.000000 77.567436 79.737930 12374.844727
4.920000 -4.880000 7.040000 21.831169 87.388718 8113.388184
4.920000 -4.880000 7.080000 -13.676609 58.571198 3617.634766
4.920000 -4.880000 7.120000 -13.671991 25.335037 828.787476
4.920000 -4.880000 7.160000 5.407518 14.834700 249.309570
4.920000 -4.880000 7.200000 15.605292 27.250477 986.113647
4.920000 -4.840000 6.800000 -3.793066 -14.080585 212.650238
4.920000 -4.840000 6.840000 18.048138 -29.931217 1221.613037
4.920000 -4.840000 6.880000 48.442173 -22.431168 2849.801270
4.920000 -4.840000 6.920000 65.928543 7.176891 4398.080566
4.920000 -4.840000 6.960000 58.623695 41.523834 5160.966309
4.920000 -4.840000 7.000000 32.503616 61.726456 4866.640625
4.920000 -4.840000 7.040000 4.228668 61.556236 3807.051758
4.920000 -4.840000 7.080000 -13.387165 49.038673 2584.007812
4.920000 -4.840000 7.120000 -19.549753 36.208725 1693.264648
4.920000 -4.840000 7.160000 -21.514746 28.332716 1265.627075
4.920000 -4.840000 7.200000 -24.813053 22.324987 1114.092651
4.920000 -4.800000 6.800000 -0.639446 -4.634348 21.886072
4.920000 -4.800000 6.840000 7.684649 -8.062149 124.052063
4.920000 -4.800000 6.880000 16.727448 -5.294823 307.842651
4.920000 -4.800000 6.920000 23.892735 2.639481 577.829651
4.920000 -4.800000 6.960000 27.221100 15.318277 975.637939
4.920000 -4.800000 7.000000 23.095737 31.510267 1526.310059
4.920000 -4.800000 7.040000 7.936123 45.852791 2165.460449
4.920000 -4.800000 7.080000 -16.465145 49.433022 2714.724609
4.920000 -4.800000 7.120000 -40.349831 36.332794 2948.180664
4.920000 -4.800000 7.160000 -51.124809 10.490942 2723.805908
4.920000 -4.800000 7.200000 -43.170444 -14.985152 2088.241943
4.960000 -5.200000 6.800000 7.309361 -66.728043 4506.058594
4.960000 -5.200000 6.840000 27.238293 -51.930805 3438.733154
4.960000 -5.200000 6.880000 32.900684 -30.928385 2039.020020
4.960000 -5.200000 6.920000 25.492447 -14.962297 873.735229
4.960000 -5.200000 6.960000 13.071297 -9.911573 269.098083
4.960000 -5.200000 7.000000 3.880078 -14.401857 222.468506
4.960000 -5.200000 7.040000 2.195230 -23.177767 542.027893
4.960000 -5.200000 7.080000 8.461199 -30.571747 1006.223633
4.960000 -5.200000 7.120000 20.308716 -31.543814 1407.456177
4.960000 -5.200000 7.160000 32.152561 -22.629463 1545.879883
4.960000 -5.200000 7.200000 35.764328 -5.087945 1304.974365
4.960000 -5.160000 6.800000 45.976532 -41.209064 3812.028564
4.960000 -5.160000 6.840000 47.944790 -14.324479 2503.893555
4.960000 -5.160000 6.880000 31.500332 5.752134 1025.358032
4.960000 -5.160000 6.920000 7.575418 7.301365 110.696899
4.960000 -5.160000 6.960000 -7.640532 -8.741859 134.797821
4.960000 -5.160000 7.000000 -4.613312 -29.722027 904.681519
4.960000 -5.160000 7.040000 13.568222 -40.896149 1856.591675
4.960000 -5.160000 7.080000 34.832752 -35.105099 2445.688477
4.960000 -5.160000 7.120000 46.679939 -15.684648 2425.024902
4.960000 -5.160000 7.160000 42.807678 7.205592 1884.417847
4.960000 -5.160000 7.200000 24.989077 22.420921 1127.151733
4.960000 -5.120000 6.800000 54.480438 6.826662 3014.721436
4.960000 -5.120000 6.840000 29.760651 33.026497 1976.445801
4.960000 -5.120000 6.880000 -9.698718 33.160362 1193.674805
4.960000 -5.120000 6.920000 -37.671558 2.223816 1424.091675
4.960000 -5.120000 6.960000 -32.631687 -40.599140 2713.117188
4.960000 -5.120000 7.000000 3.463570 -65.407471 4290.133301
4.960000 -5.120000 7.040000 45.816307 -55.114693 5136.763672
4.960000 -5.120000 7.080000 66.330475 -18.182419 4730.332031
4.960000 -5.120000 7.120000 54.489281 19.701887 3357.246094
4.960000 -5.120000 7.160000 22.316765 36.105896 1801.673706
4.960000 -5.120000 7.200000 -8.067621 26.297024 756.619934
4.960000 -5.080000 6.800000 24.887707 46.108959 2745.434082
4.960000 -5.080000 6.840000 -24.340158 51.800362 3275.720703
4.960000 -5.080000 6.880000 -68.912628 13.662937 4935.625977
4.960000 -5.080000 6.920000 -71.234726 -51.943214 7772.483398
4.960000 -5.080000 6.960000 -21.302692 -101.018814 10658.605469
4.960000 -5.080000 7.000000 49.971046 -97.156265 11936.445312
4.960000 -5.080000 7.040000 93.894333 -43.098801 10673.652344
4.960000 -5.080000 7.080000 83.564705 21.197477 7432.393066
4.960000 -5.080000 7.120000 33.959850 52.147324 3872.614746
4.960000 -5.080000 7.160000 -14.266447 36.605770 1543.513916
4.960000 -5.080000 7.200000 -29.862553 -3.149222 901.689636
4.960000 -5.040000 6.800000 -22.460190 50.666489 3071.553223
4.960000 -5.040000 6.840000 -77.790909 20.466743 6470.312988
4.960000 -5.040000 6.880000 -96.243469 -54.708897 12255.869141
4.960000 -5.040000 6.920000 -47.606762 -128.721252 18835.564453
4.960000 -5.040000 6.960000 46.207691 -144.831955 23111.445312
4.960000 -5.040000 7.000000 122.909760 -86.189453 22535.429688
4.960000 -5.040000 7.040000 130.725845 6.165670 17127.261719
4.960000 -5.040000 7.080000 71.963287 66.877243 9651.280273
4.960000 -5.040000 7.120000 -1.409616 60.822433 3701.355469
4.960000 -5.040000 7.160000 -34.637573 8.346471 1269.425049
4.960000 -5.040000 7.200000 -14.476498 -39.338020 1757.048828
4.960000 -5.000000 6.800000 -54.999828 20.873722 3460.693359
4.960000 -5.000000 6.840000 -89.520927 -42.509552 9821.058594
4.960000 -5.000000 6.880000 -59.417637 -127.376198 19755.150391
4.960000 -5.000000 6.920000 35.874432 -168.683075 29740.955078
4.960000 -5.000000 6.960000 138.481918 -124.653366 34715.703125
4.960000 -5.000000 7.000000 176.755814 -18.960552 31602.119141
4.960000 -5.000000 7.040000 127.206192 75.071564 21817.154297
4.960000 -5.000000 7.080000 34.873772 96.256340 10481.462891
4.960000 -5.000000 7.120000 -27.558018 45.778957 2855.157227
4.960000 -5.000000 7.160000 -22.473000 -20.126720 910.120605
4.960000 -5.000000 7.200000 26.700815 -44.664688 2707.867920
4.960000 -4.960000 6.800000 -54.377087 -18.279543 3291.009033
4.960000 -4.960000 6.840000 -50.604118 -92.020607 11028.568359
4.960000 -4.960000 6.880000 21.891247 -149.525208 22837.013672
4.960000 -4.960000 6.920000 127.543114 -133.509186 34091.949219
4.960000 -4.960000 6.960000 193.140366 -39.695530 38878.933594
4.960000 -4.960000 7.000000 170.224045 72.152847 34182.257812
4.960000 -4.960000 7.040000 79.181175 126.825653 22354.404297
4.960000 -4.960000 7.080000 -8.415373 97.766243 9629.056641
4.960000 -4.960000 7.120000 -32.943893 26.280828 1775.982178
4.960000 -4.960000 7.160000 4.803782 -20.487669 442.820892
4.960000 -4.960000 7.200000 53.367443 -10.085932 2949.810059
4.960000 -4.920000 6.800000 -29.093203 -39.632980 2417.187500
4.960000 -4.920000 6.840000 7.769461 -95.275848 9137.851562
4.960000 -4.920000 6.880000 90.468040 -105.937614 19407.244141
4.960000 -4.920000 6.920000 164.387604 -44.724968 29023.607422
4.960000 -4.920000 6.960000 172.129196 57.092072 32887.964844
4.960000 -4.920000 7.000000 105.358650 132.313293 28607.253906
4.960000 -4.920000 7.040000 13.790705 134.974274 18408.238281
4.960000 -4.920000 7.080000 -38.548080 78.633316 7669.152832
4.960000 -4.920000 7.120000 -28.148443 19.944527 1190.119019
4.960000 -4.920000 7.160000 13.554796 5.297764 211.798798
4.960000 -4.920000 7.200000 36.312603 32.777321 2392.958008
4.960000 -4.880000 6.800000 -3.030359 -35.419617 1263.732300
4.960000 -4.880000 6.840000 43.211411 -58.851391 5330.711914
4.960000 -4.880000 6.880000 102.417755 -34.265354 11663.510742
4.960000 -4.880000 6.920000 128.478027 34.122543 17670.951172
4.960000 -4.880000 6.960000 96.846878 104.307556 20259.382812
4.960000 -4.880000 7.000000 27.418709 131.193817 17963.603516
4.960000 -4.880000 7.040000 -32.777065 104.781357 12053.468750
4.960000 -4.880000 7.080000 -50.573002 55.755310 5666.283203
4.960000 -4.880000 7.120000 -32.166882 24.663424 1642.992676
4.960000 -4.880000 7.160000 -10.742117 26.060085 794.521118
4.960000 -4.880000 7.200000 -11.782932 41.370758 1850.377197
4.960000 -4.840000 6.800000 7.069746 -18.673962 398.698181
4.960000 -4.840000 6.840000 39.130077 -18.168455 1861.255737
4.960000 -4.840000 6.880000 64.095840 11.570095 4242.144043
4.960000 -4.840000 6.920000 60.252617 55.042004 6660.000000
4.960000 -4.840000 6.960000 27.020958 85.521118 8043.994141
4.960000 -4.840000 7.000000 -15.531380 87.103104 7828.174316
4.960000 -4.840000 7.040000 -44.850479 65.613739 6316.728027
4.960000 -4.840000 7.080000 -53.494209 39.593124 4429.246094
4.960000 -4.840000 7.120000 -50.332294 22.369036 3033.713623
4.960000 -4.840000 7.160000 -47.284195 13.267990 2411.834717
4.960000 -4.840000 7.200000 -47.151871 4.277895 2241.599121
4.960000 -4.800000 6.800000 2.943914 -6.368059 49.218811
4.960000 -4.800000 6.840000 13.867109 -2.214489 197.200684
4.960000 -4.800000 6.880000 19.539974 10.062187 483.058197
4.960000 -4.800000 6.920000 16.531574 25.054407 901.016235
4.960000 -4.800000 6.960000 5.213432 37.899986 1463.588867
4.960000 -4.800000 7.000000 -12.960484 45.109386 2202.830811
4.960000 -4.800000 7.040000 -35.636456 42.813324 3102.937500
4.960000 -4.800000 7.080000 -57.003292 27.424252 4001.464844
4.960000 -4.800000 7.120000 -67.600227 0.237354 4569.846680
4.960000 -4.800000 7.160000 -60.122635 -29.194466 4467.047852
4.960000 -4.800000 7.200000 -37.013626 -47.164558 3594.504150
5.000000 -5.200000 6.800000 39.849518 -45.407543 3649.829102
5.000000 -5.200000 6.840000 46.148922 -23.560038 2684.798340
5.000000 -5.200000 6.880000 37.886349 -6.459362 1477.098755
5.000000 -5.200000 6.920000 24.299316 -1.386677 592.379639
5.000000 -5.200000 6.960000 14.921634 -6.059389 259.371338
5.000000 -5.200000 7.000000 13.134886 -13.836796 363.982147
5.000000 -5.200000 7.040000 17.532244 -19.908916 703.744507
5.000000 -5.200000 7.080000 26.170731 -21.865433 1163.004272
5.000000 -5.200000 7.120000 36.816002 -16.995169 1644.253662
5.000000 -5.200000 7.160000 43.928589 -3.194714 1939.927124
5.000000 -5.200000 7.200000 39.454391 15.827638 1807.163208
5.000000 -5.160000 6.800000 55.473072 -7.309000 3130.683105
5.000000 -5.160000 6.840000 43.275356 15.237787 2104.946533
5.000000 -5.160000 6.880000 19.503939 21.686749 850.718689
5.000000 -5.160000 6.920000 0.552014 9.084328 82.829727
5.000000 -5.160000 6.960000 -1.561468 -11.833782 142.476593
5.000000 -5.160000 7.000000 12.538357 -26.085979 837.688721
5.000000 -5.160000 7.040000 32.349701 -25.228428 1682.976807
5.000000 -5.160000 7.080000 46.226875 -10.752900 2252.548828
5.000000 -5.160000 7.120000 47.564869 9.707703 2356.656250
5.000000 -5.160000 7.160000 35.702473 27.230190 2016.149780
5.000000 -5.160000 7.200000 14.830568 34.137054 1385.284302
5.000000 -5.120000 6.800000 37.057323 32.692883 2442.069824
5.000000 -5.120000 6.840000 4.514446 42.669472 1841.064087
5.000000 -5.120000 6.880000 -27.831989 23.054356 1306.122925
5.000000 -5.120000 6.920000 -34.842552 -16.533756 1487.368530
5.000000 -5.120000 6.960000 -8.960167 -48.830784 2464.730225
5.000000 -5.120000 7.000000 32.455517 -50.979656 3652.285889
5.000000 -5.120000 7.040000 61.264523 -22.601595 4264.173828
5.000000 -5.120000 7.080000 60.518730 15.664303 3907.886963
5.000000 -5.120000 7.120000 35.018398 39.769913 2807.934082
5.000000 -5.120000 7.160000 3.837193 39.205990 1551.833618
5.000000 -5.120000 7.200000 -15.474141 20.308601 651.888367
5.000000 -5.080000 6.800000 -5.861397 46.490013 2195.677246
5.000000 -5.080000 6.840000 -48.602688 28.611977 3180.866455
5.000000 -5.080000 6.880000 -66.836380 -24.197149 5052.603516
5.000000 -5.080000 6.920000 -36.634033 -79.422623 7650.005371
5.000000 -5.080000 6.960000 28.350475 -95.471634 9918.582031
5.000000 -5.080000 7.000000 84.645630 -58.147751 10546.043945
5.000000 -5.080000 7.040000 94.589035 5.950333 8982.492188
5.000000 -5.080000 7.080000 56.920502 51.899170 5933.467773
5.000000 -5.080000 7.120000 4.864875 53.391907 2874.362793
5.000000 -5.080000 7.160000 -24.223621 20.498186 1006.959473
5.000000 -5.080000 7.200000 -18.064705 -14.877964 547.687378
5.000000 -5.040000 6.800000 -44.151901 24.297832 2539.774902
5.000000 -5.040000 6.840000 -74.771217 -25.993858 6266.415527
5.000000 -5.040000 6.880000 -53.439529 -96.552696 12178.206055
5.000000 -5.040000 6.920000 22.914555 -133.835602 18437.044922
5.000000 -5.040000 6.960000 108.223419 -101.459770 22006.394531
5.000000 -5.040000 7.000000 142.987427 -16.426479 20715.234375
5.000000 -5.040000 7.040000 105.580475 62.177258 15013.248047
5.000000 -5.040000 7.080000 30.483997 83.045837 7825.885254
5.000000 -5.040000 7.120000 -23.496958 44.398106 2523.298828
5.000000 -5.040000 7.160000 -23.857414 -10.227411 673.776123
5.000000 -5.040000 7.200000 13.440404 -34.661789 1382.083984
5.000000 -5.000000 6.800000 -52.479767 -16.501934 3026.439697
5.000000 -5.000000 6.840000 -49.534447 -84.222488 9547.088867
5.000000 -5.000000 6.880000 17.231873 -138.771988 19554.601562
5.000000 -5.000000 6.920000 116.603012 -125.447708 29333.390625
5.000000 -5.000000 6.960000 179.896713 -38.119068 33815.890625
5.000000 -5.000000 7.000000 159.803040 68.000992 30161.146484
5.000000 -5.000000 7.040000 73.855133 121.086174 20116.441406
5.000000 -5.000000 7.080000 -10.497686 94.175583 8979.241211
5.000000 -5.000000 7.120000 -35.412792 25.193317 1888.769043
5.000000 -5.000000 7.160000 0.080998 -21.820251 476.129944
5.000000 -5.000000 7.200000 47.872211 -14.510925 2502.315430
5.000000 -4.960000 6.800000 -29.796886 -46.268475 3028.626221
5.000000 -4.960000 6.840000 10.411806 -103.565048 10834.124023
5.000000 -4.960000 6.880000 99.321487 -113.613007 22772.671875
5.000000 -4.960000 6.920000 178.867645 -46.175892 34125.847656
5.000000 -4.960000 6.960000 185.917419 65.556679 38862.964844
5.000000 -4.960000 7.000000 110.537354 147.404724 33946.660156
5.000000 -4.960000 7.040000 7.993336 147.642044 21862.066406
5.000000 -4.960000 7.080000 -49.309559 81.290558 9039.587891
5.000000 -4.960000 7.120000 -34.295807 12.919167 1343.107300
5.000000 -4.960000 7.160000 17.081532 -3.834249 306.480194
5.000000 -4.960000 7.200000 46.450378 29.287138 3015.374023
5.000000 -4.920000 6.800000 2.078465 -48.078178 2315.831299
5.000000 -4.920000 6.840000 60.979145 -73.445023 9112.626953
5.000000 -4.920000 6.880000 134.887192 -38.227787 19655.917969
5.000000 -4.920000 6.920000 164.250153 52.401566 29724.037109
5.000000 -4.920000 6.960000 116.961426 142.518753 33991.570312
5.000000 -4.920000 7.000000 21.095869 171.334839 29800.662109
5.000000 -4.920000 7.040000 -57.518150 126.538132 19320.236328
5.000000 -4.920000 7.080000 -72.794922 53.394081 8150.028320
5.000000 -4.920000 7.120000 -35.689739 11.230801 1399.888306
5.000000 -4.920000 7.160000 2.953779 20.799286 441.335114
5.000000 -4.920000 7.200000 3.752813 52.678497 2789.107666
5.000000 -4.880000 6.800000 19.515427 -29.374241 1243.697876
5.000000 -4.880000 6.840000 69.975792 -22.855953 5419.005859
5.000000 -4.880000 6.880000 105.702057 30.897169 12127.559570
5.000000 -4.880000 6.920000 89.432175 103.832840 18779.373047
5.000000 -4.880000 6.960000 22.795685 146.565155 22000.986328
5.000000 -4.880000 7.000000 -52.325623 131.235703 19960.781250
5.000000 -4.880000 7.040000 -90.042122 75.399239 13792.628906
5.000000 -4.880000 7.080000 -79.297485 23.820738 6855.519043
5.000000 -4.880000 7.120000 -48.338783 7.172976 2388.089600
5.000000 -4.880000 7.160000 -33.116974 18.406654 1435.538940
5.000000 -4.880000 7.200000 -43.432774 27.296371 2631.497559
5.000000 -4.840000 6.800000 16.719059 -10.697850 393.970947
5.000000 -4.840000 6.840000 43.161980 8.785156 1940.135498
5.000000 -4.840000 6.880000 46.458279 49.786800 4637.097168
5.000000 -4.840000 6.920000 15.876366 85.685387 7594.044434
5.000000 -4.840000 6.960000 -33.038597 91.773384 9513.903320
5.000000 -4.840000 7.000000 -72.082565 65.997238 9551.531250
5.000000 -4.840000 7.040000 -84.437637 28.114841 7920.158691
5.000000 -4.840000 7.080000 -75.627502 -0.206553 5719.561523
5.000000 -4.840000 7.120000 -62.686169 -13.173397 4103.094238
5.000000 -4.840000 7.160000 -55.528152 -19.970116 3482.181152
5.000000 -4.840000 7.200000 -50.289886 -29.694065 3410.810303
5.000000 -4.800000 6.800000 5.773855 -4.894608 57.294586
5.000000 -4.800000 6.840000 12.722305 7.133545 212.744522
5.000000 -4.800000 6.880000 7.715191 23.273605 601.184875
5.000000 -4.800000 6.920000 -8.389149 33.804722 1213.137085
5.000000 -4.800000 6.960000 -29.000448 33.767448 1981.266602
5.000000 -4.800000 7.000000 -48.033611 23.673782 2867.675781
5.000000 -4.800000 7.040000 -62.064365 5.380074 3880.930664
5.000000 -4.800000 7.080000 -67.568306 -19.605711 4949.859863
5.000000 -4.800000 7.120000 -59.758839 -46.963764 5776.713867
5.000000 -4.800000 7.160000 -37.200058 -67.190384 5898.392090
5.000000 -4.800000 7.200000 -7.431288 -70.472321 5021.572266
5.040000 -5.200000 6.800000 47.715591 -6.494858 2318.960693
5.040000 -5.200000 6.840000 39.160419 10.928781 1652.976685
5.040000 -5.200000 6.880000 23.817196 15.514566 807.960632
5.040000 -5.200000 6.920000 13.600244 9.009443 266.136688
5.040000 -5.200000 6.960000 12.585506 0.387064 158.544800
5.040000 -5.200000 7.000000 16.778990 -4.337889 300.351776
5.040000 -5.200000 7.040000 21.913105 -5.498433 510.416931
5.040000 -5.200000 7.080000 27.948559 -4.376680 800.277283
5.040000 -5.200000 7.120000 34.976936 1.484533 1225.589966
5.040000 -5.200000 7.160000 37.762154 14.528080 1637.045288
5.040000 -5.200000 7.200000 28.745193 29.671181 1706.665039
5.040000 -5.160000 6.800000 38.616413 23.634041 2049.795410
5.040000 -5.160000 6.840000 19.146906 33.750904 1505.727539
5.040000 -5.160000 6.880000 -0.666592 25.951635 673.931702
5.040000 -5.160000 6.920000 -7.073647 7.260983 102.758347
5.040000 -5.160000 6.960000 2.109108 -8.213888 71.916290
5.040000 -5.160000 7.000000 18.215515 -11.427818 462.400024
5.040000 -5.160000 7.040000 30.959635 -3.116007 968.208435
5.040000 -5.160000 7.080000 35.310089 10.718447 1361.687500
5.040000 -5.160000 7.120000 30.890068 24.571281 1557.944092
5.040000 -5.160000 7.160000 18.740419 34.200974 1520.909912
5.040000 -5.160000 7.200000 1.650988 34.921822 1222.259277
5.040000 -5.120000 6.800000 8.075374 38.655342 1559.447144
5.040000 -5.120000 6.840000 -19.205067 32.858604 1448.522461
5.040000 -5.120000 6.880000 -34.039948 5.015713 1183.875366
5.040000 -5.120000 6.920000 -21.959778 -26.431416 1180.851562
5.040000 -5.120000 6.960000 10.180367 -38.533752 1588.489990
5.040000 -5.120000 7.000000 40.166626 -23.265076 2154.621582
5.040000 -5.120000 7.040000 49.076309 7.243851 2460.957520
5.040000 -5.120000 7.080000 34.857986 32.510471 2272.010010
5.040000 -5.120000 7.120000 10.298183 39.692982 1681.585449
5.040000 -5.120000 7.160000 -9.360928 29.912458 982.382141
5.040000 -5.120000 7.200000 -16.450970 12.802086 434.527802
5.040000 -5.080000 6.800000 -24.586147 25.820780 1271.191284
5.040000 -5.080000 6.840000 -47.649460 -2.407749 2276.268311
5.040000 -5.080000 6.880000 -39.489128 -46.863075 3755.539062
5.040000 -5.080000 6.920000 4.458267 -73.813324 5468.282715
5.040000 -5.080000 6.960000 57.234653 -58.821182 6735.737305
5.040000 -5.080000 7.000000 82.116371 -9.876236 6840.638672
5.040000 -5.080000 7.040000 63.947784 38.756939 5591.419434
5.040000 -5.080000 7.080000 20.633636 55.773155 3536.391602
5.040000 -5.080000 7.120000 -14.505409 37.344368 1605.008667
5.040000 -5.080000 7.160000 -21.078861 5.678468 476.563385
5.040000 -5.080000 7.200000 -4.535690 -13.593857 205.365417
5.040000 -5.040000 6.800000 -36.514034 -6.650314 1377.501343
5.040000 -5.040000 6.840000 -38.414894 -52.105122 4190.647461
5.040000 -5.040000 6.880000 4.519846 -92.502686 8577.175781
5.040000 -5.040000 6.920000 73.537750 -87.551361 13073.041016
5.040000 -5.040000 6.960000 120.806496 -29.517504 15465.492188
5.040000 -5.040000 7.000000 110.760330 45.120125 14303.675781
5.040000 -5.040000 7.040000 52.551411 85.525833 10076.318359
5.040000 -5.040000 7.080000 -8.106266 70.069733 4975.479004
5.040000 -5.040000 7.120000 -29.517210 22.390858 1372.616211
5.040000 -5.040000 7.160000 -7.955322 -13.584990 247.839096
5.040000 -5.040000 7.200000 25.528454 -13.401794 831.310059
5.040000 -5.000000 6.800000 -20.717190 -35.196957 1668.027832
5.040000 -5.000000 6.840000 7.618809 -79.123016 6318.498047
5.040000 -5.000000 6.880000 75.923462 -89.150139 13712.119141
5.040000 -5.000000 6.920000 140.049896 -38.047020 21061.548828
5.040000 -5.000000 6.960000 148.108597 50.778526 24514.615234
5.040000 -5.000000 7.000000 88.986343 118.175369 21883.988281
5.040000 -5.000000 7.040000 5.363415 120.139389 14462.239258
5.040000 -5.000000 7.080000 -43.239231 66.154465 6246.043945
5.040000 -5.000000 7.120000 -32.161926 8.042006 1099.063354
5.040000 -5.000000 7.160000 11.203247 -8.642851 200.211609
5.040000 -5.000000 7.200000 38.664841 17.187634 1790.384521
5.040000 -4.960000 6.800000 8.073189 -40.816624 1731.173218
5.040000 -4.960000 6.840000 58.116306 -62.247257 7252.226074
5.040000 -4.960000 6.880000 123.375977 -31.035862 16184.856445
5.040000 -4.960000 6.920000 149.817154 51.084564 25054.812500
5.040000 -4.960000 6.960000 105.770462 133.973907 29136.398438
5.040000 -4.960000 7.000000 15.540970 159.961105 25829.076172
5.040000 -4.960000 7.040000 -58.763168 115.579865 16811.814453
5.040000 -4.960000 7.080000 -71.588287 43.262043 6996.487305
5.040000 -4.960000 7.120000 -32.105453 1.332117 1032.534668
5.040000 -4.960000 7.160000 9.844536 11.907927 238.713608
5.040000 -4.960000 7.200000 13.568514 46.868790 2380.787842
5.040000 -4.920000 6.800000 27.174700 -24.740105 1350.537109
5.040000 -4.920000 6.840000 77.189148 -16.115162 6217.862793
5.040000 -4.920000 6.880000 112.258102 41.428062 14318.166016
5.040000 -4.920000 6.920000 91.504654 119.029739 22541.179688
5.040000 -4.920000 6.960000 15.857195 162.224243 26568.156250
5.040000 -4.920000 7.000000 -67.406738 139.193634 23918.535156
5.040000 -4.920000 7.040000 -104.832222 70.504097 15960.623047
5.040000 -4.920000 7.080000 -83.465286 10.037190 7067.199219
5.040000 -4.920000 7.120000 -38.577576 -4.243970 1506.240601
5.040000 -4.920000 7.160000 -16.554476 18.827013 628.507080
5.040000 -4.920000 7.200000 -31.543268 39.298725 2539.367676
5.040000 -4.880000 6.800000 26.135986 -4.889693 706.998901
5.040000 -4.880000 6.840000 57.149727 22.713638 3782.000732
5.040000 -4.880000 6.880000 56.380291 77.481430 9182.109375
5.040000 -4.880000 6.920000 8.996040 122.000710 14965.101562
5.040000 -4.880000 6.960000 -60.974144 120.509338 18240.347656
5.040000 -4.880000 7.000000 -109.351059 72.119522 17158.878906
5.040000 -4.880000 7.040000 -110.525299 11.834843 12355.905273
5.040000 -4.880000 7.080000 -78.080948 -21.889679 6575.792480
5.040000 -4.880000 7.120000 -47.866768 -20.447817 2709.340820
5.040000 -4.880000 7.160000 -42.480904 -7.004360 1853.688232
5.040000 -4.880000 7.200000 -53.393890 -8.346738 2920.575439
5.040000 -4.840000 6.800000 13.640014 2.584249 192.728317
5.040000 -4.840000 6.840000 22.465736 29.685259 1385.923950
5.040000 -4.840000 6.880000 3.113171 61.272396 3763.998535
5.040000 -4.840000 6.920000 -39.241310 71.296700 6623.099609
5.040000 -4.840000 6.960000 -79.569511 48.762444 8709.083008
5.040000 -4.840000 7.000000 -94.926025 7.329361 9064.669922
5.040000 -4.840000 7.040000 -83.335526 -28.456524 7754.583496
5.040000 -4.840000 7.080000 -61.373714 -45.247528 5814.071777
5.040000 -4.840000 7.120000 -45.204060 -48.784508 4423.334961
5.040000 -4.840000 7.160000 -36.317303 -51.976349 4020.487305
5.040000 -4.840000 7.200000 -25.671476 -58.775085 4113.535645
5.040000 -4.800000 6.800000 5.436417 -2.482037 35.715134
5.040000 -4.800000 6.840000 3.322203 11.808186 150.470276
5.040000 -4.800000 6.880000 -11.979576 21.338085 598.824097
5.040000 -4.800000 6.920000 -32.318924 17.682190 1357.172607
5.040000 -4.800000 6.960000 -47.348618 2.121582 2246.392822
5.040000 -4.800000 7.000000 -52.772156 -18.416637 3124.072998
5.040000 -4.800000 7.040000 -49.937859 -39.117020 4023.931152
5.040000 -4.800000 7.080000 -39.676048 -58.807461 5032.506348
5.040000 -4.800000 7.120000 -20.232605 -74.746994 5996.471680
5.040000 -4.800000 7.160000 7.257988 -79.824921 6424.696289
5.040000 -4.800000 7.200000 33.687733 -68.465332 5822.364746
5.080000 -5.200000 6.800000 25.031313 24.132610 1208.949463
5.080000 -5.200000 6.840000 9.733333 28.537241 909.111938
5.080000 -5.200000 6.880000 -1.636535 20.284464 414.137726
5.080000 -5.200000 6.920000 -2.088877 8.935881 84.213364
5.080000 -5.200000 6.960000 4.001892 3.476454 28.100872
5.080000 -5.200000 7.000000 8.805151 3.676967 91.050774
5.080000 -5.200000 7.040000 10.914473 3.937391 134.628754
5.080000 -5.200000 7.080000 14.863729 3.069933 230.354904
5.080000 -5.200000 7.120000 21.910477 6.482908 522.097107
5.080000 -5.200000 7.160000 25.170315 17.607937 943.584167
5.080000 -5.200000 7.200000 16.898893 29.898273 1179.479370
5.080000 -5.160000 6.800000 6.340239 31.916864 1058.884888
5.080000 -5.160000 6.840000 -9.947496 29.454409 966.514893
5.080000 -5.160000 6.880000 -18.345314 15.221325 568.239258
5.080000 -5.160000 6.920000 -13.514039 0.589613 182.976898
5.080000 -5.160000 6.960000 -1.398430 -5.107089 28.037960
5.080000 -5.160000 7.000000 8.976910 -1.805369 83.844269
5.080000 -5.160000 7.040000 14.031138 5.033066 222.204605
5.080000 -5.160000 7.080000 15.382657 12.067648 382.254272
5.080000 -5.160000 7.120000 13.836908 19.603745 575.766846
5.080000 -5.160000 7.160000 7.256305 26.601547 760.296265
5.080000 -5.160000 7.200000 -4.487292 27.904530 798.798584
5.080000 -5.120000 6.800000 -13.580626 23.236708 724.377991
5.080000 -5.120000 6.840000 -28.265018 11.467772 930.421021
5.080000 -5.120000 6.880000 -27.987263 -10.484801 893.217896
5.080000 -5.120000 6.920000 -10.005617 -25.747612 763.051880
5.080000 -5.120000 6.960000 13.390606 -22.922607 704.754272
5.080000 -5.120000 7.000000 26.707359 -5.320305 741.588684
5.080000 -5.120000 7.040000 24.076775 13.998922 775.660950
5.080000 -5.120000 7.080000 11.343523 24.258751 717.162537
5.080000 -5.120000 7.120000 -1.801058 23.732841 566.491577
5.080000 -5.120000 7.160000 -9.733123 17.039694 385.084839
5.080000 -5.120000 7.200000 -11.999758 8.952713 224.145264
5.080000 -5.080000 6.800000 -20.640656 2.269078 431.185364
5.080000 -5.080000 6.840000 -26.771357 -19.148882 1083.385254
5.080000 -5.080000 6.880000 -9.377443 -42.505493 1894.653320
5.080000 -5.080000 6.920000 24.635479 -45.149300 2645.365967
5.080000 -5.080000 6.960000 51.394180 -20.277990 3052.558594
5.080000 -5.080000 7.000000 51.518349 15.947937 2908.476807
5.080000 -5.080000 7.040000 27.050014 38.821930 2238.845459
5.080000 -5.080000 7.080000 -1.833923 36.350014 1324.686768
5.080000 -5.080000 7.120000 -15.547354 17.231056 538.629517
5.080000 -5.080000 7.160000 -10.549799 -0.001925 111.298256
5.080000 -5.080000 7.200000 1.719540 -4.094393 19.720867
5.080000 -5.040000 6.800000 -9.504557 -16.192175 352.523132
5.080000 -5.040000 6.840000 0.165945 -40.386536 1631.099854
5.080000 -5.040000 6.880000 35.238388 -50.502014 3792.197266
5.080000 -5.040000 6.920000 73.135040 -26.664120 6059.708984
5.080000 -5.040000 6.960000 82.503685 22.014433 7291.493164
5.080000 -5.040000 7.000000 52.961414 62.811481 6750.193359
5.080000 -5.040000 7.040000 5.915991 68.232094 4690.617676
5.080000 -5.040000 7.080000 -24.548714 40.218979 2220.205566
5.080000 -5.040000 7.120000 -21.772654 6.521186 516.574280
5.080000 -5.040000 7.160000 1.346212 -6.010045 37.932926
5.080000 -5.040000 7.200000 18.175957 5.644776 362.228912
5.080000 -5.000000 6.800000 10.571983 -18.752754 463.432617
5.080000 -5.000000 6.840000 35.776871 -33.420597 2396.920898
5.080000 -5.000000 6.880000 75.264534 -18.317682 6000.287598
5.080000 -5.000000 6.920000 94.757858 30.964663 9937.862305
5.080000 -5.000000 6.960000 69.830605 85.064758 12112.326172
5.080000 -5.000000 7.000000 12.065287 104.897293 11149.013672
5.080000 -5.000000 7.040000 -38.632908 77.648087 7521.727051
5.080000 -5.000000 7.080000 -49.472305 28.815193 3277.824463
5.080000 -5.000000 7.120000 -23.296900 -1.852048 546.175598
5.080000 -5.000000 7.160000 7.257815 3.487874 64.841148
5.080000 -5.000000 7.200000 12.678662 27.831980 935.367554
5.080000 -4.960000 6.800000 23.236492 -5.469486 569.849854
5.080000 -4.960000 6.840000 53.542168 -1.741036 2869.794922
5.080000 -4.960000 6.880000 77.744499 35.903053 7333.236328
5.080000 -4.960000 6.920000 64.018898 90.762573 12336.263672
5.080000 -4.960000 6.960000 8.905549 122.999084 15208.083008
5.080000 -4.960000 7.000000 -54.240105 105.766815 14128.608398
5.080000 -4.960000 7.040000 -83.245628 51.826103 9615.779297
5.080000 -4.960000 7.080000 -65.090446 2.834028 4244.797852
5.080000 -4.960000 7.120000 -26.170366 -8.810019 762.504517
5.080000 -4.960000 7.160000 -5.154092 12.226758 176.058273
5.080000 -4.960000 7.200000 -16.486414 33.267891 1378.554443
5.080000 -4.920000 6.800000 19.794029 10.244790 496.759308
5.080000 -4.920000 6.840000 41.298012 30.291904 2623.125244
5.080000 -4.920000 6.880000 39.220287 73.143005 6888.130371
5.080000 -4.920000 6.920000 -1.639304 108.686890 11815.527344
5.080000 -4.920000 6.960000 -62.480553 104.603821 14845.778320
5.080000 -4.920000 7.000000 -103.642235 58.197342 14128.643555
5.080000 -4.920000 7.040000 -100.027626 1.238186 10007.059570
5.080000 -4.920000 7.080000 -63.604645 -28.529892 4859.505371
5.080000 -4.920000 7.120000 -30.354874 -21.096806 1366.493530
5.080000 -4.920000 7.160000 -25.415516 0.230145 646.001404
5.080000 -4.920000 7.200000 -41.722893 5.217327 1768.020264
5.080000 -4.880000 6.800000 6.835982 14.580402 259.318787
5.080000 -4.880000 6.840000 12.388499 39.579132 1719.982666
5.080000 -4.880000 6.880000 -9.898376 68.769127 4827.170898
5.080000 -4.880000 6.920000 -55.502232 74.283554 8598.543945
5.080000 -4.880000 6.960000 -96.389732 43.507061 11183.844727
5.080000 -4.880000 7.000000 -105.287918 -6.899719 11133.152344
5.080000 -4.880000 7.040000 -80.496643 -45.294556 8531.306641
5.080000 -4.880000 7.080000 -45.974129 -53.643787 4991.276367
5.080000 -4.880000 7.120000 -27.199165 -41.511971 2463.038330
5.080000 -4.880000 7.160000 -28.131516 -32.517586 1848.775635
5.080000 -4.880000 7.200000 -32.013378 -39.144093 2557.116211
5.080000 -4.840000 6.800000 -1.243943 6.491339 43.684872
5.080000 -4.840000 6.840000 -8.009769 25.028551 690.584778
5.080000 -4.840000 6.880000 -33.778023 34.041721 2299.793457
5.080000 -4.840000 6.920000 -63.795685 19.399967 4446.248047
5.080000 -4.840000 6.960000 -77.294327 -14.340290 6180.057129
5.080000 -4.840000 7.000000 -66.371544 -47.792027 6689.259766
5.080000 -4.840000 7.040000 -41.706429 -64.816132 5940.557129
5.080000 -4.840000 7.080000 -20.009085 -65.555756 4697.920410
5.080000 -4.840000 7.120000 -7.837639 -61.746426 3874.049561
5.080000 -4.840000 7.160000 1.091274 -61.525772 3786.611572
5.080000 -4.840000 7.200000 14.318229 -61.534790 3991.541992
5.080000 -4.800000 6.800000 2.690539 -2.522421 13.601609
5.080000 -4.800000 6.840000 -7.185684 5.839773 85.737007
5.080000 -4.800000 6.880000 -23.309517 2.437183 549.273438
5.080000 -4.800000 6.920000 -33.941246 -13.386497 1331.206543
5.080000 -4.800000 6.960000 -32.630039 -32.966801 2151.529297
5.080000 -4.800000 7.000000 -22.433651 -47.995430 2806.830078
5.080000 -4.800000 7.040000 -9.318680 -57.480209 3390.812256
5.080000 -4.800000 7.080000 5.727942 -64.234184 4158.839355
5.080000 -4.800000 7.120000 25.485197 -66.876465 5121.956543
5.080000 -4.800000 7.160000 48.193027 -59.143051 5820.468262
5.080000 -4.800000 7.200000 64.263107 -38.640038 5622.799805
5.120000 -5.200000 6.800000 -9.959709 25.591740 754.132935
5.120000 -5.200000 6.840000 -20.475880 17.866884 738.487183
5.120000 -5.200000 6.880000 -21.016117 4.840865 465.111145
5.120000 -5.200000 6.920000 -12.961938 -2.890843 176.368820
5.120000 -5.200000 6.960000 -5.430093 -2.546168 35.968880
5.120000 -5.200000 7.000000 -3.465214 -0.731159 12.542303
5.120000 -5.200000 7.040000 -2.456320 -3.396636 17.570644
5.120000 -5.200000 7.080000 4.565650 -7.206992 72.785889
5.120000 -5.200000 7.120000 16.134464 -3.407237 271.930176
5.120000 -5.200000 7.160000 22.039890 10.278677 591.407959
5.120000 -5.200000 7.200000 14.821759 24.530447 821.427368
5.120000 -5.160000 6.800000 -18.123867 14.117961 527.791382
5.120000 -5.160000 6.840000 -24.885607 6.544846 662.128418
5.120000 -5.160000 6.880000 -23.093967 -4.380897 552.523621
5.120000 -5.160000 6.920000 -14.722397 -10.401222 324.934387
5.120000 -5.160000 6.960000 -6.725431 -10.028687 145.805969
5.120000 -5.160000 7.000000 -2.133502 -7.855528 66.261147
5.120000 -5.160000 7.040000 2.038312 -6.732416 49.480141
5.120000 -5.160000 7.080000 8.356449 -3.666766 83.275414
5.120000 -5.160000 7.120000 13.248539 5.154833 202.096085
5.120000 -5.160000 7.160000 10.236553 17.022545 394.554047
5.120000 -5.160000 7.200000 -1.351024 23.305450 544.969299
5.120000 -5.120000 6.800000 -15.133106 0.332014 229.121140
5.120000 -5.120000 6.840000 -20.303738 -6.997098 461.201141
5.120000 -5.120000 6.880000 -16.074066 -17.413700 561.612549
5.120000 -5.120000 6.920000 -4.476837 -21.651075 488.811127
5.120000 -5.120000 6.960000 6.494708 -17.061367 333.271454
5.120000 -5.120000 7.000000 11.423815 -8.188753 197.559219
5.120000 -5.120000 7.040000 11.068252 -0.385777 122.655022
5.120000 -5.120000 7.080000 8.701704 5.042757 101.149048
5.120000 -5.120000 7.120000 5.353711 9.409113 117.193626
5.120000 -5.120000 7.160000 -0.067405 12.468910 155.478271
5.120000 -5.120000 7.200000 -7.027796 11.797866 188.579559
5.120000 -5.080000 6.800000 -2.606616 -5.855825 41.085140
5.120000 -5.080000 6.840000 -5.866281 -14.066133 232.269318
5.120000 -5.080000 6.880000 2.951736 -22.483135 514.204102
5.120000 -5.080000 6.920000 17.981485 -19.875689 718.376831
5.120000 -5.080000 6.960000 26.848036 -5.719341 753.527893
5.120000 -5.080000 7.000000 22.920794 10.063576 626.638367
5.120000 -5.080000 7.040000 10.721547 17.274706 413.367035
5.120000 -5.080000 7.080000 0.173324 14.403955 207.503952
5.120000 -5.080000 7.120000 -3.122006 8.028702 74.206978
5.120000 -5.080000 7.160000 -1.612771 4.876925 26.385431
5.120000 -5.080000 7.200000 -1.068703 5.535057 31.778978
5.120000 -5.040000 6.800000 9.826698 0.781891 97.175354
5.120000 -5.040000 6.840000 10.257774 -7.344544 159.164261
5.120000 -5.040000 6.880000 22.740488 -9.135458 600.586426
5.120000 -5.040000 6.920000 34.550274 4.227684 1211.594727
5.120000 -5.040000 6.960000 31.400085 25.445511 1633.439453
5.120000 -5.040000 7.000000 12.445549 38.002689 1599.096069
5.120000 -5.040000 7.040000 -8.503078 32.520668 1129.896240
5.120000 -5.040000 7.080000 -16.498363 15.674154 517.875122
5.120000 -5.040000 7.120000 -9.536916 2.910375 99.423042
5.120000 -5.040000 7.160000 0.944802 3.091076 10.447399
5.120000 -5.040000 7.200000 2.761230 10.918468 126.837341
5.120000 -5.000000 6.800000 11.480438 15.321248 366.541107
5.120000 -5.000000 6.840000 15.549777 10.404591 350.051086
5.120000 -5.000000 6.880000 25.701012 17.854172 979.313477
5.120000 -5.000000 6.920000 25.183998 37.819916 2064.579834
5.120000 -5.000000 6.960000 5.554117 54.217197 2970.352539
5.120000 -5.000000 7.000000 -22.618084 50.628464 3074.819092
5.120000 -5.000000 7.040000 -38.861771 27.648277 2274.664551
5.120000 -5.000000 7.080000 -32.747292 3.255451 1082.983154
5.120000 -5.000000 7.120000 -13.929585 -4.551610 214.750473
5.120000 -5.000000 7.160000 -1.956451 5.114672 29.987568
5.120000 -5.000000 7.200000 -6.649324 16.600105 319.777008
5.120000 -4.960000 6.800000 -0.013101 25.531202 651.842468
5.120000 -4.960000 6.840000 4.527856 26.067986 700.041321
5.120000 -4.960000 6.880000 5.506618 39.030937 1553.736938
5.120000 -4.960000 6.920000 -9.971392 54.256485 3043.194824
5.120000 -4.960000 6.960000 -38.361473 53.623043 4347.033203
5.120000 -4.960000 7.000000 -60.385609 30.529888 4578.495605
5.120000 -4.960000 7.040000 -59.276054 -1.228454 3515.159668
5.120000 -4.960000 7.080000 -37.796814 -19.564114 1811.353638
5.120000 -4.960000 7.120000 -15.892023 -15.202129 483.661133
5.120000 -4.960000 7.160000 -11.091609 0.067458 123.028336
5.120000 -4.960000 7.200000 -21.932564 6.327285 521.071899
5.120000 -4.920000 6.800000 -15.562876 22.083027 729.863159
5.120000 -4.920000 6.840000 -14.601307 26.982899 941.275024
5.120000 -4.920000 6.880000 -24.332043 37.188400 1975.025391
5.120000 -4.920000 6.920000 -47.028751 37.895180 3647.748047
5.120000 -4.920000 6.960000 -68.960182 18.701057 5105.236328
5.120000 -4.920000 7.000000 -72.369316 -13.343431 5415.365234
5.120000 -4.920000 7.040000 -53.402626 -38.357521 4323.140137
5.120000 -4.920000 7.080000 -26.809837 -42.115009 2492.441406
5.120000 -4.920000 7.120000 -11.928542 -29.293480 1000.398071
5.120000 -4.920000 7.160000 -14.386948 -17.743080 521.801147
5.120000 -4.920000 7.200000 -22.308607 -20.103466 901.823303
5.120000 -4.880000 6.800000 -21.921772 7.390837 535.188538
5.120000 -4.880000 6.840000 -26.393595 12.966547 864.753174
5.120000 -4.880000 6.880000 -41.454811 13.983718 1914.045654
5.120000 -4.880000 6.920000 -58.901096 0.066246 3469.343506
5.120000 -4.880000 6.960000 -63.833904 -26.770126 4791.407227
5.120000 -4.880000 7.000000 -49.403126 -51.830540 5127.073730
5.120000 -4.880000 7.040000 -24.237974 -61.010250 4309.729980
5.120000 -4.880000 7.080000 -4.295049 -53.789635 2911.772217
5.120000 -4.880000 7.120000 2.253248 -42.344040 1798.094849
5.120000 -4.880000 7.160000 1.214188 -38.297882 1468.202026
5.120000 -4.880000 7.200000 3.986700 -41.638229 1749.635986
5.120000 -4.840000 6.800000 -13.748146 -5.852457 223.262772
5.120000 -4.840000 6.840000 -22.421188 -3.163289 512.716064
5.120000 -4.840000 6.880000 -35.018356 -11.340977 1354.903076
5.120000 -4.840000 6.920000 -39.812832 -30.805122 2534.017090
5.120000 -4.840000 6.960000 -29.777821 -51.225388 3510.758789
5.120000 -4.840000 7.000000 -9.726583 -61.114304 3829.564453
5.120000 -4.840000 7.040000 8.949446 -58.462261 3497.928467
5.120000 -4.840000 7.080000 19.754753 -50.829758 2973.914551
5.120000 -4.840000 7.120000 25.873016 -45.584736 2747.381348
5.120000 -4.840000 7.160000 33.661476 -42.075478 2903.440918
5.120000 -4.840000 7.200000 43.561760 -34.501823 3088.002930
5.120000 -4.800000 6.800000 0.992092 -6.218577 39.654949
5.120000 -4.800000 6.840000 -9.009482 -8.006783 145.279358
5.120000 -4.800000 6.880000 -14.741658 -20.205986 625.598328
5.120000 -4.800000 6.920000 -9.168952 -35.080540 1314.713989
5.120000 -4.800000 6.960000 4.759579 -43.088470 1879.269897
5.120000 -4.800000 7.000000 18.440306 -42.496109 2145.964111
5.120000 -4.800000 7.040000 27.849157 -39.132168 2306.902100
5.120000 -4.800000 7.080000 36.935146 -37.083645 2739.401855
5.120000 -4.800000 7.120000 50.040985 -32.428806 3555.727539
5.120000 -4.800000 7.160000 63.262772 -18.533867 4345.682617
5.120000 -4.800000 7.200000 66.684464 3.317718 4457.825195
5.160000 -5.200000 6.800000 -29.382299 0.697897 863.806580
5.160000 -5.200000 6.840000 -29.275219 -9.989737 956.833313
5.160000 -5.200000 6.880000 -21.141294 -18.317753 782.494385
5.160000 -5.200000 6.920000 -11.233627 -18.970808 486.085938
5.160000 -5.200000 6.960000 -6.517149 -15.649934 287.393677
5.160000 -5.200000 7.000000 -5.753001 -15.948134 287.440002
5.160000 -5.200000 7.040000 -0.931883 -20.965015 440.400269
5.160000 -5.200000 7.080000 12.176004 -22.514624 655.163330
5.160000 -5.200000 7.120000 26.899767 -12.138420 870.938721
5.160000 -5.200000 7.160000 31.135139 8.109352 1035.158447
5.160000 -5.200000 7.200000 20.006325 25.835463 1067.724121
5.160000 -5.160000 6.800000 -18.068737 -12.984654 495.080505
5.160000 -5.160000 6.840000 -17.203104 -17.045004 586.478943
5.160000 -5.160000 6.880000 -12.605762 -20.423943 576.042664
5.160000 -5.160000 6.920000 -7.445761 -20.845768 489.985413
5.160000 -5.160000 6.960000 -3.911241 -20.787170 447.404236
5.160000 -5.160000 7.000000 0.704361 -22.573503 510.059174
5.160000 -5.160000 7.040000 10.143319 -23.035885 633.538879
5.160000 -5.160000 7.080000 22.226990 -15.689159 740.188782
5.160000 -5.160000 7.120000 28.228085 1.054583 797.936890
5.160000 -5.160000 7.160000 20.956104 19.394192 815.292969
5.160000 -5.160000 7.200000 3.116590 27.851894 785.441162
5.160000 -5.120000 6.800000 0.125170 -12.097829 146.373138
5.160000 -5.120000 6.840000 -4.353035 -12.257030 169.183685
5.160000 -5.120000 6.880000 -5.213810 -16.284824 292.379303
5.160000 -5.120000 6.920000 -1.876040 -20.263218 414.117523
5.160000 -5.120000 6.960000 4.339397 -22.113674 507.844971
5.160000 -5.120000 7.000000 12.367564 -20.645336 579.186584
5.160000 -5.120000 7.040000 20.470154 -14.192457 620.453003
5.160000 -5.120000 7.080000 24.686451 -2.219685 614.347839
5.160000 -5.120000 7.120000 20.602642 11.778162 563.193970
5.160000 -5.120000 7.160000 7.881717 20.774635 493.706940
5.160000 -5.120000 7.200000 -7.555410 19.320930 430.382568
5.160000 -5.080000 6.800000 10.745484 4.123232 132.466476
5.160000 -5.080000 6.840000 -0.498169 1.367775 2.118982
5.160000 -5.080000 6.880000 -3.585245 -7.764211 73.136948
5.160000 -5.080000 6.920000 2.087938 -14.810810 223.719574
5.160000 -5.080000 6.960000 11.301939 -14.837631 347.889130
5.160000 -5.080000 7.000000 18.181816 -8.379133 400.788300
5.160000 -5.080000 7.040000 19.728079 0.945920 390.091858
5.160000 -5.080000 7.080000 15.930207 9.495049 343.927460
5.160000 -5.080000 7.120000 8.234834 14.756517 285.567291
5.160000 -5.080000 7.160000 -1.159718 15.096752 229.256866
5.160000 -5.080000 7.200000 -9.195251 9.995173 184.456116
5.160000 -5.040000 6.800000 3.717667 24.117771 595.487915
5.160000 -5.040000 6.840000 -9.980407 13.709677 287.563751
5.160000 -5.040000 6.880000 -10.166637 -0.483919 103.594696
5.160000 -5.040000 6.920000 -0.718637 -7.250839 53.091106
5.160000 -5.040000 6.960000 8.359943 -3.743082 83.899323
5.160000 -5.040000 7.000000 10.329866 4.356335 125.683792
5.160000 -5.040000 7.040000 6.094882 9.920909 135.572006
5.160000 -5.040000 7.080000 0.721697 10.697032 114.947334
5.160000 -5.040000 7.120000 -2.710627 9.117176 90.470398
5.160000 -5.040000 7.160000 -5.062012 7.482226 81.607674
5.160000 -5.040000 7.200000 -7.793327 4.920528 84.947548
5.160000 -5.000000 6.800000 -17.921535 32.106598 1352.015015
5.160000 -5.000000 6.840000 -27.449604 14.307180 958.176147
5.160000 -5.000000 6.880000 -21.965145 -1.088908 483.653320
5.160000 -5.000000 6.920000 -10.686407 -5.061464 139.817719
5.160000 -5.000000 6.960000 -4.546434 -0.165773 20.697542
5.160000 -5.000000 7.000000 -6.306583 4.524094 60.240410
5.160000 -5.000000 7.040000 -10.310656 3.565538 119.022682
5.160000 -5.000000 7.080000 -10.570241 -0.512551 111.992706
5.160000 -5.000000 7.120000 -7.444082 -2.183846 60.183540
5.160000 -5.000000 7.160000 -5.857791 -0.395303 34.469978
5.160000 -5.000000 7.200000 -8.065656 0.358828 65.183556
5.160000 -4.960000 6.800000 -39.352951 20.531647 1970.203369
5.160000 -4.960000 6.840000 -40.828014 0.579665 1667.262817
5.160000 -4.960000 6.880000 -31.004427 -11.890440 1102.656982
5.160000 -4.960000 6.920000 -20.603186 -13.576084 608.801331
5.160000 -4.960000 6.960000 -16.619022 -10.815454 393.165955
5.160000 -4.960000 7.000000 -16.995222 -11.026859 410.429199
5.160000 -4.960000 7.040000 -15.415861 -14.874081 458.887054
5.160000 -4.960000 7.080000 -9.672237 -17.184750 388.867798
5.160000 -4.960000 7.120000 -3.965778 -14.447399 224.454742
5.160000 -4.960000 7.160000 -3.160166 -9.585623 101.870811
5.160000 -4.960000 7.200000 -6.245776 -8.511024 111.447243
5.160000 -4.920000 6.800000 -45.195610 -3.383511 2054.091309
5.160000 -4.920000 6.840000 -40.218460 -19.391111 1993.539795
5.160000 -4.920000 6.880000 -29.736609 -27.740074 1653.777588
5.160000 -4.920000 6.920000 -20.793880 -29.530972 1304.463745
5.160000 -4.920000 6.960000 -15.285799 -29.819025 1122.829956
5.160000 -4.920000 7.000000 -10.319372 -31.179871 1078.673828
5.160000 -4.920000 7.040000 -3.517385 -31.682045 1016.123962
5.160000 -4.920000 7.080000 3.469390 -28.612816 830.729919
5.160000 -4.920000 7.120000 7.065949 -22.825386 570.925903
5.160000 -4.920000 7.160000 6.461443 -18.362358 378.926453
5.160000 -4.920000 7.200000 5.143036 -17.935730 348.141235
5.160000 -4.880000 6.800000 -31.764362 -22.929001 1534.713867
5.160000 -4.880000 6.840000 -25.847389 -32.663383 1734.984131
5.160000 -4.880000 6.880000 -17.387421 -38.996819 1823.074219
5.160000 -4.880000 6.920000 -7.977255 -42.291409 1852.199829
5.160000 -4.880000 6.960000 1.810034 -42.654976 1822.723267
5.160000 -4.880000 7.000000 10.930035 -39.752048 1699.691040
5.160000 -4.880000 7.040000 17.654173 -34.197201 1481.118286
5.160000 -4.880000 7.080000 21.133831 -28.043613 1233.083130
5.160000 -4.880000 7.120000 22.489658 -23.232334 1045.526123
5.160000 -4.880000 7.160000 23.736618 -19.865934 958.082397
5.160000 -4.880000 7.200000 25.726585 -16.466564 933.004883
5.160000 -4.840000 6.800000 -10.057695 -25.182301 735.305481
5.160000 -4.840000 6.840000 -8.003279 -31.579348 1061.307617
5.160000 -4.840000 6.880000 -1.140830 -38.914490 1515.639038
5.160000 -4.840000 6.920000 10.935499 -42.454319 1921.954346
5.160000 -4.840000 6.960000 23.816101 -38.739422 2067.949463
5.160000 -4.840000 7.000000 31.844231 -29.728325 1897.828369
5.160000 -4.840000 7.040000 33.800926 -21.215887 1592.616455
5.160000 -4.840000 7.080000 33.972534 -16.699558 1433.008301
5.160000 -4.840000 7.120000 36.850952 -13.740685 1546.799072
5.160000 -4.840000 7.160000 41.559410 -7.416024 1782.182007
5.160000 -4.840000 7.200000 42.858459 3.053712 1846.172729
5.160000 -4.800000 6.800000 3.390165 -11.248580 138.023773
5.160000 -4.800000 6.840000 1.441414 -19.653442 388.335480
5.160000 -4.800000 6.880000 9.445915 -28.939611 926.726440
5.160000 -4.800000 6.920000 24.161818 -29.889729 1477.189331
5.160000 -4.800000 6.960000 35.811790 -20.749065 1713.008057
5.160000 -4.800000 7.000000 38.460186 -9.074596 1561.534180
5.160000 -4.800000 7.040000 36.163364 -2.908177 1316.246460
5.160000 -4.800000 7.080000 37.361839 -1.397405 1397.859741
5.160000 -4.800000 7.120000 43.874046 3.744976 1938.956787
5.160000 -4.800000 7.160000 47.875542 17.277008 2590.562500
5.160000 -4.800000 7.200000 41.151237 33.109245 2789.646484
5.200000 -5.200000 6.800000 -20.004663 -26.411303 1097.743408
5.200000 -5.200000 6.840000 -13.168243 -30.903847 1128.450317
5.200000 -5.200000 6.880000 -4.369551 -31.354376 1002.189819
5.200000 -5.200000 6.920000 1.912054 -28.031937 789.445435
5.200000 -5.200000 6.960000 4.371042 -25.716545 680.446716
5.200000 -5.200000 7.000000 7.761806 -27.561453 819.879333
5.200000 -5.200000 7.040000 17.763302 -29.524109 1187.207886
5.200000 -5.200000 7.080000 32.955254 -23.029572 1616.409912
5.200000 -5.200000 7.120000 43.515709 -4.254021 1911.713623
5.200000 -5.200000 7.160000 39.492310 19.868013 1954.380371
5.200000 -5.200000 7.200000 20.672495 36.206139 1738.236572
5.200000 -5.160000 6.800000 2.647079 -26.498861 709.196655
5.200000 -5.160000 6.840000 3.951010 -24.142868 598.488525
5.200000 -5.160000 6.880000 4.950468 -23.094620 557.868591
5.200000 -5.160000 6.920000 6.136061 -23.695898 599.146851
5.200000 -5.160000 6.960000 9.666371 -26.300993 785.180969
5.200000 -5.160000 7.000000 18.500107 -28.106140 1132.209106
5.200000 -5.160000 7.040000 31.838032 -23.008455 1543.049316
5.200000 -5.160000 7.080000 42.431152 -6.961404 1848.863892
5.200000 -5.160000 7.120000 40.804726 15.977352 1920.301392
5.200000 -5.160000 7.160000 23.844368 34.288857 1744.279541
5.200000 -5.160000 7.200000 -0.803234 37.506409 1407.375854
5.200000 -5.120000 6.800000 16.688890 -6.644181 322.664215
5.200000 -5.120000 6.840000 7.267529 -4.894938 76.777390
5.200000 -5.120000 6.880000 1.365289 -10.927355 121.271095
5.200000 -5.120000 6.920000 3.316080 -19.993296 410.728271
5.200000 -5.120000 6.960000 13.471635 -25.681503 841.024536
5.200000 -5.120000 7.000000 27.796146 -22.442226 1276.279297
5.200000 -5.120000 7.040000 38.811535 -8.508933 1578.737183
5.200000 -5.120000 7.080000 38.927864 11.837595 1655.507324
5.200000 -5.120000 7.120000 25.441507 29.232777 1501.825562
5.200000 -5.120000 7.160000 3.593712 34.470161 1201.106812
5.200000 -5.120000 7.200000 -15.843465 24.942448 873.141052
5.200000 -5.080000 6.800000 8.254229 18.820827 422.355835
5.200000 -5.080000 6.840000 -9.065159 10.105078 184.289703
5.200000 -5.080000 6.880000 -13.589013 -8.180313 251.578796
5.200000 -5.080000 6.920000 -2.659722 -23.534906 560.965942
5.200000 -5.080000 6.960000 16.488892 -25.848003 940.002808
5.200000 -5.080000 7.000000 32.029774 -13.565190 1209.920776
5.200000 -5.080000 7.040000 35.097759 6.238191 1270.767700
5.200000 -5.080000 7.080000 24.539322 22.966125 1129.621338
5.200000 -5.080000 7.120000 6.482773 28.778162 870.208984
5.200000 -5.080000 7.160000 -9.986518 22.307018 597.333618
5.200000 -5.080000 7.200000 -17.870392 8.263893 387.642822
5.200000 -5.040000 6.800000 -19.410522 29.228958 1231.100342
5.200000 -5.040000 6.840000 -34.300125 5.495998 1206.704590
5.200000 -5.040000 6.880000 -27.268213 -21.558792 1208.337036
5.200000 -5.040000 6.920000 -3.508658 -34.602509 1209.644287
5.200000 -5.040000 6.960000 20.823719 -26.846792 1154.377563
5.200000 -5.040000 7.000000 31.153954 -5.914284 1005.547607
5.200000 -5.040000 7.040000 24.347675 13.586215 777.394531
5.200000 -5.040000 7.080000 8.463613 21.334591 526.797485
5.200000 -5.040000 7.120000 -5.498094 16.874481 314.977142
5.200000 -5.040000 7.160000 -11.469723 6.601843 175.138870
5.200000 -5.040000 7.200000 -9.864461 -2.898428 105.708473
5.200000 -5.000000 6.800000 -47.327164 14.335002 2445.352539
5.200000 -5.000000 6.840000 -48.975533 -19.165867 2765.933105
5.200000 -5.000000 6.880000 -26.305317 -44.333733 2657.449707
5.200000 -5.000000 6.920000 5.941359 -46.092419 2159.810791
5.200000 -5.000000 6.960000 27.488264 -26.638590 1465.219116
5.200000 -5.000000 7.000000 28.347301 -2.127713 808.096680
5.200000 -5.000000 7.040000 14.577870 11.580295 346.617523
5.200000 -5.000000 7.080000 0.205978 10.542186 111.180107
5.200000 -5.000000 7.120000 -5.486320 2.246888 35.148220
5.200000 -5.000000 7.160000 -3.308800 -4.107156 27.816883
5.200000 -5.000000 7.200000 0.775984 -5.576962 31.704657
5.200000 -4.960000 6.800000 -55.576767 -16.950266 3376.088623
5.200000 -4.960000 6.840000 -40.920647 -48.323528 4009.662598
5.200000 -4.960000 6.880000 -8.184811 -61.489712 3847.975830
5.200000 -4.960000 6.920000 22.891167 -49.444145 2968.729004
5.200000 -4.960000 6.960000 35.253403 -23.136805 1778.114014
5.200000 -4.960000 7.000000 27.407265 -1.321246 752.903809
5.200000 -4.960000 7.040000 12.038387 5.077458 170.703354
5.200000 -4.960000 7.080000 2.962130 -0.355778 8.900789
5.200000 -4.960000 7.120000 3.781344 -6.463213 56.071686
5.200000 -4.960000 7.160000 8.164202 -6.421219 107.886246
5.200000 -4.960000 7.200000 9.193928 -2.446597 90.514137
5.200000 -4.920000 6.800000 -39.071178 -43.605957 3428.036621
5.200000 -4.920000 6.840000 -15.138169 -63.105564 4211.476562
5.200000 -4.920000 6.880000 16.775059 -62.177971 4147.502930
5.200000 -4.920000 6.920000 39.035915 -41.753807 3267.183105
5.200000 -4.920000 6.960000 41.760101 -15.910381 1997.046265
5.200000 -4.920000 7.000000 29.783642 0.071383 887.070374
5.200000 -4.920000 7.040000 16.676846 1.645155 280.823730
5.200000 -4.920000 7.080000 12.197268 -3.712980 162.559555
5.200000 -4.920000 7.120000 15.197311 -5.815132 264.774017
5.200000 -4.920000 7.160000 17.747999 -1.653110 317.724243
5.200000 -4.920000 7.200000 14.848757 3.613049 233.539703
5.200000 -4.880000 6.800000 -10.917612 -49.262478 2545.986084
5.200000 -4.880000 6.840000 11.071578 -56.371880 3300.368652
5.200000 -4.880000 6.880000 34.535507 -47.912910 3488.348145
5.200000 -4.880000 6.920000 47.532722 -27.302187 3004.769043
5.200000 -4.880000 6.960000 45.170979 -6.019680 2076.653809
5.200000 -4.880000 7.000000 33.224758 5.431931 1133.390381
5.200000 -4.880000 7.040000 22.638527 5.571752 543.547363
5.200000 -4.880000 7.080000 19.938271 1.713644 400.471222
5.200000 -4.880000 7.120000 22.524391 1.968595 511.223572
5.200000 -4.880000 7.160000 23.046597 7.463291 586.846313
5.200000 -4.880000 7.200000 17.928146 12.414310 475.533508
5.200000 -4.840000 6.800000 8.994799 -34.316402 1258.521851
5.200000 -4.840000 6.840000 22.727268 -36.897465 1877.951660
5.200000 -4.840000 6.880000 38.490517 -29.508312 2352.260254
5.200000 -4.840000 6.920000 47.436848 -12.818378 2414.565430
5.200000 -4.840000 6.960000 44.432602 5.033277 1999.589966
5.200000 -4.840000 7.000000 33.204975 14.873248 1323.783813
5.200000 -4.840000 7.040000 23.242023 14.689386 755.969727
5.200000 -4.840000 7.080000 20.844604 11.112009 557.974243
5.200000 -4.840000 7.120000 23.372511 12.158140 694.094666
5.200000 -4.840000 7.160000 23.009907 18.703264 879.267944
5.200000 -4.840000 7.200000 16.130367 24.038527 838.039551
5.200000 -4.800000 6.800000 9.814828 -13.689548 283.734589
5.200000 -4.800000 6.840000 18.083416 -20.119648 731.810181
5.200000 -4.800000 6.880000 32.507938 -16.952921 1344.167603
5.200000 -4.800000 6.920000 42.013611 -2.204110 1770.001709
5.200000 -4.800000 6.960000 38.813763 15.300850 1740.624146
5.200000 -4.800000 7.000000 26.538586 24.296009 1294.592529
5.200000 -4.800000 7.040000 16.429363 22.464735 774.588257
5.200000 -4.800000 7.080000 15.326371 18.263926 568.468628
5.200000 -4.800000 7.120000 18.685305 20.871250 784.749634
5.200000 -4.800000 7.160000 16.664993 29.604519 1154.149536
5.200000 -4.800000 7.200000 6.336494 35.057877 1269.205811
