#kx 	ky 	kz 	real 	imag 	intensity
3.800000 3.800000 -8.200000 -24.378468 -24.918081 1215.220459
3.800000 3.800000 -8.160000 -3.994904 -42.411278 1814.675659
3.800000 3.800000 -8.120000 23.152634 -37.442009 1937.948486
3.800000 3.800000 -8.080000 35.610512 -14.227388 1470.527100
3.800000 3.800000 -8.040000 25.533569 6.966788 700.499268
3.800000 3.800000 -8.000000 5.651480 9.262646 117.735832
3.800000 3.800000 -7.960000 -3.924908 -5.267597 43.152485
3.800000 3.800000 -7.920000 4.677760 -19.282501 393.696289
3.800000 3.800000 -7.880000 21.002686 -18.478479 782.567017
3.800000 3.800000 -7.840000 28.883654 -5.062743 859.896790
3.800000 3.800000 -7.800000 23.409992 6.889206 595.488892
3.800000 3.840000 -8.200000 -3.715075 -37.562946 1424.776733
3.800000 3.840000 -8.160000 21.574791 -42.842381 2300.941162
3.800000 3.840000 -8.120000 43.167274 -28.030457 2649.120117
3.800000 3.840000 -8.080000 47.182198 -4.139765 2243.297363
3.800000 3.840000 -8.040000 34.770008 11.841239 1349.168457
3.800000 3.840000 -8.000000 19.693848 12.002848 531.916016
3.800000 3.840000 -7.960000 14.729897 2.995675 225.943924
3.800000 3.840000 -7.920000 20.672894 -2.383748 433.050781
3.800000 3.840000 -7.880000 28.060095 1.956439 791.196533
3.800000 3.840000 -7.840000 28.373798 11.119390 928.713318
3.800000 3.840000 -7.800000 22.317881 16.531445 771.376465
3.800000 3.880000 -8.200000 15.867559 -28.894968 1086.698608
3.800000 3.880000 -8.160000 36.912354 -24.792030 1977.166626
3.800000 3.880000 -8.120000 50.239532 -7.133521 2574.897949
3.800000 3.880000 -8.080000 48.886925 13.751286 2579.029297
3.800000 3.880000 -8.040000 36.399948 26.676010 2036.565674
3.800000 3.880000 -8.000000 22.755989 27.917124 1297.200806
3.800000 3.880000 -7.960000 15.808337 22.458691 754.296326
3.800000 3.880000 -7.920000 16.008139 18.124470 584.756897
3.800000 3.880000 -7.880000 18.258457 18.749399 684.911255
3.800000 3.880000 -7.840000 17.857079 22.438671 822.369202
3.800000 3.880000 -7.800000 14.426551 25.269695 846.682861
3.800000 3.920000 -8.200000 18.294945 -11.361313 463.784454
3.800000 3.920000 -8.160000 33.321388 -5.034142 1135.657471
3.800000 3.920000 -8.120000 41.463467 11.130821 1843.114258
3.800000 3.920000 -8.080000 37.402046 29.316902 2258.393799
3.800000 3.920000 -8.040000 23.537144 40.325806 2180.167725
3.800000 3.920000 -8.000000 8.179886 40.089096 1674.046143
3.800000 3.920000 -7.960000 -0.706544 32.152374 1034.274292
3.800000 3.920000 -7.920000 -1.105092 24.244038 588.994629
3.800000 3.920000 -7.880000 2.543599 21.904856 486.292603
3.800000 3.920000 -7.840000 4.073827 24.689972 626.190796
3.800000 3.920000 -7.800000 1.026920 27.895134 779.193054
3.800000 3.960000 -8.200000 6.707499 -3.473676 57.056969
3.800000 3.960000 -8.160000 19.837547 2.206694 398.397797
3.800000 3.960000 -8.120000 25.493496 17.667591 962.062134
3.800000 3.960000 -8.080000 18.121637 33.667080 1461.865967
3.800000 3.960000 -8.040000 1.907592 39.933540 1598.326538
3.800000 3.960000 -8.000000 -12.455305 33.721455 1292.271118
3.800000 3.960000 -7.960000 -16.798054 21.862179 760.129517
3.800000 3.960000 -7.920000 -12.088400 14.275242 349.911926
3.800000 3.960000 -7.880000 -6.448908 15.083998 269.115417
3.800000 3.960000 -7.840000 -6.775433 19.843502 439.671082
3.800000 3.960000 -7.800000 -12.419519 21.177147 602.716003
3.800000 4.000000 -8.200000 -2.451674 -10.195650 109.961983
3.800000 4.000000 -8.160000 10.823925 -1.956971 120.987091
3.800000 4.000000 -8.120000 12.218726 14.002733 345.373810
3.800000 4.000000 -8.080000 0.612443 24.698229 610.377563
3.800000 4.000000 -8.040000 -13.873011 22.297880 689.655884
3.800000 4.000000 -8.000000 -19.704283 11.041975 510.183960
3.800000 4.000000 -7.960000 -14.715000 2.302235 221.831512
3.800000 4.000000 -7.920000 -7.138590 3.058067 60.311241
3.800000 4.000000 -7.880000 -6.291746 9.568379 131.139954
3.800000 4.000000 -7.840000 -12.917301 12.418136 321.066772
3.800000 4.000000 -7.800000 -19.154804 7.090600 417.183136
3.800000 4.040000 -8.200000 1.237438 -19.659683 388.034393
3.800000 4.040000 -8.160000 10.212638 -6.254848 143.421112
3.800000 4.040000 -8.120000 4.448658 6.427949 61.109085
3.800000 4.040000 -8.080000 -7.404001 6.942059 103.011414
3.800000 4.040000 -8.040000 -11.789129 -2.619132 145.843414
3.800000 4.040000 -8.000000 -4.592093 -9.762365 116.391098
3.800000 4.040000 -7.960000 5.062008 -5.560242 56.540215
3.800000 4.040000 -7.920000 5.301407 5.738544 61.035812
3.800000 4.040000 -7.880000 -5.307266 11.589312 162.479218
3.800000 4.040000 -7.840000 -16.138409 4.995455 285.402802
3.800000 4.040000 -7.800000 -16.001938 -7.790841 316.759216
3.800000 4.080000 -8.200000 11.237936 -18.510849 468.942719
3.800000 4.080000 -8.160000 9.897769 -4.699661 120.052643
3.800000 4.080000 -8.120000 -0.180090 -2.491332 6.239168
3.800000 4.080000 -8.080000 -3.071529 -12.061275 154.908661
3.800000 4.080000 -8.040000 8.026630 -18.994652 425.223572
3.800000 4.080000 -8.000000 22.603683 -10.706270 625.550720
3.800000 4.080000 -7.960000 23.987751 8.731914 651.658508
3.800000 4.080000 -7.920000 7.844513 21.865108 539.619385
3.800000 4.080000 -7.880000 -12.171545 16.039183 405.401886
3.800000 4.080000 -7.840000 -18.038815 -3.043655 334.662659
3.800000 4.080000 -7.800000 -5.750030 -17.001547 322.115417
3.800000 4.120000 -8.200000 13.028805 -7.790521 230.441971
3.800000 4.120000 -8.160000 2.621620 -3.666368 20.315142
3.800000 4.120000 -8.120000 -1.683203 -14.581931 215.465897
3.800000 4.120000 -8.080000 11.810381 -25.131132 771.058899
3.800000 4.120000 -8.040000 33.592316 -16.902546 1414.139771
3.800000 4.120000 -8.000000 41.268513 10.077655 1804.649170
3.800000 4.120000 -7.960000 23.219084 34.816170 1751.291504
3.800000 4.120000 -7.920000 -7.708186 35.656013 1330.767456
3.800000 4.120000 -7.880000 -25.764782 12.417356 818.014709
3.800000 4.120000 -7.840000 -17.522697 -13.095716 478.542725
3.800000 4.120000 -7.800000 5.592090 -18.852589 386.691559
3.800000 4.160000 -8.200000 1.874265 -1.583509 6.020371
3.800000 4.160000 -8.160000 -6.817115 -12.856070 211.751572
3.800000 4.160000 -8.120000 4.654922 -29.270645 878.438965
3.800000 4.160000 -8.080000 32.013592 -27.322979 1771.415283
3.800000 4.160000 -8.040000 50.318638 1.192204 2533.386719
3.800000 4.160000 -8.000000 38.271484 37.330704 2858.288086
3.800000 4.160000 -7.960000 1.260953 51.335274 2636.900391
3.800000 4.160000 -7.920000 -31.765930 31.587202 2006.825684
3.800000 4.160000 -7.880000 -35.465115 -3.677552 1271.298828
3.800000 4.160000 -7.840000 -11.715143 -24.180706 721.951111
3.800000 4.160000 -7.800000 14.175911 -16.444603 471.381409
3.800000 4.200000 -8.200000 -10.930022 -10.501091 229.738297
3.800000 4.200000 -8.160000 -5.637049 -31.314346 1012.364563
3.800000 4.200000 -8.120000 21.940121 -39.220474 2019.614502
3.800000 4.200000 -8.080000 50.209038 -17.345032 2821.797607
3.800000 4.200000 -8.040000 51.084873 23.741215 3173.309570
3.800000 4.200000 -8.000000 17.992788 52.575424 3087.915771
3.800000 4.200000 -7.960000 -25.365616 45.508179 2714.408936
3.800000 4.200000 -7.920000 -45.836182 9.324762 2187.906738
3.800000 4.200000 -7.880000 -31.051620 -25.172672 1597.866577
3.800000 4.200000 -7.840000 0.846545 -32.164272 1035.257080
3.800000 4.200000 -7.800000 20.762945 -13.076986 602.107422
3.840000 3.800000 -8.200000 14.907598 -32.252213 1262.441650
3.840000 3.800000 -8.160000 39.148159 -25.192020 2167.216309
3.840000 3.800000 -8.120000 49.876995 -0.703165 2488.208984
3.840000 3.800000 -8.080000 38.456543 22.512896 1985.736084
3.840000 3.800000 -8.040000 16.101151 27.416752 1010.925293
3.840000 3.800000 -8.000000 2.493889 14.706743 222.507782
3.840000 3.800000 -7.960000 6.405399 0.750539 41.592449
3.840000 3.800000 -7.920000 18.452919 0.008888 340.510315
3.840000 3.800000 -7.880000 22.749956 10.862904 635.563171
3.840000 3.800000 -7.840000 14.265421 19.260788 574.480225
3.840000 3.800000 -7.800000 3.199353 15.262297 243.173553
3.840000 3.840000 -8.200000 30.866776 -20.360544 1367.309570
3.840000 3.840000 -8.160000 49.827713 -6.803358 2529.086670
3.840000 3.840000 -8.120000 54.644032 17.579540 3295.010498
3.840000 3.840000 -8.080000 42.466850 38.242203 3265.899414
3.840000 3.840000 -8.040000 22.756840 45.025211 2545.143555
3.840000 3.840000 -8.000000 7.694839 39.493141 1618.918823
3.840000 3.840000 -7.960000 1.899513 30.713472 946.925537
3.840000 3.840000 -7.920000 1.297245 25.311899 642.375122
3.840000 3.840000 -7.880000 0.453640 22.630407 512.341125
3.840000 3.840000 -7.840000 -0.861703 18.863697 356.581604
3.840000 3.840000 -7.800000 0.987474 13.898706 194.149155
3.840000 3.880000 -8.200000 29.371519 -0.611707 863.060364
3.840000 3.880000 -8.160000 43.128746 13.531120 2043.179932
3.840000 3.880000 -8.120000 45.155788 36.938202 3403.476074
3.840000 3.880000 -8.080000 31.173168 58.618145 4407.853516
3.840000 3.880000 -8.040000 6.370405 67.779114 4634.590332
3.840000 3.880000 -8.000000 -18.109062 60.665550 4008.247314
3.840000 3.880000 -7.960000 -32.191006 42.188316 2816.114746
3.840000 3.880000 -7.920000 -32.279259 22.103821 1530.529419
3.840000 3.880000 -7.880000 -22.051638 9.080656 568.733032
3.840000 3.880000 -7.840000 -9.121648 6.561018 126.251419
3.840000 3.880000 -7.800000 -0.417083 12.274022 150.825577
3.840000 3.920000 -8.200000 12.519404 7.638566 215.083176
3.840000 3.920000 -8.160000 25.545099 21.091654 1097.409912
3.840000 3.920000 -8.120000 25.200405 46.082832 2758.687988
3.840000 3.920000 -8.080000 4.330906 68.177383 4666.912598
3.840000 3.920000 -8.040000 -29.655642 71.149063 5941.645996
3.840000 3.920000 -8.000000 -58.313499 49.966141 5897.079102
3.840000 3.920000 -7.960000 -65.345627 15.892524 4522.623047
3.840000 3.920000 -7.920000 -48.886517 -11.340539 2518.499512
3.840000 3.920000 -7.880000 -22.411205 -18.167294 832.312683
3.840000 3.920000 -7.840000 -3.644613 -6.308212 53.076748
3.840000 3.920000 -7.800000 -1.250894 10.802986 118.269241
3.840000 3.960000 -8.200000 -1.601692 -2.758413 10.174262
3.840000 3.960000 -8.160000 12.216734 14.396481 356.507233
3.840000 3.960000 -8.120000 5.297869 41.673691 1764.763916
3.840000 3.960000 -8.080000 -25.141912 56.998253 3880.916504
3.840000 3.960000 -8.040000 -61.462280 43.769386 5693.371094
3.840000 3.960000 -8.000000 -78.386475 6.431130 6185.798828
3.840000 3.960000 -7.960000 -63.848152 -31.573160 5073.450684
3.840000 3.960000 -7.920000 -29.110672 -46.562576 3015.504639
3.840000 3.960000 -7.880000 1.140666 -33.421925 1118.326172
3.840000 3.960000 -7.840000 9.432543 -7.701980 148.293365
3.840000 3.960000 -7.800000 -2.064519 9.770943 99.733559
3.840000 4.000000 -8.200000 1.582156 -19.202785 371.250183
3.840000 4.000000 -8.160000 10.724602 5.066409 140.685577
3.840000 4.000000 -8.120000 -6.976104 29.063599 893.358765
3.840000 4.000000 -8.080000 -41.229919 28.853798 2532.447754
3.840000 4.000000 -8.040000 -65.023102 -0.938809 4228.885254
3.840000 4.000000 -8.000000 -57.718239 -40.640385 4983.036133
3.840000 4.000000 -7.960000 -23.397312 -61.773525 4363.402832
3.840000 4.000000 -7.920000 12.921745 -51.302151 2798.882080
3.840000 4.000000 -7.880000 27.322384 -21.392654 1204.158325
3.840000 4.000000 -7.840000 16.338478 3.536610 279.453461
3.840000 4.000000 -7.800000 -3.805471 8.781029 91.588081
3.840000 4.040000 -8.200000 17.586578 -23.228043 848.829712
3.840000 4.040000 -8.160000 14.352242 3.615848 219.061188
3.840000 4.040000 -8.120000 -11.397017 14.968591 353.950684
3.840000 4.040000 -8.080000 -36.514385 -2.269078 1338.448975
3.840000 4.040000 -8.040000 -36.657463 -35.539944 2606.857422
3.840000 4.040000 -8.000000 -8.786840 -57.264542 3356.436279
3.840000 4.040000 -7.960000 26.051622 -49.653908 3144.197510
3.840000 4.040000 -7.920000 42.140160 -19.942020 2173.477295
3.840000 4.040000 -7.880000 31.570127 7.974432 1060.264526
3.840000 4.040000 -7.840000 8.521135 16.016586 329.140778
3.840000 4.040000 -7.800000 -6.849597 6.142650 84.649124
3.840000 4.080000 -8.200000 28.152018 -10.533815 903.497314
3.840000 4.080000 -8.160000 11.789732 7.574252 196.367081
3.840000 4.080000 -8.120000 -10.867682 1.482855 120.305359
3.840000 4.080000 -8.080000 -15.680134 -22.741173 763.027527
3.840000 4.080000 -8.040000 4.891449 -40.992329 1704.297241
3.840000 4.080000 -8.000000 34.247597 -34.070889 2333.723145
3.840000 4.080000 -7.960000 47.507469 -5.771922 2290.274902
3.840000 4.080000 -7.920000 34.793697 21.548470 1674.937866
3.840000 4.080000 -7.880000 8.898851 28.604683 897.417480
3.840000 4.080000 -7.840000 -8.958390 15.897156 332.972321
3.840000 4.080000 -7.800000 -9.410185 -0.256585 88.617416
3.840000 4.120000 -8.200000 21.312687 4.642433 475.782806
3.840000 4.120000 -8.160000 1.764223 5.357163 31.811684
3.840000 4.120000 -8.120000 -5.338438 -12.107958 175.101562
3.840000 4.120000 -8.080000 10.185329 -27.090038 837.611084
3.840000 4.120000 -8.040000 35.145439 -19.918909 1631.964844
3.840000 4.120000 -8.000000 45.328388 7.990268 2118.507324
3.840000 4.120000 -7.960000 29.228027 34.974800 2077.514160
3.840000 4.120000 -7.920000 -0.991341 39.995922 1600.656616
3.840000 4.120000 -7.880000 -21.940630 22.139458 971.546814
3.840000 4.120000 -7.840000 -21.344563 -0.573662 455.919464
3.840000 4.120000 -7.800000 -7.385748 -10.321417 161.080917
3.840000 4.160000 -8.200000 4.277646 5.232141 45.673561
3.840000 4.160000 -8.160000 -4.413912 -8.843153 97.683975
3.840000 4.160000 -8.120000 7.878533 -23.408600 610.033813
3.840000 4.160000 -8.080000 31.503799 -17.970703 1315.435547
3.840000 4.160000 -8.040000 42.513771 9.520184 1898.054688
3.840000 4.160000 -8.000000 26.041561 38.651321 2172.087646
3.840000 4.160000 -7.960000 -8.293201 45.233025 2114.803711
3.840000 4.160000 -7.920000 -34.870110 24.174461 1800.329102
3.840000 4.160000 -7.880000 -35.933472 -6.424603 1332.489868
3.840000 4.160000 -7.840000 -16.663406 -23.409151 825.657471
3.840000 4.160000 -7.800000 2.791254 -19.667673 394.608459
3.840000 4.200000 -8.200000 -4.556999 -10.275845 126.359222
3.840000 4.200000 -8.160000 4.530083 -26.343441 714.498535
3.840000 4.200000 -8.120000 27.919937 -25.670277 1438.485962
3.840000 4.200000 -8.080000 43.633759 -1.320663 1905.649048
3.840000 4.200000 -8.040000 32.735516 30.558804 2005.454468
3.840000 4.200000 -8.000000 -1.390649 43.832207 1923.196289
3.840000 4.200000 -7.960000 -34.398853 26.370892 1878.705078
3.840000 4.200000 -7.920000 -42.532333 -8.584081 1882.685791
3.840000 4.200000 -7.880000 -23.324745 -34.875954 1760.375977
3.840000 4.200000 -7.840000 4.420350 -36.929184 1383.304199
3.840000 4.200000 -7.800000 19.861893 -21.071783 838.514832
3.880000 3.800000 -8.200000 46.222366 -1.261875 2138.099365
3.880000 3.800000 -8.160000 52.384197 25.723711 3405.813232
3.880000 3.800000 -8.120000 34.775658 50.087017 3718.055664
3.880000 3.800000 -8.080000 5.531884 52.958977 2835.255127
3.880000 3.800000 -8.040000 -12.888317 34.877628 1382.557739
3.880000 3.800000 -8.000000 -9.791271 14.865464 316.851013
3.880000 3.800000 -7.960000 4.063972 10.636315 129.647079
3.880000 3.800000 -7.920000 9.212756 20.956810 524.062744
3.880000 3.800000 -7.880000 -1.400879 28.682653 824.657043
3.880000 3.800000 -7.840000 -15.578343 20.508503 663.283447
3.880000 3.800000 -7.800000 -16.089870 1.723487 261.854340
3.880000 3.840000 -8.200000 36.962334 21.200075 1815.657227
3.880000 3.840000 -8.160000 36.782837 42.268520 3139.604980
3.880000 3.840000 -8.120000 21.832216 60.030655 4080.325195
3.880000 3.840000 -8.080000 -0.471079 64.973618 4221.792480
3.880000 3.840000 -8.040000 -19.233624 57.426815 3667.771484
3.880000 3.840000 -8.000000 -29.463696 44.752281 2870.875977
3.880000 3.840000 -7.960000 -33.556412 32.723511 2196.860840
3.880000 3.840000 -7.920000 -34.898457 21.317509 1672.338379
3.880000 3.840000 -7.880000 -32.413921 8.813125 1128.333496
3.880000 3.840000 -7.840000 -22.892109 -2.116539 528.528381
3.880000 3.840000 -7.800000 -7.759920 -4.928480 84.506279
3.880000 3.880000 -8.200000 12.166951 28.133730 939.541504
3.880000 3.880000 -8.160000 14.373110 44.039307 2146.046875
3.880000 3.880000 -8.120000 3.227738 63.852051 4087.502686
3.880000 3.880000 -8.080000 -22.797195 75.555305 6228.315918
3.880000 3.880000 -8.040000 -55.015289 68.761276 7754.795410
3.880000 3.880000 -8.000000 -78.745262 42.334450 7993.021973
3.880000 3.880000 -7.960000 -82.146606 6.363117 6788.554199
3.880000 3.880000 -7.920000 -63.783718 -23.211855 4607.152832
3.880000 3.880000 -7.880000 -33.853752 -34.015789 2303.150391
3.880000 3.880000 -7.840000 -7.913958 -24.527821 664.244690
3.880000 3.880000 -7.800000 2.698201 -4.324396 25.980690
3.880000 3.920000 -8.200000 -8.025183 12.122116 211.349243
3.880000 3.920000 -8.160000 -0.719085 31.372423 984.746033
3.880000 3.920000 -8.120000 -16.254124 57.785011 3603.303955
3.880000 3.920000 -8.080000 -55.727081 67.451935 7655.271484
3.880000 3.920000 -8.040000 -98.253326 43.220230 11521.704102
3.880000 3.920000 -8.000000 -114.943703 -8.501070 13284.323242
3.880000 3.920000 -7.960000 -91.842613 -59.652840 11993.526367
3.880000 3.920000 -7.920000 -42.085552 -81.029694 8337.004883
3.880000 3.920000 -7.880000 3.899060 -64.342216 4155.123535
3.880000 3.920000 -7.840000 21.733852 -26.998318 1201.269531
3.880000 3.920000 -7.800000 9.935728 3.632238 111.911842
3.880000 3.960000 -8.200000 -5.994176 -12.861959 201.360153
3.880000 3.960000 -8.160000 -1.142097 16.421444 270.968201
3.880000 3.960000 -8.120000 -30.239189 43.019875 2765.118164
3.880000 3.960000 -8.080000 -79.828926 35.466953 7630.562012
3.880000 3.960000 -8.040000 -112.939323 -14.138908 12955.200195
3.880000 3.960000 -8.000000 -99.166458 -78.746391 16034.980469
3.880000 3.960000 -7.960000 -41.932678 -116.007538 15216.098633
3.880000 3.960000 -7.920000 22.706324 -102.635651 11049.654297
3.880000 3.960000 -7.880000 55.286743 -52.663181 5830.034668
3.880000 3.960000 -7.840000 43.776360 -3.626534 1929.521362
3.880000 3.960000 -7.800000 8.926349 15.352287 315.372437
3.880000 4.000000 -8.200000 15.485450 -24.026075 817.051453
3.880000 4.000000 -8.160000 6.624794 11.295765 171.482208
3.880000 4.000000 -8.120000 -35.449543 24.620623 1862.845093
3.880000 4.000000 -8.080000 -78.495415 -7.135864 6212.450684
3.880000 4.000000 -8.040000 -82.009567 -69.388046 11540.270508
3.880000 4.000000 -8.000000 -33.679024 -118.177216 15100.130859
3.880000 4.000000 -7.960000 37.346954 -116.494972 14965.873047
3.880000 4.000000 -7.920000 83.927681 -65.751251 11367.082031
3.880000 4.000000 -7.880000 79.928764 -3.387251 6400.081055
3.880000 4.000000 -7.840000 38.996090 30.147709 2429.579346
3.880000 4.000000 -7.800000 -2.144663 23.486944 556.236084
3.880000 4.040000 -8.200000 35.510403 -11.946358 1403.704102
3.880000 4.040000 -8.160000 9.494578 16.009527 346.451965
3.880000 4.040000 -8.120000 -32.790077 7.254259 1127.813477
3.880000 4.040000 -8.080000 -51.787155 -39.118462 4212.163574
3.880000 4.040000 -8.040000 -22.881310 -88.675537 8386.905273
3.880000 4.040000 -8.000000 39.118652 -99.633606 11457.124023
3.880000 4.040000 -7.960000 90.663101 -59.516758 11762.041992
3.880000 4.040000 -7.920000 96.357605 3.899527 9299.994141
3.880000 4.040000 -7.880000 57.768955 47.356873 5579.925781
3.880000 4.040000 -7.840000 8.286739 48.472862 2418.288574
3.880000 4.040000 -7.800000 -18.500849 19.986769 741.752319
3.880000 4.080000 -8.200000 35.626869 10.501873 1379.563110
3.880000 4.080000 -8.160000 1.947136 19.129444 369.726990
3.880000 4.080000 -8.120000 -24.366627 -7.153122 644.899658
3.880000 4.080000 -8.080000 -15.036011 -47.791786 2510.136475
3.880000 4.080000 -8.040000 28.586842 -65.874985 5156.721191
3.880000 4.080000 -8.000000 74.133621 -40.914772 7169.812500
3.880000 4.080000 -7.960000 85.756866 12.098608 7500.616699
3.880000 4.080000 -7.920000 55.007729 55.724030 6131.017578
3.880000 4.080000 -7.880000 6.305472 62.493629 3945.212646
3.880000 4.080000 -7.840000 -26.601221 35.969692 2001.443604
3.880000 4.080000 -7.800000 -29.049576 2.390813 849.593872
3.880000 4.120000 -8.200000 17.561131 21.592533 774.630798
3.880000 4.120000 -8.160000 -7.885881 10.746323 177.670578
3.880000 4.120000 -8.120000 -10.889528 -17.585785 427.841644
3.880000 4.120000 -8.080000 14.656571 -36.061359 1515.236694
3.880000 4.120000 -8.040000 48.343132 -23.529392 2890.690674
3.880000 4.120000 -8.000000 60.281555 14.699854 3849.951660
3.880000 4.120000 -7.960000 37.754555 50.634552 3989.264160
3.880000 4.120000 -7.920000 -3.825438 58.118950 3392.446289
3.880000 4.120000 -7.880000 -35.524960 34.645172 2462.310547
3.880000 4.120000 -7.840000 -39.960114 0.529015 1597.090576
3.880000 4.120000 -7.800000 -22.862846 -21.438633 982.324707
3.880000 4.160000 -8.200000 0.192985 12.388275 153.506607
3.880000 4.160000 -8.160000 -6.932312 -6.045242 84.601898
3.880000 4.160000 -8.120000 6.982269 -21.288940 501.971069
3.880000 4.160000 -8.080000 29.963398 -15.659845 1143.036011
3.880000 4.160000 -8.040000 39.477943 10.431650 1667.327393
3.880000 4.160000 -8.000000 22.873522 37.210339 1907.807251
3.880000 4.160000 -7.960000 -10.499855 42.588951 1924.065674
3.880000 4.160000 -7.920000 -37.328121 21.497330 1855.523926
3.880000 4.160000 -7.880000 -40.535019 -10.731062 1758.243408
3.880000 4.160000 -7.840000 -22.262177 -33.045486 1587.608643
3.880000 4.160000 -7.800000 1.492672 -36.116119 1306.602051
3.880000 4.200000 -8.200000 -0.272526 -5.677564 32.309002
3.880000 4.200000 -8.160000 8.490062 -17.485529 377.824860
3.880000 4.200000 -8.120000 25.289047 -14.823978 859.286255
3.880000 4.200000 -8.080000 33.430874 4.011183 1133.712891
3.880000 4.200000 -8.040000 21.404671 25.072275 1086.778931
3.880000 4.200000 -8.000000 -5.533077 29.919495 925.791077
3.880000 4.200000 -7.960000 -28.661779 11.886954 962.797302
3.880000 4.200000 -7.920000 -31.427744 -17.833771 1305.746460
3.880000 4.200000 -7.880000 -12.824289 -39.895920 1756.146851
3.880000 4.200000 -7.840000 13.486201 -42.636562 1999.754150
3.880000 4.200000 -7.800000 32.056236 -29.269619 1884.312866
3.920000 3.800000 -8.200000 40.365959 45.662411 3714.466309
3.920000 3.800000 -8.160000 17.966841 71.649872 5456.511719
3.920000 3.800000 -8.120000 -19.765242 72.845016 5697.061035
3.920000 3.800000 -8.080000 -45.744476 46.160084 4223.310547
3.920000 3.800000 -8.040000 -42.861431 13.383495 2016.220215
3.920000 3.800000 -8.000000 -20.822948 -0.032906 433.596252
3.920000 3.800000 -7.960000 -5.492626 9.916363 128.503189
3.920000 3.800000 -7.920000 -11.818913 23.276688 681.490906
3.920000 3.800000 -7.880000 -29.099033 18.585672 1192.180908
3.920000 3.800000 -7.840000 -33.782017 -3.985327 1157.107422
3.920000 3.800000 -7.800000 -15.457583 -23.323692 782.931519
3.920000 3.840000 -8.200000 5.736200 52.925079 2833.968018
3.920000 3.840000 -8.160000 -12.877140 64.174805 4284.226562
3.920000 3.840000 -8.120000 -36.688286 61.833218 5169.376953
3.920000 3.840000 -8.080000 -54.324501 46.757584 5137.422852
3.920000 3.840000 -8.040000 -60.650162 27.826500 4452.756348
3.920000 3.840000 -8.000000 -59.507645 12.238754 3690.946777
3.920000 3.840000 -7.960000 -56.429375 -0.491394 3184.515869
3.920000 3.840000 -7.920000 -50.894726 -14.186169 2791.520508
3.920000 3.840000 -7.880000 -37.847969 -27.403517 2183.421387
3.920000 3.840000 -7.840000 -16.742830 -32.008438 1304.862549
3.920000 3.840000 -7.800000 3.444502 -21.831532 488.480377
3.920000 3.880000 -8.200000 -22.984236 30.946493 1485.960449
3.920000 3.880000 -8.160000 -29.205017 40.450127 2489.145752
3.920000 3.880000 -8.120000 -47.773453 48.213272 4606.822266
3.920000 3.880000 -8.080000 -75.668304 42.031010 7492.298340
3.920000 3.880000 -8.040000 -99.620209 15.376328 10160.617188
3.920000 3.880000 -8.000000 -103.944016 -25.570518 11458.209961
3.920000 3.880000 -7.960000 -81.673950 -63.572598 10712.109375
3.920000 3.880000 -7.920000 -40.853493 -80.515144 8151.696289
3.920000 3.880000 -7.880000 -0.682867 -69.350639 4809.977539
3.920000 3.880000 -7.840000 20.496771 -39.078312 1947.232178
3.920000 3.880000 -7.800000 16.955019 -8.612589 361.649353
3.920000 3.920000 -8.200000 -23.831511 -4.338976 586.767639
3.920000 3.920000 -8.160000 -25.127518 17.128601 924.781128
3.920000 3.920000 -8.120000 -54.774673 33.171432 4100.608887
3.920000 3.920000 -8.080000 -98.982559 16.879324 10082.458008
3.920000 3.920000 -8.040000 -123.935661 -36.618469 16700.960938
3.920000 3.920000 -8.000000 -102.987717 -100.826630 20772.478516
3.920000 3.920000 -7.960000 -40.871307 -136.014099 20170.298828
3.920000 3.920000 -7.920000 27.531788 -120.422554 15259.590820
3.920000 3.920000 -7.880000 63.710075 -67.354416 8595.590820
3.920000 3.920000 -7.840000 54.458927 -13.410009 3145.603027
3.920000 3.920000 -7.800000 18.616730 10.938380 466.230774
3.920000 3.960000 -8.200000 2.466932 -25.083797 635.282654
3.920000 3.960000 -8.160000 -10.241915 8.329510 174.277557
3.920000 3.960000 -8.120000 -57.530869 16.219395 3572.869629
3.920000 3.960000 -8.080000 -103.073257 -26.424099 11322.330078
3.920000 3.960000 -8.040000 -101.199135 -102.172043 20680.390625
3.920000 3.960000 -8.000000 -38.303635 -159.966415 27056.421875
3.920000 3.960000 -7.960000 51.193954 -156.364899 27070.802734
3.920000 3.960000 -7.920000 111.059021 -92.478821 20886.437500
3.920000 3.960000 -7.880000 108.640190 -12.729095 11964.720703
3.920000 3.960000 -7.840000 58.636326 32.887531 4519.808594
3.920000 3.960000 -7.800000 5.554846 27.802517 803.836243
3.920000 4.000000 -8.200000 32.569168 -16.286079 1325.987061
3.920000 4.000000 -8.160000 -0.614595 14.126736 199.942398
3.920000 4.000000 -8.120000 -54.144691 -1.778839 2934.812012
3.920000 4.000000 -8.080000 -77.045898 -67.080811 10435.905273
3.920000 4.000000 -8.040000 -34.941635 -137.534393 20136.626953
3.920000 4.000000 -8.000000 54.858822 -155.705048 27253.552734
3.920000 4.000000 -7.960000 133.459274 -100.922729 27996.773438
3.920000 4.000000 -7.920000 148.727310 -8.427833 22190.841797
3.920000 4.000000 -7.880000 97.764755 60.498333 13217.996094
3.920000 4.000000 -7.840000 25.198299 69.284920 5435.354004
3.920000 4.000000 -7.800000 -18.335583 31.059181 1300.866333
3.920000 4.040000 -8.200000 41.777630 11.311565 1873.321899
3.920000 4.040000 -8.160000 -4.268152 21.936594 499.431274
3.920000 4.040000 -8.120000 -43.476765 -17.675497 2202.652344
3.920000 4.040000 -8.080000 -31.580341 -83.205841 7920.529785
3.920000 4.040000 -8.040000 36.827408 -119.861000 15722.916992
3.920000 4.040000 -8.000000 117.404564 -89.324951 21762.779297
3.920000 4.040000 -7.960000 151.087952 -5.589220 22858.808594
3.920000 4.040000 -7.920000 114.090332 75.175934 18668.023438
3.920000 4.040000 -7.880000 36.594063 101.917984 11726.400391
3.920000 4.040000 -7.840000 -26.044922 69.021118 5442.252441
3.920000 4.040000 -7.800000 -40.369461 13.968966 1824.825317
3.920000 4.080000 -8.200000 25.848972 32.529545 1726.340576
3.920000 4.080000 -8.160000 -14.831827 19.316166 593.097351
3.920000 4.080000 -8.120000 -26.910124 -27.667961 1489.670898
3.920000 4.080000 -8.080000 10.215975 -69.982780 5001.955566
3.920000 4.080000 -8.040000 74.805145 -65.521530 9888.880859
3.920000 4.080000 -8.000000 117.027222 -7.422012 13750.457031
3.920000 4.080000 -7.960000 101.035202 66.602585 14644.016602
3.920000 4.080000 -7.920000 36.177414 105.121460 12359.327148
3.920000 4.080000 -7.880000 -31.883915 85.748955 8369.467773
3.920000 4.080000 -7.840000 -60.788887 30.477592 4624.172363
3.920000 4.080000 -7.800000 -43.983109 -18.169016 2264.626953
3.920000 4.120000 -8.200000 2.459465 31.537594 1000.668762
3.920000 4.120000 -8.160000 -18.944538 5.776505 392.263550
3.920000 4.120000 -8.120000 -7.988567 -29.342852 924.820129
3.920000 4.120000 -8.080000 32.029053 -41.040504 2710.183105
3.920000 4.120000 -8.040000 69.733582 -12.006908 5006.938477
3.920000 4.120000 -8.000000 70.873291 41.074570 6710.143555
3.920000 4.120000 -7.960000 28.770811 79.225433 7104.429199
3.920000 4.120000 -7.920000 -28.788925 73.753510 6268.382324
3.920000 4.120000 -7.880000 -63.044914 29.745470 4859.454102
3.920000 4.120000 -7.840000 -55.885330 -20.645662 3549.413574
3.920000 4.120000 -7.800000 -20.727547 -46.833351 2622.993896
3.920000 4.160000 -8.200000 -7.656912 14.650124 273.254425
3.920000 4.160000 -8.160000 -9.772953 -7.553671 152.568573
3.920000 4.160000 -8.120000 8.956375 -22.502773 586.591492
3.920000 4.160000 -8.080000 34.360870 -13.918205 1374.385864
3.920000 4.160000 -8.040000 42.885674 15.613354 2082.957764
3.920000 4.160000 -8.000000 22.198982 43.787037 2410.099365
3.920000 4.160000 -7.960000 -16.244133 46.335583 2410.858154
3.920000 4.160000 -7.920000 -45.420692 17.930336 2384.536133
3.920000 4.160000 -7.880000 -44.869831 -23.187700 2550.971191
3.920000 4.160000 -7.840000 -16.418871 -50.736450 2843.766846
3.920000 4.160000 -7.800000 19.896267 -51.066666 3003.666016
3.920000 4.200000 -8.200000 -0.086475 0.868297 0.761417
3.920000 4.200000 -8.160000 6.633532 -9.308741 130.656387
3.920000 4.200000 -8.120000 19.900198 -9.138573 479.531403
3.920000 4.200000 -8.080000 27.752605 3.870267 785.186035
3.920000 4.200000 -8.040000 20.105122 20.190950 811.890381
3.920000 4.200000 -8.000000 -0.875896 24.529272 602.452393
3.920000 4.200000 -7.960000 -20.318707 8.952173 492.991211
3.920000 4.200000 -7.920000 -21.939713 -18.984402 841.758484
3.920000 4.200000 -7.880000 -1.509947 -41.218643 1701.256470
3.920000 4.200000 -7.840000 29.627674 -43.117161 2736.888672
3.920000 4.200000 -7.800000 53.748131 -23.985712 3464.176025
3.960000 3.800000 -8.200000 -0.326628 71.870682 5165.501465
3.960000 3.800000 -8.160000 -41.512886 75.200508 7378.436035
3.960000 3.800000 -8.120000 -75.677765 44.530853 7710.121094
3.960000 3.800000 -8.080000 -76.679619 -1.300762 5881.456055
3.960000 3.800000 -8.040000 -46.522873 -29.286659 3022.086182
3.960000 3.800000 -8.000000 -14.049477 -23.921909 769.645508
3.960000 3.800000 -7.960000 -6.270481 -1.559509 41.750999
3.960000 3.800000 -7.920000 -22.007786 7.754330 544.472229
3.960000 3.800000 -7.880000 -35.289200 -8.228602 1313.037598
3.960000 3.800000 -7.840000 -24.155354 -32.350216 1630.017578
3.960000 3.800000 -7.800000 6.126102 -37.669113 1456.491211
3.960000 3.840000 -8.200000 -39.206581 48.655029 3904.467773
3.960000 3.840000 -8.160000 -62.630501 39.746223 5502.341797
3.960000 3.840000 -8.120000 -77.590736 16.703852 6299.340820
3.960000 3.840000 -8.080000 -76.523666 -9.741518 5950.768555
3.960000 3.840000 -8.040000 -63.848709 -28.014500 4861.469727
3.960000 3.840000 -8.000000 -50.017960 -36.231186 3814.495117
3.960000 3.840000 -7.960000 -39.742878 -41.275742 3283.183105
3.960000 3.840000 -7.920000 -28.258888 -47.947468 3097.524414
3.960000 3.840000 -7.880000 -9.919857 -51.480904 2748.687012
3.960000 3.840000 -7.840000 11.403975 -42.920944 1972.258057
3.960000 3.840000 -7.800000 23.355627 -21.478767 1006.822754
3.960000 3.880000 -8.200000 -46.995533 4.336308 2227.383545
3.960000 3.880000 -8.160000 -54.267612 4.599640 2966.130615
3.960000 3.880000 -8.120000 -69.816978 -1.511343 4876.694824
3.960000 3.880000 -8.080000 -85.349472 -22.750847 7802.133301
3.960000 3.880000 -8.040000 -86.527985 -57.640633 10809.535156
3.960000 3.880000 -8.000000 -63.811569 -92.421837 12613.711914
3.960000 3.880000 -7.960000 -21.369881 -108.801308 12294.396484
3.960000 3.880000 -7.920000 23.327122 -96.493881 9855.223633
3.960000 3.880000 -7.880000 49.948509 -61.302261 6252.820801
3.960000 3.880000 -7.840000 48.669304 -22.145529 2859.125488
3.960000 3.880000 -7.800000 26.580727 1.392838 708.475037
3.960000 3.920000 -8.200000 -19.092411 -28.202766 1159.916260
3.960000 3.920000 -8.160000 -29.306805 -9.881378 956.530396
3.960000 3.920000 -8.120000 -62.569405 -12.218597 4064.224609
3.960000 3.920000 -8.080000 -90.131592 -51.968384 10824.416016
3.960000 3.920000 -8.040000 -78.179588 -113.055267 18893.541016
3.960000 3.920000 -8.000000 -19.114010 -155.056793 24407.955078
3.960000 3.920000 -7.960000 57.759090 -145.403412 24478.265625
3.960000 3.920000 -7.920000 107.443810 -87.094193 19129.570312
3.960000 3.920000 -7.880000 104.463898 -16.915094 11198.826172
3.960000 3.920000 -7.840000 61.192345 24.136993 4327.097168
3.960000 3.920000 -7.800000 14.473459 21.721577 681.307922
3.960000 3.960000 -8.200000 20.518667 -26.412624 1118.642456
3.960000 3.960000 -8.160000 -9.857838 -2.314024 102.531670
3.960000 3.960000 -8.120000 -57.306557 -22.847706 3806.059082
3.960000 3.960000 -8.080000 -72.263771 -89.142563 13168.449219
3.960000 3.960000 -8.040000 -22.932793 -156.446960 25001.564453
3.960000 3.960000 -8.000000 71.126160 -168.725876 33527.351562
3.960000 3.960000 -7.960000 150.353119 -107.688538 34202.882812
3.960000 3.960000 -7.920000 163.552277 -10.558851 26860.837891
3.960000 3.960000 -7.880000 109.505310 60.563297 15659.326172
3.960000 3.960000 -7.840000 34.464172 69.356812 5998.146484
3.960000 3.960000 -7.800000 -9.747812 30.022724 996.383789
3.960000 4.000000 -8.200000 40.828941 3.271070 1677.702393
3.960000 4.000000 -8.160000 -8.165670 11.693506 203.416260
3.960000 4.000000 -8.120000 -48.265152 -35.814293 3612.188477
3.960000 4.000000 -8.080000 -29.159683 -111.161232 13207.106445
3.960000 4.000000 -8.040000 54.660667 -151.092438 25816.712891
3.960000 4.000000 -8.000000 151.057007 -111.631737 35279.863281
3.960000 4.000000 -7.960000 190.917206 -9.881502 36547.023438
3.960000 4.000000 -7.920000 146.665497 87.675858 29197.824219
3.960000 4.000000 -7.880000 54.361984 120.657562 17513.472656
3.960000 4.000000 -7.840000 -19.971514 82.558655 7214.792969
3.960000 4.000000 -7.800000 -36.277996 18.504202 1658.498535
3.960000 4.040000 -8.200000 30.378036 33.515415 2046.108154
3.960000 4.040000 -8.160000 -18.503023 15.648010 587.222107
3.960000 4.040000 -8.120000 -31.453117 -45.778503 3084.969971
3.960000 4.040000 -8.080000 20.077875 -101.757736 10757.757812
3.960000 4.040000 -8.040000 109.232834 -95.875443 21123.912109
3.960000 4.040000 -8.000000 169.931244 -16.839024 29160.179688
3.960000 4.040000 -7.960000 152.287811 86.392403 30655.226562
3.960000 4.040000 -7.920000 66.361656 143.899048 25110.804688
3.960000 4.040000 -7.880000 -27.047085 122.990227 15858.140625
3.960000 4.040000 -7.840000 -69.128334 51.544796 7435.592773
3.960000 4.040000 -7.800000 -49.041504 -12.331325 2557.130615
3.960000 4.080000 -8.200000 4.067941 41.837128 1766.893311
3.960000 4.080000 -8.160000 -25.901829 6.382784 711.644653
3.960000 4.080000 -8.120000 -10.378227 -45.975315 2221.437012
3.960000 4.080000 -8.080000 50.870796 -66.896385 7062.964355
3.960000 4.080000 -8.040000 113.917603 -25.890772 13647.551758
3.960000 4.080000 -8.000000 124.665298 57.335445 18828.789062
3.960000 4.080000 -7.960000 66.692780 124.800247 20023.027344
3.960000 4.080000 -7.920000 -22.400913 128.251465 16950.238281
3.960000 4.080000 -7.880000 -82.566223 69.163086 11600.712891
3.960000 4.080000 -7.840000 -81.057831 -5.938470 6605.637695
3.960000 4.080000 -7.800000 -34.359879 -47.934586 3478.325684
3.960000 4.120000 -8.200000 -14.174294 28.638603 1021.080200
3.960000 4.120000 -8.160000 -21.366804 -6.004450 492.593719
3.960000 4.120000 -8.120000 6.897099 -35.511520 1308.638062
3.960000 4.120000 -8.080000 53.956829 -28.414848 3718.742920
3.960000 4.120000 -8.040000 80.234978 19.897003 6833.542480
3.960000 4.120000 -8.000000 56.815079 77.128311 9176.729492
3.960000 4.120000 -7.960000 -6.452152 98.470551 9738.079102
3.960000 4.120000 -7.920000 -66.474220 64.837601 8622.736328
3.960000 4.120000 -7.880000 -82.410591 -0.718872 6792.021973
3.960000 4.120000 -7.840000 -48.393562 -53.565048 5211.151367
3.960000 4.120000 -7.800000 5.972655 -64.605652 4209.562988
3.960000 4.160000 -8.200000 -13.959043 11.872245 335.805054
3.960000 4.160000 -8.160000 -8.863302 -10.087555 180.316895
3.960000 4.160000 -8.120000 14.943558 -20.011196 623.757874
3.960000 4.160000 -8.080000 39.845467 -3.987839 1603.564087
3.960000 4.160000 -8.040000 41.352608 30.151794 2619.168945
3.960000 4.160000 -8.000000 11.157242 55.034584 3153.289551
3.960000 4.160000 -7.960000 -31.731209 46.181137 3139.567139
3.960000 4.160000 -7.920000 -54.661743 4.676071 3009.771973
3.960000 4.160000 -7.880000 -38.602234 -42.024868 3256.221924
3.960000 4.160000 -7.840000 6.208322 -62.510994 3946.167480
3.960000 4.160000 -7.800000 50.199577 -46.198952 4654.340820
3.960000 4.200000 -8.200000 -4.417804 6.689242 64.262955
3.960000 4.200000 -8.160000 0.874969 -3.955309 16.410040
3.960000 4.200000 -8.120000 14.430584 -6.200707 246.690536
3.960000 4.200000 -8.080000 24.779881 5.284189 641.965149
3.960000 4.200000 -8.040000 19.577515 22.120775 872.607788
3.960000 4.200000 -8.000000 -0.528290 27.184435 739.272644
3.960000 4.200000 -7.960000 -18.998966 10.578835 472.872467
3.960000 4.200000 -7.920000 -16.597868 -18.798988 628.891235
3.960000 4.200000 -7.880000 10.879488 -38.622227 1610.039673
3.960000 4.200000 -7.840000 47.424183 -31.536331 3243.593262
3.960000 4.200000 -7.800000 69.478363 0.415745 4827.416016
4.000000 3.800000 -8.200000 -45.164421 59.208290 5545.446289
4.000000 3.800000 -8.160000 -82.588196 33.715965 7957.576172
4.000000 3.800000 -8.120000 -91.316208 -16.418745 8608.224609
4.000000 3.800000 -8.080000 -60.779613 -58.030640 7061.716797
4.000000 3.800000 -8.040000 -13.724945 -63.220459 4185.200684
4.000000 3.800000 -8.000000 14.263416 -36.046120 1502.767822
4.000000 3.800000 -7.960000 8.529343 -7.786983 133.386795
4.000000 3.800000 -7.920000 -12.277676 -5.249882 178.302582
4.000000 3.800000 -7.880000 -17.613039 -25.008827 935.660645
4.000000 3.800000 -7.840000 2.888826 -39.764709 1589.577515
4.000000 3.800000 -7.800000 30.222319 -28.704443 1737.333618
4.000000 3.840000 -8.200000 -64.045853 13.308632 4278.990723
4.000000 3.840000 -8.160000 -76.318741 -12.081209 5970.505859
4.000000 3.840000 -8.120000 -70.455338 -43.022758 6814.912109
4.000000 3.840000 -8.080000 -47.557274 -64.095078 6369.873535
4.000000 3.840000 -8.040000 -20.773228 -67.404037 4974.831055
4.000000 3.840000 -8.000000 -2.756866 -58.992188 3487.678467
4.000000 3.840000 -7.960000 5.604973 -50.704556 2602.367676
4.000000 3.840000 -7.920000 12.915779 -46.894470 2365.908691
4.000000 3.840000 -7.880000 24.620825 -41.078835 2293.655762
4.000000 3.840000 -7.840000 35.063778 -26.063957 1908.798340
4.000000 3.840000 -7.800000 33.805664 -5.330339 1171.235352
4.000000 3.880000 -8.200000 -41.650360 -29.773088 2621.189209
4.000000 3.880000 -8.160000 -43.813232 -35.657509 3191.057129
4.000000 3.880000 -8.120000 -47.788715 -49.297829 4714.037109
4.000000 3.880000 -8.080000 -43.360477 -72.079926 7075.646484
4.000000 3.880000 -8.040000 -22.046711 -95.003952 9511.808594
4.000000 3.880000 -8.000000 14.380127 -103.739632 10968.699219
4.000000 3.880000 -7.960000 52.629662 -88.984596 10688.139648
4.000000 3.880000 -7.920000 75.536049 -54.273987 8651.360352
4.000000 3.880000 -7.880000 73.335114 -15.075520 5605.310547
4.000000 3.880000 -7.840000 50.484707 10.683502 2662.842773
4.000000 3.880000 -7.800000 22.815666 14.147886 720.717285
4.000000 3.920000 -8.200000 2.907440 -39.103981 1537.574585
4.000000 3.920000 -8.160000 -12.644989 -28.859236 992.751221
4.000000 3.920000 -8.120000 -35.817173 -47.051476 3496.711182
4.000000 3.920000 -8.080000 -34.489849 -91.190811 9505.313477
4.000000 3.920000 -8.040000 8.844223 -129.820709 16931.636719
4.000000 3.920000 -8.000000 77.182953 -127.336029 22171.671875
4.000000 3.920000 -7.960000 129.320847 -75.579903 22436.203125
4.000000 3.920000 -7.920000 132.723633 -3.014740 17624.650391
4.000000 3.920000 -7.880000 89.733208 47.484612 10306.836914
4.000000 3.920000 -7.840000 34.106640 52.355396 3904.350342
4.000000 3.920000 -7.800000 2.227348 23.025311 535.125977
4.000000 3.960000 -8.200000 34.622017 -12.695810 1359.867676
4.000000 3.960000 -8.160000 -2.818111 -7.977362 71.580048
4.000000 3.960000 -8.120000 -30.264620 -49.298717 3346.310791
4.000000 3.960000 -8.080000 -6.262348 -110.211784 12185.854492
4.000000 3.960000 -8.040000 70.283295 -136.413162 23548.292969
4.000000 3.960000 -8.000000 151.993896 -93.342804 31815.023438
4.000000 3.960000 -7.960000 180.346161 0.000313 32524.738281
4.000000 3.960000 -7.920000 135.465759 84.337883 25463.851562
4.000000 3.960000 -7.880000 52.326523 109.191437 14660.833984
4.000000 3.960000 -7.840000 -10.844598 72.630669 5392.819336
4.000000 3.960000 -7.800000 -21.158733 16.753916 728.385681
4.000000 4.000000 -8.200000 33.343563 23.633402 1670.330811
4.000000 4.000000 -8.160000 -11.939945 4.689592 164.554565
4.000000 4.000000 -8.120000 -19.705006 -56.159969 3542.229492
4.000000 4.000000 -8.080000 36.964722 -108.128220 13058.102539
4.000000 4.000000 -8.040000 128.155426 -95.289452 25503.890625
4.000000 4.000000 -8.000000 186.115051 -9.562899 34730.261719
4.000000 4.000000 -7.960000 162.667572 96.489868 35771.031250
4.000000 4.000000 -7.920000 71.963570 152.090454 28310.261719
4.000000 4.000000 -7.880000 -21.979914 127.341034 16698.855469
4.000000 4.000000 -7.840000 -60.636494 54.426041 6638.978516
4.000000 4.000000 -7.800000 -36.769917 -6.126221 1389.557373
4.000000 4.040000 -8.200000 8.177722 41.672081 1803.437500
4.000000 4.040000 -8.160000 -22.783455 1.117165 520.333862
4.000000 4.040000 -8.120000 -0.936422 -57.236771 3276.924805
4.000000 4.040000 -8.080000 72.508369 -77.082390 11199.158203
4.000000 4.040000 -8.040000 145.150879 -24.473372 21667.722656
4.000000 4.040000 -8.000000 154.575394 75.327454 29567.777344
4.000000 4.040000 -7.960000 84.124214 153.821274 30737.867188
4.000000 4.040000 -7.920000 -20.057480 156.403793 24864.449219
4.000000 4.040000 -7.880000 -88.033409 87.853821 15468.175781
4.000000 4.040000 -7.840000 -84.411987 4.277475 7143.680664
4.000000 4.040000 -7.800000 -31.929436 -38.277889 2484.685547
4.000000 4.080000 -8.200000 -15.813493 34.598022 1447.089722
4.000000 4.080000 -8.160000 -22.534763 -9.332195 594.905396
4.000000 4.080000 -8.120000 17.085567 -45.486473 2360.936035
4.000000 4.080000 -8.080000 80.285995 -32.332005 7491.199707
4.000000 4.080000 -8.040000 114.252289 35.264248 14297.153320
4.000000 4.080000 -8.000000 81.376465 113.492775 19502.738281
4.000000 4.080000 -7.960000 -3.958298 143.118073 20498.451172
4.000000 4.080000 -7.920000 -84.184052 100.272766 17141.582031
4.000000 4.080000 -7.880000 -106.545944 16.747700 11632.523438
4.000000 4.080000 -7.840000 -65.575378 -48.997509 6700.886230
4.000000 4.080000 -7.800000 -1.602846 -61.319981 3762.709229
4.000000 4.120000 -8.200000 -22.585756 17.512241 816.794983
4.000000 4.120000 -8.160000 -13.428484 -13.578618 364.703064
4.000000 4.120000 -8.120000 23.557127 -25.946787 1228.174072
4.000000 4.120000 -8.080000 61.339783 1.367577 3764.439209
4.000000 4.120000 -8.040000 62.771824 56.092285 7086.646484
4.000000 4.120000 -8.000000 15.566288 96.678482 9589.038086
4.000000 4.120000 -7.960000 -51.584259 86.488609 10141.215820
4.000000 4.120000 -7.920000 -90.278366 27.249523 8892.719727
4.000000 4.120000 -7.880000 -72.976685 -40.813770 6991.360352
4.000000 4.120000 -7.840000 -14.999290 -72.927612 5543.415039
4.000000 4.120000 -7.800000 41.653053 -55.543816 4820.092285
4.000000 4.160000 -8.200000 -16.624466 8.030446 340.860931
4.000000 4.160000 -8.160000 -6.387682 -8.777756 117.851479
4.000000 4.160000 -8.120000 17.428883 -10.396313 411.849274
4.000000 4.160000 -8.080000 34.860016 11.896038 1356.736450
4.000000 4.160000 -8.040000 24.849445 43.628998 2520.984375
4.000000 4.160000 -8.000000 -11.888000 55.786758 3253.486816
4.000000 4.160000 -7.960000 -48.391251 31.092247 3308.440918
4.000000 4.160000 -7.920000 -52.923668 -17.391602 3103.382324
4.000000 4.160000 -7.880000 -17.237511 -54.960258 3317.761963
4.000000 4.160000 -7.840000 35.563923 -54.248428 4207.684570
4.000000 4.160000 -7.800000 70.944466 -17.152222 5327.315918
4.000000 4.200000 -8.200000 -12.498377 8.991790 237.061707
4.000000 4.200000 -8.160000 -7.417828 -2.761667 62.650970
4.000000 4.200000 -8.120000 7.524099 -5.325213 84.969971
4.000000 4.200000 -8.080000 18.492220 7.253960 394.582123
4.000000 4.200000 -8.040000 12.206219 24.158287 732.614563
4.000000 4.200000 -8.000000 -7.903105 26.422607 760.613220
4.000000 4.200000 -7.960000 -21.691689 6.712856 515.591797
4.000000 4.200000 -7.920000 -10.685848 -20.394423 530.119812
4.000000 4.200000 -7.880000 22.887613 -29.672844 1404.320557
4.000000 4.200000 -7.840000 55.942150 -7.990705 3193.375488
4.000000 4.200000 -7.800000 63.978626 33.536411 5217.955566
4.040000 3.800000 -8.200000 -63.730003 21.830135 4538.068359
4.040000 3.800000 -8.160000 -79.181900 -19.760754 6660.260742
4.040000 3.800000 -8.120000 -57.877151 -65.706940 7667.166504
4.040000 3.800000 -8.080000 -8.481474 -83.321976 7014.487305
4.040000 3.800000 -8.040000 35.675819 -60.986259 4992.087891
4.040000 3.800000 -8.000000 46.348770 -19.951376 2546.265869
4.040000 3.800000 -7.960000 25.930237 5.724148 705.143066
4.040000 3.800000 -7.920000 2.871773 1.230549 9.761330
4.040000 3.800000 -7.880000 2.123267 -17.375921 306.430908
4.040000 3.800000 -7.840000 21.366928 -22.742867 973.783569
4.040000 3.800000 -7.800000 36.725044 -5.318598 1377.016357
4.040000 3.840000 -8.200000 -54.907639 -24.128078 3597.013184
4.040000 3.840000 -8.160000 -49.139507 -52.469452 5167.734375
4.040000 3.840000 -8.120000 -24.086193 -74.621628 6148.531738
4.040000 3.840000 -8.080000 10.355254 -76.812065 6007.324707
4.040000 3.840000 -8.040000 36.598736 -58.862160 4804.221191
4.040000 3.840000 -8.000000 44.582870 -34.436523 3173.506348
4.040000 3.840000 -7.960000 39.404579 -17.928333 1874.145996
4.040000 3.840000 -7.920000 33.672485 -11.866875 1274.659058
4.040000 3.840000 -7.880000 33.562080 -7.898228 1188.795166
4.040000 3.840000 -7.840000 33.896805 0.959800 1149.914673
4.040000 3.840000 -7.800000 26.974218 11.278134 854.804749
4.040000 3.880000 -8.200000 -15.035612 -45.688026 2313.465332
4.040000 3.880000 -8.160000 -10.492788 -52.130630 2827.701172
4.040000 3.880000 -8.120000 -1.756180 -62.994358 3971.373291
4.040000 3.880000 -8.080000 17.075836 -72.502457 5548.190430
4.040000 3.880000 -8.040000 44.242035 -70.866226 6979.379883
4.040000 3.880000 -8.000000 69.679840 -52.495895 7611.099609
4.040000 3.880000 -7.960000 81.360550 -21.479305 7080.899414
4.040000 3.880000 -7.920000 73.582451 10.035362 5515.085449
4.040000 3.880000 -7.880000 51.021263 29.193188 3455.411377
4.040000 3.880000 -7.840000 25.951544 30.216003 1586.489502
4.040000 3.880000 -7.800000 10.782683 17.575233 425.155090
4.040000 3.920000 -8.200000 23.697035 -29.498066 1431.685303
4.040000 3.920000 -8.160000 9.280380 -28.626413 905.597046
4.040000 3.920000 -8.120000 3.435598 -50.677933 2580.056152
4.040000 3.920000 -8.080000 26.577225 -77.686874 6741.599609
4.040000 3.920000 -8.040000 74.224747 -79.766022 11871.931641
4.040000 3.920000 -8.000000 116.722122 -42.354378 15417.947266
4.040000 3.920000 -7.960000 122.937027 18.197422 15444.659180
4.040000 3.920000 -7.920000 86.947044 66.136078 11933.769531
4.040000 3.920000 -7.880000 33.386742 75.068100 6749.894531
4.040000 3.920000 -7.840000 -3.140858 48.281837 2341.000732
4.040000 3.920000 -7.800000 -5.518638 13.321314 207.912766
4.040000 3.960000 -8.200000 33.862324 6.433073 1188.041382
4.040000 3.960000 -8.160000 4.428652 -7.108278 70.140579
4.040000 3.960000 -8.120000 4.338614 -48.927490 2412.722900
4.040000 3.960000 -8.080000 50.258892 -79.744339 8885.116211
4.040000 3.960000 -8.040000 116.159134 -60.418800 17143.375000
4.040000 3.960000 -8.000000 151.362320 9.891680 23008.398438
4.040000 3.960000 -7.960000 124.260025 88.416328 23258.000000
4.040000 3.960000 -7.920000 51.065372 123.528069 17866.855469
4.040000 3.960000 -7.880000 -17.787523 97.984329 9917.324219
4.040000 3.960000 -7.840000 -40.670418 40.911171 3327.806641
4.040000 3.960000 -7.800000 -17.068096 -0.761001 291.899048
4.040000 4.000000 -8.200000 15.181802 32.233963 1269.515381
4.040000 4.000000 -8.160000 -9.201839 -2.812092 92.581711
4.040000 4.000000 -8.120000 13.675529 -50.735039 2761.064209
4.040000 4.000000 -8.080000 79.338837 -61.570724 10085.605469
4.040000 4.000000 -8.040000 139.156021 -8.748207 19440.929688
4.040000 4.000000 -8.000000 139.755890 80.987144 26090.626953
4.040000 4.000000 -7.960000 71.534164 145.895233 26402.556641
4.040000 4.000000 -7.920000 -20.473011 141.361710 20402.277344
4.040000 4.000000 -7.880000 -74.836838 77.416573 11593.877930
4.040000 4.000000 -7.840000 -65.194939 6.954424 4298.744141
4.040000 4.000000 -7.800000 -17.336592 -22.232668 794.848938
4.040000 4.040000 -8.200000 -10.507666 33.415478 1227.005127
4.040000 4.040000 -8.160000 -14.289225 -10.203098 308.285156
4.040000 4.040000 -8.120000 28.657888 -42.797882 2652.933350
4.040000 4.040000 -8.080000 91.924606 -23.352255 8995.460938
4.040000 4.040000 -8.040000 121.107674 49.302879 17097.841797
4.040000 4.040000 -8.000000 81.433586 127.517487 22892.136719
4.040000 4.040000 -7.960000 -7.560858 152.405869 23284.714844
4.040000 4.040000 -7.920000 -85.641663 104.892555 18336.941406
4.040000 4.040000 -7.880000 -102.715149 21.901505 11030.077148
4.040000 4.040000 -7.840000 -59.357903 -37.394115 4921.680664
4.040000 4.040000 -7.800000 -0.208147 -42.061836 1769.241455
4.040000 4.080000 -8.200000 -23.146763 19.296391 908.123291
4.040000 4.080000 -8.160000 -9.001379 -14.532907 292.230194
4.040000 4.080000 -8.120000 35.409969 -23.301960 1796.847290
4.040000 4.080000 -8.080000 76.027657 14.276898 5984.034180
4.040000 4.080000 -8.040000 71.186432 79.627563 11408.056641
4.040000 4.080000 -8.000000 11.475220 123.449936 15371.567383
4.040000 4.080000 -7.960000 -66.172379 107.071609 15843.113281
4.040000 4.080000 -7.920000 -107.133896 37.903412 12914.340820
4.040000 4.080000 -7.880000 -85.249771 -35.803505 8549.414062
4.040000 4.080000 -7.840000 -23.122009 -66.442215 4949.195312
4.040000 4.080000 -7.800000 31.399420 -45.234909 3032.120605
4.040000 4.120000 -8.200000 -21.490343 7.807822 522.796936
4.040000 4.120000 -8.160000 -4.346962 -10.018620 119.268837
4.040000 4.120000 -8.120000 26.252329 -4.927598 713.466003
4.040000 4.120000 -8.080000 42.902412 29.491043 2710.338623
4.040000 4.120000 -8.040000 21.917862 70.388779 5434.972656
4.040000 4.120000 -8.000000 -30.269167 81.183388 7506.965332
4.040000 4.120000 -7.960000 -76.890259 44.798920 7919.055176
4.040000 4.120000 -7.920000 -80.714516 -17.667305 6826.966797
4.040000 4.120000 -7.880000 -36.798698 -62.901669 5310.764160
4.040000 4.120000 -7.840000 23.494331 -61.792217 4370.261719
4.040000 4.120000 -7.800000 60.563431 -21.846554 4145.201172
4.040000 4.160000 -8.200000 -18.103121 5.762618 360.930756
4.040000 4.160000 -8.160000 -8.260559 -4.480564 88.312286
4.040000 4.160000 -8.120000 9.258307 -0.694970 86.199226
4.040000 4.160000 -8.080000 16.251297 19.915733 660.741089
4.040000 4.160000 -8.040000 -0.544796 40.101658 1608.439697
4.040000 4.160000 -8.000000 -31.879438 36.590515 2355.164551
4.040000 4.160000 -7.960000 -50.171883 4.212982 2534.967041
4.040000 4.160000 -7.920000 -34.116940 -35.125099 2397.738281
4.040000 4.160000 -7.880000 10.074661 -49.784637 2580.008789
4.040000 4.160000 -7.840000 52.519566 -26.144764 3441.853516
4.040000 4.160000 -7.800000 65.184113 20.134283 4654.357910
4.040000 4.200000 -8.200000 -21.566807 5.196869 492.134613
4.040000 4.200000 -8.160000 -15.894369 -7.630569 310.856567
4.040000 4.200000 -8.120000 -0.400640 -9.738288 94.994766
4.040000 4.200000 -8.080000 9.515213 2.761395 98.164581
4.040000 4.200000 -8.040000 2.887374 16.793364 290.353973
4.040000 4.200000 -8.000000 -12.953026 15.475357 407.267578
4.040000 4.200000 -7.960000 -18.082005 -2.632275 333.887756
4.040000 4.200000 -7.920000 -0.586838 -19.382645 376.031311
4.040000 4.200000 -7.880000 29.387188 -13.693998 1051.132446
4.040000 4.200000 -7.840000 47.346764 17.531158 2549.057617
4.040000 4.200000 -7.800000 36.474953 55.498802 4410.539062
4.080000 3.800000 -8.200000 -51.076878 -10.156296 2711.997803
4.080000 3.800000 -8.160000 -42.887932 -47.594513 4104.612305
4.080000 3.800000 -8.120000 -5.330518 -72.006111 5213.294434
4.080000 3.800000 -8.080000 41.427605 -62.189396 5583.767578
4.080000 3.800000 -8.040000 66.663162 -22.698244 4959.187500
4.080000 3.800000 -8.000000 56.188717 18.283680 3491.464844
4.080000 3.800000 -7.960000 24.795593 33.765335 1754.919434
4.080000 3.800000 -7.920000 1.353787 21.365746 458.327820
4.080000 3.800000 -7.880000 1.622746 2.406788 8.425931
4.080000 3.800000 -7.840000 15.908199 -1.293418 254.743729
4.080000 3.800000 -7.800000 22.734394 11.508450 649.297058
4.080000 3.840000 -8.200000 -26.769297 -38.579575 2204.978760
4.080000 3.840000 -8.160000 -8.309580 -57.361679 3359.411377
4.080000 3.840000 -8.120000 23.347048 -61.719383 4354.366699
4.080000 3.840000 -8.080000 53.082256 -43.718445 4729.028320
4.080000 3.840000 -8.040000 64.185928 -11.325121 4248.091797
4.080000 3.840000 -8.000000 52.889778 17.024940 3087.177246
4.080000 3.840000 -7.960000 31.197506 27.932936 1753.533203
4.080000 3.840000 -7.920000 15.198024 23.240990 771.123535
4.080000 3.840000 -7.880000 11.024744 15.221929 353.252075
4.080000 3.840000 -7.840000 12.474515 12.947983 323.263794
4.080000 3.840000 -7.800000 11.200560 14.654743 340.214050
4.080000 3.880000 -8.200000 9.016827 -37.078510 1456.119141
4.080000 3.880000 -8.160000 17.820782 -39.995079 1917.186523
4.080000 3.880000 -8.120000 32.747246 -40.770874 2734.646240
4.080000 3.880000 -8.080000 51.320671 -32.038666 3660.287354
4.080000 3.880000 -8.040000 64.501587 -11.323572 4288.677734
4.080000 3.880000 -8.000000 63.769405 15.088045 4294.186035
4.080000 3.880000 -7.960000 48.242477 35.988213 3622.488281
4.080000 3.880000 -7.920000 25.611120 43.105247 2513.991943
4.080000 3.880000 -7.880000 6.693041 36.242996 1358.351562
4.080000 3.880000 -7.840000 -1.290890 22.291515 498.578033
4.080000 3.880000 -7.800000 2.168848 10.246620 109.697128
4.080000 3.920000 -8.200000 28.226879 -10.651017 910.200867
4.080000 3.920000 -8.160000 20.596365 -15.324453 659.049072
4.080000 3.920000 -8.120000 27.823002 -28.494837 1586.075195
4.080000 3.920000 -8.080000 52.536606 -30.913616 3715.746582
4.080000 3.920000 -8.040000 78.229797 -8.787866 6197.127930
4.080000 3.920000 -8.000000 82.291420 31.378820 7756.508301
4.080000 3.920000 -7.960000 56.274704 65.902153 7509.936035
4.080000 3.920000 -7.920000 14.632313 73.095390 5557.040527
4.080000 3.920000 -7.880000 -16.521336 51.325058 2907.216064
4.080000 3.920000 -7.840000 -20.481524 19.823729 812.473022
4.080000 3.920000 -7.800000 -2.163535 2.217574 9.598519
4.080000 3.960000 -8.200000 20.717010 16.646523 706.301270
4.080000 3.960000 -8.160000 8.253386 -3.216939 78.467064
4.080000 3.960000 -8.120000 25.163290 -27.720913 1401.640137
4.080000 3.960000 -8.080000 64.710548 -26.411417 4885.018066
4.080000 3.960000 -8.040000 94.781113 12.861822 9148.885742
4.080000 3.960000 -8.000000 85.001785 68.849243 11965.521484
4.080000 3.960000 -7.960000 35.244095 102.530510 11754.652344
4.080000 3.960000 -7.920000 -22.155396 90.501740 8681.426758
4.080000 3.960000 -7.880000 -49.543434 45.150192 4493.091797
4.080000 3.960000 -7.840000 -35.433331 2.936048 1264.141235
4.080000 3.960000 -7.800000 -1.574921 -7.594784 60.161114
4.080000 4.000000 -8.200000 -0.388308 25.893238 670.610535
4.080000 4.000000 -8.160000 -1.380459 -5.417451 31.254440
4.080000 4.000000 -8.120000 31.761400 -25.649763 1666.696899
4.080000 4.000000 -8.080000 76.302856 -5.902019 5856.959961
4.080000 4.000000 -8.040000 91.550346 50.658760 10947.775391
4.080000 4.000000 -8.000000 55.300362 105.833389 14258.835938
4.080000 4.000000 -7.960000 -13.101055 117.352104 13943.154297
4.080000 4.000000 -7.920000 -67.063194 76.155106 10297.072266
4.080000 4.000000 -7.880000 -72.442856 14.504296 5458.341797
4.080000 4.000000 -7.840000 -35.570309 -22.966862 1792.723633
4.080000 4.000000 -7.800000 5.979456 -17.466532 340.833649
4.080000 4.040000 -8.200000 -15.680798 18.350538 582.629639
4.080000 4.040000 -8.160000 -1.106875 -9.289004 87.510773
4.080000 4.040000 -8.120000 37.703239 -12.542017 1578.836426
4.080000 4.040000 -8.080000 69.178802 24.045839 5363.909180
4.080000 4.040000 -8.040000 58.922905 80.637856 9974.373047
4.080000 4.040000 -8.000000 3.303673 113.885040 12980.716797
4.080000 4.040000 -7.960000 -62.370232 94.016159 12729.083984
4.080000 4.040000 -7.920000 -92.072273 32.663986 9544.240234
4.080000 4.040000 -7.880000 -68.491432 -26.249687 5380.122070
4.080000 4.040000 -7.840000 -16.399500 -44.701820 2267.196289
4.080000 4.040000 -7.800000 22.030174 -21.481205 946.770752
4.080000 4.080000 -8.200000 -18.635612 8.268852 415.659973
4.080000 4.080000 -8.160000 0.997256 -5.879156 35.558994
4.080000 4.080000 -8.120000 29.992403 4.786000 922.450073
4.080000 4.080000 -8.080000 40.638176 42.060097 3420.513184
4.080000 4.080000 -8.040000 13.416626 80.200165 6612.072266
4.080000 4.080000 -8.000000 -40.236977 84.800285 8810.102539
4.080000 4.080000 -7.960000 -82.707710 44.530067 8823.492188
4.080000 4.080000 -7.920000 -81.440796 -15.511108 6873.197266
4.080000 4.080000 -7.880000 -37.758457 -53.862328 4326.851562
4.080000 4.080000 -7.840000 14.842681 -48.031460 2527.326416
4.080000 4.080000 -7.800000 41.105846 -11.471880 1821.294556
4.080000 4.120000 -8.200000 -17.453102 4.722673 326.914429
4.080000 4.120000 -8.160000 -4.802252 -0.406502 23.226866
4.080000 4.120000 -8.120000 10.095283 10.289459 207.787689
4.080000 4.120000 -8.080000 9.118925 34.199474 1252.758789
4.080000 4.120000 -8.040000 -16.162231 50.808556 2842.727051
4.080000 4.120000 -8.000000 -50.841255 39.035023 4108.566406
4.080000 4.120000 -7.960000 -65.972687 -0.328197 4352.503418
4.080000 4.120000 -7.920000 -44.473488 -41.070652 3664.689453
4.080000 4.120000 -7.880000 1.696291 -52.929234 2804.381104
4.080000 4.120000 -7.840000 41.011345 -27.960199 2463.703125
4.080000 4.120000 -7.800000 49.709953 13.834274 2662.466553
4.080000 4.160000 -8.200000 -20.945410 3.316812 449.711456
4.080000 4.160000 -8.160000 -15.902643 -4.115788 269.833771
4.080000 4.160000 -8.120000 -5.696505 -2.275102 37.626251
4.080000 4.160000 -8.080000 -3.405203 9.211520 96.447510
4.080000 4.160000 -8.040000 -15.426261 16.771103 519.239441
4.080000 4.160000 -8.000000 -31.027779 6.907639 1010.438477
4.080000 4.160000 -7.960000 -30.862888 -17.067055 1243.802246
4.080000 4.160000 -7.920000 -7.012959 -34.770634 1258.178589
4.080000 4.160000 -7.880000 26.649347 -27.056499 1442.241821
4.080000 4.160000 -7.840000 45.522614 5.362383 2101.063477
4.080000 4.160000 -7.800000 36.020027 42.121193 3071.637207
4.080000 4.200000 -8.200000 -26.577255 -4.888083 730.243896
4.080000 4.200000 -8.160000 -19.595760 -18.680634 732.959900
4.080000 4.200000 -8.120000 -3.543472 -20.999668 453.542236
4.080000 4.200000 -8.080000 6.916632 -10.097750 149.804337
4.080000 4.200000 -8.040000 3.884132 1.694418 17.957537
4.080000 4.200000 -8.000000 -4.792841 2.072659 27.267239
4.080000 4.200000 -7.960000 -4.375198 -6.807098 65.478951
4.080000 4.200000 -7.920000 9.659657 -9.900756 191.333923
4.080000 4.200000 -7.880000 25.161453 4.548134 653.784302
4.080000 4.200000 -7.840000 24.732103 31.634979 1612.448853
4.080000 4.200000 -7.800000 2.842443 53.436321 2863.520020
4.120000 3.800000 -8.200000 -26.730854 -18.473492 1055.808472
4.120000 3.800000 -8.160000 -7.815303 -39.389816 1612.636597
4.120000 3.800000 -8.120000 26.508633 -41.704086 2441.938477
4.120000 3.800000 -8.080000 55.749138 -16.669647 3385.843506
4.120000 3.800000 -8.040000 58.857197 23.185698 4001.746338
4.120000 3.800000 -8.000000 33.303104 52.281925 3842.496582
4.120000 3.800000 -7.960000 -1.679312 53.381134 2852.365479
4.120000 3.800000 -7.920000 -21.802002 31.923717 1494.451050
4.120000 3.800000 -7.880000 -18.543468 9.354299 431.363129
4.120000 3.800000 -7.840000 -4.048589 2.405032 22.175255
4.120000 3.800000 -7.800000 3.729625 9.073256 96.234070
4.120000 3.840000 -8.200000 -5.227425 -29.126738 875.692810
4.120000 3.840000 -8.160000 14.611695 -35.066833 1443.184448
4.120000 3.840000 -8.120000 39.493980 -24.894951 2179.533203
4.120000 3.840000 -8.080000 53.685482 2.824540 2890.108887
4.120000 3.840000 -8.040000 45.332668 34.663502 3256.609131
4.120000 3.840000 -8.000000 18.260839 51.857712 3022.680420
4.120000 3.840000 -7.960000 -10.071628 46.006306 2218.017822
4.120000 3.840000 -7.920000 -23.153463 25.669270 1194.994263
4.120000 3.840000 -7.880000 -18.451471 7.567138 397.718353
4.120000 3.840000 -7.840000 -6.575244 1.620695 45.860485
4.120000 3.840000 -7.800000 1.179140 4.736150 23.821491
4.120000 3.880000 -8.200000 14.703225 -19.018885 577.902832
4.120000 3.880000 -8.160000 24.051605 -17.583305 887.652344
4.120000 3.880000 -8.120000 36.182018 -8.437346 1380.327271
4.120000 3.880000 -8.080000 42.305939 10.579867 1901.726074
4.120000 3.880000 -8.040000 34.516392 32.207005 2228.672363
4.120000 3.880000 -8.000000 14.048445 44.547268 2181.817871
4.120000 3.880000 -7.960000 -8.488800 40.858040 1741.439087
4.120000 3.880000 -7.920000 -21.215887 25.025869 1076.407959
4.120000 3.880000 -7.880000 -19.727270 7.952391 452.405701
4.120000 3.880000 -7.840000 -8.747282 -1.024590 77.564735
4.120000 3.880000 -7.800000 3.296544 0.462440 11.081051
4.120000 3.920000 -8.200000 18.545563 0.293714 344.024170
4.120000 3.920000 -8.160000 18.600513 -3.247929 356.528137
4.120000 3.920000 -8.120000 27.341263 -3.217500 757.896973
4.120000 3.920000 -8.080000 37.108223 8.342675 1446.620483
4.120000 3.920000 -8.040000 35.882004 28.822281 2118.242188
4.120000 3.920000 -8.000000 18.627575 45.591431 2425.565186
4.120000 3.920000 -7.960000 -6.768488 46.244675 2184.382324
4.120000 3.920000 -7.920000 -24.905626 29.528307 1492.211182
4.120000 3.920000 -7.880000 -25.109482 7.084411 680.674927
4.120000 3.920000 -7.840000 -9.875134 -5.570042 128.543640
4.120000 3.920000 -7.800000 7.491067 -0.880035 56.890556
4.120000 3.960000 -8.200000 8.385786 12.815897 234.568634
4.120000 3.960000 -8.160000 9.590436 0.408083 92.142998
4.120000 3.960000 -8.120000 24.900562 -4.010063 636.118652
4.120000 3.960000 -8.080000 41.147636 10.317038 1799.569214
4.120000 3.960000 -8.040000 40.308094 37.788372 3052.703613
4.120000 3.960000 -8.000000 16.307779 58.709415 3712.739014
4.120000 3.960000 -7.960000 -17.388111 55.663372 3400.757324
4.120000 3.960000 -7.920000 -37.826073 29.493341 2300.668945
4.120000 3.960000 -7.880000 -32.073105 -0.337669 1028.798096
4.120000 3.960000 -7.840000 -8.387350 -12.102520 216.818634
4.120000 3.960000 -7.800000 11.287912 -0.144117 127.437737
4.120000 4.000000 -8.200000 -3.431061 13.502869 194.099655
4.120000 4.000000 -8.160000 5.973569 -0.530388 35.964836
4.120000 4.000000 -8.120000 27.202168 0.699325 740.447021
4.120000 4.000000 -8.080000 41.560562 23.659840 2287.068359
4.120000 4.000000 -8.040000 31.053381 54.908096 3979.211426
4.120000 4.000000 -8.000000 -3.471220 69.644333 4862.382324
4.120000 4.000000 -7.960000 -39.727303 53.260780 4414.969238
4.120000 4.000000 -7.920000 -51.837742 15.896560 2939.852051
4.120000 4.000000 -7.880000 -33.072922 -15.085728 1321.397339
4.120000 4.000000 -7.840000 -1.832487 -18.805182 356.992859
4.120000 4.000000 -7.800000 15.226736 1.323644 233.605515
4.120000 4.040000 -8.200000 -9.117495 9.215488 168.053925
4.120000 4.040000 -8.160000 4.720017 2.177369 27.019495
4.120000 4.040000 -8.120000 22.491060 11.917796 647.881653
4.120000 4.040000 -8.080000 26.231823 37.644955 2105.250977
4.120000 4.040000 -8.040000 4.902063 61.251331 3775.755859
4.120000 4.040000 -8.000000 -31.715219 60.750500 4696.478516
4.120000 4.040000 -7.960000 -57.777309 31.065279 4303.269043
4.120000 4.040000 -7.920000 -53.134499 -8.578088 2896.858398
4.120000 4.040000 -7.880000 -22.002605 -30.049429 1387.082886
4.120000 4.040000 -7.840000 10.344557 -20.928837 545.026062
4.120000 4.040000 -7.800000 20.475372 5.251025 446.814148
4.120000 4.080000 -8.200000 -11.589540 7.067556 184.267776
4.120000 4.080000 -8.160000 -2.380954 6.686086 50.372688
4.120000 4.080000 -8.120000 5.754588 17.235609 330.181519
4.120000 4.080000 -8.080000 0.767509 34.846786 1214.887695
4.120000 4.080000 -8.040000 -21.065823 44.051270 2384.283203
4.120000 4.080000 -8.000000 -46.705566 31.100426 3148.646484
4.120000 4.080000 -7.960000 -54.898842 -0.469023 3014.102783
4.120000 4.080000 -7.920000 -35.658714 -29.401051 2135.965820
4.120000 4.080000 -7.880000 -1.261574 -34.418896 1186.251953
4.120000 4.080000 -7.840000 23.681705 -13.495355 742.947754
4.120000 4.080000 -7.800000 24.238243 14.783187 806.035034
4.120000 4.120000 -8.200000 -16.818283 5.414666 312.173248
4.120000 4.120000 -8.160000 -15.219084 3.167071 241.650848
4.120000 4.120000 -8.120000 -11.955563 5.619369 174.512787
4.120000 4.120000 -8.080000 -14.718485 11.898009 358.196411
4.120000 4.120000 -8.040000 -25.752304 12.509479 819.668213
4.120000 4.120000 -8.000000 -35.577763 -0.134476 1265.795288
4.120000 4.120000 -7.960000 -30.707476 -20.532394 1364.528320
4.120000 4.120000 -7.920000 -8.415622 -32.203320 1107.876465
4.120000 4.120000 -7.880000 17.831692 -22.773914 836.620422
4.120000 4.120000 -7.840000 29.504822 3.337844 881.675659
4.120000 4.120000 -7.800000 19.905800 28.542414 1210.910278
4.120000 4.160000 -8.200000 -23.444613 -2.313437 555.001831
4.120000 4.160000 -8.160000 -22.490002 -12.570657 663.821594
4.120000 4.160000 -8.120000 -13.754820 -17.481716 494.805481
4.120000 4.160000 -8.080000 -6.410093 -14.149136 241.287338
4.120000 4.160000 -8.040000 -6.037874 -9.652487 129.626434
4.120000 4.160000 -8.000000 -7.765111 -11.381388 189.832932
4.120000 4.160000 -7.960000 -2.494690 -16.909943 292.169647
4.120000 4.160000 -7.920000 11.071371 -15.685232 368.601746
4.120000 4.160000 -7.880000 22.895580 -1.013979 525.235718
4.120000 4.160000 -7.840000 21.064491 21.345675 899.350586
4.120000 4.160000 -7.800000 3.867317 37.803768 1444.081055
4.120000 4.200000 -8.200000 -22.920609 -16.734930 805.412231
4.120000 4.200000 -8.160000 -13.735894 -30.862221 1141.151489
4.120000 4.200000 -8.120000 4.264856 -33.132057 1115.922119
4.120000 4.200000 -8.080000 17.799219 -22.021589 801.762573
4.120000 4.200000 -8.040000 19.521545 -7.372087 435.438416
4.120000 4.200000 -8.000000 13.967222 1.041633 196.168289
4.120000 4.200000 -7.960000 10.324480 3.264038 117.248833
4.120000 4.200000 -7.920000 11.262382 6.926151 174.812805
4.120000 4.200000 -7.880000 10.432672 16.751825 389.464294
4.120000 4.200000 -7.840000 0.603488 28.253765 798.639465
4.120000 4.200000 -7.800000 -17.578976 32.256878 1349.526611
4.160000 3.800000 -8.200000 -12.574825 -8.596921 232.033295
4.160000 3.800000 -8.160000 2.045770 -15.191824 234.976700
4.160000 3.800000 -8.120000 22.421978 -7.829588 564.047546
4.160000 3.800000 -8.080000 33.707981 16.235344 1399.814453
4.160000 3.800000 -8.040000 23.169289 44.628357 2528.506104
4.160000 3.800000 -8.000000 -6.430737 57.702065 3370.882812
4.160000 3.800000 -7.960000 -36.540077 45.387428 3395.195801
4.160000 3.800000 -7.920000 -47.741505 16.813114 2561.932129
4.160000 3.800000 -7.880000 -36.232178 -7.551894 1369.801880
4.160000 3.800000 -7.840000 -15.669651 -14.046377 442.838684
4.160000 3.800000 -7.800000 -2.775506 -6.418213 48.896896
4.160000 3.840000 -8.200000 -2.302286 -13.751099 194.393234
4.160000 3.840000 -8.160000 10.854416 -12.587315 276.258850
4.160000 3.840000 -8.120000 23.766277 1.484618 567.040039
4.160000 3.840000 -8.080000 23.257793 25.527737 1192.590332
4.160000 3.840000 -8.040000 3.523627 44.755451 2015.466309
4.160000 3.840000 -8.000000 -25.784534 44.286354 2626.123291
4.160000 3.840000 -7.960000 -45.871178 23.018719 2634.026367
4.160000 3.840000 -7.920000 -44.534569 -4.470260 2003.311035
4.160000 3.840000 -7.880000 -26.106440 -20.438887 1099.294312
4.160000 3.840000 -7.840000 -6.021280 -18.688560 385.518127
4.160000 3.840000 -7.800000 3.900310 -7.225004 67.413109
4.160000 3.880000 -8.200000 6.455699 -9.715569 136.068329
4.160000 3.880000 -8.160000 13.837944 -5.618591 223.057251
4.160000 3.880000 -8.120000 18.244869 7.108258 383.402588
4.160000 3.880000 -8.080000 11.146366 23.205889 662.754700
4.160000 3.880000 -8.040000 -7.700254 31.046482 1023.177917
4.160000 3.880000 -8.000000 -27.914019 22.978273 1307.193481
4.160000 3.880000 -7.960000 -36.464966 2.977401 1338.558594
4.160000 3.880000 -7.920000 -28.543793 -16.124058 1074.733398
4.160000 3.880000 -7.880000 -10.961232 -23.134914 655.372864
4.160000 3.880000 -7.840000 4.541994 -16.576040 295.394806
4.160000 3.880000 -7.800000 10.785660 -3.345866 127.525276
4.160000 3.920000 -8.200000 9.058428 -2.411810 87.871941
4.160000 3.920000 -8.160000 12.434086 -0.164764 154.633636
4.160000 3.920000 -8.120000 13.514432 7.185873 234.276642
4.160000 3.920000 -8.080000 7.652192 15.596000 301.791260
4.160000 3.920000 -8.040000 -4.271837 18.277267 352.307098
4.160000 3.920000 -8.000000 -15.745476 11.605134 382.599152
4.160000 3.920000 -7.960000 -19.465614 -1.423710 380.937073
4.160000 3.920000 -7.920000 -12.902521 -13.091921 337.873444
4.160000 3.920000 -7.880000 -0.107987 -16.320419 266.367737
4.160000 3.920000 -7.840000 11.139197 -9.180004 208.354187
4.160000 3.920000 -7.800000 14.143335 4.383495 219.248962
4.160000 3.960000 -8.200000 7.418161 3.405424 66.626022
4.160000 3.960000 -8.160000 10.443346 3.799235 123.497665
4.160000 3.960000 -8.120000 12.429995 7.866096 216.380234
4.160000 3.960000 -8.080000 10.335227 13.814643 297.661285
4.160000 3.960000 -8.040000 3.308726 17.615841 321.265503
4.160000 3.960000 -8.000000 -5.743334 15.360968 268.945190
4.160000 3.960000 -7.960000 -11.075478 6.679668 167.284180
4.160000 3.960000 -7.920000 -8.095000 -3.520625 77.923828
4.160000 3.960000 -7.880000 2.108822 -7.570236 61.755604
4.160000 3.960000 -7.840000 11.918921 -1.073851 143.213821
4.160000 3.960000 -7.800000 12.246696 12.271867 300.580261
4.160000 4.000000 -8.200000 4.214269 7.700707 77.060959
4.160000 4.000000 -8.160000 7.013315 8.986338 129.940857
4.160000 4.000000 -8.120000 9.072278 12.720491 244.117126
4.160000 4.000000 -8.080000 7.879386 18.745771 413.488647
4.160000 4.000000 -8.040000 1.161178 23.635401 559.980469
4.160000 4.000000 -8.000000 -9.016525 22.061085 567.989197
4.160000 4.000000 -7.960000 -15.586596 12.364765 395.829376
4.160000 4.000000 -7.920000 -12.187797 0.461118 148.755020
4.160000 4.000000 -7.880000 -0.491947 -3.805925 14.727080
4.160000 4.000000 -7.840000 9.262366 3.948048 101.378510
4.160000 4.000000 -7.800000 7.025722 16.828861 332.571350
4.160000 4.040000 -8.200000 -1.246907 11.310788 129.488708
4.160000 4.040000 -8.160000 -1.939066 13.427432 184.055908
4.160000 4.040000 -8.120000 -2.333454 15.432597 243.610062
4.160000 4.040000 -8.080000 -4.311368 18.920925 376.589294
4.160000 4.040000 -8.040000 -10.586210 21.164509 560.004272
4.160000 4.040000 -8.000000 -18.892372 17.000591 645.941833
4.160000 4.040000 -7.960000 -21.795912 5.919913 510.107147
4.160000 4.040000 -7.920000 -14.247909 -4.510769 223.349930
4.160000 4.040000 -7.880000 -0.782472 -4.825416 23.896904
4.160000 4.040000 -7.840000 7.042291 6.013012 85.750175
4.160000 4.040000 -7.800000 2.010726 17.859989 323.022247
4.160000 4.080000 -8.200000 -10.260230 11.537299 238.381592
4.160000 4.080000 -8.160000 -15.636068 9.918333 342.859955
4.160000 4.080000 -8.120000 -16.760624 6.125834 318.444366
4.160000 4.080000 -8.080000 -15.804138 4.647997 271.374664
4.160000 4.080000 -8.040000 -16.829157 4.242238 301.217102
4.160000 4.080000 -8.000000 -18.882204 0.550539 356.840729
4.160000 4.080000 -7.960000 -16.418739 -6.411633 310.684052
4.160000 4.080000 -7.920000 -6.955855 -10.090944 150.211075
4.160000 4.080000 -7.880000 3.719672 -4.347442 32.736210
4.160000 4.080000 -7.840000 6.361994 8.331907 109.895645
4.160000 4.080000 -7.800000 -1.502063 17.910990 323.059753
4.160000 4.120000 -8.200000 -19.453455 4.154583 395.697479
4.160000 4.120000 -8.160000 -24.843876 -5.392189 646.293823
4.160000 4.120000 -8.120000 -20.398823 -15.179319 646.523682
4.160000 4.120000 -8.080000 -11.250000 -17.965029 449.304749
4.160000 4.120000 -8.040000 -4.677086 -14.827312 241.724304
4.160000 4.120000 -8.000000 -2.084635 -11.327269 132.652710
4.160000 4.120000 -7.960000 0.434957 -9.512058 90.668442
4.160000 4.120000 -7.920000 4.982722 -5.927090 59.957920
4.160000 4.120000 -7.880000 7.912209 2.478516 68.746094
4.160000 4.120000 -7.840000 4.216154 12.758232 180.548447
4.160000 4.120000 -7.800000 -5.528592 18.356106 367.511963
4.160000 4.160000 -8.200000 -21.251860 -9.999151 551.624573
4.160000 4.160000 -8.160000 -19.360094 -25.339390 1016.897888
4.160000 4.160000 -8.120000 -5.035220 -34.428547 1210.678223
4.160000 4.160000 -8.080000 11.617887 -30.391659 1058.628174
4.160000 4.160000 -8.040000 20.472658 -17.377132 721.094482
4.160000 4.160000 -8.000000 19.742121 -4.391726 409.038605
4.160000 4.160000 -7.960000 14.542562 3.704724 225.211105
4.160000 4.160000 -7.920000 9.464858 8.432528 160.691055
4.160000 4.160000 -7.880000 4.388000 12.737467 181.497589
4.160000 4.160000 -7.840000 -2.826113 16.322289 274.404022
4.160000 4.160000 -7.800000 -11.914803 16.711147 421.224976
4.160000 4.200000 -8.200000 -11.202465 -22.532196 633.195068
4.160000 4.200000 -8.160000 0.454693 -35.479515 1259.002808
4.160000 4.200000 -8.120000 20.902988 -35.516636 1698.366333
4.160000 4.200000 -8.080000 36.727264 -20.256798 1759.229858
4.160000 4.200000 -8.040000 38.559158 1.395329 1488.755615
4.160000 4.200000 -8.000000 27.603111 17.858877 1080.871216
4.160000 4.200000 -7.960000 12.193794 23.848618 717.445129
4.160000 4.200000 -7.920000 -0.324981 21.890146 479.284119
4.160000 4.200000 -7.880000 -8.113132 17.281223 364.463623
4.160000 4.200000 -7.840000 -13.245895 13.046021 345.652405
4.160000 4.200000 -7.800000 -17.962719 9.094337 405.366241
4.200000 3.800000 -8.200000 -14.069118 2.048144 202.134964
4.200000 3.800000 -8.160000 -9.593784 -1.329300 93.807732
4.200000 3.800000 -8.120000 -0.472132 2.734772 7.701885
4.200000 3.800000 -8.080000 2.585946 17.304798 306.143127
4.200000 3.800000 -8.040000 -9.963967 32.709858 1169.215454
4.200000 3.800000 -8.000000 -34.301422 33.470459 2296.859131
4.200000 3.800000 -7.960000 -53.561874 13.654263 3055.313232
4.200000 3.800000 -7.920000 -52.364426 -15.391415 2978.928711
4.200000 3.800000 -7.880000 -31.351561 -34.215492 2153.620361
4.200000 3.800000 -7.840000 -6.478521 -32.764221 1115.465332
4.200000 3.800000 -7.800000 6.518426 -18.337643 378.759033
4.200000 3.840000 -8.200000 -10.232903 -8.203552 172.010590
4.200000 3.840000 -8.160000 -3.956382 -8.108639 81.402977
4.200000 3.840000 -8.120000 1.291614 0.961080 2.591939
4.200000 3.840000 -8.080000 -4.478723 14.658527 234.931381
4.200000 3.840000 -8.040000 -22.670954 20.167618 920.704956
4.200000 3.840000 -8.000000 -41.741325 8.300931 1811.243652
4.200000 3.840000 -7.960000 -46.291027 -16.056442 2400.668457
4.200000 3.840000 -7.920000 -31.291649 -36.750896 2329.795654
4.200000 3.840000 -7.880000 -7.008936 -40.396561 1681.007324
4.200000 3.840000 -7.840000 10.612967 -27.678150 878.715088
4.200000 3.840000 -7.800000 14.136409 -10.731013 314.992706
4.200000 3.880000 -8.200000 -0.579622 -12.980541 168.830414
4.200000 3.880000 -8.160000 4.484962 -8.664207 95.183380
4.200000 3.880000 -8.120000 3.079804 0.856718 10.219161
4.200000 3.880000 -8.080000 -7.970180 6.906508 111.223618
4.200000 3.880000 -8.040000 -22.172258 1.268077 493.217072
4.200000 3.880000 -8.000000 -28.035147 -15.120720 1014.605591
4.200000 3.880000 -7.960000 -19.374109 -31.739689 1382.763916
4.200000 3.880000 -7.920000 -1.089250 -37.228287 1387.131836
4.200000 3.880000 -7.880000 15.220955 -28.793312 1060.732300
4.200000 3.880000 -7.840000 21.149868 -13.295856 624.096680
4.200000 3.880000 -7.800000 17.051010 0.124549 290.752441
4.200000 3.920000 -8.200000 10.061832 -9.607355 193.541748
4.200000 3.920000 -8.160000 10.952973 -2.277734 125.155701
4.200000 3.920000 -8.120000 4.146196 3.065817 26.590178
4.200000 3.920000 -8.080000 -5.356175 0.122173 28.703537
4.200000 3.920000 -8.040000 -9.227095 -10.267336 190.557465
4.200000 3.920000 -8.000000 -3.422565 -20.686138 439.630280
4.200000 3.920000 -7.960000 8.529737 -23.698238 634.362915
4.200000 3.920000 -7.920000 19.172493 -17.700155 680.880005
4.200000 3.920000 -7.880000 23.337933 -6.815215 591.106262
4.200000 3.920000 -7.840000 20.729389 3.760950 443.852325
4.200000 3.920000 -7.800000 13.574036 11.326691 312.548340
4.200000 3.960000 -8.200000 15.607074 1.027250 244.635986
4.200000 3.960000 -8.160000 10.365561 8.383144 177.721954
4.200000 3.960000 -8.120000 1.546634 7.167911 53.771015
4.200000 3.960000 -8.080000 -1.694398 -1.317266 4.606175
4.200000 3.960000 -8.040000 3.970242 -8.833076 93.786064
4.200000 3.960000 -8.000000 13.517812 -8.750139 259.296173
4.200000 3.960000 -7.960000 19.539614 -1.830543 385.147400
4.200000 3.960000 -7.920000 19.362318 6.336566 415.051422
4.200000 3.960000 -7.880000 15.573477 11.979706 386.046509
4.200000 3.960000 -7.840000 10.794172 15.683727 362.493439
4.200000 3.960000 -7.800000 4.151985 18.547222 361.238434
4.200000 4.000000 -8.200000 11.532910 13.440390 313.652100
4.200000 4.000000 -8.160000 0.335305 16.608551 275.956390
4.200000 4.000000 -8.120000 -6.890816 8.565128 120.844757
4.200000 4.000000 -8.080000 -2.930542 -1.231344 10.104283
4.200000 4.000000 -8.040000 7.631498 -2.542110 64.702087
4.200000 4.000000 -8.000000 14.462265 5.422062 238.555862
4.200000 4.000000 -7.960000 12.583761 14.852822 378.957367
4.200000 4.000000 -7.920000 5.982411 18.978514 395.973236
4.200000 4.000000 -7.880000 0.837719 18.555500 345.008362
4.200000 4.000000 -7.840000 -2.238523 18.203005 336.360382
4.200000 4.000000 -7.800000 -7.234453 18.412600 391.361145
4.200000 4.040000 -8.200000 -1.247047 19.517918 382.504211
4.200000 4.040000 -8.160000 -15.122744 14.702930 444.873535
4.200000 4.040000 -8.120000 -17.365608 0.978900 302.522614
4.200000 4.040000 -8.080000 -6.839866 -7.380544 101.256187
4.200000 4.040000 -8.040000 5.350957 -2.943353 37.296066
4.200000 4.040000 -8.000000 8.392339 8.735450 146.739441
4.200000 4.040000 -7.960000 2.037264 16.977684 292.392212
4.200000 4.040000 -7.920000 -5.857954 17.504025 340.706482
4.200000 4.040000 -7.880000 -9.709442 14.597680 307.365540
4.200000 4.040000 -7.840000 -11.408916 13.115311 302.174744
4.200000 4.040000 -7.800000 -14.883064 11.680874 357.948425
4.200000 4.080000 -8.200000 -15.202713 13.994828 426.977722
4.200000 4.080000 -8.160000 -26.022278 0.350200 677.281555
4.200000 4.080000 -8.120000 -20.232330 -16.092703 668.322266
4.200000 4.080000 -8.080000 -3.635519 -20.587746 437.072296
4.200000 4.080000 -8.040000 9.270048 -10.602042 198.337097
4.200000 4.080000 -8.000000 9.738626 3.966247 110.571945
4.200000 4.080000 -7.960000 1.128607 12.285852 152.215927
4.200000 4.080000 -7.920000 -7.653781 12.256598 208.804581
4.200000 4.080000 -7.880000 -12.102667 8.926851 226.163223
4.200000 4.080000 -7.840000 -14.077861 6.253098 237.287399
4.200000 4.080000 -7.800000 -15.762115 3.364395 259.763428
4.200000 4.120000 -8.200000 -20.664173 -0.469823 427.228790
4.200000 4.120000 -8.160000 -23.124504 -19.302807 907.341064
4.200000 4.120000 -8.120000 -8.191212 -33.305489 1176.351562
4.200000 4.120000 -8.080000 12.833650 -30.517605 1096.026733
4.200000 4.120000 -8.040000 24.622959 -13.442807 786.999146
4.200000 4.120000 -8.000000 21.084181 5.214210 471.730682
4.200000 4.120000 -7.960000 8.090149 14.759392 283.290161
4.200000 4.120000 -7.920000 -4.490440 13.899632 213.363831
4.200000 4.120000 -7.880000 -11.368616 8.012924 193.452393
4.200000 4.120000 -7.840000 -13.114043 2.228225 176.943115
4.200000 4.120000 -7.800000 -12.068181 -1.485047 147.846359
4.200000 4.160000 -8.200000 -13.453600 -14.075506 379.119202
4.200000 4.160000 -8.160000 -6.277337 -31.429707 1027.231445
4.200000 4.160000 -8.120000 14.884064 -37.447754 1623.869629
4.200000 4.160000 -8.080000 35.526798 -24.749294 1874.681030
4.200000 4.160000 -8.040000 41.450554 -0.505482 1718.403931
4.200000 4.160000 -8.000000 29.829374 20.521044 1310.904785
4.200000 4.160000 -7.960000 9.536924 27.899996 869.362732
4.200000 4.160000 -7.920000 -7.430310 21.762978 528.836670
4.200000 4.160000 -7.880000 -14.543470 9.885578 309.237183
4.200000 4.160000 -7.840000 -13.018015 0.554743 169.776459
4.200000 4.160000 -7.800000 -8.594204 -2.317013 79.228889
4.200000 4.200000 -8.200000 1.024045 -17.228252 297.861359
4.200000 4.200000 -8.160000 13.882026 -27.571190 952.881165
4.200000 4.200000 -8.120000 34.663090 -23.432718 1750.622070
4.200000 4.200000 -8.080000 48.333466 -2.574495 2342.751709
4.200000 4.200000 -8.040000 43.738205 24.148218 2496.166992
4.200000 4.200000 -8.000000 22.340277 41.296799 2204.513428
4.200000 4.200000 -7.960000 -3.494163 40.395248 1643.985352
4.200000 4.200000 -7.920000 -20.165073 25.133549 1038.325439
4.200000 4.200000 -7.880000 -22.187614 7.187233 543.946533
4.200000 4.200000 -7.840000 -14.487673 -2.908269 218.350693
4.200000 4.200000 -7.800000 -7.231924 -2.741491 59.816498
