#kx 	ky 	kz 	real 	imag 	intensity
4.800000 4.800000 6.800000 -10.419500 -12.841473 273.469391
4.800000 4.800000 6.840000 -8.482129 -7.084396 122.135178
4.800000 4.800000 6.880000 -12.529489 -6.827137 203.597885
4.800000 4.800000 6.920000 -13.215944 -14.113069 373.839905
4.800000 4.800000 6.960000 -4.513973 -21.327524 475.239227
4.800000 4.800000 7.000000 9.513515 -19.270170 461.846436
4.800000 4.800000 7.040000 18.623142 -6.851353 393.762482
4.800000 4.800000 7.080000 16.625595 7.883320 338.557129
4.800000 4.800000 7.120000 6.801433 16.072418 304.582123
4.800000 4.800000 7.160000 -2.824912 16.172100 269.516968
4.800000 4.800000 7.200000 -8.270338 13.228381 243.388550
4.800000 4.840000 6.800000 -1.784621 -19.028221 365.258087
4.800000 4.840000 6.840000 -4.635526 -11.869050 162.362442
4.800000 4.840000 6.880000 -9.508873 -14.462661 299.587219
4.800000 4.840000 6.920000 -6.259396 -21.822449 515.399292
4.800000 4.840000 6.960000 4.726726 -23.087999 555.397644
4.800000 4.840000 7.000000 13.570509 -14.140478 384.111816
4.800000 4.840000 7.040000 12.418467 -2.010230 158.259338
4.800000 4.840000 7.080000 4.070094 3.523328 28.979506
4.800000 4.840000 7.120000 -2.003075 1.005949 5.024241
4.800000 4.840000 7.160000 -1.236488 -1.880001 5.063307
4.800000 4.840000 7.200000 0.728475 1.416422 2.536927
4.800000 4.880000 6.800000 9.633360 -20.268410 503.610046
4.800000 4.880000 6.840000 3.474029 -15.455229 250.932968
4.800000 4.880000 6.880000 0.764000 -19.872498 395.499878
4.800000 4.880000 6.920000 6.558368 -23.808847 609.873413
4.800000 4.880000 6.960000 14.313700 -19.855988 599.142273
4.800000 4.880000 7.000000 15.430416 -11.473290 369.734131
4.800000 4.880000 7.040000 10.412027 -7.659480 167.077957
4.800000 4.880000 7.080000 8.060392 -10.767977 180.919250
4.800000 4.880000 7.120000 13.691004 -12.695446 348.617920
4.800000 4.880000 7.160000 20.795961 -4.755207 455.084015
4.800000 4.880000 7.200000 17.206936 10.049282 397.066711
4.800000 4.920000 6.800000 21.600582 -14.547505 678.215088
4.800000 4.920000 6.840000 14.976616 -12.414808 378.426514
4.800000 4.920000 6.880000 14.386546 -15.812657 457.012848
4.800000 4.920000 6.920000 18.849419 -16.022362 612.016663
4.800000 4.920000 6.960000 21.349064 -11.958416 598.786255
4.800000 4.920000 7.000000 20.012821 -9.674391 494.106842
4.800000 4.920000 7.040000 21.075279 -11.909101 585.994080
4.800000 4.920000 7.080000 29.543419 -11.841641 1013.038086
4.800000 4.920000 7.120000 39.407261 -0.329899 1553.041138
4.800000 4.920000 7.160000 36.951946 20.886724 1801.701538
4.800000 4.920000 7.200000 15.747894 36.325153 1567.512939
4.800000 4.960000 6.800000 29.249485 -1.031029 856.595398
4.800000 4.960000 6.840000 22.728172 0.064548 516.573975
4.800000 4.960000 6.880000 21.489021 -1.673945 464.580139
4.800000 4.960000 6.920000 22.612394 -1.696668 514.199036
4.800000 4.960000 6.960000 23.482243 -1.664210 554.185303
4.800000 4.960000 7.000000 27.044027 -3.145924 741.276245
4.800000 4.960000 7.040000 36.544022 -1.024188 1336.514526
4.800000 4.960000 7.080000 46.648037 12.585004 2334.421631
4.800000 4.960000 7.120000 44.166698 36.725086 3299.429199
4.800000 4.960000 7.160000 20.988649 56.595901 3643.619385
4.800000 4.960000 7.200000 -13.831678 54.167435 3125.426514
4.800000 5.000000 6.800000 26.876480 16.581837 997.302490
4.800000 5.000000 6.840000 18.815952 16.640011 630.930054
4.800000 5.000000 6.880000 15.326969 13.649004 421.211304
4.800000 5.000000 6.920000 15.676210 10.200399 349.791718
4.800000 5.000000 6.960000 20.495007 7.682447 479.065277
4.800000 5.000000 7.000000 30.215332 10.548270 1024.232300
4.800000 5.000000 7.040000 39.278702 24.577858 2146.887451
4.800000 5.000000 7.080000 35.995472 48.432350 3641.366699
4.800000 5.000000 7.120000 12.484867 68.728912 4879.535645
4.800000 5.000000 7.160000 -24.048866 67.841293 5180.789062
4.800000 5.000000 7.200000 -52.388634 39.907135 4337.148438
4.800000 5.040000 6.800000 12.840968 30.181824 1075.833008
4.800000 5.040000 6.840000 2.796892 26.394169 704.474792
4.800000 5.040000 6.880000 -0.380951 18.827360 354.614594
4.800000 5.040000 6.920000 4.173647 12.664943 177.820099
4.800000 5.040000 6.960000 14.383212 13.782938 396.846161
4.800000 5.040000 7.000000 23.104160 26.578112 1240.198242
4.800000 5.040000 7.040000 19.508169 48.348206 2718.117676
4.800000 5.040000 7.080000 -2.928295 66.461739 4425.737305
4.800000 5.040000 7.120000 -37.580475 64.982666 5635.039062
4.800000 5.040000 7.160000 -65.343018 38.036079 5716.453125
4.800000 5.040000 7.200000 -67.755943 -2.183533 4595.635254
4.800000 5.080000 6.800000 -7.543467 32.271553 1098.357056
4.800000 5.080000 6.840000 -16.336843 21.886141 745.895630
4.800000 5.080000 6.880000 -14.063461 10.352242 304.949860
4.800000 5.080000 6.920000 -3.058143 6.773090 55.226990
4.800000 5.080000 6.960000 7.473444 16.503975 328.233551
4.800000 5.080000 7.000000 5.713005 35.885033 1320.374023
4.800000 5.080000 7.040000 -14.192076 51.760071 2880.520020
4.800000 5.080000 7.080000 -45.151123 49.214417 4460.682617
4.800000 5.080000 7.120000 -69.264282 23.500982 5349.836914
4.800000 5.080000 7.160000 -70.055016 -13.813593 5098.520508
4.800000 5.080000 7.200000 -45.714039 -41.651299 3824.604004
4.800000 5.120000 6.800000 -24.926468 21.614288 1088.506226
4.800000 5.120000 6.840000 -27.197685 5.664282 771.798218
4.800000 5.120000 6.880000 -16.545460 -4.610882 295.012451
4.800000 5.120000 6.920000 -2.506524 -0.210166 6.326832
4.800000 5.120000 6.960000 0.704112 16.679825 278.712311
4.800000 5.120000 7.000000 -14.546968 32.215523 1249.454224
4.800000 5.120000 7.040000 -41.391335 30.553932 2646.785400
4.800000 5.120000 7.080000 -61.803291 6.992165 3868.537109
4.800000 5.120000 7.120000 -60.047798 -26.603960 4313.508789
4.800000 5.120000 7.160000 -35.575459 -49.921139 3757.733398
4.800000 5.120000 7.200000 -3.964206 -49.823238 2498.069824
4.800000 5.160000 6.800000 -32.443344 3.924605 1067.973145
4.800000 5.160000 6.840000 -25.114302 -12.438327 785.440125
4.800000 5.160000 6.880000 -8.448957 -15.499115 311.607452
4.800000 5.160000 6.920000 1.934852 -2.526283 10.125757
4.800000 5.160000 6.960000 -5.788638 14.208318 235.384628
4.800000 5.160000 7.000000 -27.876143 16.849724 1060.992554
4.800000 5.160000 7.040000 -46.454865 -2.086587 2162.408203
4.800000 5.160000 7.080000 -44.332878 -31.795301 2976.345215
4.800000 5.160000 7.120000 -20.259443 -51.411655 3053.603271
4.800000 5.160000 7.160000 9.480579 -47.600983 2355.734863
4.800000 5.160000 7.200000 24.863111 -25.647264 1275.956543
4.800000 5.200000 6.800000 -29.706650 -13.088009 1053.781006
4.800000 5.200000 6.840000 -14.317800 -24.072765 784.497437
4.800000 5.200000 6.880000 2.445546 -17.826181 323.753418
4.800000 5.200000 6.920000 4.611917 -1.016316 22.302677
4.800000 5.200000 6.960000 -10.593740 8.255819 180.385895
4.800000 5.200000 7.000000 -28.430656 -2.476788 814.436707
4.800000 5.200000 7.040000 -29.639328 -26.992765 1607.099121
4.800000 5.200000 7.080000 -8.949200 -44.926098 2098.442383
4.800000 5.200000 7.120000 19.028294 -40.355019 1990.603516
4.800000 5.200000 7.160000 32.710213 -16.793888 1351.992676
4.800000 5.200000 7.200000 23.153378 5.902028 570.912842
4.840000 4.800000 6.800000 -7.636318 -6.744987 103.808212
4.840000 4.800000 6.840000 -9.443174 -4.060211 105.658859
4.840000 4.800000 6.880000 -12.775059 -7.949165 226.391357
4.840000 4.800000 6.920000 -9.845765 -16.402620 365.985046
4.840000 4.800000 6.960000 1.478672 -21.203470 451.773621
4.840000 4.800000 7.000000 15.037635 -15.917482 479.496704
4.840000 4.800000 7.040000 21.896969 -2.055797 483.703522
4.840000 4.800000 7.080000 18.138762 12.556974 486.692291
4.840000 4.800000 7.120000 7.175104 20.799265 484.091522
4.840000 4.800000 7.160000 -4.699596 21.118671 468.084503
4.840000 4.800000 7.200000 -13.695697 16.094227 446.596252
4.840000 4.840000 6.800000 1.734379 -12.011758 147.290405
4.840000 4.840000 6.840000 0.380518 -8.230642 67.888260
4.840000 4.840000 6.880000 -0.519766 -8.900658 79.491867
4.840000 4.840000 6.920000 2.192175 -10.054270 105.893974
4.840000 4.840000 6.960000 6.298129 -7.852215 101.323715
4.840000 4.840000 7.000000 7.835295 -2.953974 70.117813
4.840000 4.840000 7.040000 6.106230 1.076582 38.445068
4.840000 4.840000 7.080000 3.899090 2.691823 22.448812
4.840000 4.840000 7.120000 3.016716 4.085619 25.792858
4.840000 4.840000 7.160000 1.226746 7.350052 55.528168
4.840000 4.840000 7.200000 -4.818810 10.043144 124.085678
4.840000 4.880000 6.800000 14.513527 -9.597203 302.748779
4.840000 4.880000 6.840000 12.995938 -2.447252 174.883453
4.840000 4.880000 6.880000 9.447948 2.725308 96.691040
4.840000 4.880000 6.920000 3.586250 5.605950 44.287865
4.840000 4.880000 6.960000 -3.535100 3.593286 25.408634
4.840000 4.880000 7.000000 -6.968260 -4.380053 67.741516
4.840000 4.880000 7.040000 -1.538147 -13.358905 180.826233
4.840000 4.880000 7.080000 11.178211 -14.360304 331.170715
4.840000 4.880000 7.120000 21.169222 -2.998602 457.127563
4.840000 4.880000 7.160000 17.848366 13.910785 512.074097
4.840000 4.880000 7.200000 0.969185 22.290586 497.809570
4.840000 4.920000 6.800000 23.778679 2.849955 573.547852
4.840000 4.920000 6.840000 17.851854 13.908018 512.121643
4.840000 4.920000 6.880000 5.500751 20.531582 451.804138
4.840000 4.920000 6.920000 -10.242956 16.843687 388.627960
4.840000 4.920000 6.960000 -19.559744 0.594624 382.937164
4.840000 4.920000 7.000000 -12.109571 -19.760481 537.118286
4.840000 4.920000 7.040000 11.417437 -27.884733 907.916199
4.840000 4.920000 7.080000 35.249504 -13.187253 1416.431274
4.840000 4.920000 7.120000 39.474014 17.034897 1848.385498
4.840000 4.920000 7.160000 17.888134 40.702507 1976.679443
4.840000 4.920000 7.200000 -14.447535 38.989254 1728.893311
4.840000 4.960000 6.800000 21.599928 20.667782 893.714111
4.840000 4.960000 6.840000 7.249899 30.880444 1006.162842
4.840000 4.960000 6.880000 -13.338240 29.597441 1053.917114
4.840000 4.960000 6.920000 -29.308319 11.623007 994.071838
4.840000 4.960000 6.960000 -25.989664 -15.946502 929.753540
4.840000 4.960000 7.000000 0.708597 -33.229832 1104.723755
4.840000 4.960000 7.040000 34.953606 -22.343422 1720.983032
4.840000 4.960000 7.080000 49.891895 14.380215 2695.991699
4.840000 4.960000 7.120000 30.232368 51.869473 3604.438232
4.840000 4.960000 7.160000 -12.220640 61.433025 3923.360596
4.840000 4.960000 7.200000 -46.524441 35.494198 3424.361816
4.840000 5.000000 6.800000 6.245985 33.353012 1151.435791
4.840000 5.000000 6.840000 -14.707028 34.986721 1440.367310
4.840000 5.000000 6.880000 -34.214272 20.124292 1575.603516
4.840000 5.000000 6.920000 -37.303421 -7.988659 1455.363892
4.840000 5.000000 6.960000 -15.204332 -31.580441 1228.495972
4.840000 5.000000 7.000000 21.438435 -29.118183 1307.475098
4.840000 5.000000 7.040000 45.306541 4.513563 2073.054932
4.840000 5.000000 7.080000 33.666466 48.294945 3465.832520
4.840000 5.000000 7.120000 -9.838549 69.023163 4860.993652
4.840000 5.000000 7.160000 -54.986290 49.138062 5438.041016
4.840000 5.000000 7.200000 -69.187645 2.823261 4794.900879
4.840000 5.040000 6.800000 -14.728812 32.245209 1256.691406
4.840000 5.040000 6.840000 -33.923096 21.394434 1608.498169
4.840000 5.040000 6.880000 -41.287674 -2.552698 1711.188232
4.840000 5.040000 6.920000 -27.020058 -26.882563 1452.755615
4.840000 5.040000 6.960000 4.259965 -32.049301 1045.305054
4.840000 5.040000 7.000000 30.797688 -8.121107 1014.449951
4.840000 5.040000 7.040000 28.497639 31.923815 1831.245361
4.840000 5.040000 7.080000 -7.135493 58.127373 3429.706787
4.840000 5.040000 7.120000 -53.185211 47.396168 5075.063477
4.840000 5.040000 7.160000 -76.050308 4.552989 5804.378906
4.840000 5.040000 7.200000 -59.413273 -40.132492 5140.553711
4.840000 5.080000 6.800000 -29.691010 17.729099 1195.876953
4.840000 5.080000 6.840000 -38.205486 -1.339474 1461.453369
4.840000 5.080000 6.880000 -30.139969 -22.508379 1415.044922
4.840000 5.080000 6.920000 -7.192645 -31.075447 1017.417542
4.840000 5.080000 6.960000 15.777689 -17.257164 546.745178
4.840000 5.080000 7.000000 19.107243 12.499475 521.323608
4.840000 5.080000 7.040000 -5.008527 36.166683 1333.114258
4.840000 5.080000 7.080000 -42.475586 32.256065 2844.629150
4.840000 5.080000 7.120000 -65.855171 -1.038391 4337.981934
4.840000 5.080000 7.160000 -56.474682 -42.008198 4954.078125
4.840000 5.080000 7.200000 -20.604328 -62.360458 4313.365234
4.840000 5.120000 6.800000 -32.064766 -1.374056 1030.037231
4.840000 5.120000 6.840000 -27.448654 -19.176617 1121.171143
4.840000 5.120000 6.880000 -10.994507 -28.015896 905.769653
4.840000 5.120000 6.920000 6.476075 -20.640881 467.985504
4.840000 5.120000 6.960000 10.868080 -1.186194 119.522224
4.840000 5.120000 7.000000 -4.031763 15.205334 247.457291
4.840000 5.120000 7.040000 -29.308598 12.913479 1025.751831
4.840000 5.120000 7.080000 -45.724731 -10.722167 2205.715820
4.840000 5.120000 7.120000 -38.661827 -41.264740 3197.515625
4.840000 5.120000 7.160000 -10.810028 -57.646870 3440.018311
4.840000 5.120000 7.200000 19.307564 -49.218395 2795.232422
4.840000 5.160000 6.800000 -24.462259 -15.806803 848.257080
4.840000 5.160000 6.840000 -11.847728 -25.115505 771.157227
4.840000 5.160000 6.880000 2.407688 -21.338760 461.139648
4.840000 5.160000 6.920000 6.761694 -8.174148 112.537193
4.840000 5.160000 6.960000 -2.916480 2.208261 13.382275
4.840000 5.160000 7.000000 -18.804359 -1.314480 355.331787
4.840000 5.160000 7.040000 -26.578438 -19.033281 1068.679199
4.840000 5.160000 7.080000 -17.084919 -39.075199 1818.765625
4.840000 5.160000 7.120000 5.502542 -46.573544 2199.373047
4.840000 5.160000 7.160000 26.630497 -35.884178 1996.857544
4.840000 5.160000 7.200000 33.234428 -15.187644 1335.191772
4.840000 5.200000 6.800000 -14.085216 -23.126015 733.205872
4.840000 5.200000 6.840000 -0.577310 -23.411236 548.419250
4.840000 5.200000 6.880000 6.183037 -13.733626 226.842438
4.840000 5.200000 6.920000 0.747797 -4.823895 23.829159
4.840000 5.200000 6.960000 -10.295605 -7.408992 160.892639
4.840000 5.200000 7.000000 -13.710447 -21.526857 651.381958
4.840000 5.200000 7.040000 -2.011179 -35.421494 1258.727051
4.840000 5.200000 7.080000 18.786629 -35.828316 1636.605591
4.840000 5.200000 7.120000 33.862530 -20.263439 1557.277832
4.840000 5.200000 7.160000 32.664963 0.299470 1067.089478
4.840000 5.200000 7.200000 18.234564 11.040010 454.381165
4.880000 4.800000 6.800000 -10.888744 -3.601154 131.533066
4.880000 4.800000 6.840000 -12.161089 -5.338606 176.392807
4.880000 4.800000 6.880000 -11.583524 -11.305111 261.983551
4.880000 4.800000 6.920000 -4.685825 -17.948639 344.110596
4.880000 4.800000 6.960000 7.802095 -18.781248 413.607971
4.880000 4.800000 7.000000 19.569511 -10.264992 488.335846
4.880000 4.800000 7.040000 23.548405 4.712318 576.733276
4.880000 4.800000 7.080000 17.296083 18.911880 656.813721
4.880000 4.800000 7.120000 4.238594 25.938450 690.768860
4.880000 4.800000 7.160000 -9.406040 23.788532 654.367859
4.880000 4.800000 7.200000 -18.392864 14.578321 550.824890
4.880000 4.840000 6.800000 1.315365 -7.332853 55.500923
4.880000 4.840000 6.840000 3.159636 -1.583042 12.489319
4.880000 4.840000 6.880000 0.822803 3.393497 12.192831
4.880000 4.840000 6.920000 -3.931843 4.578252 36.419777
4.880000 4.840000 6.960000 -7.160049 1.233860 52.788719
4.880000 4.840000 7.000000 -5.426559 -3.637787 42.681042
4.880000 4.840000 7.040000 0.865377 -4.889761 24.658640
4.880000 4.840000 7.080000 6.716021 0.508385 45.363384
4.880000 4.840000 7.120000 6.060193 9.947914 135.686935
4.880000 4.840000 7.160000 -2.703073 16.166504 268.662445
4.880000 4.840000 7.200000 -14.070724 12.970212 366.211670
4.880000 4.880000 6.800000 13.786549 1.503681 192.329987
4.880000 4.880000 6.840000 9.666948 17.724821 407.619171
4.880000 4.880000 6.880000 -7.829597 27.671902 827.036743
4.880000 4.880000 6.920000 -29.803246 20.405294 1304.609497
4.880000 4.880000 6.960000 -39.738831 -3.253792 1589.761841
4.880000 4.880000 7.000000 -27.385714 -27.834785 1524.752563
4.880000 4.880000 7.040000 0.347057 -34.454323 1187.220825
4.880000 4.880000 7.080000 23.121201 -17.278950 833.151978
4.880000 4.880000 7.120000 23.906160 10.281534 677.214478
4.880000 4.880000 7.160000 3.780874 26.512589 717.212341
4.880000 4.880000 7.200000 -19.103327 20.092438 768.643188
4.880000 4.920000 6.800000 14.576036 19.515656 593.321655
4.880000 4.920000 6.840000 -5.142357 38.468330 1506.256348
4.880000 4.920000 6.880000 -39.476604 36.723488 2907.016846
4.880000 4.920000 6.920000 -65.368546 5.334797 4301.506836
4.880000 4.920000 6.960000 -58.629807 -39.944633 5033.027832
4.880000 4.920000 7.000000 -17.498266 -66.899910 4781.787598
4.880000 4.920000 7.040000 31.210825 -53.434349 3829.345215
4.880000 4.920000 7.080000 52.412064 -8.442038 2818.292480
4.880000 4.920000 7.120000 32.516113 34.121948 2221.604980
4.880000 4.920000 7.160000 -9.125772 43.938477 2013.869385
4.880000 4.920000 7.200000 -38.036308 19.501657 1827.075439
4.880000 4.960000 6.800000 -0.903265 33.271049 1107.778687
4.880000 4.960000 6.840000 -35.363579 40.196541 2866.344727
4.880000 4.960000 6.880000 -71.653702 14.233443 5336.843750
4.880000 4.960000 6.920000 -78.127960 -38.516575 7587.504395
4.880000 4.960000 6.960000 -39.017578 -83.966858 8572.804688
4.880000 4.960000 7.000000 25.367378 -85.410233 7938.411621
4.880000 4.960000 7.040000 70.282074 -36.987659 6307.656738
4.880000 4.960000 7.080000 63.228348 27.445927 4751.103027
4.880000 4.960000 7.120000 12.430948 61.313038 3913.817139
4.880000 4.960000 7.160000 -40.394321 44.506905 3612.565674
4.880000 4.960000 7.200000 -56.675377 -1.543045 3214.479492
4.880000 5.000000 6.800000 -23.516781 30.271317 1469.391602
4.880000 5.000000 6.840000 -58.909920 16.048712 3727.939941
4.880000 5.000000 6.880000 -76.438477 -28.958858 6681.456055
4.880000 5.000000 6.920000 -51.271294 -80.625916 9129.283203
4.880000 5.000000 6.960000 10.867455 -98.982162 9915.570312
4.880000 5.000000 7.000000 70.184006 -62.654495 8851.379883
4.880000 5.000000 7.040000 82.660019 7.609528 6890.583496
4.880000 5.000000 7.080000 38.403084 62.087406 5329.642578
4.880000 5.000000 7.120000 -27.999453 63.035446 4757.437012
4.880000 5.000000 7.160000 -66.695114 16.237457 4711.893555
4.880000 5.000000 7.200000 -54.670181 -36.338348 4309.304199
4.880000 5.040000 6.800000 -37.105480 10.815223 1493.785645
4.880000 5.040000 6.840000 -56.976631 -18.848522 3601.603271
4.880000 5.040000 6.880000 -47.197723 -62.456596 6128.451172
4.880000 5.040000 6.920000 -1.614092 -89.171547 7954.170410
4.880000 5.040000 6.960000 55.131714 -71.727509 8184.341309
4.880000 5.040000 7.000000 81.973930 -13.973589 6914.986328
4.880000 5.040000 7.040000 55.664513 46.008873 5215.354492
4.880000 5.040000 7.080000 -6.352625 64.913116 4254.068848
4.880000 5.040000 7.120000 -58.190426 30.896793 4340.737305
4.880000 5.040000 7.160000 -63.792263 -26.342035 4763.355469
4.880000 5.040000 7.200000 -26.217659 -62.127666 4547.212402
4.880000 5.080000 6.800000 -32.706947 -11.678399 1206.129395
4.880000 5.080000 6.840000 -31.609150 -40.427437 2633.516113
4.880000 5.080000 6.880000 -5.519368 -63.923050 4116.619629
4.880000 5.080000 6.920000 35.222683 -60.653969 4919.541504
4.880000 5.080000 6.960000 63.277554 -24.801357 4619.156250
4.880000 5.080000 7.000000 54.714043 23.171116 3530.527100
4.880000 5.080000 7.040000 11.500919 49.040394 2537.231445
4.880000 5.080000 7.080000 -36.278549 32.763737 2389.595703
4.880000 5.080000 7.120000 -53.771889 -13.234532 3066.568848
4.880000 5.080000 7.160000 -30.386522 -53.694313 3806.420166
4.880000 5.080000 7.200000 12.245215 -60.303009 3786.398193
4.880000 5.120000 6.800000 -16.171228 -22.993721 790.219849
4.880000 5.120000 6.840000 -3.162416 -37.656914 1428.044067
4.880000 5.120000 6.880000 19.360313 -38.980076 1894.268066
4.880000 5.120000 6.920000 37.837486 -21.852303 1909.198486
4.880000 5.120000 6.960000 37.664429 5.499254 1448.850952
4.880000 5.120000 7.000000 15.684166 24.459648 844.267456
4.880000 5.120000 7.040000 -14.241852 19.687393 590.423767
4.880000 5.120000 7.080000 -30.146727 -7.159729 960.086853
4.880000 5.120000 7.120000 -19.560394 -36.925171 1746.077271
4.880000 5.120000 7.160000 9.623871 -47.918396 2388.791504
4.880000 5.120000 7.200000 35.684624 -33.689556 2408.378418
4.880000 5.160000 6.800000 -1.290292 -20.789249 433.857758
4.880000 5.160000 6.840000 9.887739 -21.105347 543.203064
4.880000 5.160000 6.880000 17.619583 -13.283169 486.892273
4.880000 5.160000 6.920000 16.827627 -2.634117 290.107605
4.880000 5.160000 6.960000 8.073120 3.257645 75.787521
4.880000 5.160000 7.000000 -2.289646 -0.441002 5.436962
4.880000 5.160000 7.040000 -6.005615 -11.993296 179.906555
4.880000 5.160000 7.080000 1.144724 -23.579456 557.301147
4.880000 5.160000 7.120000 15.720135 -26.617439 955.610718
4.880000 5.160000 7.160000 28.712702 -18.282591 1158.672363
4.880000 5.160000 7.200000 32.322121 -3.811066 1059.243652
4.880000 5.200000 6.800000 4.354351 -14.705942 235.225113
4.880000 5.200000 6.840000 7.765224 -9.740242 155.171021
4.880000 5.200000 6.880000 4.922037 -5.821272 58.113655
4.880000 5.200000 6.920000 0.223015 -8.150494 66.480286
4.880000 5.200000 6.960000 0.529543 -15.526513 241.353027
4.880000 5.200000 7.000000 8.536617 -21.270477 525.307007
4.880000 5.200000 7.040000 20.049448 -19.261482 772.985107
4.880000 5.200000 7.080000 27.560940 -9.428693 848.505676
4.880000 5.200000 7.120000 26.674084 2.263808 716.631531
4.880000 5.200000 7.160000 19.533136 9.036940 463.209717
4.880000 5.200000 7.200000 12.460223 8.804640 232.778839
4.920000 4.800000 6.800000 -14.158549 -5.343498 229.017502
4.920000 4.800000 6.840000 -12.311323 -8.720873 227.622314
4.920000 4.800000 6.880000 -8.201862 -13.536915 250.518616
4.920000 4.800000 6.920000 0.614296 -16.865089 284.808594
4.920000 4.800000 6.960000 12.517099 -13.919239 350.422974
4.920000 4.800000 7.000000 21.649872 -2.773891 476.411438
4.920000 4.800000 7.040000 22.086531 12.845051 652.810181
4.920000 4.800000 7.080000 12.601017 25.576790 812.957825
4.920000 4.800000 7.120000 -2.200644 29.408739 869.716797
4.920000 4.800000 7.160000 -15.008501 23.436142 774.507812
4.920000 4.800000 7.200000 -20.255882 11.811373 549.809326
4.920000 4.840000 6.800000 -0.159427 -3.880245 15.081720
4.920000 4.840000 6.840000 -0.559013 6.982166 49.063141
4.920000 4.840000 6.880000 -10.853523 12.856110 283.078522
4.920000 4.840000 6.920000 -22.330807 6.657185 542.983032
4.920000 4.840000 6.960000 -23.549065 -7.772514 614.970459
4.920000 4.840000 7.000000 -11.327003 -18.020107 453.025269
4.920000 4.840000 7.040000 5.348267 -14.131691 228.308655
4.920000 4.840000 7.080000 12.779909 1.932676 167.061325
4.920000 4.840000 7.120000 4.810567 17.557774 331.416962
4.920000 4.840000 7.160000 -11.613750 20.553167 557.311890
4.920000 4.840000 7.200000 -22.696583 9.821198 611.590820
4.920000 4.880000 6.800000 5.982393 11.140089 159.890610
4.920000 4.880000 6.840000 -11.982643 30.883892 1097.398438
4.920000 4.880000 6.880000 -45.326794 28.260729 2853.187012
4.920000 4.880000 6.920000 -67.939667 -3.962818 4631.502441
4.920000 4.880000 6.960000 -57.076248 -46.334713 5404.603516
4.920000 4.880000 7.000000 -15.948143 -66.972443 4739.651367
4.920000 4.880000 7.040000 26.488819 -49.504311 3152.334229
4.920000 4.880000 7.080000 39.927933 -8.213720 1661.705078
4.920000 4.880000 7.120000 18.780327 24.588558 957.297852
4.920000 4.880000 7.160000 -14.591210 27.074856 945.951233
4.920000 4.880000 7.200000 -31.707947 5.309892 1033.588867
4.920000 4.920000 6.800000 -5.689226 26.586205 739.193604
4.920000 4.920000 6.840000 -46.018715 36.178696 3426.620117
4.920000 4.920000 6.880000 -88.567596 4.023266 7860.405762
4.920000 4.920000 6.920000 -93.133484 -59.410683 12203.474609
4.920000 4.920000 6.960000 -43.995087 -110.581772 14163.895508
4.920000 4.920000 7.000000 30.395084 -108.616829 12721.476562
4.920000 4.920000 7.040000 78.295044 -52.729385 8910.501953
4.920000 4.920000 7.080000 68.690247 15.353207 4954.071289
4.920000 4.920000 7.120000 17.146812 47.503754 2550.619873
4.920000 4.920000 7.160000 -30.662066 29.834087 1830.234985
4.920000 4.920000 7.200000 -40.751038 -9.943050 1759.511353
4.920000 4.960000 6.800000 -28.548323 25.464691 1463.457275
4.920000 4.960000 6.840000 -76.665321 7.890434 5939.830078
4.920000 4.960000 6.880000 -99.783638 -54.427509 12919.127930
4.920000 4.960000 6.920000 -62.788521 -124.968170 19559.441406
4.920000 4.960000 6.960000 23.204094 -148.077301 22465.316406
4.920000 4.960000 7.000000 102.370926 -98.502136 20182.476562
4.920000 4.960000 7.040000 119.253937 -7.807646 14282.459961
4.920000 4.960000 7.080000 66.714409 60.224514 8077.804688
4.920000 4.960000 7.120000 -8.934459 63.726505 4140.892090
4.920000 4.960000 7.160000 -50.310753 15.718916 2778.256104
4.920000 4.960000 7.200000 -37.785419 -33.656441 2560.493896
4.920000 5.000000 6.800000 -43.239464 4.083551 1886.326660
4.920000 5.000000 6.840000 -75.010422 -38.849091 7135.815430
4.920000 5.000000 6.880000 -60.035675 -106.727959 14995.139648
4.920000 5.000000 6.920000 12.244003 -148.599274 22231.660156
4.920000 5.000000 6.960000 101.865791 -121.666023 25179.261719
4.920000 5.000000 7.000000 145.842178 -33.733952 22407.921875
4.920000 5.000000 7.040000 111.767540 57.331856 15778.924805
4.920000 5.000000 7.080000 27.326683 90.606796 8956.339844
4.920000 5.000000 7.120000 -43.531727 52.998680 4703.871094
4.920000 5.000000 7.160000 -55.720055 -13.423837 3284.924072
4.920000 5.000000 7.200000 -17.612000 -52.766129 3094.447021
4.920000 5.040000 6.800000 -35.528316 -22.506220 1768.791138
4.920000 5.040000 6.840000 -37.697502 -69.892014 6305.995117
4.920000 5.040000 6.880000 6.500387 -113.056793 12824.093750
4.920000 5.040000 6.920000 80.856354 -109.699188 18571.662109
4.920000 5.040000 6.960000 135.824203 -46.660938 20625.457031
4.920000 5.040000 7.000000 127.796982 41.131607 18023.876953
4.920000 5.040000 7.040000 58.812763 95.019554 12487.657227
4.920000 5.040000 7.080000 -22.166136 81.098862 7068.362793
4.920000 5.040000 7.120000 -59.872929 18.317480 3920.297607
4.920000 5.040000 7.160000 -38.181095 -40.224106 3075.774658
4.920000 5.040000 7.200000 11.363417 -54.317245 3079.490234
4.920000 5.080000 6.800000 -10.506489 -33.788635 1252.058228
4.920000 5.080000 6.840000 8.270505 -63.288040 4073.777344
4.920000 5.080000 6.880000 53.045937 -71.288597 7895.935547
4.920000 5.080000 6.920000 97.543289 -39.018105 11037.105469
4.920000 5.080000 6.960000 106.637589 22.371208 11872.045898
4.920000 5.080000 7.000000 66.735474 74.706100 10034.625000
4.920000 5.080000 7.040000 1.266041 81.956894 6718.535645
4.920000 5.080000 7.080000 -45.848289 40.863815 3771.916992
4.920000 5.080000 7.120000 -45.845211 -15.745071 2349.690674
4.920000 5.080000 7.160000 -7.643297 -46.946999 2262.440674
4.920000 5.080000 7.200000 33.016251 -37.242596 2477.083740
4.920000 5.120000 6.800000 11.989708 -23.191776 681.611572
4.920000 5.120000 6.840000 30.489449 -29.387623 1793.238770
4.920000 5.120000 6.880000 52.887505 -17.981022 3120.405273
4.920000 5.120000 6.920000 62.668427 10.831123 4044.645020
4.920000 5.120000 6.960000 47.858963 42.111156 4063.829590
4.920000 5.120000 7.000000 12.984764 54.884335 3180.894287
4.920000 5.120000 7.040000 -21.190365 38.698360 1946.594727
4.920000 5.120000 7.080000 -32.532814 3.718193 1072.208984
4.920000 5.120000 7.120000 -15.241673 -26.048328 910.824036
4.920000 5.120000 7.160000 15.544338 -31.666752 1244.409668
4.920000 5.120000 7.200000 36.807564 -13.729266 1543.289551
4.920000 5.160000 6.800000 16.697134 -3.748139 292.842834
4.920000 5.160000 6.840000 20.942120 0.681618 439.036987
4.920000 5.160000 6.880000 21.350872 7.525883 512.498657
4.920000 5.160000 6.920000 17.269173 13.921848 492.042175
4.920000 5.160000 6.960000 9.467312 17.068796 380.973816
4.920000 5.160000 7.000000 0.489025 14.561401 212.273560
4.920000 5.160000 7.040000 -5.207626 6.057777 63.816040
4.920000 5.160000 7.080000 -3.366144 -4.900570 35.346512
4.920000 5.160000 7.120000 6.359091 -11.793028 179.513535
4.920000 5.160000 7.160000 18.748693 -9.509220 441.938782
4.920000 5.160000 7.200000 26.046465 1.242390 679.961853
4.920000 5.200000 6.800000 7.255668 5.978009 88.381310
4.920000 5.200000 6.840000 0.590353 6.053835 36.997437
4.920000 5.200000 6.880000 -3.903580 -1.125151 16.503899
4.920000 5.200000 6.920000 0.077644 -10.258993 105.252968
4.920000 5.200000 6.960000 10.799568 -12.744288 279.047546
4.920000 5.200000 7.000000 19.619438 -5.655872 416.911255
4.920000 5.200000 7.040000 19.569027 5.002396 407.970764
4.920000 5.200000 7.080000 12.277225 10.323891 257.312988
4.920000 5.200000 7.120000 6.044329 7.426723 91.690132
4.920000 5.200000 7.160000 7.170661 2.017406 55.488312
4.920000 5.200000 7.200000 13.655128 2.181061 191.219559
4.960000 4.800000 6.800000 -14.323895 -8.044256 269.884003
4.960000 4.800000 6.840000 -10.804180 -10.427027 225.453186
4.960000 4.800000 6.880000 -5.511173 -13.537193 213.628632
4.960000 4.800000 6.920000 3.763275 -14.328373 219.464523
4.960000 4.800000 6.960000 14.518551 -8.271156 279.200348
4.960000 4.800000 7.000000 20.305962 5.126587 438.613953
4.960000 4.800000 7.040000 16.219589 20.305363 675.382812
4.960000 4.800000 7.080000 3.588017 29.480854 881.994568
4.960000 4.800000 7.120000 -10.770448 28.647211 936.665283
4.960000 4.800000 7.160000 -19.759895 20.207859 798.811035
4.960000 4.800000 7.200000 -20.725449 10.373857 537.161133
4.960000 4.840000 6.800000 -4.307756 -0.533552 18.841442
4.960000 4.840000 6.840000 -12.781429 10.302082 269.497833
4.960000 4.840000 6.880000 -29.074612 7.301510 898.645142
4.960000 4.840000 6.920000 -36.542591 -10.987671 1456.089844
4.960000 4.840000 6.960000 -24.674767 -30.262985 1524.692383
4.960000 4.840000 7.000000 -0.159409 -33.160961 1099.674683
4.960000 4.840000 7.040000 18.330448 -15.531908 577.245483
4.960000 4.840000 7.080000 16.809547 9.473057 372.299683
4.960000 4.840000 7.120000 -1.839641 23.289244 545.773132
4.960000 4.840000 7.160000 -21.444798 18.225117 792.034180
4.960000 4.840000 7.200000 -27.671812 2.842031 773.806335
4.960000 4.880000 6.800000 -9.025049 13.278954 257.782135
4.960000 4.880000 6.840000 -41.155060 20.944359 2132.405029
4.960000 4.880000 6.880000 -73.545868 -6.817886 5455.478027
4.960000 4.880000 6.920000 -72.423233 -57.844357 8591.093750
4.960000 4.880000 6.960000 -28.713333 -94.221397 9702.126953
4.960000 4.880000 7.000000 29.967392 -85.459473 8201.366211
4.960000 4.880000 7.040000 61.877140 -36.851952 5186.846680
4.960000 4.880000 7.080000 47.543499 14.777939 2478.771729
4.960000 4.880000 7.120000 5.268689 33.956730 1180.818481
4.960000 4.880000 7.160000 -28.105495 16.245022 1053.819580
4.960000 4.880000 7.200000 -31.045536 -12.594494 1122.446533
4.960000 4.920000 6.800000 -27.792566 15.470879 1011.774841
4.960000 4.920000 6.840000 -74.923294 -2.189144 5618.292480
4.960000 4.920000 6.880000 -94.999504 -65.024605 13253.105469
4.960000 4.920000 6.920000 -53.933731 -132.782806 20540.121094
4.960000 4.920000 6.960000 32.511681 -149.861298 23515.417969
4.960000 4.920000 7.000000 106.469307 -96.221252 20594.242188
4.960000 4.920000 7.040000 116.896683 -8.225174 13732.487305
4.960000 4.920000 7.080000 63.770874 52.210938 6792.706055
4.960000 4.920000 7.120000 -4.593363 51.075314 2629.786621
4.960000 4.920000 7.160000 -37.106815 7.505008 1433.240967
4.960000 4.920000 7.200000 -23.176270 -30.761049 1483.381592
4.960000 4.960000 6.800000 -42.971565 -3.021444 1855.684570
4.960000 4.960000 6.840000 -79.115341 -52.306828 8995.241211
4.960000 4.960000 6.880000 -59.033676 -130.385880 20485.453125
4.960000 4.960000 6.920000 27.134827 -175.227219 31440.876953
4.960000 4.960000 6.960000 129.142258 -139.321442 36088.187500
4.960000 4.960000 7.000000 174.913513 -37.083275 31969.906250
4.960000 4.960000 7.040000 133.272156 62.930206 21721.677734
4.960000 4.960000 7.080000 41.155617 96.107048 10930.349609
4.960000 4.960000 7.120000 -30.803844 55.482666 4027.203125
4.960000 4.960000 7.160000 -40.403801 -8.986532 1713.224976
4.960000 4.960000 7.200000 -4.278206 -41.318130 1725.490967
4.960000 5.000000 6.800000 -36.211651 -30.589848 2247.022461
4.960000 5.000000 6.840000 -39.619843 -92.987717 10216.447266
4.960000 5.000000 6.880000 20.882471 -149.597931 22815.619141
4.960000 5.000000 6.920000 120.836731 -141.937714 34747.828125
4.960000 5.000000 6.960000 191.744080 -55.329170 39827.109375
4.960000 5.000000 7.000000 178.309311 60.045475 35399.671875
4.960000 5.000000 7.040000 88.698936 127.930466 24233.705078
4.960000 5.000000 7.080000 -11.361866 110.359222 12308.250000
4.960000 5.000000 7.120000 -55.810814 37.088432 4490.398438
4.960000 5.000000 7.160000 -32.273232 -26.272743 1731.818604
4.960000 5.000000 7.200000 16.678440 -38.089478 1728.978760
4.960000 5.040000 6.800000 -7.819809 -43.913525 1989.547119
4.960000 5.040000 6.840000 19.415070 -90.522217 8571.216797
4.960000 5.040000 6.880000 90.392311 -103.259918 18833.380859
4.960000 5.040000 6.920000 160.852798 -50.760262 28450.226562
4.960000 5.040000 6.960000 173.983643 47.055092 32484.490234
4.960000 5.040000 7.000000 111.104149 128.538803 28866.355469
4.960000 5.040000 7.040000 11.745613 140.336792 19832.375000
4.960000 5.040000 7.080000 -58.142445 82.350082 10162.080078
4.960000 5.040000 7.120000 -61.122559 5.409089 3765.225586
4.960000 5.040000 7.160000 -15.289705 -35.065266 1463.347900
4.960000 5.040000 7.200000 29.443010 -24.475006 1465.916748
4.960000 5.080000 6.800000 21.359940 -30.235909 1370.457153
4.960000 5.080000 6.840000 55.520699 -46.340473 5229.987305
4.960000 5.080000 6.880000 102.437965 -25.759386 11157.083008
4.960000 5.080000 6.920000 124.494690 33.588036 16627.083984
4.960000 5.080000 6.960000 94.944206 99.225288 18860.060547
4.960000 5.080000 7.000000 24.334419 127.058762 16736.091797
4.960000 5.080000 7.040000 -44.326618 97.921387 11553.447266
4.960000 5.080000 7.080000 -69.611473 34.248627 6018.725586
4.960000 5.080000 7.120000 -44.531471 -19.078938 2347.057617
4.960000 5.080000 7.160000 1.375166 -31.944342 1022.332031
4.960000 5.080000 7.200000 30.770613 -10.036530 1047.562500
4.960000 5.120000 6.800000 29.007137 -0.518748 841.683105
4.960000 5.120000 6.840000 46.638016 3.784586 2189.427490
4.960000 5.120000 6.880000 59.130070 26.305424 4188.340820
4.960000 5.120000 6.920000 50.937290 58.266434 5989.584961
4.960000 5.120000 6.960000 18.726746 79.693245 6701.704102
4.960000 5.120000 7.000000 -22.865124 73.777893 5965.991699
4.960000 5.120000 7.040000 -50.132835 41.068642 4199.934570
4.960000 5.120000 7.080000 -47.923927 0.602253 2297.065674
4.960000 5.120000 7.120000 -21.129129 -24.039423 1024.333984
4.960000 5.120000 7.160000 9.908501 -22.167219 589.564026
4.960000 5.120000 7.200000 25.808977 -2.117584 670.587463
4.960000 5.160000 6.800000 12.625727 20.735312 589.362122
4.960000 5.160000 6.840000 10.026472 23.565071 655.842712
4.960000 5.160000 6.880000 5.890110 25.534496 686.703918
4.960000 5.160000 6.920000 0.760609 26.727262 714.925110
4.960000 5.160000 6.960000 -6.301353 26.640413 749.418640
4.960000 5.160000 7.000000 -15.226540 22.433941 735.129211
4.960000 5.160000 7.040000 -21.997801 11.512005 616.429504
4.960000 5.160000 7.080000 -20.291920 -3.756634 425.874298
4.960000 5.160000 7.120000 -7.582588 -15.154749 287.162048
4.960000 5.160000 7.160000 10.346282 -14.340336 312.690796
4.960000 5.160000 7.200000 22.202740 -0.577324 493.294952
4.960000 5.200000 6.800000 -8.687422 19.250813 446.065063
4.960000 5.200000 6.840000 -17.181612 8.967494 375.623749
4.960000 5.200000 6.880000 -14.440973 -6.190741 246.866974
4.960000 5.200000 6.920000 -0.221252 -13.571168 184.225555
4.960000 5.200000 6.960000 13.552828 -6.226112 222.443619
4.960000 5.200000 7.000000 14.260171 8.512100 275.808319
4.960000 5.200000 7.040000 2.056587 15.513227 244.889786
4.960000 5.200000 7.080000 -9.394501 7.353391 142.328995
4.960000 5.200000 7.120000 -6.660437 -7.366047 98.620064
4.960000 5.200000 7.160000 9.255642 -12.263399 236.057861
4.960000 5.200000 7.200000 23.154448 0.152009 536.151550
5.000000 4.800000 6.800000 -14.070951 -8.420599 268.898132
5.000000 4.800000 6.840000 -11.242008 -10.891973 245.017822
5.000000 4.800000 6.880000 -5.112761 -14.096771 224.859283
5.000000 4.800000 6.920000 5.241134 -12.872978 193.183044
5.000000 4.800000 6.960000 14.479221 -3.352570 220.887573
5.000000 4.800000 7.000000 15.493828 11.560676 373.707916
5.000000 4.800000 7.040000 6.476871 23.828222 609.734070
5.000000 4.800000 7.080000 -7.155003 27.269661 794.828491
5.000000 4.800000 7.120000 -17.817802 22.520998 824.669434
5.000000 4.800000 7.160000 -22.133213 15.188126 720.558289
5.000000 4.800000 7.200000 -22.253433 9.991284 595.041077
5.000000 4.840000 6.800000 -12.928041 -0.992417 168.119156
5.000000 4.840000 6.840000 -26.745642 0.554386 715.636719
5.000000 4.840000 6.880000 -37.579903 -14.886612 1633.860229
5.000000 4.840000 6.920000 -29.964613 -37.268845 2286.844727
5.000000 4.840000 6.960000 -4.437599 -46.968231 2225.707031
5.000000 4.840000 7.000000 21.522804 -33.218151 1566.676636
5.000000 4.840000 7.040000 28.826111 -4.480324 851.017944
5.000000 4.840000 7.080000 13.437299 19.087097 544.878296
5.000000 4.840000 7.120000 -11.268624 23.247858 667.444763
5.000000 4.840000 7.160000 -27.551207 10.506448 869.454407
5.000000 4.840000 7.200000 -28.414196 -4.916607 831.539551
5.000000 4.880000 6.800000 -24.044224 1.457100 580.247864
5.000000 4.880000 6.840000 -54.725613 -12.828281 3159.457275
5.000000 4.880000 6.880000 -63.592098 -57.394394 7338.071289
5.000000 4.880000 6.920000 -29.223671 -100.687057 10991.906250
5.000000 4.880000 6.960000 32.450287 -104.624245 11999.253906
5.000000 4.880000 7.000000 78.939621 -60.409111 9880.724609
5.000000 4.880000 7.040000 78.097672 1.785374 6102.433594
5.000000 4.880000 7.080000 35.823242 39.130131 2814.471680
5.000000 4.880000 7.120000 -11.529078 32.905716 1215.705811
5.000000 4.880000 7.160000 -31.125305 0.910225 969.613098
5.000000 4.880000 7.200000 -20.415380 -23.935753 989.708008
5.000000 4.920000 6.800000 -35.578316 -12.187525 1414.352295
5.000000 4.920000 6.840000 -63.586670 -55.159100 7085.791016
5.000000 4.920000 6.880000 -41.483696 -120.448341 16228.699219
5.000000 4.920000 6.920000 35.556942 -152.954498 24659.375000
5.000000 4.920000 6.960000 120.486938 -115.006256 27743.541016
5.000000 4.920000 7.000000 152.424103 -24.658825 23841.164062
5.000000 4.920000 7.040000 110.498375 57.026474 15461.909180
5.000000 4.920000 7.080000 31.558517 78.728142 7194.060059
5.000000 4.920000 7.120000 -24.807146 41.120132 2306.259766
5.000000 4.920000 7.160000 -28.693327 -10.531784 934.225464
5.000000 4.920000 7.200000 0.421547 -32.545330 1059.376221
5.000000 4.960000 6.800000 -30.038280 -35.928986 2193.190186
5.000000 4.960000 6.840000 -31.000713 -97.735489 10513.269531
5.000000 4.960000 6.880000 32.850185 -151.182129 23935.169922
5.000000 4.960000 6.920000 133.043472 -137.401428 36579.718750
5.000000 4.960000 6.960000 198.859650 -46.169167 41676.753906
5.000000 4.960000 7.000000 178.574982 67.680687 36469.699219
5.000000 4.960000 7.040000 86.892532 128.977051 24185.392578
5.000000 4.960000 7.080000 -8.059513 106.592758 11426.971680
5.000000 4.960000 7.120000 -45.383255 36.109253 3363.518066
5.000000 4.960000 7.160000 -20.797945 -18.589262 778.115173
5.000000 4.960000 7.200000 20.392334 -24.168755 999.976013
5.000000 5.000000 6.800000 -3.371042 -49.244267 2436.361816
5.000000 5.000000 6.840000 29.390182 -102.560326 11382.403320
5.000000 5.000000 6.880000 113.317291 -114.160416 25873.410156
5.000000 5.000000 6.920000 193.170746 -48.546909 39671.738281
5.000000 5.000000 6.960000 202.744598 66.341400 45506.550781
5.000000 5.000000 7.000000 125.574471 156.454773 40247.042969
5.000000 5.000000 7.040000 12.781496 164.120453 27098.890625
5.000000 5.000000 7.080000 -60.681572 96.744751 13041.799805
5.000000 5.000000 7.120000 -59.642326 15.765675 3805.763428
5.000000 5.000000 7.160000 -11.972727 -21.118647 589.343384
5.000000 5.000000 7.200000 26.724794 -7.066391 764.148560
5.000000 5.040000 6.800000 27.514528 -36.333843 2077.197510
5.000000 5.040000 6.840000 75.558609 -59.281731 9223.426758
5.000000 5.040000 6.880000 141.680847 -28.632925 20893.306641
5.000000 5.040000 6.920000 169.970459 56.511425 32083.498047
5.000000 5.040000 6.960000 124.600174 146.489578 36984.398438
5.000000 5.040000 7.000000 25.881208 179.880707 33026.906250
5.000000 5.040000 7.040000 -63.693459 136.267227 22625.615234
5.000000 5.040000 7.080000 -91.808868 52.881474 11225.318359
5.000000 5.040000 7.120000 -57.843010 -10.018652 3446.187012
5.000000 5.040000 7.160000 -5.910423 -20.724930 464.455811
5.000000 5.040000 7.200000 19.898357 4.079634 412.588043
5.000000 5.080000 6.800000 38.530579 -3.160892 1494.596680
5.000000 5.080000 6.840000 74.250916 2.217199 5518.114258
5.000000 5.080000 6.880000 100.460373 45.696682 12180.472656
5.000000 5.080000 6.920000 84.214310 107.362579 18618.773438
5.000000 5.080000 6.960000 22.114922 145.187988 21568.623047
5.000000 5.080000 7.000000 -52.413715 129.649353 19556.152344
5.000000 5.080000 7.040000 -94.826447 69.489937 13820.906250
5.000000 5.080000 7.080000 -85.295876 4.414284 7294.872070
5.000000 5.080000 7.120000 -42.080406 -28.195553 2565.749756
5.000000 5.080000 7.160000 -1.865070 -21.373068 460.286530
5.000000 5.080000 7.200000 12.164577 2.776708 155.687027
5.000000 5.120000 6.800000 21.053730 26.033760 1121.016235
5.000000 5.120000 6.840000 31.425398 37.829453 2418.623047
5.000000 5.120000 6.880000 27.966991 61.799286 4601.304688
5.000000 5.120000 6.920000 2.982178 82.065414 6743.625977
5.000000 5.120000 6.960000 -35.201790 81.215179 7835.071289
5.000000 5.120000 7.000000 -66.666039 54.184784 7380.351562
5.000000 5.120000 7.040000 -74.054321 13.105141 5655.787109
5.000000 5.120000 7.080000 -54.972755 -21.126534 3468.334229
5.000000 5.120000 7.120000 -22.772276 -33.451916 1637.607178
5.000000 5.120000 7.160000 4.044005 -23.677740 576.989380
5.000000 5.120000 7.200000 14.359255 -3.744231 220.207474
5.000000 5.160000 6.800000 -9.357821 30.678392 1028.732544
5.000000 5.160000 6.840000 -14.522722 28.781349 1039.275513
5.000000 5.160000 6.880000 -19.092663 24.915070 985.290466
5.000000 5.160000 6.920000 -22.391312 20.799675 933.997314
5.000000 5.160000 6.960000 -26.446466 16.768860 980.610229
5.000000 5.160000 7.000000 -32.022865 9.545425 1116.578979
5.000000 5.160000 7.040000 -34.697048 -3.990242 1219.807129
5.000000 5.160000 7.080000 -27.354458 -20.621964 1173.531738
5.000000 5.160000 7.120000 -8.213200 -30.246832 982.327515
5.000000 5.160000 7.160000 14.053867 -23.843895 766.042480
5.000000 5.160000 7.200000 25.177238 -3.140623 643.756836
5.000000 5.200000 6.800000 -27.658493 12.742588 927.365784
5.000000 5.200000 6.840000 -29.581951 -4.297589 893.561157
5.000000 5.200000 6.880000 -16.957542 -19.106913 652.632324
5.000000 5.200000 6.920000 2.492697 -18.701698 355.967041
5.000000 5.200000 6.960000 12.082984 -3.643814 159.275879
5.000000 5.200000 7.000000 3.644129 10.120018 115.694443
5.000000 5.200000 7.040000 -12.213905 6.926437 197.155029
5.000000 5.200000 7.080000 -15.697580 -11.279314 373.636963
5.000000 5.200000 7.120000 1.386786 -25.197300 636.827087
5.000000 5.200000 7.160000 25.461241 -17.339369 948.928467
5.000000 5.200000 7.200000 33.448776 9.133732 1202.245728
5.040000 4.800000 6.800000 -17.180815 -8.701612 370.898438
5.040000 4.800000 6.840000 -13.825758 -14.264269 394.620941
5.040000 4.800000 6.880000 -4.315929 -17.719154 332.595703
5.040000 4.800000 6.920000 7.590542 -12.645924 217.535706
5.040000 4.800000 6.960000 13.322342 0.769646 178.077148
5.040000 4.800000 7.000000 8.197666 14.675781 282.580292
5.040000 4.800000 7.040000 -3.803028 20.945774 453.188477
5.040000 4.800000 7.080000 -14.415311 18.662197 556.078796
5.040000 4.800000 7.120000 -19.455362 13.528042 561.519043
5.040000 4.800000 7.160000 -21.677025 10.482042 579.766602
5.040000 4.800000 7.200000 -25.539242 8.440750 723.499146
5.040000 4.840000 6.800000 -21.727419 -10.551536 583.415649
5.040000 4.840000 6.840000 -29.593721 -20.855198 1310.727539
5.040000 4.840000 6.880000 -24.568300 -39.519135 2165.363281
5.040000 4.840000 6.920000 -2.824654 -50.672981 2575.729736
5.040000 4.840000 6.960000 23.434570 -41.681423 2286.520020
5.040000 4.840000 7.000000 36.125423 -15.497471 1545.217896
5.040000 4.840000 7.040000 26.918770 11.503925 856.960449
5.040000 4.840000 7.080000 3.509695 23.459286 562.656006
5.040000 4.840000 7.120000 -18.299843 17.104731 627.456055
5.040000 4.840000 7.160000 -27.924698 1.625156 782.429871
5.040000 4.840000 7.200000 -26.242599 -11.548208 822.035156
5.040000 4.880000 6.800000 -26.236458 -22.138840 1178.479980
5.040000 4.880000 6.840000 -36.596516 -49.687027 3808.105469
5.040000 4.880000 6.880000 -15.641682 -85.530029 7560.047852
5.040000 4.880000 6.920000 34.477673 -96.498978 10500.762695
5.040000 4.880000 6.960000 82.309212 -64.650833 10954.536133
5.040000 4.880000 7.000000 93.375717 -6.328026 8759.068359
5.040000 4.880000 7.040000 60.680435 40.413494 5315.365723
5.040000 4.880000 7.080000 10.166481 48.218918 2428.421387
5.040000 4.880000 7.120000 -23.222889 21.774204 1013.418518
5.040000 4.880000 7.160000 -24.937458 -10.827843 739.119019
5.040000 4.880000 7.200000 -8.271348 -25.795319 733.813660
5.040000 4.920000 6.800000 -18.233675 -40.161659 1945.425781
5.040000 4.920000 6.840000 -12.856327 -83.944962 7212.041504
5.040000 4.920000 6.880000 38.970062 -117.117302 15235.128906
5.040000 4.920000 6.920000 112.261063 -98.250648 22255.734375
5.040000 4.920000 6.960000 154.189590 -24.987488 24398.804688
5.040000 4.920000 7.000000 130.803101 58.413441 20521.582031
5.040000 4.920000 7.040000 58.572868 97.811554 12997.880859
5.040000 4.920000 7.080000 -10.279381 75.466476 5800.854492
5.040000 4.920000 7.120000 -33.993767 21.735529 1628.009399
5.040000 4.920000 7.160000 -14.081774 -16.928112 484.857330
5.040000 4.920000 7.200000 14.667337 -20.057983 617.453491
5.040000 4.960000 6.800000 6.165058 -49.355934 2474.016357
5.040000 4.960000 6.840000 38.050747 -91.478691 9816.209961
5.040000 4.960000 6.880000 111.523247 -94.800507 21424.570312
5.040000 4.960000 6.920000 176.295685 -31.621132 32080.064453
5.040000 4.960000 6.960000 176.630508 69.235374 35991.875000
5.040000 4.960000 7.000000 103.727524 142.254105 30995.628906
5.040000 4.960000 7.040000 6.380651 141.596054 20090.156250
5.040000 4.960000 7.080000 -51.568443 79.930550 9048.197266
5.040000 4.960000 7.120000 -45.600857 12.875780 2245.223877
5.040000 4.960000 7.160000 -4.972125 -13.483952 206.538986
5.040000 4.960000 7.200000 22.964907 0.394468 527.542542
5.040000 5.000000 6.800000 34.177856 -36.201118 2478.646973
5.040000 5.000000 6.840000 83.586014 -55.802704 10100.563477
5.040000 5.000000 6.880000 148.684769 -19.987938 22506.677734
5.040000 5.000000 6.920000 171.642532 68.876740 34205.164062
5.040000 5.000000 6.960000 119.335175 157.073029 38912.820312
5.040000 5.000000 7.000000 17.878189 183.629211 34039.316406
5.040000 5.000000 7.040000 -67.350372 134.052124 22506.044922
5.040000 5.000000 7.080000 -88.004562 51.586555 10405.975586
5.040000 5.000000 7.120000 -51.156151 -3.895592 2632.127197
5.040000 5.000000 7.160000 -4.701689 -7.892124 84.391510
5.040000 5.000000 7.200000 11.706636 15.652119 382.034149
5.040000 5.040000 6.800000 45.015575 -4.026672 2042.616089
5.040000 5.040000 6.840000 89.109604 4.171108 7957.919434
5.040000 5.040000 6.880000 119.492050 59.911469 17867.734375
5.040000 5.040000 6.920000 95.281586 135.322144 27390.664062
5.040000 5.040000 6.960000 16.423309 176.676865 31484.439453
5.040000 5.040000 7.000000 -71.333313 151.284561 27975.458984
5.040000 5.040000 7.040000 -114.368500 76.939598 18999.855469
5.040000 5.040000 7.080000 -96.075577 5.451481 9260.235352
5.040000 5.040000 7.120000 -46.376320 -22.951279 2677.524170
5.040000 5.040000 7.160000 -9.441339 -10.018612 189.511475
5.040000 5.040000 7.200000 -3.969814 11.877084 156.824554
5.040000 5.080000 6.800000 28.645796 26.714321 1534.236572
5.040000 5.080000 6.840000 49.976994 47.733749 4776.210938
5.040000 5.080000 6.880000 45.278809 91.336624 10392.548828
5.040000 5.080000 6.920000 1.347931 125.972481 15870.882812
5.040000 5.080000 6.960000 -62.204002 120.524612 18395.519531
5.040000 5.080000 7.000000 -107.303894 72.233124 16731.750000
5.040000 5.080000 7.040000 -108.856888 9.651953 11942.982422
5.040000 5.080000 7.080000 -73.901230 -31.720352 6467.572266
5.040000 5.080000 7.120000 -31.932529 -37.498852 2425.850342
5.040000 5.080000 7.160000 -7.938610 -20.753963 493.748535
5.040000 5.080000 7.200000 -4.741278 -4.169025 39.860481
5.040000 5.120000 6.800000 -3.721464 35.246262 1256.148193
5.040000 5.120000 6.840000 -3.315989 47.717117 2287.919189
5.040000 5.120000 6.880000 -19.127312 61.224277 4114.266113
5.040000 5.120000 6.920000 -47.209915 60.527931 5892.406250
5.040000 5.120000 6.960000 -72.526550 39.238400 6799.752441
5.040000 5.120000 7.000000 -80.438965 4.879612 6494.237793
5.040000 5.120000 7.040000 -66.971687 -27.088692 5219.004395
5.040000 5.120000 7.080000 -39.987263 -44.120796 3545.625977
5.040000 5.120000 7.120000 -12.267363 -43.189041 2015.781494
5.040000 5.120000 7.160000 6.417393 -29.708984 923.806702
5.040000 5.120000 7.200000 12.652054 -12.228797 309.617920
5.040000 5.160000 6.800000 -28.739830 18.793579 1179.176514
5.040000 5.160000 6.840000 -32.709179 13.301766 1246.827393
5.040000 5.160000 6.880000 -34.385033 5.037523 1207.707031
5.040000 5.160000 6.920000 -32.536263 -2.568005 1065.203003
5.040000 5.160000 6.960000 -30.232145 -7.859699 975.757446
5.040000 5.160000 7.000000 -29.535091 -14.099190 1071.108765
5.040000 5.160000 7.040000 -26.514256 -24.839834 1320.023071
5.040000 5.160000 7.080000 -14.358826 -36.642242 1548.829834
5.040000 5.160000 7.120000 7.275854 -39.140839 1584.943359
5.040000 5.160000 7.160000 27.579607 -24.905941 1380.940674
5.040000 5.160000 7.200000 32.033913 0.460276 1026.383423
5.040000 5.200000 6.800000 -31.606001 -5.603107 1030.334106
5.040000 5.200000 6.840000 -25.726360 -21.532749 1125.504883
5.040000 5.200000 6.880000 -7.620350 -29.822811 947.469849
5.040000 5.200000 6.920000 10.502810 -21.504269 572.742554
5.040000 5.200000 6.960000 13.455742 -4.065250 197.583252
5.040000 5.200000 7.000000 0.742027 4.116207 17.493765
5.040000 5.200000 7.040000 -10.435604 -6.532209 151.571594
5.040000 5.200000 7.080000 -2.520092 -24.377241 600.600769
5.040000 5.200000 7.120000 22.214203 -26.919367 1218.123047
5.040000 5.200000 7.160000 41.348244 -4.721556 1731.970337
5.040000 5.200000 7.200000 34.274750 26.375099 1870.404297
5.080000 4.800000 6.800000 -22.308186 -14.022873 694.296143
5.080000 4.800000 6.840000 -13.812019 -22.397028 692.398743
5.080000 4.800000 6.880000 0.648712 -22.337164 499.369720
5.080000 4.800000 6.920000 11.447174 -11.060266 253.367279
5.080000 4.800000 6.960000 10.744759 4.213631 133.204514
5.080000 4.800000 7.000000 0.570753 13.121925 172.510681
5.080000 4.800000 7.040000 -9.807760 12.421894 250.495605
5.080000 4.800000 7.080000 -14.163979 8.053579 265.478424
5.080000 4.800000 7.120000 -15.303308 6.847665 281.081757
5.080000 4.800000 7.160000 -19.974493 7.896273 461.331512
5.080000 4.800000 7.200000 -28.991959 3.891457 855.677124
5.080000 4.840000 6.800000 -21.463404 -28.062782 1248.197510
5.080000 4.840000 6.840000 -14.083225 -40.743256 1858.350098
5.080000 4.840000 6.880000 4.450317 -47.399876 2266.553711
5.080000 4.840000 6.920000 25.927505 -39.118542 2202.495850
5.080000 4.840000 6.960000 37.403965 -17.476685 1704.491211
5.080000 4.840000 7.000000 32.035538 6.167549 1064.314331
5.080000 4.840000 7.040000 14.030268 19.832134 590.161987
5.080000 4.840000 7.080000 -6.018452 19.338104 410.184052
5.080000 4.840000 7.120000 -19.593708 8.877674 462.726501
5.080000 4.840000 7.160000 -24.470068 -4.697196 620.847900
5.080000 4.840000 7.200000 -22.571762 -17.001484 798.534912
5.080000 4.880000 6.800000 -8.199139 -43.444561 1954.655762
5.080000 4.880000 6.840000 5.282095 -62.241455 3901.899414
5.080000 4.880000 6.880000 37.837467 -68.803299 6165.567871
5.080000 4.880000 6.920000 72.805153 -47.647774 7570.900391
5.080000 4.880000 6.960000 85.490402 -4.143120 7325.774414
5.080000 4.880000 7.000000 64.820694 37.246780 5589.044922
5.080000 4.880000 7.040000 23.628166 52.503105 3314.866455
5.080000 4.880000 7.080000 -12.145794 37.128796 1526.067749
5.080000 4.880000 7.120000 -24.592072 7.476922 660.674316
5.080000 4.880000 7.160000 -15.685841 -15.340193 481.367126
5.080000 4.880000 7.200000 -0.576645 -22.511478 507.099182
5.080000 4.920000 6.800000 17.409229 -47.332581 2543.454590
5.080000 4.920000 6.840000 43.691788 -65.196793 6159.593750
5.080000 4.920000 6.880000 89.154175 -56.195324 11106.380859
5.080000 4.920000 6.920000 122.213692 -8.842770 15014.380859
5.080000 4.920000 6.960000 112.607681 54.948578 15699.835938
5.080000 4.920000 7.000000 60.539070 95.368774 12760.181641
5.080000 4.920000 7.040000 -1.196964 88.537849 7840.383301
5.080000 4.920000 7.080000 -34.920696 46.333412 3366.240234
5.080000 4.920000 7.120000 -28.995050 3.623707 853.844177
5.080000 4.920000 7.160000 -3.002740 -13.399084 188.551910
5.080000 4.920000 7.200000 15.263793 -6.736516 278.364044
5.080000 4.960000 6.800000 42.571579 -30.557014 2746.070557
5.080000 4.960000 6.840000 79.071548 -35.841286 7536.907227
5.080000 4.960000 6.880000 121.208389 -1.844489 14694.875977
5.080000 4.960000 6.920000 128.836624 65.577530 20899.287109
5.080000 4.960000 6.960000 82.700272 125.918083 22694.699219
5.080000 4.960000 7.000000 6.198341 137.739792 19010.669922
5.080000 4.960000 7.040000 -52.642593 95.745064 11938.359375
5.080000 4.960000 7.080000 -62.411999 34.773445 5104.450195
5.080000 4.960000 7.120000 -32.836857 -2.703773 1085.569580
5.080000 4.960000 7.160000 -0.178605 -2.967095 8.835554
5.080000 4.960000 7.200000 9.377965 13.506969 270.384460
5.080000 5.000000 6.800000 49.905029 1.548577 2492.910156
5.080000 5.000000 6.840000 84.119141 14.373883 7282.638184
5.080000 5.000000 6.880000 103.360428 64.927109 14898.907227
5.080000 5.000000 6.920000 75.336243 127.113472 21833.384766
5.080000 5.000000 6.960000 4.319917 155.622925 24237.156250
5.080000 5.000000 7.000000 -67.969238 126.855453 20712.123047
5.080000 5.000000 7.040000 -97.744194 61.229408 13302.968750
5.080000 5.000000 7.080000 -76.576180 4.532549 5884.455078
5.080000 5.000000 7.120000 -34.746635 -12.871317 1372.999390
5.080000 5.000000 7.160000 -9.259070 1.219695 87.218040
5.080000 5.000000 7.200000 -10.319019 16.278908 371.484985
5.080000 5.040000 6.800000 32.326134 30.371742 1967.421631
5.080000 5.040000 6.840000 51.349098 54.274567 5582.458496
5.080000 5.040000 6.880000 42.086918 99.323433 11636.453125
5.080000 5.040000 6.920000 -6.974995 131.365860 17305.638672
5.080000 5.040000 6.960000 -71.931732 119.587906 19475.441406
5.080000 5.040000 7.000000 -112.238327 66.018394 16955.871094
5.080000 5.040000 7.040000 -106.050537 4.672615 11268.549805
5.080000 5.040000 7.080000 -67.600845 -28.779537 5398.136230
5.080000 5.040000 7.120000 -30.741676 -26.551586 1650.037354
5.080000 5.040000 7.160000 -16.969873 -9.479021 377.828430
5.080000 5.040000 7.200000 -20.175037 -1.548446 409.429810
5.080000 5.080000 6.800000 0.627051 38.156792 1456.333984
5.080000 5.080000 6.840000 2.002077 58.450974 3420.524658
5.080000 5.080000 6.880000 -21.698328 79.854233 6847.516113
5.080000 5.080000 6.920000 -63.155190 78.011940 10074.440430
5.080000 5.080000 6.960000 -96.717430 44.990051 11378.366211
5.080000 5.080000 7.000000 -100.694809 -2.647442 10146.453125
5.080000 5.080000 7.040000 -75.567940 -38.442333 7188.326660
5.080000 5.080000 7.080000 -41.116806 -48.287819 4022.305176
5.080000 5.080000 7.120000 -17.228279 -38.868847 1807.600830
5.080000 5.080000 7.160000 -8.430069 -26.426561 769.429199
5.080000 5.080000 7.200000 -6.000112 -19.938055 433.527374
5.080000 5.120000 6.800000 -24.608208 22.668140 1119.408447
5.080000 5.120000 6.840000 -31.278385 28.843777 1810.300781
5.080000 5.120000 6.880000 -47.498741 26.622166 2964.870117
5.080000 5.120000 6.920000 -62.018219 10.261986 3951.567871
5.080000 5.120000 6.960000 -64.013168 -14.337803 4303.258301
5.080000 5.120000 7.000000 -51.828884 -35.878143 3973.474365
5.080000 5.120000 7.040000 -32.066288 -47.121639 3248.695801
5.080000 5.120000 7.080000 -12.229115 -48.103825 2463.529297
5.080000 5.120000 7.120000 4.164075 -42.046036 1785.208618
5.080000 5.120000 7.160000 15.992208 -30.915842 1211.540039
5.080000 5.120000 7.200000 21.087505 -16.145752 705.368164
5.080000 5.160000 6.800000 -29.979378 -1.566853 901.218079
5.080000 5.160000 6.840000 -31.896982 -8.464400 1089.063599
5.080000 5.160000 6.880000 -28.710081 -18.495304 1166.344971
5.080000 5.160000 6.920000 -19.903885 -25.044090 1023.371094
5.080000 5.160000 6.960000 -11.520189 -25.576775 786.886169
5.080000 5.160000 7.000000 -7.659115 -25.164650 691.921631
5.080000 5.160000 7.040000 -4.067856 -29.323191 876.396912
5.080000 5.160000 7.080000 6.959137 -34.884350 1265.347412
5.080000 5.160000 7.120000 25.231647 -31.314598 1617.240112
5.080000 5.160000 7.160000 38.943893 -12.931024 1683.838135
5.080000 5.160000 7.200000 35.198608 11.511538 1371.457520
5.080000 5.200000 6.800000 -19.344193 -16.847603 658.039551
5.080000 5.200000 6.840000 -10.722044 -27.665733 880.355042
5.080000 5.200000 6.880000 6.879519 -29.338394 908.069153
5.080000 5.200000 6.920000 20.261929 -16.682371 688.847290
5.080000 5.200000 6.960000 18.032829 -0.531954 325.465912
5.080000 5.200000 7.000000 5.444908 2.891850 38.009819
5.080000 5.200000 7.040000 0.637026 -8.845414 78.647148
5.080000 5.200000 7.080000 14.431337 -19.251141 578.869934
5.080000 5.200000 7.120000 35.942528 -9.869240 1389.267212
5.080000 5.200000 7.160000 41.885761 17.982283 2077.779541
5.080000 5.200000 7.200000 21.499146 41.489464 2183.588867
5.120000 4.800000 6.800000 -23.083017 -25.498646 1183.006592
5.120000 4.800000 6.840000 -6.834005 -31.137600 1016.253723
5.120000 4.800000 6.880000 9.204832 -23.071182 617.008423
5.120000 4.800000 6.920000 13.983904 -6.794352 241.712769
5.120000 4.800000 6.960000 6.379908 5.465677 70.576851
5.120000 4.800000 7.000000 -4.181128 7.028988 66.888496
5.120000 4.800000 7.040000 -8.492981 2.718725 79.522186
5.120000 4.800000 7.080000 -7.452051 1.767343 58.656567
5.120000 4.800000 7.120000 -9.692773 5.925754 129.064392
5.120000 4.800000 7.160000 -19.623035 6.864606 432.186310
5.120000 4.800000 7.200000 -30.038607 -3.656260 915.686096
5.120000 4.840000 6.800000 -6.994749 -43.401970 1932.657471
5.120000 4.840000 6.840000 12.500965 -44.311733 2119.803711
5.120000 4.840000 6.880000 29.693302 -32.122662 1913.557617
5.120000 4.840000 6.920000 35.604862 -12.106911 1414.283447
5.120000 4.840000 6.960000 28.743927 5.754604 859.328796
5.120000 4.840000 7.000000 15.080615 14.812233 446.827209
5.120000 4.840000 7.040000 1.645870 15.331645 237.768234
5.120000 4.840000 7.080000 -8.765800 10.909327 195.852661
5.120000 4.840000 7.120000 -16.532278 3.243680 283.837677
5.120000 4.840000 7.160000 -20.609432 -8.217432 492.274872
5.120000 4.840000 7.200000 -17.354080 -21.983253 784.427490
5.120000 4.880000 6.800000 22.303560 -46.118553 2624.369629
5.120000 4.880000 6.840000 42.878670 -40.511879 3479.792480
5.120000 4.880000 6.880000 59.719746 -21.200722 4015.918701
5.120000 4.880000 6.920000 62.443703 7.023251 3948.541992
5.120000 4.880000 6.960000 47.343346 32.054680 3268.894775
5.120000 4.880000 7.000000 21.007298 42.535397 2250.566650
5.120000 4.880000 7.040000 -4.042030 35.473228 1274.687988
5.120000 4.880000 7.080000 -17.732569 17.249870 612.002014
5.120000 4.880000 7.120000 -17.812471 -1.967955 321.156982
5.120000 4.880000 7.160000 -8.731599 -14.936342 299.335144
5.120000 4.880000 7.200000 3.352293 -19.856951 405.536377
5.120000 4.920000 6.800000 48.613041 -25.560719 3016.578125
5.120000 4.920000 6.840000 66.727112 -12.677345 4613.222656
5.120000 4.920000 6.880000 77.560226 15.190443 6246.338379
5.120000 4.920000 6.920000 68.141075 49.649548 7108.283691
5.120000 4.920000 6.960000 36.923302 72.727173 6652.571777
5.120000 4.920000 7.000000 -1.867170 70.734619 5006.872559
5.120000 4.920000 7.040000 -28.033335 46.044415 2905.956055
5.120000 4.920000 7.080000 -30.898199 15.339096 1189.986572
5.120000 4.920000 7.120000 -16.315004 -4.124549 283.191254
5.120000 4.920000 7.160000 0.741696 -7.287965 53.664543
5.120000 4.920000 7.200000 9.911042 -1.788674 101.428116
5.120000 4.960000 6.800000 53.664856 9.622996 2972.518799
5.120000 4.960000 6.840000 65.075157 28.039627 5020.996582
5.120000 4.960000 6.880000 63.118515 59.901115 7572.090820
5.120000 4.960000 6.920000 36.600418 89.654305 9377.485352
5.120000 4.960000 6.960000 -7.120646 96.342896 9332.656250
5.120000 4.960000 7.000000 -44.876404 72.827950 7317.801758
5.120000 4.960000 7.040000 -56.402756 33.736515 4319.423340
5.120000 4.960000 7.080000 -41.287872 3.451971 1716.604492
5.120000 4.960000 7.120000 -17.585976 -4.545378 329.927002
5.120000 4.960000 7.160000 -3.956254 3.183183 25.784603
5.120000 4.960000 7.200000 -3.623009 10.314884 119.523026
5.120000 5.000000 6.800000 32.606750 38.426014 2539.758789
5.120000 5.000000 6.840000 34.678131 57.621109 4522.764648
5.120000 5.000000 6.880000 18.459358 83.468094 7307.670898
5.120000 5.000000 6.920000 -18.695095 95.696655 9507.356445
5.120000 5.000000 6.960000 -59.220276 79.193825 9778.703125
5.120000 5.000000 7.000000 -78.981216 40.122673 7847.861328
5.120000 5.000000 7.040000 -68.796600 2.098508 4737.375977
5.120000 5.000000 7.080000 -42.139771 -14.511927 1986.356201
5.120000 5.000000 7.120000 -21.350487 -9.530034 546.664856
5.120000 5.000000 7.160000 -16.749540 0.482784 280.780182
5.120000 5.000000 7.200000 -19.903494 1.238775 397.683655
5.120000 5.040000 6.800000 -0.762665 43.716881 1911.747314
5.120000 5.040000 6.840000 -6.811796 57.811352 3388.552979
5.120000 5.040000 6.880000 -30.065994 68.770035 5633.281738
5.120000 5.040000 6.920000 -62.360165 59.847576 7470.522461
5.120000 5.040000 6.960000 -83.350975 28.822014 7778.093750
5.120000 5.040000 7.000000 -79.196655 -7.932359 6335.032715
5.120000 5.040000 7.040000 -55.491695 -29.888275 3972.637451
5.120000 5.040000 7.080000 -31.140785 -30.602406 1906.255615
5.120000 5.040000 7.120000 -19.962187 -21.213913 848.518982
5.120000 5.040000 7.160000 -19.351082 -16.616688 650.578674
5.120000 5.040000 7.200000 -16.901302 -19.868099 680.395386
5.120000 5.080000 6.800000 -24.934874 25.966385 1296.001099
5.120000 5.080000 6.840000 -34.168716 31.270844 2145.366943
5.120000 5.080000 6.880000 -52.432583 26.616585 3457.618408
5.120000 5.080000 6.920000 -66.560135 6.398169 4471.187988
5.120000 5.080000 6.960000 -64.401138 -20.629383 4573.078125
5.120000 5.080000 7.000000 -46.712250 -39.515739 3743.527832
5.120000 5.080000 7.040000 -25.663719 -43.136528 2519.386475
5.120000 5.080000 7.080000 -12.278479 -37.241707 1537.705688
5.120000 5.080000 7.120000 -6.772188 -32.084328 1075.266602
5.120000 5.080000 7.160000 -1.641047 -30.901869 957.618530
5.120000 5.080000 7.200000 7.338623 -28.069460 841.750000
5.120000 5.120000 6.800000 -28.271336 1.640367 801.959229
5.120000 5.120000 6.840000 -34.804867 -1.385592 1213.298706
5.120000 5.120000 6.880000 -39.509056 -13.398746 1740.491821
5.120000 5.120000 6.920000 -34.403389 -28.688324 2006.613037
5.120000 5.120000 6.960000 -20.850683 -37.754944 1860.186768
5.120000 5.120000 7.000000 -7.247370 -37.596706 1466.036743
5.120000 5.120000 7.040000 0.884798 -33.655468 1133.473389
5.120000 5.120000 7.080000 6.265075 -31.805258 1050.825562
5.120000 5.120000 7.120000 14.545235 -30.651960 1151.106567
5.120000 5.120000 7.160000 25.275499 -23.756245 1203.209961
5.120000 5.120000 7.200000 30.740850 -9.135255 1028.452759
5.120000 5.160000 6.800000 -16.982143 -12.178234 436.702576
5.120000 5.160000 6.840000 -17.037422 -19.860609 684.717529
5.120000 5.160000 6.880000 -8.432873 -28.207760 866.791077
5.120000 5.160000 6.920000 5.005604 -28.118320 815.696045
5.120000 5.160000 6.960000 13.164873 -19.757015 563.653564
5.120000 5.160000 7.000000 12.371735 -12.692086 314.148865
5.120000 5.160000 7.040000 10.433532 -13.893663 301.892456
5.120000 5.160000 7.080000 17.096241 -18.119261 620.589111
5.120000 5.160000 7.120000 30.824144 -13.225455 1125.040527
5.120000 5.160000 7.160000 38.342945 4.713466 1492.398193
5.120000 5.160000 7.200000 29.076859 24.324009 1437.121094
5.120000 5.200000 6.800000 -6.570685 -12.168244 191.240082
5.120000 5.200000 6.840000 0.576784 -20.171080 407.205139
5.120000 5.200000 6.880000 15.324570 -18.509336 577.437988
5.120000 5.200000 6.920000 23.920380 -4.612667 593.461243
5.120000 5.200000 6.960000 18.155174 9.189047 414.048950
5.120000 5.200000 7.000000 6.469204 9.816907 138.222260
5.120000 5.200000 7.040000 5.015576 -0.069902 25.160892
5.120000 5.200000 7.080000 18.039032 -3.597003 338.345093
5.120000 5.200000 7.120000 30.816984 10.854231 1067.500854
5.120000 5.200000 7.160000 25.102600 34.243374 1802.749146
5.120000 5.200000 7.200000 0.773913 44.536686 1984.115356
5.160000 4.800000 6.800000 -14.758652 -37.412155 1617.487061
5.160000 4.800000 6.840000 5.355791 -34.079895 1190.123657
5.160000 4.800000 6.880000 16.176989 -18.373884 599.294556
5.160000 4.800000 6.920000 12.628499 -2.832323 167.501038
5.160000 4.800000 6.960000 2.408976 2.361887 11.381676
5.160000 4.800000 7.000000 -3.041516 -0.932747 10.120838
5.160000 4.800000 7.040000 -1.134498 -2.604559 8.070813
5.160000 4.800000 7.080000 -0.110714 2.792326 7.809345
5.160000 4.800000 7.120000 -8.013872 8.804783 141.746338
5.160000 4.800000 7.160000 -21.276747 4.338363 471.521362
5.160000 4.800000 7.200000 -26.566126 -12.387823 859.217163
5.160000 4.840000 6.800000 15.599746 -45.395054 2304.062988
5.160000 4.840000 6.840000 33.144402 -29.093727 1944.996338
5.160000 4.840000 6.880000 34.906227 -6.787415 1264.513672
5.160000 4.840000 6.920000 23.354849 8.083525 610.792358
5.160000 4.840000 6.960000 9.749234 10.658823 208.658081
5.160000 4.840000 7.000000 2.417463 6.996582 54.796288
5.160000 4.840000 7.040000 -0.270210 5.128878 26.378399
5.160000 4.840000 7.080000 -5.040360 5.417099 54.750191
5.160000 4.840000 7.120000 -13.252200 1.161550 176.970001
5.160000 4.840000 7.160000 -17.430975 -11.449562 434.931366
5.160000 4.840000 7.200000 -9.326916 -25.944841 760.126099
5.160000 4.880000 6.800000 46.137268 -26.545748 2833.324219
5.160000 4.880000 6.840000 51.745262 -1.742638 2680.609131
5.160000 4.880000 6.880000 40.988556 19.709118 2068.511230
5.160000 4.880000 6.920000 22.227203 28.453724 1303.662964
5.160000 4.880000 6.960000 6.373280 25.299236 680.670044
5.160000 4.880000 7.000000 -2.013430 17.688540 316.938324
5.160000 4.880000 7.040000 -5.799235 11.112492 157.118607
5.160000 4.880000 7.080000 -8.778399 4.868319 100.760803
5.160000 4.880000 7.120000 -9.854434 -3.989176 113.023399
5.160000 4.880000 7.160000 -4.581790 -14.114334 220.207230
5.160000 4.880000 7.200000 8.051237 -18.962259 424.389709
5.160000 4.920000 6.800000 54.303135 11.212141 3074.542725
5.160000 4.920000 6.840000 44.826134 34.119690 3173.535645
5.160000 4.920000 6.880000 24.393867 46.486786 2756.082031
5.160000 4.920000 6.920000 3.089573 44.902740 2025.801514
5.160000 4.920000 6.960000 -10.867399 33.921310 1268.755615
5.160000 4.920000 7.000000 -15.711169 21.022133 688.770935
5.160000 4.920000 7.040000 -14.682796 10.852348 333.357971
5.160000 4.920000 7.080000 -11.301310 3.740414 141.710297
5.160000 4.920000 7.120000 -6.464596 -1.509319 44.069050
5.160000 4.920000 7.160000 0.416363 -4.507304 20.489145
5.160000 4.920000 7.200000 8.542685 -3.299109 83.861588
5.160000 4.960000 6.800000 32.393734 43.752693 2963.652344
5.160000 4.960000 6.840000 13.333791 55.460781 3253.688232
5.160000 4.960000 6.880000 -8.945353 54.683689 3070.325195
5.160000 4.960000 6.920000 -25.894657 42.538006 2480.015137
5.160000 4.960000 6.960000 -32.346794 25.462597 1694.658936
5.160000 4.960000 7.000000 -29.036995 11.016589 964.512329
5.160000 4.960000 7.040000 -21.164776 3.403692 459.532837
5.160000 4.960000 7.080000 -14.277048 1.772126 206.974533
5.160000 4.960000 7.120000 -10.571126 2.231009 116.726105
5.160000 4.960000 7.160000 -8.343242 1.794403 72.829559
5.160000 4.960000 7.200000 -4.776576 0.939022 23.697441
5.160000 5.000000 6.800000 -4.610526 49.994946 2520.751465
5.160000 5.000000 6.840000 -23.342491 48.425873 2889.937012
5.160000 5.000000 6.880000 -39.307159 36.775455 2897.486816
5.160000 5.000000 6.920000 -46.192417 18.582363 2479.043701
5.160000 5.000000 6.960000 -41.838902 1.449455 1752.594604
5.160000 5.000000 7.000000 -30.522163 -7.616066 989.606934
5.160000 5.000000 7.040000 -20.293762 -7.373941 466.211792
5.160000 5.000000 7.080000 -16.709515 -3.267174 289.882324
5.160000 5.000000 7.120000 -18.326445 -2.439832 341.811371
5.160000 5.000000 7.160000 -18.504862 -6.994657 391.355133
5.160000 5.000000 7.200000 -12.347838 -11.915910 294.458008
5.160000 5.040000 6.800000 -31.269268 29.515045 1848.905029
5.160000 5.040000 6.840000 -42.572151 19.887856 2207.914795
5.160000 5.040000 6.880000 -48.144978 3.853295 2332.786865
5.160000 5.040000 6.920000 -43.483120 -13.186286 2064.659912
5.160000 5.040000 6.960000 -30.329334 -23.086155 1452.839111
5.160000 5.040000 7.000000 -16.984138 -22.020704 773.372375
5.160000 5.040000 7.040000 -11.640833 -14.779043 353.929108
5.160000 5.040000 7.080000 -14.677929 -10.899115 334.232300
5.160000 5.040000 7.120000 -18.055130 -15.493676 566.041748
5.160000 5.040000 7.160000 -13.293919 -23.881592 747.058716
5.160000 5.040000 7.200000 -0.439825 -25.960926 674.163086
5.160000 5.080000 6.800000 -33.288094 1.776448 1111.252930
5.160000 5.080000 6.840000 -36.680969 -8.968950 1425.935547
5.160000 5.080000 6.880000 -32.841694 -23.044186 1609.611328
5.160000 5.080000 6.920000 -19.960642 -32.637199 1463.614014
5.160000 5.080000 6.960000 -4.796233 -31.264105 1000.448120
5.160000 5.080000 7.000000 2.726697 -21.555897 472.091553
5.160000 5.080000 7.040000 -0.342016 -13.866694 192.402191
5.160000 5.080000 7.080000 -6.246807 -16.052582 296.707977
5.160000 5.080000 7.120000 -4.154259 -24.958965 640.207825
5.160000 5.080000 7.160000 8.342319 -29.194956 921.939758
5.160000 5.080000 7.200000 22.096550 -20.841511 922.626099
5.160000 5.120000 6.800000 -18.259073 -12.372074 486.461975
5.160000 5.120000 6.840000 -17.346987 -21.202671 750.471191
5.160000 5.120000 6.880000 -7.658262 -29.975601 957.185669
5.160000 5.120000 6.920000 7.360916 -29.466101 922.434204
5.160000 5.120000 6.960000 16.864571 -18.590153 630.007568
5.160000 5.120000 7.000000 14.485970 -7.115786 260.477722
5.160000 5.120000 7.040000 6.203984 -5.618085 70.052299
5.160000 5.120000 7.080000 4.511467 -13.526691 203.324707
5.160000 5.120000 7.120000 14.622810 -19.082003 577.949402
5.160000 5.120000 7.160000 28.146549 -11.988211 935.945435
5.160000 5.120000 7.200000 31.687752 5.032350 1029.438110
5.160000 5.160000 6.800000 -5.704085 -9.022682 113.945381
5.160000 5.160000 6.840000 -2.644737 -17.181103 302.184906
5.160000 5.160000 6.880000 9.693258 -19.929272 491.135132
5.160000 5.160000 6.920000 21.034843 -10.731465 557.628967
5.160000 5.160000 6.960000 20.719322 3.370153 440.648254
5.160000 5.160000 7.000000 10.758587 9.266401 201.613388
5.160000 5.160000 7.040000 4.248552 3.215659 28.390659
5.160000 5.160000 7.080000 10.273552 -4.139589 122.682068
5.160000 5.160000 7.120000 22.709522 0.326227 515.828857
5.160000 5.160000 7.160000 26.506435 16.629112 979.118530
5.160000 5.160000 7.200000 14.839946 30.733141 1164.749878
5.160000 5.200000 6.800000 -6.973198 -1.861122 52.089264
5.160000 5.200000 6.840000 -0.064512 -10.381172 107.772896
5.160000 5.200000 6.880000 12.765262 -7.024897 212.301071
5.160000 5.200000 6.920000 16.977049 6.850834 335.154114
5.160000 5.200000 6.960000 8.044305 17.313669 364.473999
5.160000 5.200000 7.000000 -2.952129 14.685874 224.389954
5.160000 5.200000 7.040000 -2.668915 5.552927 37.958111
5.160000 5.200000 7.080000 7.858670 5.147230 88.252663
5.160000 5.200000 7.120000 13.536026 18.608604 529.504150
5.160000 5.200000 7.160000 3.000692 33.494488 1130.884888
5.160000 5.200000 7.200000 -16.765675 33.397377 1396.472656
5.200000 4.800000 6.800000 0.247952 -42.258484 1785.840942
5.200000 4.800000 6.840000 16.166353 -29.648865 1140.406128
5.200000 4.800000 6.880000 17.917810 -12.722733 482.915863
5.200000 4.800000 6.920000 9.857470 -3.628083 110.332695
5.200000 4.800000 6.960000 3.458252 -4.213685 29.714649
5.200000 4.800000 7.000000 4.477656 -5.852920 54.306076
5.200000 4.800000 7.040000 7.205141 -0.742623 52.465546
5.200000 4.800000 7.080000 2.189372 8.095300 70.327225
5.200000 4.800000 7.120000 -11.185045 9.643670 218.105621
5.200000 4.800000 7.160000 -21.821362 -2.072658 480.467712
5.200000 4.800000 7.200000 -17.822216 -19.247364 688.092407
5.200000 4.840000 6.800000 33.095055 -32.717262 2165.701660
5.200000 4.840000 6.840000 36.504116 -7.908370 1395.092896
5.200000 4.840000 6.880000 22.586231 8.407877 580.830261
5.200000 4.840000 6.920000 6.333441 8.074632 105.312149
5.200000 4.840000 6.960000 0.900339 -0.791968 1.437824
5.200000 4.840000 7.000000 5.084908 -4.470235 45.839294
5.200000 4.840000 7.040000 7.006851 0.891323 49.890419
5.200000 4.840000 7.080000 -0.779991 5.845541 34.778736
5.200000 4.840000 7.120000 -11.812224 -0.313622 139.626999
5.200000 4.840000 7.160000 -12.556911 -15.766935 406.272278
5.200000 4.840000 7.200000 1.917565 -26.293581 695.029480
5.200000 4.880000 6.800000 48.973221 1.356564 2400.216797
5.200000 4.880000 6.840000 32.394730 24.993357 1674.086426
5.200000 4.880000 6.880000 6.770235 27.377514 795.364319
5.200000 4.880000 6.920000 -7.662910 12.141117 206.126907
5.200000 4.880000 6.960000 -4.145063 -3.019375 26.298176
5.200000 4.880000 7.000000 6.355307 -5.023731 65.627792
5.200000 4.880000 7.040000 8.948404 2.531994 86.484932
5.200000 4.880000 7.080000 1.156866 5.815973 35.163883
5.200000 4.880000 7.120000 -5.594515 -2.437904 37.241974
5.200000 4.880000 7.160000 0.032229 -14.424407 208.064560
5.200000 4.880000 7.200000 15.695639 -15.898634 499.119629
5.200000 4.920000 6.800000 33.418037 37.498070 2522.870605
5.200000 4.920000 6.840000 2.906199 44.706032 2007.075317
5.200000 4.920000 6.880000 -20.614273 27.321930 1171.436035
5.200000 4.920000 6.920000 -21.559023 1.872598 468.298096
5.200000 4.920000 6.960000 -5.095129 -10.886908 144.485092
5.200000 4.920000 7.000000 10.062086 -5.034548 126.592247
5.200000 4.920000 7.040000 10.873865 7.483793 174.248093
5.200000 4.920000 7.080000 1.318769 11.298851 129.403183
5.200000 4.920000 7.120000 -4.462325 3.514932 32.267097
5.200000 4.920000 7.160000 1.602635 -5.027463 27.843822
5.200000 4.920000 7.200000 13.391113 -2.790672 187.109772
5.200000 4.960000 6.800000 -3.589786 49.938042 2506.694580
5.200000 4.960000 6.840000 -32.070946 35.561844 2293.190430
5.200000 4.960000 6.880000 -39.753101 5.418703 1609.671387
5.200000 4.960000 6.920000 -23.022223 -17.731918 844.443604
5.200000 4.960000 6.960000 1.921515 -18.605633 349.861816
5.200000 4.960000 7.000000 14.658002 -1.838962 218.238800
5.200000 4.960000 7.040000 8.512163 14.496902 282.617065
5.200000 4.960000 7.080000 -5.831203 16.641455 310.940948
5.200000 4.960000 7.120000 -12.874851 6.517123 208.234695
5.200000 4.960000 7.160000 -7.234512 -2.933302 60.942429
5.200000 4.960000 7.200000 3.241904 -1.773242 13.654330
5.200000 5.000000 6.800000 -35.234856 31.760345 2250.214600
5.200000 5.000000 6.840000 -48.001305 4.571249 2325.021484
5.200000 5.000000 6.880000 -36.371918 -23.702385 1884.719482
5.200000 5.000000 6.920000 -8.601173 -33.272907 1181.066528
5.200000 5.000000 6.960000 14.438794 -19.254829 579.227234
5.200000 5.000000 7.000000 17.041721 4.636189 311.914490
5.200000 5.000000 7.040000 1.229716 18.655140 349.526459
5.200000 5.000000 7.080000 -16.778038 13.865774 473.762268
5.200000 5.000000 7.120000 -21.793751 -1.971335 478.853729
5.200000 5.000000 7.160000 -12.068457 -13.397379 325.137390
5.200000 5.000000 7.200000 1.538780 -11.408636 132.524826
5.200000 5.040000 6.800000 -41.114483 0.504444 1690.655273
5.200000 5.040000 6.840000 -36.602238 -24.740538 1951.817871
5.200000 5.040000 6.880000 -13.857643 -40.071838 1797.786499
5.200000 5.040000 6.920000 12.983932 -33.739174 1306.914429
5.200000 5.040000 6.960000 25.225803 -10.305984 742.554443
5.200000 5.040000 7.000000 15.288334 12.164654 381.711975
5.200000 5.040000 7.040000 -6.768518 17.009953 335.151306
5.200000 5.040000 7.080000 -22.043728 2.726034 493.357208
5.200000 5.040000 7.120000 -18.934647 -16.690470 637.092651
5.200000 5.040000 7.160000 -2.075862 -24.674065 613.118652
5.200000 5.040000 7.200000 13.296902 -16.042984 434.184937
5.200000 5.080000 6.800000 -24.374050 -18.606388 940.291992
5.200000 5.080000 6.840000 -11.849182 -33.294647 1248.936646
5.200000 5.080000 6.880000 10.301462 -35.111530 1338.939697
5.200000 5.080000 6.920000 27.860313 -19.291405 1148.355347
5.200000 5.080000 6.960000 27.446301 4.353229 772.250061
5.200000 5.080000 7.000000 9.363613 18.106319 415.516052
5.200000 5.080000 7.040000 -11.159636 11.698045 261.381714
5.200000 5.080000 7.080000 -16.847723 -8.088276 349.265961
5.200000 5.080000 7.120000 -3.662239 -23.324144 557.427673
5.200000 5.080000 7.160000 16.068983 -21.065044 701.948303
5.200000 5.080000 7.200000 25.558834 -4.338829 672.079468
5.200000 5.120000 6.800000 -6.394774 -15.766556 289.477417
5.200000 5.120000 6.840000 4.442955 -22.331791 518.448730
5.200000 5.120000 6.880000 20.179260 -17.617641 717.583862
5.200000 5.120000 6.920000 27.938271 -0.555911 780.855957
5.200000 5.120000 6.960000 19.262642 16.932430 657.756592
5.200000 5.120000 7.000000 0.421518 20.194271 407.986267
5.200000 5.120000 7.040000 -11.937329 6.703074 187.431030
5.200000 5.120000 7.080000 -6.601836 -10.327153 150.234329
5.200000 5.120000 7.120000 10.992172 -14.356001 326.922607
5.200000 5.120000 7.160000 24.156914 -1.509339 585.834534
5.200000 5.120000 7.200000 21.430235 16.346991 726.479065
5.200000 5.160000 6.800000 -4.665709 -3.636446 34.992573
5.200000 5.160000 6.840000 3.053647 -9.432707 98.300720
5.200000 5.160000 6.880000 14.387456 -4.093916 223.759033
5.200000 5.160000 6.920000 16.425461 10.340926 376.730530
5.200000 5.160000 6.960000 5.086697 20.575191 449.212982
5.200000 5.160000 7.000000 -9.097383 16.463156 353.797882
5.200000 5.160000 7.040000 -11.787027 2.846547 147.036850
5.200000 5.160000 7.080000 -0.586378 -5.009182 25.435743
5.200000 5.160000 7.120000 12.028836 2.146167 149.298935
5.200000 5.160000 7.160000 12.216929 17.597246 458.916443
5.200000 5.160000 7.200000 -0.376034 26.375383 695.802246
5.200000 5.200000 6.800000 -16.168621 -2.085353 265.773010
5.200000 5.200000 6.840000 -6.020896 -9.584146 128.107056
5.200000 5.200000 6.880000 4.779620 -3.436020 34.651001
5.200000 5.200000 6.920000 3.959043 8.928268 95.387993
5.200000 5.200000 6.960000 -6.891883 13.619799 232.996964
5.200000 5.200000 7.000000 -14.755295 6.577859 260.986938
5.200000 5.200000 7.040000 -10.925560 -1.989218 123.324844
5.200000 5.200000 7.080000 -1.404697 -0.163031 1.999754
5.200000 5.200000 7.120000 0.417562 11.163104 124.789246
5.200000 5.200000 7.160000 -9.959681 19.202164 467.918335
5.200000 5.200000 7.200000 -22.464149 14.677952 720.080261
