#kx 	ky 	kz 	real 	imag 	intensity
5.800000 3.800000 5.800000 -18.859043 -7.316104 409.188904
5.800000 3.800000 5.840000 -15.955875 -7.730424 314.349426
5.800000 3.800000 5.880000 -15.612612 -10.070203 345.162628
5.800000 3.800000 5.920000 -12.703120 -15.781200 410.415527
5.800000 3.800000 5.960000 -3.655827 -20.091709 417.041870
5.800000 3.800000 6.000000 8.499068 -16.886204 357.378052
5.800000 3.800000 6.040000 16.270424 -5.533416 295.345367
5.800000 3.800000 6.080000 14.851398 7.907694 283.095673
5.800000 3.800000 6.120000 6.394304 16.428448 310.781006
5.800000 3.800000 6.160000 -3.079927 18.232906 341.924835
5.800000 3.800000 6.200000 -10.196903 16.543303 377.657684
5.800000 3.840000 5.800000 -10.392847 -21.284393 561.036682
5.800000 3.840000 5.840000 -8.353887 -17.753868 384.987244
5.800000 3.840000 5.880000 -8.030119 -18.996975 425.367889
5.800000 3.840000 5.920000 -3.085939 -21.992428 493.189880
5.800000 3.840000 5.960000 5.475650 -19.871319 424.852051
5.800000 3.840000 6.000000 10.495159 -11.141783 234.287689
5.800000 3.840000 6.040000 7.554798 -2.130369 61.613445
5.800000 3.840000 6.080000 0.691755 0.391266 0.631615
5.800000 3.840000 6.120000 -2.305611 -2.542612 11.780717
5.800000 3.840000 6.160000 0.358875 -3.244616 10.656322
5.800000 3.840000 6.200000 1.591926 2.742790 10.057126
5.800000 3.880000 5.800000 6.371815 -27.152075 777.835205
5.800000 3.880000 5.840000 5.836976 -21.487614 495.787811
5.800000 3.880000 5.880000 5.959269 -21.287048 488.651306
5.800000 3.880000 5.920000 9.945488 -20.293497 510.738739
5.800000 3.880000 5.960000 12.710923 -14.781816 380.069672
5.800000 3.880000 6.000000 9.474731 -9.435521 178.799591
5.800000 3.880000 6.040000 4.114072 -11.027452 138.530289
5.800000 3.880000 6.080000 5.790583 -17.853718 352.286102
5.800000 3.880000 6.120000 16.829098 -19.021618 645.040527
5.800000 3.880000 6.160000 26.718431 -6.484394 755.921936
5.800000 3.880000 6.200000 21.371611 13.247335 632.237610
5.800000 3.920000 5.800000 24.230656 -20.199837 995.158081
5.800000 3.920000 5.840000 20.550758 -13.985976 617.941223
5.800000 3.920000 5.880000 18.954163 -12.397040 512.946899
5.800000 3.920000 5.920000 18.827274 -9.903327 452.542114
5.800000 3.920000 5.960000 15.870742 -7.610290 309.796967
5.800000 3.920000 6.000000 12.041227 -11.050138 267.096710
5.800000 3.920000 6.040000 15.948252 -19.423729 631.627991
5.800000 3.920000 6.080000 31.342237 -21.421131 1441.200684
5.800000 3.920000 6.120000 47.621288 -5.892099 2302.503906
5.800000 3.920000 6.160000 46.395378 22.978220 2680.529541
5.800000 3.920000 6.200000 20.244961 44.374474 2378.952393
5.800000 3.960000 5.800000 33.616665 -2.108996 1134.528076
5.800000 3.960000 5.840000 26.303051 3.007694 700.896667
5.800000 3.960000 5.880000 21.572994 3.729638 479.304260
5.800000 3.960000 5.920000 18.004068 2.992670 333.102570
5.800000 3.960000 5.960000 15.591735 -1.356525 244.942368
5.800000 3.960000 6.000000 20.101791 -9.130148 487.441650
5.800000 3.960000 6.040000 35.572441 -11.223972 1391.376099
5.800000 3.960000 6.080000 53.714066 4.055573 2901.648682
5.800000 3.960000 6.120000 55.835182 35.888996 4405.587891
5.800000 3.960000 6.160000 29.921894 64.858192 5101.904785
5.800000 3.960000 6.200000 -13.662875 66.648346 4628.676270
5.800000 4.000000 5.800000 28.419163 18.489311 1149.503418
5.800000 4.000000 5.840000 17.699865 19.852991 707.426514
5.800000 4.000000 5.880000 11.247987 16.170681 388.008148
5.800000 4.000000 5.920000 9.352253 9.996271 187.390076
5.800000 4.000000 5.960000 14.143597 3.057436 209.389236
5.800000 4.000000 6.000000 27.576826 1.740901 763.512085
5.800000 4.000000 6.040000 43.527161 15.258554 2127.437256
5.800000 4.000000 6.080000 46.415390 44.537704 4137.995605
5.800000 4.000000 6.120000 23.291542 74.229767 6052.554199
5.800000 4.000000 6.160000 -20.456291 80.737373 6936.983398
5.800000 4.000000 6.200000 -59.665482 52.637283 6330.653320
5.800000 4.040000 5.800000 10.634073 30.723560 1057.020630
5.800000 4.040000 5.840000 -0.903486 25.473242 649.702332
5.800000 4.040000 5.880000 -4.352174 16.052515 276.624634
5.800000 4.040000 5.920000 0.747482 7.943866 63.663738
5.800000 4.040000 5.960000 12.800226 6.958623 212.268219
5.800000 4.040000 6.000000 25.494564 18.790754 1003.065186
5.800000 4.040000 6.040000 26.905186 43.177902 2588.220215
5.800000 4.040000 6.080000 6.763206 68.218613 4699.520020
5.800000 4.040000 6.120000 -31.915785 74.619278 6586.653809
5.800000 4.040000 6.160000 -69.384445 50.662365 7380.876465
5.800000 4.040000 6.200000 -81.486534 5.137661 6666.450684
5.800000 4.080000 5.800000 -10.494555 28.537994 924.552795
5.800000 4.080000 5.840000 -17.924120 16.198177 583.655029
5.800000 4.080000 5.880000 -13.596010 4.392918 204.149216
5.800000 4.080000 5.920000 -1.247837 1.433182 3.611107
5.800000 4.080000 5.960000 10.418730 11.595071 242.995590
5.800000 4.080000 6.000000 10.647905 31.967041 1135.269653
5.800000 4.080000 6.040000 -7.357494 51.212303 2676.832764
5.800000 4.080000 6.080000 -39.560425 54.221764 4505.026855
5.800000 4.080000 6.120000 -69.969398 32.575600 5956.886719
5.800000 4.080000 6.160000 -79.623718 -6.685257 6384.629395
5.800000 4.080000 6.200000 -60.774475 -43.202492 5559.992188
5.800000 4.120000 5.800000 -24.768818 14.393994 820.681396
5.800000 4.120000 5.840000 -23.606379 -1.480735 559.453674
5.800000 4.120000 5.880000 -10.894207 -9.253790 204.316376
5.800000 4.120000 5.920000 2.867039 -2.286330 13.447214
5.800000 4.120000 5.960000 5.033999 15.716402 272.346436
5.800000 4.120000 6.000000 -10.430605 31.924904 1127.996948
5.800000 4.120000 6.040000 -37.497829 32.246468 2445.921875
5.800000 4.120000 6.080000 -60.564869 11.417300 3798.458008
5.800000 4.120000 6.120000 -64.464088 -21.978268 4638.663086
5.800000 4.120000 6.160000 -45.362209 -50.303982 4588.220703
5.800000 4.120000 6.200000 -14.021754 -58.904999 3666.408447
5.800000 4.160000 5.800000 -27.606045 -3.542939 774.646118
5.800000 4.160000 5.840000 -17.074497 -16.994165 580.340088
5.800000 4.160000 5.880000 -0.469470 -15.895752 252.895325
5.800000 4.160000 5.920000 7.278754 -0.562940 53.297165
5.800000 4.160000 5.960000 -2.969196 15.996457 264.702759
5.800000 4.160000 6.000000 -25.953041 17.795540 990.241577
5.800000 4.160000 6.040000 -45.000969 -0.914367 2025.923218
5.800000 4.160000 6.080000 -44.889713 -30.169773 2925.301514
5.800000 4.160000 6.120000 -24.028931 -51.669647 3247.142090
5.800000 4.160000 6.160000 4.411152 -52.983387 2826.697510
5.800000 4.160000 6.200000 23.235306 -36.669285 1884.515869
5.800000 4.200000 5.800000 -21.436615 -17.956261 781.955811
5.800000 4.200000 5.840000 -4.920254 -24.384865 618.830566
5.800000 4.200000 5.880000 9.387441 -14.450216 296.932800
5.800000 4.200000 5.920000 7.807875 2.952572 69.680595
5.800000 4.200000 5.960000 -9.643067 10.445436 202.095886
5.800000 4.200000 6.000000 -27.651510 -2.037657 768.758057
5.800000 4.200000 6.040000 -28.594769 -27.075197 1550.727051
5.800000 4.200000 6.080000 -8.569839 -45.398689 2134.483154
5.800000 4.200000 6.120000 18.651993 -42.708050 2171.874512
5.800000 4.200000 6.160000 33.655548 -22.117226 1621.867554
5.800000 4.200000 6.200000 28.187653 -0.874945 795.309265
5.840000 3.800000 5.800000 -18.754015 -4.271996 369.963013
5.840000 3.800000 5.840000 -18.392538 -7.775403 398.742371
5.840000 3.800000 5.880000 -16.319378 -14.009290 462.582275
5.840000 3.800000 5.920000 -8.863337 -20.251841 488.695801
5.840000 3.800000 5.960000 3.290371 -20.969246 450.535797
5.840000 3.800000 6.000000 14.466814 -13.215625 383.941467
5.840000 3.800000 6.040000 18.522276 0.108440 343.086456
5.840000 3.800000 6.080000 13.873175 12.540992 349.741455
5.840000 3.800000 6.120000 3.992285 19.288080 387.968353
5.840000 3.800000 6.160000 -6.542692 19.878616 437.966217
5.840000 3.800000 6.200000 -15.540033 16.044079 498.905090
5.840000 3.840000 5.800000 -6.705334 -17.174484 339.924408
5.840000 3.840000 5.840000 -2.466207 -16.005354 262.253540
5.840000 3.840000 5.880000 1.967402 -14.296395 208.257584
5.840000 3.840000 5.920000 5.998350 -10.197157 139.962219
5.840000 3.840000 5.960000 6.840984 -4.144248 63.973862
5.840000 3.840000 6.000000 3.590968 0.264723 12.965127
5.840000 3.840000 6.040000 -0.391375 0.227421 0.204894
5.840000 3.840000 6.080000 -0.689165 -2.180048 5.227556
5.840000 3.840000 6.120000 2.505245 -1.521053 8.589857
5.840000 3.840000 6.160000 3.331901 4.445227 30.861603
5.840000 3.840000 6.200000 -3.587213 10.474308 122.579224
5.840000 3.880000 5.800000 12.821286 -17.182659 459.629150
5.840000 3.880000 5.840000 16.505802 -7.788294 333.099030
5.840000 3.880000 5.880000 14.632046 2.942077 222.752563
5.840000 3.880000 5.920000 5.340410 10.744929 143.973480
5.840000 3.880000 5.960000 -8.045078 9.042862 146.496643
5.840000 3.880000 6.000000 -15.785110 -3.899916 264.379059
5.840000 3.880000 6.040000 -9.123634 -19.564121 465.995544
5.840000 3.880000 6.080000 9.602342 -23.835222 660.322754
5.840000 3.880000 6.120000 25.736628 -9.885153 760.090271
5.840000 3.880000 6.160000 24.005527 13.134226 748.773254
5.840000 3.880000 6.200000 3.389393 26.064960 690.870117
5.840000 3.920000 5.800000 27.016539 -1.447226 731.987854
5.840000 3.920000 5.840000 22.570572 14.568829 721.681519
5.840000 3.920000 5.880000 7.155405 26.089197 731.846008
5.840000 3.920000 5.920000 -15.035385 23.432671 775.152832
5.840000 3.920000 5.960000 -30.025867 2.506996 907.837769
5.840000 3.920000 6.000000 -22.885906 -25.957376 1197.550049
5.840000 3.920000 6.040000 6.894045 -40.102093 1655.705688
5.840000 3.920000 6.080000 39.661957 -24.666050 2181.484863
5.840000 3.920000 6.120000 49.129791 12.804092 2577.681152
5.840000 3.920000 6.160000 25.375555 44.860596 2656.391846
5.840000 3.920000 6.200000 -14.444431 46.495842 2370.504883
5.840000 3.960000 5.800000 24.620537 21.015631 1047.827637
5.840000 3.960000 5.840000 7.676361 35.094536 1290.552979
5.840000 3.960000 5.880000 -18.351994 34.839447 1550.582764
5.840000 3.960000 5.920000 -39.816601 13.122555 1757.563110
5.840000 3.960000 5.960000 -37.963638 -22.147572 1931.752686
5.840000 3.960000 6.000000 -6.198627 -46.806492 2229.270752
5.840000 3.960000 6.040000 37.735760 -37.552452 2834.174316
5.840000 3.960000 6.080000 60.946274 5.454139 3744.195801
5.840000 3.960000 6.120000 42.202679 53.506744 4644.037598
5.840000 3.960000 6.160000 -7.508575 70.650513 5047.874023
5.840000 3.960000 6.200000 -51.904976 44.148003 4643.172852
5.840000 4.000000 5.800000 5.656835 34.986198 1256.033813
5.840000 4.000000 5.840000 -19.248800 36.958794 1736.468750
5.840000 4.000000 5.880000 -42.703606 19.212578 2192.720947
5.840000 4.000000 5.920000 -47.198746 -14.828678 2447.611328
5.840000 4.000000 5.960000 -21.618231 -45.004223 2492.728027
5.840000 4.000000 6.000000 23.297318 -45.488285 2611.949219
5.840000 4.000000 6.040000 56.224621 -7.762786 3221.468750
5.840000 4.000000 6.080000 48.358849 46.150452 4468.442383
5.840000 4.000000 6.120000 -0.124346 77.077850 5941.010742
5.840000 4.000000 6.160000 -56.326229 60.504391 6833.425293
5.840000 4.000000 6.200000 -80.272942 8.306554 6512.744141
5.840000 4.040000 5.800000 -17.775312 30.896233 1270.538940
5.840000 4.040000 5.840000 -38.906075 17.596962 1823.335693
5.840000 4.040000 5.880000 -46.497833 -10.150052 2265.072266
5.840000 4.040000 5.920000 -29.765160 -38.649368 2379.738281
5.840000 4.040000 5.960000 7.180243 -46.221420 2187.975586
5.840000 4.040000 6.000000 41.003426 -20.161230 2087.756104
5.840000 4.040000 6.040000 43.440422 27.502707 2643.469238
5.840000 4.040000 6.080000 5.702329 63.646088 4083.341064
5.840000 4.040000 6.120000 -49.651058 58.913620 5936.041992
5.840000 4.040000 6.160000 -83.860802 13.392587 7211.995605
5.840000 4.040000 6.200000 -73.200203 -41.534630 7083.395020
5.840000 4.080000 5.800000 -31.125355 12.241722 1118.647461
5.840000 4.080000 5.840000 -38.292427 -9.023573 1547.734863
5.840000 4.080000 5.880000 -27.863239 -31.551222 1771.839722
5.840000 4.080000 5.920000 -1.736828 -40.514694 1644.457031
5.840000 4.080000 5.960000 25.202965 -25.291252 1274.836914
5.840000 4.080000 6.000000 31.884930 8.948783 1096.729492
5.840000 4.080000 6.040000 7.502415 39.726402 1634.473267
5.840000 4.080000 6.080000 -35.968224 41.933220 3052.107910
5.840000 4.080000 6.120000 -69.188499 8.877106 4865.851562
5.840000 4.080000 6.160000 -67.634758 -39.585278 6141.454590
5.840000 4.080000 6.200000 -31.920300 -71.388931 6115.285156
5.840000 4.120000 5.800000 -28.738281 -8.379897 896.111450
5.840000 4.120000 5.840000 -21.196909 -25.465374 1097.794189
5.840000 4.120000 5.880000 -3.027196 -32.305260 1052.793701
5.840000 4.120000 5.920000 15.135458 -22.925653 754.667664
5.840000 4.120000 5.960000 20.033127 -1.332521 403.101776
5.840000 4.120000 6.000000 4.915923 18.302250 359.138641
5.840000 4.120000 6.040000 -23.226246 19.829300 932.659668
5.840000 4.120000 6.080000 -45.871231 -2.386995 2109.867676
5.840000 4.120000 6.120000 -45.630707 -36.940079 3446.730957
5.840000 4.120000 6.160000 -20.162182 -62.234024 4279.587402
5.840000 4.120000 6.200000 15.040415 -62.628498 4148.542969
5.840000 4.160000 5.800000 -16.487125 -20.468946 690.803101
5.840000 4.160000 5.840000 -2.407572 -25.997761 681.679932
5.840000 4.160000 5.880000 10.487955 -18.902750 467.311157
5.840000 4.160000 5.920000 12.478804 -4.475201 175.747955
5.840000 4.160000 5.960000 1.247847 5.978907 37.304447
5.840000 4.160000 6.000000 -15.749592 2.945631 256.726379
5.840000 4.160000 6.040000 -25.870209 -14.095612 867.953979
5.840000 4.160000 6.080000 -20.175673 -35.553036 1671.076050
5.840000 4.160000 6.120000 -0.133458 -48.087982 2312.471924
5.840000 4.160000 6.160000 23.150957 -44.139935 2484.300781
5.840000 4.160000 6.200000 37.043587 -27.215027 2112.885010
5.840000 4.200000 5.800000 -4.098980 -23.188700 554.517456
5.840000 4.200000 5.840000 7.568147 -18.889645 414.095520
5.840000 4.200000 5.880000 10.184741 -7.525383 160.360336
5.840000 4.200000 5.920000 1.448360 -0.030137 2.098655
5.840000 4.200000 5.960000 -10.540895 -4.846700 134.600983
5.840000 4.200000 6.000000 -13.736798 -20.052433 590.799683
5.840000 4.200000 6.040000 -2.532624 -34.363014 1187.230957
5.840000 4.200000 6.080000 17.157150 -36.426712 1621.273193
5.840000 4.200000 6.120000 32.739639 -24.243336 1659.623291
5.840000 4.200000 6.160000 35.357048 -6.485313 1292.180176
5.840000 4.200000 6.200000 26.674297 5.177507 738.324707
5.880000 3.800000 5.800000 -22.198748 -5.260742 520.459778
5.880000 3.800000 5.840000 -20.260929 -12.840818 575.391846
5.880000 3.800000 5.880000 -13.229124 -20.336933 588.600586
5.880000 3.800000 5.920000 -1.273838 -23.289593 544.027832
5.880000 3.800000 5.960000 11.412796 -18.428047 469.844849
5.880000 3.800000 6.000000 19.116621 -6.781445 411.433167
5.880000 3.800000 6.040000 18.678982 6.715317 393.999847
5.880000 3.800000 6.080000 11.324589 16.789938 410.148315
5.880000 3.800000 6.120000 0.826357 20.913914 438.074646
5.880000 3.800000 6.160000 -9.467083 19.297586 462.022522
5.880000 3.800000 6.200000 -17.488115 12.847438 470.890808
5.880000 3.840000 5.800000 -5.318945 -14.788831 247.000702
5.880000 3.840000 5.840000 2.250473 -10.749378 120.613762
5.880000 3.840000 5.880000 5.071007 -2.411682 31.531319
5.880000 3.840000 5.920000 0.848671 4.876528 24.500765
5.880000 3.840000 5.960000 -6.928003 5.485451 78.087402
5.880000 3.840000 6.000000 -10.976213 -0.844597 121.190605
5.880000 3.840000 6.040000 -6.785988 -7.640512 104.427063
5.880000 3.840000 6.080000 2.288738 -7.091920 55.533657
5.880000 3.840000 6.120000 7.161384 2.129230 55.819038
5.880000 3.840000 6.160000 1.434462 12.383312 155.404099
5.880000 3.840000 6.200000 -11.574196 13.369032 312.693024
5.880000 3.880000 5.800000 13.529854 -6.004286 219.108398
5.880000 3.880000 5.840000 13.709244 13.051115 358.274963
5.880000 3.880000 5.880000 -3.336712 28.710003 835.397949
5.880000 3.880000 5.920000 -30.050457 25.627686 1559.808228
5.880000 3.880000 5.960000 -46.789940 0.575195 2189.629395
5.880000 3.880000 6.000000 -37.751720 -30.750765 2370.802002
5.880000 3.880000 6.040000 -6.651764 -44.515751 2025.898071
5.880000 3.880000 6.080000 23.864483 -29.229467 1423.875244
5.880000 3.880000 6.120000 30.703453 3.027775 951.869446
5.880000 3.880000 6.160000 10.467087 26.315422 802.061401
5.880000 3.880000 6.200000 -17.689934 23.349255 858.121460
5.880000 3.920000 5.800000 17.378935 16.015060 558.509521
5.880000 3.920000 5.840000 -2.242863 39.589336 1572.345947
5.880000 3.920000 5.880000 -41.021072 41.501049 3405.065430
5.880000 3.920000 5.920000 -73.830933 8.775127 5528.009766
5.880000 3.920000 5.960000 -71.241867 -43.723854 6987.179199
5.880000 3.920000 6.000000 -27.147945 -79.586761 7071.063477
5.880000 3.920000 6.040000 30.770176 -70.140236 5866.456543
5.880000 3.920000 6.080000 61.227299 -20.855528 4183.735352
5.880000 3.920000 6.120000 43.975700 31.190933 2906.736572
5.880000 3.920000 6.160000 -2.975725 48.388367 2350.289062
5.880000 3.920000 6.200000 -40.032185 24.032345 2180.129395
5.880000 3.960000 5.800000 0.495262 33.200584 1102.524048
5.880000 3.960000 5.840000 -37.627716 42.755882 3243.910400
5.880000 3.960000 5.880000 -79.890671 15.498693 6622.728516
5.880000 3.960000 5.920000 -90.503006 -43.970940 10124.237305
5.880000 3.960000 5.960000 -49.120792 -98.728172 12160.104492
5.880000 3.960000 6.000000 24.637339 -105.813873 11803.574219
5.880000 3.960000 6.040000 80.945602 -54.416580 9513.354492
5.880000 3.960000 6.080000 79.657913 20.538296 6767.205078
5.880000 3.960000 6.120000 25.019585 65.396088 4902.627930
5.880000 3.960000 6.160000 -37.930710 52.469406 4191.777344
5.880000 3.960000 6.200000 -62.639568 1.412479 3925.710693
5.880000 4.000000 5.800000 -24.973808 29.981291 1522.568848
5.880000 4.000000 5.840000 -64.638397 14.576765 4390.604492
5.880000 4.000000 5.880000 -85.388657 -35.789261 8572.093750
5.880000 4.000000 5.920000 -58.583824 -95.520790 12556.286133
5.880000 4.000000 5.960000 11.719722 -119.813499 14492.625977
5.880000 4.000000 6.000000 82.556816 -82.055023 13548.654297
5.880000 4.000000 6.040000 102.921051 -1.995153 10596.723633
5.880000 4.000000 6.080000 57.209625 65.322502 7539.970703
5.880000 4.000000 6.120000 -19.363819 73.862488 5830.624512
5.880000 4.000000 6.160000 -69.821320 24.649500 5482.614258
5.880000 4.000000 6.200000 -63.091061 -37.625298 5396.145020
5.880000 4.040000 5.800000 -39.084373 7.568629 1584.872437
5.880000 4.040000 5.840000 -60.690937 -25.665356 4342.100586
5.880000 4.040000 5.880000 -49.611229 -74.855675 8064.645996
5.880000 4.040000 5.920000 2.032387 -106.249733 11293.136719
5.880000 4.040000 5.960000 68.274666 -88.391693 12474.521484
5.880000 4.040000 6.000000 103.085739 -22.966805 11154.144531
5.880000 4.040000 6.040000 77.469460 49.153046 8417.539062
5.880000 4.040000 6.080000 7.116295 77.642349 6078.976074
5.880000 4.040000 6.120000 -57.438675 44.344448 5265.631348
5.880000 4.040000 6.160000 -71.949867 -21.455021 5637.101074
5.880000 4.040000 6.200000 -33.994831 -68.900330 5902.903809
5.880000 4.080000 5.800000 -31.773933 -17.257452 1307.402466
5.880000 4.080000 5.840000 -29.294205 -48.719246 3231.715332
5.880000 4.080000 5.880000 0.609793 -74.527039 5554.651367
5.880000 4.080000 5.920000 47.436211 -70.902519 7277.361328
5.880000 4.080000 5.960000 81.391205 -29.986942 7523.745117
5.880000 4.080000 6.000000 74.401443 27.143267 6272.331543
5.880000 4.080000 6.040000 25.648125 61.934944 4493.763672
5.880000 4.080000 6.080000 -33.065067 48.542595 3449.682129
5.880000 4.080000 6.120000 -60.690838 -3.330675 3694.471191
5.880000 4.080000 6.160000 -40.136127 -55.203896 4658.378906
5.880000 4.080000 6.200000 8.687954 -71.493568 5186.811035
5.880000 4.120000 5.800000 -10.890446 -27.756062 889.000732
5.880000 4.120000 5.840000 4.322944 -42.071274 1788.679932
5.880000 4.120000 5.880000 29.368601 -42.138298 2638.150879
5.880000 4.120000 5.920000 50.342999 -22.065449 3021.301514
5.880000 4.120000 5.960000 51.013191 10.417168 2710.863037
5.880000 4.120000 6.000000 26.033211 35.265701 1921.397705
5.880000 4.120000 6.040000 -11.154472 33.583458 1252.270874
5.880000 4.120000 6.080000 -35.500473 3.765648 1274.463623
5.880000 4.120000 6.120000 -29.264830 -34.717449 2061.731445
5.880000 4.120000 6.160000 3.179649 -55.427162 3082.280518
5.880000 4.120000 6.200000 38.627144 -45.793156 3589.069336
5.880000 4.160000 5.800000 6.896585 -21.696009 518.279663
5.880000 4.160000 5.840000 18.044628 -19.267639 696.850525
5.880000 4.160000 5.880000 24.795141 -9.455647 704.208252
5.880000 4.160000 5.920000 22.907021 2.746359 532.274048
5.880000 4.160000 5.960000 12.532116 10.430548 265.850250
5.880000 4.160000 6.000000 -1.090195 8.120398 67.129379
5.880000 4.160000 6.040000 -9.512415 -4.503828 110.770508
5.880000 4.160000 6.080000 -5.933221 -20.983747 475.520752
5.880000 4.160000 6.120000 9.555019 -31.110592 1059.167358
5.880000 4.160000 6.160000 28.848396 -27.737410 1601.593872
5.880000 4.160000 6.200000 41.014870 -12.305805 1833.652344
5.880000 4.200000 5.800000 12.493370 -10.686065 270.276276
5.880000 4.200000 5.840000 12.460421 -3.432976 167.047409
5.880000 4.200000 5.880000 6.203071 -0.008871 38.478165
5.880000 4.200000 5.920000 -0.164278 -4.131256 17.094265
5.880000 4.200000 5.960000 -0.236526 -12.792559 163.705490
5.880000 4.200000 6.000000 7.157631 -19.222965 420.754089
5.880000 4.200000 6.040000 17.531225 -18.759005 659.244141
5.880000 4.200000 6.080000 25.046078 -12.093956 773.569824
5.880000 4.200000 6.120000 27.129726 -3.604184 749.012207
5.880000 4.200000 6.160000 25.397331 2.890457 653.379150
5.880000 4.200000 6.200000 22.991749 6.760271 574.321777
5.920000 3.800000 5.800000 -23.085236 -10.164074 636.236511
5.920000 3.800000 5.840000 -17.146605 -18.729483 644.799561
5.920000 3.800000 5.880000 -6.030159 -23.602827 593.456238
5.920000 3.800000 5.920000 7.195347 -21.463116 512.438354
5.920000 3.800000 5.960000 17.459642 -11.977657 448.303406
5.920000 3.800000 6.000000 20.689165 1.418030 430.052368
5.920000 3.800000 6.040000 16.343374 13.563923 451.085907
5.920000 3.800000 6.080000 7.229015 20.726547 481.848419
5.920000 3.800000 6.120000 -2.920689 22.043320 494.438354
5.920000 3.800000 6.160000 -11.429544 18.507618 473.166412
5.920000 3.800000 6.200000 -16.583643 11.415223 405.324524
5.920000 3.840000 5.800000 -4.128723 -12.121484 163.976730
5.920000 3.840000 5.840000 1.167187 -2.307894 6.688698
5.920000 3.840000 5.880000 -4.495892 7.871777 82.177910
5.920000 3.840000 5.920000 -16.765026 8.239777 348.960022
5.920000 3.840000 5.960000 -23.942566 -3.011276 582.314270
5.920000 3.840000 6.000000 -17.778595 -16.434071 586.157104
5.920000 3.840000 6.040000 -1.902653 -19.400366 379.994293
5.920000 3.840000 6.080000 10.668274 -7.888489 176.040314
5.920000 3.840000 6.120000 9.149712 9.245003 169.187302
5.920000 3.840000 6.160000 -5.023444 17.939642 347.065735
5.920000 3.840000 6.200000 -19.312414 11.613703 507.847412
5.920000 3.880000 5.800000 6.799290 4.092680 62.980370
5.920000 3.880000 5.840000 -7.455936 26.670458 766.904297
5.920000 3.880000 5.880000 -41.268444 29.496807 2573.145996
5.920000 3.880000 5.920000 -69.439301 0.304359 4821.909180
5.920000 3.880000 5.960000 -65.047531 -45.273956 6280.912109
5.920000 3.880000 6.000000 -25.353516 -73.794914 6088.490234
5.920000 3.880000 6.040000 22.769966 -62.710220 4451.042969
5.920000 3.880000 6.080000 44.870609 -20.960405 2452.710205
5.920000 3.880000 6.120000 28.535500 18.633879 1161.496094
5.920000 3.880000 6.160000 -7.144035 28.294601 851.621704
5.920000 3.880000 6.200000 -30.525057 8.301519 1000.694336
5.920000 3.920000 5.800000 -3.290762 22.832771 532.164551
5.920000 3.920000 5.840000 -44.008099 36.241928 3250.189941
5.920000 3.920000 5.880000 -91.330032 6.295525 8380.808594
5.920000 3.920000 5.920000 -101.963730 -60.526772 14060.092773
5.920000 3.920000 5.960000 -54.337063 -120.170036 17393.353516
5.920000 3.920000 6.000000 26.280006 -125.955673 16555.470703
5.920000 3.920000 6.040000 84.887146 -70.632782 12194.817383
5.920000 3.920000 6.080000 82.879425 5.144741 6895.467285
5.920000 3.920000 6.120000 30.473549 47.476574 3182.662354
5.920000 3.920000 6.160000 -24.915472 34.826439 1833.661621
5.920000 3.920000 6.200000 -42.174122 -7.811659 1839.678467
5.920000 3.960000 5.800000 -27.361813 23.734386 1311.989868
5.920000 3.960000 5.840000 -79.054382 7.561602 6306.772949
5.920000 3.960000 5.880000 -107.232742 -57.966499 14858.976562
5.920000 3.960000 5.920000 -71.555649 -136.726959 23814.472656
5.920000 3.960000 5.960000 20.763596 -168.161285 28709.345703
5.920000 3.960000 6.000000 111.887177 -120.082458 26938.537109
5.920000 3.960000 6.040000 138.823212 -21.350933 19727.748047
5.920000 3.960000 6.080000 87.350586 59.462624 11165.928711
5.920000 3.960000 6.120000 3.473492 71.679749 5150.051270
5.920000 3.960000 6.160000 -48.458420 22.950109 2874.926025
5.920000 3.960000 6.200000 -40.692924 -34.006149 2812.332275
5.920000 4.000000 5.800000 -43.416321 1.890955 1888.552612
5.920000 4.000000 5.840000 -78.829681 -43.342850 8092.721191
5.920000 4.000000 5.880000 -64.991943 -118.029091 18154.818359
5.920000 4.000000 5.920000 12.823034 -167.689026 28284.039062
5.920000 4.000000 5.960000 114.119629 -142.963882 33461.960938
5.920000 4.000000 6.000000 169.434052 -47.620895 30975.648438
5.920000 4.000000 6.040000 138.427567 57.438324 22461.351562
5.920000 4.000000 6.080000 46.220764 102.571846 12657.342773
5.920000 4.000000 6.120000 -37.657974 67.147720 5926.939453
5.920000 4.000000 6.160000 -58.798325 -6.797763 3503.452393
5.920000 4.000000 6.200000 -20.261732 -56.110878 3558.968506
5.920000 4.040000 5.800000 -35.148819 -26.213245 1922.573730
5.920000 4.040000 5.840000 -38.286072 -77.939255 7540.350586
5.920000 4.040000 5.880000 9.764393 -127.138947 16259.655273
5.920000 4.040000 5.920000 93.668953 -126.232376 24708.484375
5.920000 4.040000 5.960000 159.361267 -57.439308 28695.287109
5.920000 4.040000 6.000000 155.785645 43.412750 26153.833984
5.920000 4.040000 6.040000 80.662003 110.485313 18713.363281
5.920000 4.040000 6.080000 -13.843807 101.505600 10495.038086
5.920000 4.040000 6.120000 -63.630207 32.689095 5117.379883
5.920000 4.040000 6.160000 -45.042515 -37.565380 3439.985840
5.920000 4.040000 6.200000 10.670763 -60.199017 3737.786865
5.920000 4.080000 5.800000 -7.751698 -37.848358 1492.587036
5.920000 4.080000 5.840000 12.907576 -70.687866 5163.379883
5.920000 4.080000 5.880000 63.745449 -80.643280 10566.820312
5.920000 4.080000 5.920000 116.351059 -44.793808 15544.054688
5.920000 4.080000 5.960000 129.986725 26.611332 17604.710938
5.920000 4.080000 6.000000 86.213875 90.846649 15685.945312
5.920000 4.080000 6.040000 9.094673 104.461655 10994.950195
5.920000 4.080000 6.080000 -50.789154 59.724243 6146.523438
5.920000 4.080000 6.120000 -56.732063 -8.055374 3283.416260
5.920000 4.080000 6.160000 -14.641805 -50.207912 2735.216797
5.920000 4.080000 6.200000 35.675274 -44.329430 3237.823730
5.920000 4.120000 5.800000 17.261726 -25.373537 941.783569
5.920000 4.120000 5.840000 38.156044 -32.180496 2491.468018
5.920000 4.120000 5.880000 64.754105 -19.006781 4554.352051
5.920000 4.120000 5.920000 77.629822 15.672035 6272.001953
5.920000 4.120000 5.960000 60.947346 55.192028 6760.738770
5.920000 4.120000 6.000000 18.074451 73.660309 5752.527344
5.920000 4.120000 6.040000 -26.638599 56.089642 3855.662842
5.920000 4.120000 6.080000 -44.726013 12.573700 2158.514160
5.920000 4.120000 6.120000 -26.108753 -27.779888 1453.389160
5.920000 4.120000 6.160000 12.845222 -39.415680 1718.595581
5.920000 4.120000 6.200000 43.349186 -19.742954 2268.936279
5.920000 4.160000 5.800000 22.934515 -2.347098 531.500854
5.920000 4.160000 5.840000 27.437042 3.181044 762.910278
5.920000 4.160000 5.880000 28.328400 12.150024 950.121338
5.920000 4.160000 5.920000 23.258238 22.031050 1026.312744
5.920000 4.160000 5.960000 11.480709 28.248060 929.759583
5.920000 4.160000 6.000000 -3.685211 25.495993 663.626465
5.920000 4.160000 6.040000 -14.427925 12.065109 353.731873
5.920000 4.160000 6.080000 -12.861994 -6.467804 207.263367
5.920000 4.160000 6.120000 2.162060 -19.110504 369.885864
5.920000 4.160000 6.160000 22.374479 -17.111837 793.432251
5.920000 4.160000 6.200000 35.248405 -1.149794 1243.772095
5.920000 4.200000 5.800000 12.109883 11.314494 274.667053
5.920000 4.200000 5.840000 2.995276 11.413898 139.248764
5.920000 4.200000 5.880000 -3.026697 3.535404 21.659977
5.920000 4.200000 5.920000 -0.122910 -6.124236 37.521370
5.920000 4.200000 5.960000 9.146553 -9.252432 169.266937
5.920000 4.200000 6.000000 16.377106 -3.983871 284.080841
5.920000 4.200000 6.040000 16.076290 3.438263 270.268768
5.920000 4.200000 6.080000 11.178226 5.576696 156.052292
5.920000 4.200000 6.120000 9.459742 1.891249 93.063530
5.920000 4.200000 6.160000 14.776902 -0.726151 218.884140
5.920000 4.200000 6.200000 22.473434 4.585605 526.083008
5.960000 3.800000 5.800000 -19.740850 -13.557045 573.494629
5.960000 3.800000 5.840000 -11.594982 -20.112108 538.940491
5.960000 3.800000 5.880000 0.210670 -21.675549 469.873779
5.960000 3.800000 5.920000 12.135273 -16.091900 406.214111
5.960000 3.800000 5.960000 19.318588 -4.250763 391.276855
5.960000 3.800000 6.000000 18.634583 9.458530 436.711487
5.960000 3.800000 6.040000 11.033813 19.668451 508.593018
5.960000 3.800000 6.080000 0.716648 23.573544 556.225586
5.960000 3.800000 6.120000 -8.158358 22.089947 554.524536
5.960000 3.800000 6.160000 -13.899308 17.868784 512.484192
5.960000 3.800000 6.200000 -16.725336 12.772828 442.882019
5.960000 3.840000 5.800000 -5.898918 -7.908815 97.346596
5.960000 3.840000 5.840000 -8.754158 2.548538 83.130333
5.960000 3.840000 5.880000 -21.421661 4.529491 479.403870
5.960000 3.840000 5.920000 -31.196445 -7.624588 1031.352539
5.960000 3.840000 5.960000 -25.960011 -25.378342 1317.982422
5.960000 3.840000 6.000000 -6.473381 -33.071171 1135.607056
5.960000 3.840000 6.040000 13.249733 -22.350489 675.099731
5.960000 3.840000 6.080000 18.130482 -0.169704 328.743164
5.960000 3.840000 6.120000 5.258164 17.240784 324.892914
5.960000 3.840000 6.160000 -14.095819 18.555704 543.006287
5.960000 3.840000 6.200000 -25.030552 6.472531 668.422180
5.960000 3.880000 5.800000 -7.366138 6.868416 101.435135
5.960000 3.880000 5.840000 -35.965565 17.455034 1598.200073
5.960000 3.880000 5.880000 -69.549026 -5.245346 4864.580566
5.960000 3.880000 5.920000 -74.240509 -54.615582 8494.515625
5.960000 3.880000 5.960000 -35.734566 -95.643066 10424.554688
5.960000 3.880000 6.000000 23.859978 -94.666710 9531.084961
5.960000 3.880000 6.040000 63.045422 -50.295067 6504.318848
5.960000 3.880000 6.080000 56.672375 4.533455 3232.310303
5.960000 3.880000 6.120000 16.676903 31.633228 1278.780273
5.960000 3.880000 6.160000 -21.196026 19.844969 843.094299
5.960000 3.880000 6.200000 -30.442007 -9.378593 1014.673828
5.960000 3.920000 5.800000 -24.803963 11.119249 738.874268
5.960000 3.920000 5.840000 -72.193604 -3.039268 5221.153809
5.960000 3.920000 5.880000 -96.795570 -64.674911 13552.226562
5.960000 3.920000 5.920000 -60.235386 -137.002930 22398.105469
5.960000 3.920000 5.960000 27.493179 -162.192123 27062.160156
5.960000 3.920000 6.000000 109.765152 -113.480415 24926.193359
5.960000 3.920000 6.040000 130.157074 -22.190941 17433.300781
5.960000 3.920000 6.080000 81.147430 47.976635 8886.663086
5.960000 3.920000 6.120000 8.342968 55.652092 3166.760498
5.960000 3.920000 6.160000 -32.559891 13.764962 1249.620605
5.960000 3.920000 6.200000 -23.556480 -29.396133 1419.040527
5.960000 3.960000 5.800000 -40.112953 -5.855078 1643.331055
5.960000 3.960000 5.840000 -79.300629 -54.128349 9218.467773
5.960000 3.960000 5.880000 -62.828682 -136.245331 22510.234375
5.960000 3.960000 5.920000 24.925880 -188.939392 36319.394531
5.960000 3.960000 5.960000 135.904999 -158.246368 43512.082031
5.960000 3.960000 6.000000 193.261261 -52.557106 40112.164062
5.960000 3.960000 6.040000 157.469238 58.928596 28269.140625
5.960000 3.960000 6.080000 61.036640 103.992821 14539.978516
5.960000 3.960000 6.120000 -21.616917 67.584122 5034.904297
5.960000 3.960000 6.160000 -39.625038 -1.718696 1573.097534
5.960000 3.960000 6.200000 -4.000842 -41.731079 1757.489624
5.960000 4.000000 5.800000 -33.745232 -32.888638 2220.403076
5.960000 4.000000 5.840000 -40.004326 -97.859650 11176.856445
5.960000 4.000000 5.880000 21.625866 -161.176361 26445.498047
5.960000 4.000000 5.920000 129.960617 -158.730011 42084.976562
5.960000 4.000000 5.960000 212.978546 -69.119080 50137.304688
5.960000 4.000000 6.000000 206.862381 58.426903 46205.746094
5.960000 4.000000 6.040000 113.608101 140.669006 32694.570312
5.960000 4.000000 6.080000 1.140717 130.130981 16935.373047
5.960000 4.000000 6.120000 -55.383350 52.813042 5856.532715
5.960000 4.000000 6.160000 -35.522060 -20.501358 1682.122437
5.960000 4.000000 6.200000 18.348734 -39.127831 1867.663086
5.960000 4.040000 5.800000 -5.221201 -46.113052 2153.674561
5.960000 4.040000 5.840000 21.939657 -97.227638 9934.562500
5.960000 4.040000 5.880000 99.066391 -114.712936 22973.207031
5.960000 4.040000 5.920000 180.353241 -60.477158 36184.777344
5.960000 4.040000 5.960000 201.463501 48.302834 42920.707031
5.960000 4.040000 6.000000 136.370728 144.790192 39561.171875
5.960000 4.040000 6.040000 24.529741 165.913239 28128.912109
5.960000 4.040000 6.080000 -59.994240 105.558487 14741.902344
5.960000 4.040000 6.120000 -70.121719 17.587255 5226.367188
5.960000 4.040000 6.160000 -20.915522 -33.302944 1546.545166
5.960000 4.040000 6.200000 32.175232 -25.250662 1672.841553
5.960000 4.080000 5.800000 24.661963 -32.011570 1632.953003
5.960000 4.080000 5.840000 61.674793 -51.639786 6470.447266
5.960000 4.080000 5.880000 116.285912 -30.908735 14477.762695
5.960000 4.080000 5.920000 145.588181 36.314651 22514.671875
5.960000 4.080000 5.960000 115.586060 115.013611 26588.267578
5.960000 4.080000 6.000000 34.523048 152.844177 24553.183594
5.960000 4.080000 6.040000 -48.875473 123.439880 17626.216797
5.960000 4.080000 6.080000 -83.699303 49.573235 9463.079102
5.960000 4.080000 6.120000 -57.629246 -16.104185 3580.474609
5.960000 4.080000 6.160000 -3.214709 -34.955719 1232.236694
5.960000 4.080000 6.200000 34.164616 -10.388880 1275.149780
5.960000 4.120000 5.800000 33.106106 -1.018898 1097.052490
5.960000 4.120000 5.840000 54.305424 2.405521 2954.865723
5.960000 4.120000 5.880000 71.801514 28.913849 5991.468262
5.960000 4.120000 5.920000 64.419029 69.782509 9019.410156
5.960000 4.120000 5.960000 25.281429 99.632843 10565.853516
5.960000 4.120000 6.000000 -28.274860 95.027328 9829.661133
5.960000 4.120000 6.040000 -65.120949 54.683067 7230.975586
5.960000 4.120000 6.080000 -64.048645 2.643734 4109.218262
5.960000 4.120000 6.120000 -30.323174 -29.751799 1804.664307
5.960000 4.120000 6.160000 9.576935 -27.704361 859.249268
5.960000 4.120000 6.200000 29.926189 -1.870211 899.074524
5.960000 4.160000 5.800000 16.810516 22.498148 788.760132
5.960000 4.160000 5.840000 16.036154 26.142338 940.580078
5.960000 4.160000 5.880000 12.774574 32.086617 1192.740601
5.960000 4.160000 5.920000 4.343071 38.257446 1482.494507
5.960000 4.160000 5.960000 -9.988190 39.711662 1676.780029
5.960000 4.160000 6.000000 -25.907597 31.071472 1636.639893
5.960000 4.160000 6.040000 -34.558495 11.866020 1335.092041
5.960000 4.160000 6.080000 -28.416769 -10.241976 912.410828
5.960000 4.160000 6.120000 -8.408958 -22.945095 597.187988
5.960000 4.160000 6.160000 14.636675 -18.173649 544.513794
5.960000 4.160000 6.200000 26.880798 1.034909 723.648376
5.960000 4.200000 5.800000 -6.066593 23.703325 598.651184
5.960000 4.200000 5.840000 -14.921686 13.400175 402.221436
5.960000 4.200000 5.880000 -13.156429 -0.896473 173.895294
5.960000 4.200000 5.920000 -1.398911 -8.013580 66.174416
5.960000 4.200000 5.960000 9.590813 -2.611561 98.803940
5.960000 4.200000 6.000000 9.455886 8.235184 157.232025
5.960000 4.200000 6.040000 -0.501953 11.648972 135.950485
5.960000 4.200000 6.080000 -7.859028 2.564126 68.339066
5.960000 4.200000 6.120000 -1.786299 -10.003695 103.264771
5.960000 4.200000 6.160000 14.901597 -11.367536 351.278442
5.960000 4.200000 6.200000 27.194910 3.783445 753.877563
6.000000 3.800000 5.800000 -16.925129 -12.196465 435.213745
6.000000 3.800000 5.840000 -9.623371 -17.704905 406.072937
6.000000 3.800000 5.880000 1.623434 -18.573032 347.593048
6.000000 3.800000 5.920000 12.892449 -11.622459 301.296814
6.000000 3.800000 5.960000 17.966049 1.902821 326.399658
6.000000 3.800000 6.000000 13.573174 15.705856 430.904968
6.000000 3.800000 6.040000 2.712090 23.204050 545.783325
6.000000 3.800000 6.080000 -7.990156 22.965082 591.237610
6.000000 3.800000 6.120000 -14.280525 18.996660 564.806519
6.000000 3.800000 6.160000 -17.228493 15.790466 546.159790
6.000000 3.800000 6.200000 -20.214579 13.819592 599.610291
6.000000 3.840000 5.800000 -13.329508 -6.459618 219.402435
6.000000 3.840000 5.840000 -21.942335 -4.555595 502.219513
6.000000 3.840000 5.880000 -30.442772 -15.054710 1153.406738
6.000000 3.840000 5.920000 -26.008118 -32.652527 1742.609619
6.000000 3.840000 5.960000 -6.435196 -42.480335 1845.990601
6.000000 3.840000 6.000000 16.355087 -33.877987 1415.206909
6.000000 3.840000 6.040000 26.253620 -10.578434 801.155823
6.000000 3.840000 6.080000 16.744122 12.244087 430.283264
6.000000 3.840000 6.120000 -4.258474 20.808741 451.138306
6.000000 3.840000 6.160000 -22.144810 13.299180 667.260803
6.000000 3.840000 6.200000 -27.869804 -0.770523 777.319702
6.000000 3.880000 5.800000 -21.713942 -4.010569 487.579926
6.000000 3.880000 5.840000 -49.214439 -14.951248 2645.600830
6.000000 3.880000 5.880000 -59.949615 -55.078217 6627.566406
6.000000 3.880000 5.920000 -30.934261 -98.082420 10577.089844
6.000000 3.880000 5.960000 27.427277 -107.134773 12230.115234
6.000000 3.880000 6.000000 76.659286 -69.122803 10654.607422
6.000000 3.880000 6.040000 82.909592 -8.392914 6944.441406
6.000000 3.880000 6.080000 46.128719 33.840164 3273.015381
6.000000 3.880000 6.120000 -1.811459 34.657639 1204.433228
6.000000 3.880000 6.160000 -26.879669 5.985388 758.341492
6.000000 3.880000 6.200000 -21.104053 -21.162172 893.218628
6.000000 3.920000 5.800000 -31.181154 -16.231209 1235.716553
6.000000 3.920000 5.840000 -59.646927 -55.428093 6630.029297
6.000000 3.920000 5.880000 -41.808285 -120.207611 16197.802734
6.000000 3.920000 5.920000 32.418831 -157.593887 25886.814453
6.000000 3.920000 5.960000 120.677994 -126.031914 30447.220703
6.000000 3.920000 6.000000 160.981537 -37.144859 27294.794922
6.000000 3.920000 6.040000 126.061478 50.525047 18444.277344
6.000000 3.920000 6.080000 47.058769 81.453110 8849.136719
6.000000 3.920000 6.120000 -15.930653 49.217110 2676.109619
6.000000 3.920000 6.160000 -26.890770 -4.152169 740.354004
6.000000 3.920000 6.200000 0.346218 -31.602695 998.850220
6.000000 3.960000 5.800000 -24.880180 -37.841717 2051.018799
6.000000 3.960000 5.840000 -28.916725 -98.445625 10527.717773
6.000000 3.960000 5.880000 32.455589 -156.005402 25391.050781
6.000000 3.960000 5.920000 136.174500 -148.463470 40584.898438
6.000000 3.960000 5.960000 211.296936 -58.632332 48084.144531
6.000000 3.960000 6.000000 199.424942 62.326191 43654.863281
6.000000 3.960000 6.040000 108.152245 135.290268 30000.365234
6.000000 3.960000 6.080000 5.045776 120.754532 14607.117188
6.000000 3.960000 6.120000 -42.281208 49.259888 4214.237305
6.000000 3.960000 6.160000 -21.926197 -12.437567 635.451172
6.000000 3.960000 6.200000 22.220177 -23.443054 1043.312988
6.000000 4.000000 5.800000 1.190453 -49.320984 2433.976807
6.000000 4.000000 5.840000 31.315523 -105.069786 12020.322266
6.000000 4.000000 5.880000 117.812439 -122.285133 28833.425781
6.000000 4.000000 5.920000 206.697189 -58.451759 46140.335938
6.000000 4.000000 5.960000 225.615326 63.627144 54950.687500
6.000000 4.000000 6.000000 149.731461 167.105759 50343.843750
6.000000 4.000000 6.040000 27.819912 185.200470 35073.164062
6.000000 4.000000 6.080000 -58.692902 118.128365 17399.167969
6.000000 4.000000 6.120000 -65.133148 28.742632 5068.465820
6.000000 4.000000 6.160000 -15.572886 -16.829229 525.737732
6.000000 4.000000 6.200000 29.514095 -4.585524 892.108887
6.000000 4.040000 5.800000 30.841234 -35.643768 2221.659912
6.000000 4.040000 5.840000 79.365860 -62.858978 10250.191406
6.000000 4.040000 5.880000 152.516876 -34.690651 24464.839844
6.000000 4.040000 5.920000 189.918411 56.117317 39218.156250
6.000000 4.040000 5.960000 147.038849 159.201141 46965.429688
6.000000 4.040000 6.000000 39.732227 204.671753 43469.175781
6.000000 4.040000 6.040000 -64.636818 163.220108 30818.720703
6.000000 4.040000 6.080000 -103.459763 71.144112 15765.408203
6.000000 4.040000 6.120000 -69.702980 -3.397739 4870.049805
6.000000 4.040000 6.160000 -10.482720 -19.473621 489.109344
6.000000 4.040000 6.200000 21.373129 8.366663 526.811707
6.000000 4.080000 5.800000 41.083870 -2.667171 1694.998169
6.000000 4.080000 5.840000 80.508011 -0.243181 6481.599121
6.000000 4.080000 5.880000 114.092003 46.180614 15149.634766
6.000000 4.080000 5.920000 101.284714 118.365776 24269.050781
6.000000 4.080000 5.960000 32.717209 167.948532 29277.125000
6.000000 4.080000 6.000000 -55.899181 156.241913 27536.253906
6.000000 4.080000 6.040000 -110.702606 88.649193 20113.746094
6.000000 4.080000 6.080000 -103.802055 10.744776 10890.316406
6.000000 4.080000 6.120000 -53.810982 -30.372402 3818.104492
6.000000 4.080000 6.160000 -5.263094 -23.022791 557.749023
6.000000 4.080000 6.200000 11.205463 6.845858 172.428177
6.000000 4.120000 5.800000 23.797699 26.435535 1265.167969
6.000000 4.120000 5.840000 38.672020 38.386196 2969.025146
6.000000 4.120000 5.880000 38.756683 68.767731 6231.081543
6.000000 4.120000 5.920000 10.208511 98.327423 9772.496094
6.000000 4.120000 5.960000 -38.921463 101.923470 11903.273438
6.000000 4.120000 6.000000 -81.910545 69.773537 11577.683594
6.000000 4.120000 6.040000 -93.429474 17.155029 9023.361328
6.000000 4.120000 6.080000 -69.237656 -26.700377 5506.763184
6.000000 4.120000 6.120000 -28.341694 -40.817894 2469.352051
6.000000 4.120000 6.160000 3.318783 -26.413792 708.702759
6.000000 4.120000 6.200000 12.198296 -1.797001 152.027634
6.000000 4.160000 5.800000 -6.271895 32.130951 1071.734619
6.000000 4.160000 5.840000 -8.804293 32.522202 1135.209229
6.000000 4.160000 5.880000 -14.421101 34.186188 1376.663574
6.000000 4.160000 5.920000 -24.301346 33.720383 1727.619629
6.000000 4.160000 5.960000 -36.685925 26.931824 2071.180176
6.000000 4.160000 6.000000 -46.160591 11.409660 2260.980713
6.000000 4.160000 6.040000 -45.615303 -10.209526 2184.990234
6.000000 4.160000 6.080000 -31.190374 -29.411898 1837.899170
6.000000 4.160000 6.120000 -6.956060 -35.946602 1340.544922
6.000000 4.160000 6.160000 15.491110 -25.210257 875.531494
6.000000 4.160000 6.200000 23.936180 -3.104027 582.575745
6.000000 4.200000 5.800000 -25.630611 16.109779 916.453247
6.000000 4.200000 5.840000 -27.332428 0.855675 747.793823
6.000000 4.200000 5.880000 -17.331738 -12.166325 448.408569
6.000000 4.200000 5.920000 -2.002319 -13.013760 173.367218
6.000000 4.200000 5.960000 5.517886 -2.459488 36.496143
6.000000 4.200000 6.000000 -0.915499 6.680408 45.465996
6.000000 4.200000 6.040000 -12.378830 2.105383 157.668060
6.000000 4.200000 6.080000 -12.709461 -13.959757 356.405212
6.000000 4.200000 6.120000 4.356247 -25.016695 644.811890
6.000000 4.200000 6.160000 26.639473 -16.305035 975.515625
6.000000 4.200000 6.200000 33.764847 9.098230 1222.842651
6.040000 3.800000 5.800000 -19.734430 -9.827810 486.033600
6.040000 3.800000 5.840000 -12.780228 -17.784954 479.638794
6.040000 3.800000 5.880000 0.517855 -19.462803 379.068878
6.040000 3.800000 5.920000 12.965431 -10.224613 272.645111
6.040000 3.800000 5.960000 15.587036 6.019364 279.188446
6.040000 3.800000 6.000000 6.482040 19.118801 407.545410
6.040000 3.800000 6.040000 -7.060389 22.014736 534.497681
6.040000 3.800000 6.080000 -15.966976 16.998886 543.906433
6.040000 3.800000 6.120000 -18.255487 12.025738 477.881165
6.040000 3.800000 6.160000 -19.584656 11.331207 511.955017
6.040000 3.800000 6.200000 -25.221508 11.117761 759.729065
6.040000 3.840000 5.800000 -22.420837 -14.032750 699.612000
6.040000 3.840000 5.840000 -25.999201 -23.616129 1233.679932
6.040000 3.840000 5.880000 -19.545631 -38.266788 1846.378784
6.040000 3.840000 5.920000 -0.594078 -46.105198 2126.042236
6.040000 3.840000 5.960000 21.288574 -37.704803 1874.855591
6.040000 3.840000 6.000000 32.058022 -15.466782 1266.938110
6.040000 3.840000 6.040000 24.985218 7.900993 686.686829
6.040000 3.840000 6.080000 5.512924 19.731720 419.733093
6.040000 3.840000 6.120000 -14.328081 16.487955 477.146576
6.040000 3.840000 6.160000 -25.589830 4.101221 671.659424
6.040000 3.840000 6.200000 -27.261883 -8.897878 822.382507
6.040000 3.880000 5.800000 -23.739405 -26.232758 1251.716919
6.040000 3.880000 5.840000 -31.856768 -50.227036 3537.608887
6.040000 3.880000 5.880000 -13.120770 -82.683380 7008.696289
6.040000 3.880000 5.920000 32.824219 -94.242706 9959.117188
6.040000 3.880000 5.960000 79.054596 -66.669197 10694.410156
6.040000 3.880000 6.000000 93.095810 -12.214638 8816.027344
6.040000 3.880000 6.040000 65.417549 34.842262 5493.438965
6.040000 3.880000 6.080000 17.463081 46.904068 2504.950928
6.040000 3.880000 6.120000 -17.872013 24.746365 931.791382
6.040000 3.880000 6.160000 -23.814716 -7.148272 618.238464
6.040000 3.880000 6.200000 -9.649190 -24.868931 711.570618
6.040000 3.920000 5.800000 -12.904119 -42.474716 1970.617798
6.040000 3.920000 5.840000 -8.931728 -82.489456 6884.286133
6.040000 3.920000 5.880000 38.935051 -115.956062 14961.747070
6.040000 3.920000 5.920000 110.939369 -101.575737 22625.173828
6.040000 3.920000 5.960000 156.874603 -32.305313 25653.273438
6.040000 3.920000 6.000000 139.862030 52.277454 22294.318359
6.040000 3.920000 6.040000 70.718025 97.814796 14568.773438
6.040000 3.920000 6.080000 -1.033203 81.555923 6652.436035
6.040000 3.920000 6.120000 -30.752884 29.052834 1789.807007
6.040000 3.920000 6.160000 -14.567759 -13.191615 386.238281
6.040000 3.920000 6.200000 15.173552 -20.262596 640.809448
6.040000 3.960000 5.800000 12.231960 -48.497215 2501.600830
6.040000 3.960000 5.840000 40.295712 -89.684723 9667.093750
6.040000 3.960000 5.880000 112.045181 -97.130219 21988.402344
6.040000 3.960000 5.920000 181.097900 -38.252335 34259.691406
6.040000 3.960000 5.960000 189.037933 64.166908 39852.730469
6.040000 3.960000 6.000000 120.121750 145.199234 35512.054688
6.040000 3.960000 6.040000 18.983717 153.081635 23794.367188
6.040000 3.960000 6.080000 -47.529526 93.785255 11054.729492
6.040000 3.960000 6.120000 -47.716789 22.076101 2764.246338
6.040000 3.960000 6.160000 -6.643940 -10.407965 152.467667
6.040000 3.960000 6.200000 25.660398 1.885630 662.011658
6.040000 4.000000 5.800000 38.601440 -32.860085 2569.856445
6.040000 4.000000 5.840000 85.091164 -55.186180 10286.020508
6.040000 4.000000 5.880000 153.254410 -23.866549 24056.525391
6.040000 4.000000 5.920000 184.004593 65.877563 38197.546875
6.040000 4.000000 5.960000 136.760086 162.701492 45175.093750
6.040000 4.000000 6.000000 31.531998 199.940277 40970.378906
6.040000 4.000000 6.040000 -64.441536 154.580383 28047.806641
6.040000 4.000000 6.080000 -94.459427 67.020859 13414.378906
6.040000 4.000000 6.120000 -58.932339 2.711439 3480.372314
6.040000 4.000000 6.160000 -7.182663 -5.618723 83.160698
6.040000 4.000000 6.200000 13.686728 20.657127 614.043457
6.040000 4.040000 5.800000 46.948845 -0.363645 2204.326416
6.040000 4.040000 5.840000 91.657425 3.713669 8414.875000
6.040000 4.040000 5.880000 128.429626 58.868935 19959.720703
6.040000 4.040000 5.920000 109.851410 141.606750 32119.804688
6.040000 4.040000 5.960000 28.333687 194.197891 38515.617188
6.040000 4.040000 6.000000 -70.698822 174.814484 35558.425781
6.040000 4.040000 6.040000 -125.647919 96.058105 25014.558594
6.040000 4.040000 6.080000 -111.234909 13.841715 12564.797852
6.040000 4.040000 6.120000 -56.431641 -22.253685 3679.756592
6.040000 4.040000 6.160000 -12.654335 -8.720705 236.182892
6.040000 4.040000 6.200000 -6.227674 18.461349 379.605347
6.040000 4.080000 5.800000 29.266279 28.979113 1696.303955
6.040000 4.080000 5.840000 54.406883 47.924225 5256.840332
6.040000 4.080000 5.880000 54.942093 96.123459 12258.353516
6.040000 4.080000 5.920000 10.004791 140.491104 19837.845703
6.040000 4.080000 5.960000 -63.324772 141.790680 24114.625000
6.040000 4.080000 6.000000 -120.884109 90.563194 22814.660156
6.040000 4.080000 6.040000 -128.387817 17.122520 16776.613281
6.040000 4.080000 6.080000 -89.571640 -34.296635 9199.337891
6.040000 4.080000 6.120000 -39.498890 -42.198616 3340.885498
6.040000 4.080000 6.160000 -11.610937 -20.874395 570.554260
6.040000 4.080000 6.200000 -11.469374 -0.501043 131.797577
6.040000 4.120000 5.800000 -2.563035 36.301010 1324.332397
6.040000 4.120000 5.840000 1.884453 50.367046 2540.390625
6.040000 4.120000 5.880000 -13.455154 70.715698 5181.750977
6.040000 4.120000 5.920000 -48.493004 76.113983 8144.910156
6.040000 4.120000 5.960000 -84.553787 53.400894 10000.998047
6.040000 4.120000 6.000000 -98.925201 9.779915 9881.841797
6.040000 4.120000 6.040000 -83.061951 -32.444767 7951.950684
6.040000 4.120000 6.080000 -48.242321 -53.391487 5177.972656
6.040000 4.120000 6.120000 -14.927991 -49.281456 2651.506836
6.040000 4.120000 6.160000 3.017743 -31.446026 997.959290
6.040000 4.120000 6.200000 5.328061 -14.320358 233.460892
6.040000 4.160000 5.800000 -26.531889 20.298384 1115.965576
6.040000 4.160000 5.840000 -29.093966 18.590122 1192.051514
6.040000 4.160000 5.880000 -34.693371 14.890764 1425.364868
6.040000 4.160000 5.920000 -40.536972 6.916992 1691.090820
6.040000 4.160000 5.960000 -43.573906 -5.133530 1925.038452
6.040000 4.160000 6.000000 -41.408733 -19.811905 2107.194824
6.040000 4.160000 6.040000 -31.895281 -34.432545 2202.909180
6.040000 4.160000 6.080000 -14.311165 -44.036350 2144.009521
6.040000 4.160000 6.120000 7.670340 -42.584343 1872.260376
6.040000 4.160000 6.160000 25.128691 -27.807430 1404.704346
6.040000 4.160000 6.200000 28.683126 -5.749474 855.778198
6.040000 4.200000 5.800000 -29.786304 -2.493034 893.439148
6.040000 4.200000 5.840000 -25.433266 -15.495265 886.954224
6.040000 4.200000 5.880000 -11.883106 -23.593697 697.870728
6.040000 4.200000 5.920000 2.795824 -19.513680 388.600311
6.040000 4.200000 5.960000 6.958462 -7.695900 107.647064
6.040000 4.200000 6.000000 -0.938271 -1.865171 4.359216
6.040000 4.200000 6.040000 -8.271996 -10.342875 175.400970
6.040000 4.200000 6.080000 -0.607149 -24.918842 621.317383
6.040000 4.200000 6.120000 21.445583 -27.252872 1202.632080
6.040000 4.200000 6.160000 39.857933 -8.121634 1654.615723
6.040000 4.200000 6.200000 36.009632 20.552975 1719.118408
6.080000 3.800000 5.800000 -26.579170 -13.444624 887.210205
6.080000 3.800000 5.840000 -15.492506 -24.597317 845.045776
6.080000 3.800000 5.880000 2.631609 -24.137308 589.534973
6.080000 3.800000 5.920000 15.192719 -9.602476 323.026245
6.080000 3.800000 5.960000 12.758057 9.128798 246.102951
6.080000 3.800000 6.000000 -1.399265 18.746674 353.395721
6.080000 3.800000 6.040000 -14.859264 15.326660 455.704254
6.080000 3.800000 6.080000 -19.037128 7.017704 411.660431
6.080000 3.800000 6.120000 -17.261858 3.782202 312.276794
6.080000 3.800000 6.160000 -19.113121 5.951900 400.736511
6.080000 3.800000 6.200000 -27.874989 4.555071 797.763672
6.080000 3.840000 5.800000 -23.605331 -30.327547 1476.971802
6.080000 3.840000 5.840000 -12.910686 -42.815865 1999.884033
6.080000 3.840000 5.880000 7.217537 -46.737244 2236.462646
6.080000 3.840000 5.920000 27.256939 -35.610847 2011.073242
6.080000 3.840000 5.960000 35.447193 -13.500965 1438.779541
6.080000 3.840000 6.000000 27.638601 7.761852 824.138611
6.080000 3.840000 6.040000 9.926827 18.109726 426.504089
6.080000 3.840000 6.080000 -7.602146 15.921143 311.275421
6.080000 3.840000 6.120000 -18.757427 6.340389 392.041595
6.080000 3.840000 6.160000 -23.264233 -5.157036 567.819580
6.080000 3.840000 6.200000 -22.933037 -16.416761 795.434204
6.080000 3.880000 5.800000 -6.556032 -46.118832 2169.927979
6.080000 3.880000 5.840000 8.110992 -62.081329 3919.879639
6.080000 3.880000 5.880000 38.899075 -66.454819 5929.381348
6.080000 3.880000 5.920000 71.151566 -45.788822 7159.161621
6.080000 3.880000 5.960000 82.798782 -4.857632 6879.234863
6.080000 3.880000 6.000000 63.589153 34.259754 5217.311035
6.080000 3.880000 6.040000 24.841766 49.344975 3052.039795
6.080000 3.880000 6.080000 -9.642506 35.573341 1358.440552
6.080000 3.880000 6.120000 -22.679642 7.440441 569.726318
6.080000 3.880000 6.160000 -15.114927 -15.322896 463.252167
6.080000 3.880000 6.200000 -0.546119 -23.606670 557.573120
6.080000 3.920000 5.800000 21.942078 -47.423382 2730.431885
6.080000 3.920000 5.840000 45.839184 -62.606354 6020.786133
6.080000 3.920000 5.880000 88.158829 -54.773521 10772.117188
6.080000 3.920000 5.920000 121.077530 -10.908600 14778.765625
6.080000 3.920000 5.960000 114.711288 51.001389 15759.821289
6.080000 3.920000 6.000000 66.049973 93.236710 13055.682617
6.080000 3.920000 6.040000 4.625942 90.112823 8141.720215
6.080000 3.920000 6.080000 -31.801655 49.900341 3501.389160
6.080000 3.920000 6.120000 -28.509983 5.945491 848.168030
6.080000 3.920000 6.160000 -2.467465 -13.604403 191.168167
6.080000 3.920000 6.200000 17.922773 -7.708382 380.644958
6.080000 3.960000 5.800000 47.062366 -26.877220 2937.251465
6.080000 3.960000 5.840000 79.212555 -32.548019 7334.002441
6.080000 3.960000 5.880000 120.512360 -2.791471 14531.020508
6.080000 3.960000 5.920000 132.335876 62.008560 21357.847656
6.080000 3.960000 5.960000 91.187332 125.160416 23980.259766
6.080000 3.960000 6.000000 15.094030 143.175934 20727.177734
6.080000 3.960000 6.040000 -48.589642 105.016403 13389.398438
6.080000 3.960000 6.080000 -63.751366 42.279968 5851.832031
6.080000 3.960000 6.120000 -35.162136 0.019676 1236.376221
6.080000 3.960000 6.160000 0.864994 -2.625105 7.639390
6.080000 3.960000 6.200000 13.399731 16.130669 439.751221
6.080000 4.000000 5.800000 51.688419 7.471705 2727.519043
6.080000 4.000000 5.840000 83.010132 16.542419 7164.333984
6.080000 4.000000 5.880000 105.488716 63.275436 15131.650391
6.080000 4.000000 5.920000 83.354080 127.502731 23204.849609
6.080000 4.000000 5.960000 13.849774 163.393860 26889.369141
6.080000 4.000000 6.000000 -64.115128 140.670700 23898.996094
6.080000 4.000000 6.040000 -102.085693 74.063026 15906.821289
6.080000 4.000000 6.080000 -84.417511 10.773973 7242.394531
6.080000 4.000000 6.120000 -39.293591 -11.908089 1685.788818
6.080000 4.000000 6.160000 -8.801458 3.115902 87.174515
6.080000 4.000000 6.200000 -9.599790 22.966671 619.623901
6.080000 4.040000 5.800000 31.044323 35.670761 2236.153320
6.080000 4.040000 5.840000 50.800220 55.184074 5625.944336
6.080000 4.040000 5.880000 46.727383 100.336243 12250.809570
6.080000 4.040000 5.920000 0.293818 138.832642 19274.587891
6.080000 4.040000 5.960000 -69.532074 134.141632 22828.685547
6.080000 4.040000 6.000000 -119.266327 81.035156 20791.154297
6.080000 4.040000 6.040000 -119.105194 12.675770 14346.721680
6.080000 4.040000 6.080000 -78.742004 -28.656101 7021.475586
6.080000 4.040000 6.120000 -35.682999 -28.186325 2067.745361
6.080000 4.040000 6.160000 -19.105478 -6.840842 411.816406
6.080000 4.040000 6.200000 -26.105171 4.603052 702.668091
6.080000 4.080000 5.800000 -1.776271 41.047741 1688.072144
6.080000 4.080000 5.840000 2.874790 59.633892 3564.465576
6.080000 4.080000 5.880000 -17.909782 85.169632 7574.626465
6.080000 4.080000 5.920000 -62.609928 89.678078 11962.161133
6.080000 4.080000 5.960000 -104.807762 58.083572 14358.368164
6.080000 4.080000 6.000000 -115.844467 4.228081 13437.817383
6.080000 4.080000 6.040000 -90.356796 -40.476627 9802.708008
6.080000 4.080000 6.080000 -49.717880 -54.443161 5435.925781
6.080000 4.080000 6.120000 -21.021812 -42.336929 2234.332031
6.080000 4.080000 6.160000 -13.679907 -25.810776 853.335999
6.080000 4.080000 6.200000 -16.213257 -20.453871 681.230530
6.080000 4.120000 5.800000 -25.843052 23.729536 1230.954224
6.080000 4.120000 5.840000 -30.008589 31.796722 1911.546875
6.080000 4.120000 5.880000 -48.018375 34.214104 3476.369141
6.080000 4.120000 5.920000 -69.270905 19.332798 5172.214844
6.080000 4.120000 5.960000 -77.622467 -10.328396 6131.923340
6.080000 4.120000 6.000000 -65.725090 -40.192696 5935.240234
6.080000 4.120000 6.040000 -40.375038 -56.348759 4805.326172
6.080000 4.120000 6.080000 -15.006141 -55.910053 3351.118408
6.080000 4.120000 6.120000 1.702218 -45.981239 2117.171875
6.080000 4.120000 6.160000 9.900271 -34.724545 1303.809326
6.080000 4.120000 6.200000 13.580632 -24.990360 808.951721
6.080000 4.160000 5.800000 -29.433838 -0.304860 866.443787
6.080000 4.160000 5.840000 -32.148869 -3.910149 1048.839111
6.080000 4.160000 5.880000 -33.882904 -12.710131 1309.598633
6.080000 4.160000 5.920000 -30.050377 -23.312237 1446.485596
6.080000 4.160000 5.960000 -21.728903 -30.849405 1423.831055
6.080000 4.160000 6.000000 -12.766697 -34.725876 1368.875000
6.080000 4.160000 6.040000 -3.878063 -37.586796 1427.806641
6.080000 4.160000 6.080000 7.907730 -39.389565 1614.070068
6.080000 4.160000 6.120000 23.179001 -35.163185 1773.715576
6.080000 4.160000 6.160000 35.552097 -20.828785 1697.789917
6.080000 4.160000 6.200000 35.988701 -0.737478 1295.730469
6.080000 4.200000 5.800000 -18.400211 -14.009303 534.828369
6.080000 4.200000 5.840000 -13.437120 -23.305111 723.684387
6.080000 4.200000 5.880000 0.105083 -27.958855 781.708618
6.080000 4.200000 5.920000 13.571104 -21.000000 625.174866
6.080000 4.200000 5.960000 16.012848 -8.158266 322.968597
6.080000 4.200000 6.000000 8.181976 -2.894766 75.324402
6.080000 4.200000 6.040000 3.689060 -10.513748 124.148071
6.080000 4.200000 6.080000 14.009630 -19.931810 593.546814
6.080000 4.200000 6.120000 33.581314 -14.429449 1335.913696
6.080000 4.200000 6.160000 43.144543 8.918180 1940.985474
6.080000 4.200000 6.200000 29.817089 33.116066 1985.732666
6.120000 3.800000 5.800000 -29.687691 -25.090481 1510.891235
6.120000 3.800000 5.840000 -11.065495 -34.773994 1331.675903
6.120000 3.800000 5.880000 9.979145 -27.176315 838.135437
6.120000 3.800000 5.920000 18.088438 -6.755239 372.824860
6.120000 3.800000 5.960000 8.653303 10.880598 193.267059
6.120000 3.800000 6.000000 -7.848393 13.944084 256.034760
6.120000 3.800000 6.040000 -17.074789 5.321375 319.865448
6.120000 3.800000 6.080000 -15.400122 -2.338729 242.633392
6.120000 3.800000 6.120000 -11.945507 -1.541319 145.070816
6.120000 3.800000 6.160000 -16.267515 2.001461 268.637878
6.120000 3.800000 6.200000 -26.035891 -2.930671 686.456421
6.120000 3.840000 5.800000 -11.076189 -45.701302 2211.290771
6.120000 3.840000 5.840000 11.579155 -47.705574 2409.898682
6.120000 3.840000 5.880000 31.613876 -33.404774 2115.316162
6.120000 3.840000 5.920000 37.213619 -9.555107 1476.153564
6.120000 3.840000 5.960000 26.536217 10.321629 810.706787
6.120000 3.840000 6.000000 8.550285 17.172340 367.996643
6.120000 3.840000 6.040000 -5.851250 12.513016 190.812683
6.120000 3.840000 6.080000 -12.784988 3.997067 179.432480
6.120000 3.840000 6.120000 -15.454643 -3.522036 251.250732
6.120000 3.840000 6.160000 -16.983191 -11.285557 415.792572
6.120000 3.840000 6.200000 -15.299857 -21.599930 700.642578
6.120000 3.880000 5.800000 22.049244 -48.267300 2815.901367
6.120000 3.880000 5.840000 43.661343 -41.360020 3616.964111
6.120000 3.880000 5.880000 60.032356 -20.442446 4021.777344
6.120000 3.880000 5.920000 60.973282 8.399054 3788.285400
6.120000 3.880000 5.960000 43.932583 32.274834 2971.736816
6.120000 3.880000 6.000000 16.980080 40.180798 1902.819580
6.120000 3.880000 6.040000 -6.624605 30.573072 978.598145
6.120000 3.880000 6.080000 -17.475214 11.391099 435.140259
6.120000 3.880000 6.120000 -14.974524 -6.716235 269.344208
6.120000 3.880000 6.160000 -4.970320 -17.493156 330.714600
6.120000 3.880000 6.200000 6.315400 -20.810720 472.970367
6.120000 3.920000 5.800000 50.693474 -24.677158 3178.790527
6.120000 3.920000 5.840000 66.599052 -10.957329 4555.496582
6.120000 3.920000 5.880000 75.770676 15.437939 5979.525391
6.120000 3.920000 5.920000 66.675392 47.836937 6733.980469
6.120000 3.920000 5.960000 37.014771 70.051331 6277.282227
6.120000 3.920000 6.000000 -0.628893 68.439827 4684.405273
6.120000 3.920000 6.040000 -26.552906 44.086334 2648.661621
6.120000 3.920000 6.080000 -29.082043 12.958980 1013.700317
6.120000 3.920000 6.120000 -13.129382 -6.831022 219.043549
6.120000 3.920000 6.160000 5.694425 -8.933856 112.240250
6.120000 3.920000 6.200000 15.342887 -1.086950 236.585632
6.120000 3.960000 5.800000 54.879921 14.152819 3212.107910
6.120000 3.960000 5.840000 62.700554 30.417353 4856.574707
6.120000 3.960000 5.880000 61.174850 58.316616 7143.189941
6.120000 3.960000 5.920000 38.288113 86.750839 8991.687500
6.120000 3.960000 5.960000 -2.760151 95.889633 9202.439453
6.120000 3.960000 6.000000 -41.404205 75.445908 7406.393066
6.120000 3.960000 6.040000 -55.622208 36.542725 4429.200684
6.120000 3.960000 6.080000 -41.172611 3.830006 1709.852905
6.120000 3.960000 6.120000 -14.897766 -5.554811 252.799362
6.120000 3.960000 6.160000 1.551799 4.441833 22.137955
6.120000 3.960000 6.200000 1.157278 15.744212 249.219513
6.120000 4.000000 5.800000 30.557816 44.518402 2915.668213
6.120000 4.000000 5.840000 30.791763 58.810570 4406.815918
6.120000 4.000000 5.880000 18.190609 81.370720 6952.092285
6.120000 4.000000 5.920000 -14.563826 95.708740 9372.268555
6.120000 4.000000 5.960000 -55.138969 84.174583 10125.666016
6.120000 4.000000 6.000000 -79.282883 47.269085 8520.141602
6.120000 4.000000 6.040000 -72.694794 6.445004 5326.071289
6.120000 4.000000 6.080000 -44.849800 -14.170115 2212.296631
6.120000 4.000000 6.120000 -19.949078 -9.202692 482.655243
6.120000 4.000000 6.160000 -13.930636 5.163984 220.729370
6.120000 4.000000 6.200000 -21.123486 9.473640 535.951477
6.120000 4.040000 5.800000 -5.912481 48.314316 2369.230713
6.120000 4.040000 5.840000 -10.602987 57.542892 3423.607910
6.120000 4.040000 5.880000 -29.301228 68.402626 5537.481445
6.120000 4.040000 5.920000 -60.086384 64.008644 7707.479980
6.120000 4.040000 5.960000 -84.970764 36.537476 8555.017578
6.120000 4.040000 6.000000 -86.034790 -1.997426 7405.974609
6.120000 4.040000 6.040000 -63.274872 -29.113094 4851.281738
6.120000 4.040000 6.080000 -35.144295 -32.479309 2290.026855
6.120000 4.040000 6.120000 -20.734409 -20.465824 848.765686
6.120000 4.040000 6.160000 -22.186398 -11.796969 631.404724
6.120000 4.040000 6.200000 -25.443054 -15.701712 893.892761
6.120000 4.080000 5.800000 -30.793497 27.422886 1700.254150
6.120000 4.080000 5.840000 -37.061943 30.559984 2307.500244
6.120000 4.080000 5.880000 -53.166359 28.289568 3626.961426
6.120000 4.080000 5.920000 -69.606987 11.204987 4970.684570
6.120000 4.080000 5.960000 -72.145851 -16.690653 5483.601562
6.120000 4.080000 6.000000 -56.369186 -40.361500 4806.535645
6.120000 4.080000 6.040000 -32.491127 -47.853958 3345.674561
6.120000 4.080000 6.080000 -15.268915 -41.190113 1929.765137
6.120000 4.080000 6.120000 -9.913993 -32.679817 1166.257690
6.120000 4.080000 6.160000 -8.967834 -31.219919 1055.105347
6.120000 4.080000 6.200000 -2.681083 -33.676407 1141.288574
6.120000 4.120000 5.800000 -32.242203 0.809164 1040.214478
6.120000 4.120000 5.840000 -37.262024 -1.626812 1391.104858
6.120000 4.120000 5.880000 -43.304909 -12.022671 2019.859619
6.120000 4.120000 5.920000 -41.433365 -28.371571 2521.669922
6.120000 4.120000 5.960000 -29.106760 -41.566956 2575.015137
6.120000 4.120000 6.000000 -12.826969 -44.960831 2186.007568
6.120000 4.120000 6.040000 -0.893597 -40.705681 1657.750854
6.120000 4.120000 6.080000 5.102224 -36.037434 1324.729370
6.120000 4.120000 6.120000 10.371884 -34.350143 1287.508301
6.120000 4.120000 6.160000 19.050436 -31.737995 1370.219482
6.120000 4.120000 6.200000 28.107582 -22.817715 1310.684326
6.120000 4.160000 5.800000 -18.243813 -12.886903 498.908966
6.120000 4.160000 5.840000 -19.881794 -19.715710 783.994934
6.120000 4.160000 5.880000 -13.923855 -29.823156 1083.294434
6.120000 4.160000 5.920000 -0.726912 -33.949280 1153.082031
6.120000 4.160000 5.960000 10.910202 -28.632401 938.846863
6.120000 4.160000 6.000000 14.300013 -20.534061 626.138062
6.120000 4.160000 6.040000 13.045572 -18.258022 503.542328
6.120000 4.160000 6.080000 16.610447 -21.414228 734.476135
6.120000 4.160000 6.120000 28.102669 -20.372305 1204.790771
6.120000 4.160000 6.160000 38.986969 -7.831272 1581.312622
6.120000 4.160000 6.200000 37.807529 11.163734 1554.038330
6.120000 4.200000 5.800000 -6.453599 -10.803262 158.359406
6.120000 4.200000 5.840000 -2.821362 -20.325787 421.097687
6.120000 4.200000 5.880000 11.258993 -23.350060 671.990234
6.120000 4.200000 5.920000 23.757370 -12.983459 732.982910
6.120000 4.200000 5.960000 23.092936 2.147465 537.895325
6.120000 4.200000 6.000000 12.582593 7.468606 214.101715
6.120000 4.200000 6.040000 7.432277 0.063717 55.242802
6.120000 4.200000 6.080000 16.790302 -6.698030 326.777863
6.120000 4.200000 6.120000 31.651793 1.836023 1005.206970
6.120000 4.200000 6.160000 33.704216 23.612297 1693.514648
6.120000 4.200000 6.200000 16.226631 40.137531 1874.324951
6.160000 3.800000 5.800000 -22.934546 -38.668152 2021.219360
6.160000 3.800000 5.840000 0.648147 -40.602100 1648.950562
6.160000 3.800000 5.880000 18.328444 -24.676910 944.881714
6.160000 3.800000 5.920000 18.334644 -2.738812 343.660278
6.160000 3.800000 5.960000 4.135693 9.165608 101.112328
6.160000 3.800000 6.000000 -9.695004 5.877598 128.539276
6.160000 3.800000 6.040000 -12.572326 -3.397964 169.609528
6.160000 3.800000 6.080000 -7.682775 -6.584790 102.384506
6.160000 3.800000 6.120000 -6.231289 -2.223834 43.774395
6.160000 3.800000 6.160000 -13.131046 -0.042416 172.426178
6.160000 3.800000 6.200000 -20.556307 -8.370839 492.632690
6.160000 3.840000 5.800000 9.869121 -49.040966 2502.416016
6.160000 3.840000 5.840000 31.721462 -34.963314 2228.684570
6.160000 3.840000 5.880000 37.781502 -9.809641 1523.670898
6.160000 3.840000 5.920000 25.690792 10.612416 772.640137
6.160000 3.840000 5.960000 6.342196 15.640139 284.837402
6.160000 3.840000 6.000000 -6.758513 7.872326 107.651016
6.160000 3.840000 6.040000 -9.318178 -1.837543 90.205009
6.160000 3.840000 6.080000 -7.373941 -6.357426 94.791878
6.160000 3.840000 6.120000 -7.800530 -8.182253 127.797531
6.160000 3.840000 6.160000 -9.589076 -13.636970 277.917297
6.160000 3.840000 6.200000 -5.670109 -22.978161 560.145996
6.160000 3.880000 5.800000 43.856628 -29.867390 2815.464844
6.160000 3.880000 5.840000 51.791733 -5.013808 2707.521729
6.160000 3.880000 5.880000 41.997169 18.680779 2112.733643
6.160000 3.880000 5.920000 21.218857 29.487511 1319.753174
6.160000 3.880000 5.960000 1.783010 25.274364 641.972656
6.160000 3.880000 6.000000 -8.114828 13.146790 238.688507
6.160000 3.880000 6.040000 -8.899935 1.767243 82.331985
6.160000 3.880000 6.080000 -5.785882 -5.524491 63.996429
6.160000 3.880000 6.120000 -1.987188 -10.584987 115.990860
6.160000 3.880000 6.160000 3.616395 -15.085023 240.636230
6.160000 3.880000 6.200000 12.716663 -16.849062 445.604431
6.160000 3.920000 5.800000 53.876518 10.782613 3018.943848
6.160000 3.920000 5.840000 43.895111 33.266502 3033.440918
6.160000 3.920000 5.880000 23.304224 45.010742 2569.053711
6.160000 3.920000 5.920000 1.879821 42.765396 1832.412842
6.160000 3.920000 5.960000 -12.172958 30.605740 1084.892212
6.160000 3.920000 6.000000 -16.226147 15.789444 512.594360
6.160000 3.920000 6.040000 -12.593140 3.989398 174.502472
6.160000 3.920000 6.080000 -5.272478 -2.651612 34.830067
6.160000 3.920000 6.120000 2.636291 -4.536770 27.532310
6.160000 3.920000 6.160000 9.497467 -2.810735 98.102112
6.160000 3.920000 6.200000 14.450649 1.507550 211.093964
6.160000 3.960000 5.800000 30.736668 46.535591 3110.303955
6.160000 3.960000 5.840000 10.158230 55.242287 3154.899902
6.160000 3.960000 5.880000 -10.536376 51.667534 2780.549072
6.160000 3.960000 5.920000 -24.772972 39.140327 2145.665283
6.160000 3.960000 5.960000 -29.847349 23.282429 1432.935791
6.160000 3.960000 6.000000 -26.492676 9.375977 789.770813
6.160000 3.960000 6.040000 -17.816597 1.128997 318.705750
6.160000 3.960000 6.080000 -8.317743 -0.203897 69.226425
6.160000 3.960000 6.120000 -2.178455 3.467591 16.769855
6.160000 3.960000 6.160000 -0.839343 7.978616 64.362808
6.160000 3.960000 6.200000 -2.008964 9.929089 102.622734
6.160000 4.000000 5.800000 -9.678278 53.704578 2977.850586
6.160000 4.000000 5.840000 -28.321285 47.005417 3011.604492
6.160000 4.000000 5.880000 -40.214081 33.000618 2706.212891
6.160000 4.000000 5.920000 -43.554459 16.712931 2176.312988
6.160000 4.000000 5.960000 -39.104313 2.599423 1535.904297
6.160000 4.000000 6.000000 -29.476242 -5.809621 902.600525
6.160000 4.000000 6.040000 -19.167084 -6.818705 413.871826
6.160000 4.000000 6.080000 -13.169653 -2.327348 178.856308
6.160000 4.000000 6.120000 -13.524961 2.282457 188.134171
6.160000 4.000000 6.160000 -16.907682 1.955955 289.695465
6.160000 4.000000 6.200000 -16.975014 -3.121709 297.896149
6.160000 4.040000 5.800000 -39.269672 30.977545 2501.715332
6.160000 4.040000 5.840000 -47.964119 16.456478 2571.372314
6.160000 4.040000 5.880000 -48.795414 0.253773 2381.056885
6.160000 4.040000 5.920000 -42.200485 -13.460554 1962.067505
6.160000 4.040000 5.960000 -30.720221 -21.012779 1385.268799
6.160000 4.040000 6.000000 -19.190052 -20.649338 794.653198
6.160000 4.040000 6.040000 -13.048990 -14.696472 386.262451
6.160000 4.040000 6.080000 -14.322309 -9.408074 293.640381
6.160000 4.040000 6.120000 -18.891315 -10.611311 469.481720
6.160000 4.040000 6.160000 -19.054550 -18.112852 691.151306
6.160000 4.040000 6.200000 -10.502800 -24.733671 722.063354
6.160000 4.080000 5.800000 -41.371075 -0.622327 1711.953125
6.160000 4.080000 5.840000 -41.145889 -14.140656 1892.942383
6.160000 4.080000 5.880000 -34.136147 -26.960800 1892.161255
6.160000 4.080000 5.920000 -21.132881 -34.251698 1619.777466
6.160000 4.080000 5.960000 -7.364062 -32.491516 1109.927979
6.160000 4.080000 6.000000 0.018397 -23.767721 564.904907
6.160000 4.080000 6.040000 -1.943152 -15.833648 254.480240
6.160000 4.080000 6.080000 -8.233495 -16.094366 326.819061
6.160000 4.080000 6.120000 -9.372471 -24.406187 683.505188
6.160000 4.080000 6.160000 -0.084993 -32.249897 1040.063110
6.160000 4.080000 6.200000 15.071468 -30.069672 1131.334351
6.160000 4.120000 5.800000 -23.326725 -17.375969 846.060425
6.160000 4.120000 5.840000 -20.083492 -27.195665 1142.950806
6.160000 4.120000 5.880000 -9.113641 -35.545269 1346.524658
6.160000 4.120000 5.920000 6.340174 -34.921673 1259.720947
6.160000 4.120000 5.960000 16.722660 -24.164949 863.592163
6.160000 4.120000 6.000000 15.411766 -11.727455 375.055725
6.160000 4.120000 6.040000 6.533030 -8.359613 112.563606
6.160000 4.120000 6.080000 1.989953 -16.037201 261.151703
6.160000 4.120000 6.120000 9.729169 -25.101511 724.742615
6.160000 4.120000 6.160000 25.276817 -23.487106 1190.561646
6.160000 4.120000 6.200000 35.756802 -8.804226 1356.063232
6.160000 4.160000 5.800000 -6.775985 -13.377609 224.874405
6.160000 4.160000 5.840000 -3.515968 -22.811958 532.747498
6.160000 4.160000 5.880000 10.014138 -27.266350 843.736816
6.160000 4.160000 5.920000 24.101810 -18.713776 931.102661
6.160000 4.160000 5.960000 26.418026 -2.664492 705.011597
6.160000 4.160000 6.000000 16.216585 6.699449 307.860229
6.160000 4.160000 6.040000 6.186519 1.987307 42.222404
6.160000 4.160000 6.080000 8.997471 -8.674623 156.203583
6.160000 4.160000 6.120000 23.154339 -9.985622 635.836060
6.160000 4.160000 6.160000 34.155365 3.889150 1181.714478
6.160000 4.160000 6.200000 29.978409 22.816771 1419.310059
6.160000 4.200000 5.800000 -5.969296 -2.725730 43.062096
6.160000 4.200000 5.840000 0.306252 -14.550950 211.823944
6.160000 4.200000 5.880000 16.194384 -14.084896 460.642334
6.160000 4.200000 5.920000 25.101950 0.867295 630.860046
6.160000 4.200000 5.960000 17.858810 16.120474 578.806763
6.160000 4.200000 6.000000 3.418263 17.279686 310.272064
6.160000 4.200000 6.040000 -1.343826 6.433174 43.191597
6.160000 4.200000 6.080000 8.724443 -0.099150 76.125748
6.160000 4.200000 6.120000 20.742403 9.339325 517.470276
6.160000 4.200000 6.160000 18.400780 27.891502 1116.524658
6.160000 4.200000 6.200000 0.836995 37.620987 1416.039185
6.200000 3.800000 5.800000 -8.285391 -45.641724 2151.814697
6.200000 3.800000 5.840000 13.089319 -38.446083 1649.431641
6.200000 3.800000 5.880000 22.649778 -19.207952 881.957886
6.200000 3.800000 5.920000 16.399836 -1.738598 271.977356
6.200000 3.800000 5.960000 3.126402 3.574948 22.554642
6.200000 3.800000 6.000000 -4.944357 -1.441133 26.523529
6.200000 3.800000 6.040000 -4.038918 -6.581467 59.628559
6.200000 3.800000 6.080000 -0.890381 -5.131694 27.127060
6.200000 3.800000 6.120000 -3.353650 -0.701286 11.738771
6.200000 3.800000 6.160000 -10.500882 -1.818015 113.573700
6.200000 3.800000 6.200000 -13.376997 -10.759636 294.713806
6.200000 3.840000 5.800000 26.710239 -38.703197 2211.374512
6.200000 3.840000 5.840000 36.396767 -16.022148 1581.433838
6.200000 3.840000 5.880000 27.310568 4.970322 770.571228
6.200000 3.840000 5.920000 8.845361 11.289521 205.693695
6.200000 3.840000 5.960000 -4.174413 3.455387 29.365421
6.200000 3.840000 6.000000 -5.126815 -7.128386 77.098122
6.200000 3.840000 6.040000 0.238019 -10.702284 114.595535
6.200000 3.840000 6.080000 2.376696 -8.155689 72.163948
6.200000 3.840000 6.120000 -0.851776 -7.603201 58.534184
6.200000 3.840000 6.160000 -2.560502 -13.323013 184.058853
6.200000 3.840000 6.200000 4.010318 -19.827429 409.209564
6.200000 3.880000 5.800000 45.987152 -4.629190 2136.247559
6.200000 3.880000 5.840000 33.793476 19.263666 1513.087891
6.200000 3.880000 5.880000 9.669643 25.543873 745.991455
6.200000 3.880000 5.920000 -8.077435 13.169376 238.677429
6.200000 3.880000 5.960000 -9.250046 -4.342127 104.417419
6.200000 3.880000 6.000000 0.879765 -12.865768 166.301987
6.200000 3.880000 6.040000 9.509498 -10.170356 193.866669
6.200000 3.880000 6.080000 10.049181 -5.039802 126.385635
6.200000 3.880000 6.120000 7.263070 -5.593604 84.040588
6.200000 3.880000 6.160000 9.641838 -10.157501 196.139862
6.200000 3.880000 6.200000 18.462803 -10.067801 442.235718
6.200000 3.920000 5.800000 32.342285 34.176624 2214.064941
6.200000 3.920000 5.840000 3.559271 41.432034 1729.281860
6.200000 3.920000 5.880000 -19.602833 25.202538 1019.438965
6.200000 3.920000 5.920000 -21.864456 -0.151188 478.077301
6.200000 3.920000 5.960000 -6.283813 -15.282973 273.055573
6.200000 3.920000 6.000000 11.077932 -12.838236 287.540894
6.200000 3.920000 6.040000 17.303278 -1.244394 300.951965
6.200000 3.920000 6.080000 13.065585 6.416039 211.875061
6.200000 3.920000 6.120000 8.387981 5.627386 102.025696
6.200000 3.920000 6.160000 10.256470 2.662334 112.283195
6.200000 3.920000 6.200000 15.762527 5.466518 278.340057
6.200000 3.960000 5.800000 -5.944096 49.606552 2496.142334
6.200000 3.960000 5.840000 -33.753273 33.150440 2238.235107
6.200000 3.960000 5.880000 -39.653381 2.024235 1576.488159
6.200000 3.960000 5.920000 -21.411444 -21.085865 903.063599
6.200000 3.960000 5.960000 4.661545 -22.024300 506.799774
6.200000 3.960000 6.000000 19.335850 -5.535999 404.522369
6.200000 3.960000 6.040000 16.398928 11.945167 411.611847
6.200000 3.960000 6.080000 4.642478 18.174007 351.847168
6.200000 3.960000 6.120000 -3.366458 13.917547 205.031158
6.200000 3.960000 6.160000 -2.980753 8.367496 78.899887
6.200000 3.960000 6.200000 1.010268 8.379477 71.236267
6.200000 4.000000 5.800000 -41.049767 31.838955 2698.802490
6.200000 4.000000 5.840000 -51.956394 0.720978 2699.986572
6.200000 4.000000 5.880000 -36.338997 -28.528534 2134.399902
6.200000 4.000000 5.920000 -5.687170 -36.281582 1348.697021
6.200000 4.000000 5.960000 18.178307 -20.104488 734.641296
6.200000 4.000000 6.000000 21.154902 5.011625 472.646240
6.200000 4.000000 6.040000 6.469799 20.663273 468.829163
6.200000 4.000000 6.080000 -11.142357 19.440521 502.085999
6.200000 4.000000 6.120000 -19.056980 7.767280 423.499115
6.200000 4.000000 6.160000 -15.396601 -2.630285 243.973709
6.200000 4.000000 6.200000 -7.018242 -4.846972 72.748856
6.200000 4.040000 5.800000 -49.458992 -2.489047 2452.387207
6.200000 4.040000 5.840000 -41.037518 -31.669743 2687.050537
6.200000 4.040000 5.880000 -13.276816 -46.444580 2333.373047
6.200000 4.040000 5.920000 15.994275 -36.733673 1605.179688
6.200000 4.040000 5.960000 27.918278 -10.357776 886.713745
6.200000 4.040000 6.000000 17.121513 13.619816 478.645599
6.200000 4.040000 6.040000 -5.405786 20.015438 429.840271
6.200000 4.040000 6.080000 -22.319004 8.094959 563.666321
6.200000 4.040000 6.120000 -23.334286 -10.192307 648.372009
6.200000 4.040000 6.160000 -11.133944 -21.000429 564.982727
6.200000 4.040000 6.200000 3.252232 -18.564014 355.199615
6.200000 4.080000 5.800000 -31.605118 -26.034613 1676.684570
6.200000 4.080000 5.840000 -14.135437 -43.146904 2061.465820
6.200000 4.080000 5.880000 12.487865 -43.092407 2012.902344
6.200000 4.080000 5.920000 31.546595 -23.610054 1552.622314
6.200000 4.080000 5.960000 30.289476 2.924664 926.006042
6.200000 4.080000 6.000000 10.617777 18.387550 450.839203
6.200000 4.080000 6.040000 -11.996506 13.106335 315.692169
6.200000 4.080000 6.080000 -20.782810 -6.717962 477.056213
6.200000 4.080000 6.120000 -10.675533 -24.647402 721.461426
6.200000 4.080000 6.160000 8.834984 -27.477760 833.084229
6.200000 4.080000 6.200000 22.650700 -14.851667 733.626221
6.200000 4.120000 5.800000 -8.983977 -25.344936 723.077637
6.200000 4.120000 5.840000 6.190371 -32.924595 1122.349609
6.200000 4.120000 5.880000 25.438332 -26.241566 1335.728516
6.200000 4.120000 5.920000 34.540474 -5.847240 1227.234497
6.200000 4.120000 5.960000 25.027895 14.869666 847.502441
6.200000 4.120000 6.000000 3.529010 20.200640 420.519775
6.200000 4.120000 6.040000 -12.523342 6.467289 198.659927
6.200000 4.120000 6.080000 -9.969754 -13.848364 291.173157
6.200000 4.120000 6.120000 8.343990 -22.927122 595.275146
6.200000 4.120000 6.160000 26.525246 -13.325989 881.170654
6.200000 4.120000 6.200000 30.283531 6.416059 958.258118
6.200000 4.160000 5.800000 -2.255955 -10.892999 123.746750
6.200000 4.160000 5.840000 8.547058 -17.623604 383.643616
6.200000 4.160000 5.880000 23.215744 -10.926455 658.358215
6.200000 4.160000 5.920000 27.035969 7.091887 781.238464
6.200000 4.160000 5.960000 14.292220 21.445087 664.159363
6.200000 4.160000 6.000000 -4.242515 19.023438 379.890106
6.200000 4.160000 6.040000 -11.191179 2.668453 132.363129
6.200000 4.160000 6.080000 -0.124639 -10.893202 118.677376
6.200000 4.160000 6.120000 17.799034 -7.641790 375.202576
6.200000 4.160000 6.160000 25.211327 9.957581 734.764404
6.200000 4.160000 6.200000 15.751241 26.394199 944.755310
6.200000 4.200000 5.800000 -12.201704 -3.808794 163.388489
6.200000 4.200000 5.840000 0.552666 -13.279215 176.642975
6.200000 4.200000 5.880000 15.327314 -5.939193 270.200562
6.200000 4.200000 5.920000 16.194950 11.013855 383.581390
6.200000 4.200000 5.960000 2.325514 20.154791 411.623627
6.200000 4.200000 6.000000 -11.200937 12.986079 294.099243
6.200000 4.200000 6.040000 -10.223854 -0.855161 105.258492
6.200000 4.200000 6.080000 2.901858 -4.594743 29.532440
6.200000 4.200000 6.120000 12.318017 7.019612 201.008484
6.200000 4.200000 6.160000 6.504252 22.384035 543.350342
6.200000 4.200000 6.200000 -9.455978 26.584459 796.148987
