#kx 	ky 	kz 	real 	imag 	intensity
0.800000 0.800000 2.983333 -42.411221 -18.927185 2156.949951
0.800000 0.800000 2.991667 21.881321 7.420875 533.861572
0.800000 0.800000 3.000000 -23.661636 41.019958 2242.510010
0.800000 0.800000 3.008333 -41.260872 7.297651 1755.715332
0.800000 0.800000 3.016667 -26.783306 -0.649585 717.767395
0.800000 0.900000 2.983333 -3.798534 -31.321411 995.459717
0.800000 0.900000 2.991667 7.860604 21.201443 511.290253
0.800000 0.900000 3.000000 -79.510574 -25.954475 6995.566406
0.800000 0.900000 3.008333 34.100204 -65.784317 5490.400391
0.800000 0.900000 3.016667 -8.646493 2.773453 82.453880
0.800000 1.000000 2.983333 19.764347 -14.571890 602.969421
0.800000 1.000000 2.991667 2.884068 -3.894296 23.483387
0.800000 1.000000 3.000000 54.536446 -53.433136 5829.324219
0.800000 1.000000 3.008333 57.488834 66.638672 7745.678711
0.800000 1.000000 3.016667 -3.527208 17.156370 306.782227
0.800000 1.100000 2.983333 12.928865 17.900440 487.581299
0.800000 1.100000 2.991667 32.680405 26.063540 1747.316895
0.800000 1.100000 3.000000 -18.000563 89.638420 8359.066406
0.800000 1.100000 3.008333 -68.722015 4.749548 4745.273438
0.800000 1.100000 3.016667 -41.436485 25.976692 2391.770752
0.800000 1.200000 2.983333 -10.030025 6.461972 142.358490
0.800000 1.200000 2.991667 -23.332422 35.620186 1813.199463
0.800000 1.200000 3.000000 -78.470581 -72.201752 11370.724609
0.800000 1.200000 3.008333 64.097137 -50.201900 6628.673828
0.800000 1.200000 3.016667 -28.737120 -24.034138 1403.461792
0.900000 0.800000 2.983333 -50.891018 -2.536737 2596.330811
0.900000 0.800000 2.991667 -53.134659 -55.047958 5853.569824
0.900000 0.800000 3.000000 15.964423 -10.198460 358.871399
0.900000 0.800000 3.008333 -76.166107 -14.821029 6020.938965
0.900000 0.800000 3.016667 10.738888 -72.860687 5424.003418
0.900000 0.900000 2.983333 219.800842 -287.850067 131170.078125
0.900000 0.900000 2.991667 -531.746155 1362.100830 2138072.500000
0.900000 0.900000 3.000000 -1913.316162 -945.126892 4554043.500000
0.900000 0.900000 3.008333 398.153015 -1189.714722 1573947.000000
0.900000 0.900000 3.016667 68.172089 -378.111755 147615.937500
0.900000 1.000000 2.983333 520.381958 289.953430 354870.375000
0.900000 1.000000 2.991667 -2273.477539 -477.914856 5397102.500000
0.900000 1.000000 3.000000 979.381470 -3168.121094 10996179.000000
0.900000 1.000000 3.008333 1865.515625 305.224731 3573310.750000
0.900000 1.000000 3.016667 618.022827 -11.318268 382080.312500
0.900000 1.100000 2.983333 -111.148804 426.843750 194549.656250
0.900000 1.100000 2.991667 12.979980 -1440.907227 2076382.125000
0.900000 1.100000 3.000000 2057.295898 255.755096 4297877.000000
0.900000 1.100000 3.008333 33.743286 1207.406006 1458967.875000
0.900000 1.100000 3.016667 22.429047 417.233459 174586.828125
0.900000 1.200000 2.983333 -67.371384 67.290619 9066.930664
0.900000 1.200000 2.991667 -92.121933 -74.388100 14020.039062
0.900000 1.200000 3.000000 77.645111 -48.836182 8413.736328
0.900000 1.200000 3.008333 -34.263321 73.492577 6575.133789
0.900000 1.200000 3.016667 -37.848129 -80.046738 7839.960938
1.000000 0.800000 2.983333 -70.312637 -86.447823 12417.093750
1.000000 0.800000 2.991667 97.240067 -97.442223 18950.617188
1.000000 0.800000 3.000000 3.022020 57.743591 3343.454834
1.000000 0.800000 3.008333 -27.643589 -113.332237 13608.364258
1.000000 0.800000 3.016667 105.170959 -15.183571 11291.471680
1.000000 0.900000 2.983333 499.075378 237.112518 305298.593750
1.000000 0.900000 2.991667 -2209.587891 -480.206055 5112876.500000
1.000000 0.900000 3.000000 916.354492 -3188.839355 11008402.000000
1.000000 0.900000 3.008333 1979.562988 232.288940 3972627.750000
1.000000 0.900000 3.016667 626.253479 58.562897 395623.031250
1.000000 1.000000 2.983333 -318.822632 867.448364 854114.562500
1.000000 1.000000 2.991667 208.759155 -3617.404541 13129196.000000
1.000000 1.000000 3.000000 5148.024414 678.442810 26962440.000000
1.000000 1.000000 3.008333 89.876953 3018.850830 9121538.000000
1.000000 1.000000 3.016667 131.196838 995.942627 1009114.312500
1.000000 1.100000 2.983333 -669.805359 -70.762543 453646.562500
1.000000 1.100000 2.991667 2260.701416 -290.017212 5194881.000000
1.000000 1.100000 3.000000 97.776146 3305.180664 10933779.000000
1.000000 1.100000 3.008333 -1912.207764 375.036438 3797190.750000
1.000000 1.100000 3.016667 -672.356873 158.356445 477140.500000
1.000000 1.200000 2.983333 -122.042519 -71.507843 20007.748047
1.000000 1.200000 2.991667 70.909058 -113.761772 17969.835938
1.000000 1.200000 3.000000 3.716712 38.290039 1479.941040
1.000000 1.200000 3.008333 -46.354603 -88.768814 10028.651367
1.000000 1.200000 3.016667 74.968964 -75.261902 11284.699219
1.100000 0.800000 2.983333 53.012646 -68.883278 7555.246094
1.100000 0.800000 2.991667 41.290260 74.453720 7248.242188
1.100000 0.800000 3.000000 -52.250267 -20.940407 3168.591064
1.100000 0.800000 3.008333 69.653885 -41.123703 6542.822266
1.100000 0.800000 3.016667 46.653442 63.646435 6227.412109
1.100000 0.900000 2.983333 -96.883652 337.400085 123225.265625
1.100000 0.900000 2.991667 96.783386 -1459.049072 2138191.250000
1.100000 0.900000 3.000000 2124.069336 246.514557 4572440.000000
1.100000 0.900000 3.008333 93.928894 1297.141113 1691397.750000
1.100000 0.900000 3.016667 1.035473 434.323395 188637.890625
1.100000 1.000000 2.983333 -579.948364 -143.910004 357050.187500
1.100000 1.000000 2.991667 2310.175049 -179.916992 5369279.000000
1.100000 1.000000 3.000000 72.380684 3311.575195 10971769.000000
1.100000 1.000000 3.008333 -1919.191895 398.309631 3841948.000000
1.100000 1.000000 3.016667 -642.021790 153.508865 435756.937500
1.100000 1.100000 2.983333 11.179863 -444.025482 197283.609375
1.100000 1.100000 2.991667 360.809814 1403.040039 2098705.000000
1.100000 1.100000 3.000000 -2073.194580 340.945618 4414380.000000
1.100000 1.100000 3.008333 -419.335510 -1188.156494 1587558.125000
1.100000 1.100000 3.016667 -156.832092 -417.159851 198618.656250
1.100000 1.200000 2.983333 52.913322 -80.644531 9303.360352
1.100000 1.200000 2.991667 73.425705 18.346333 5727.921875
1.100000 1.200000 3.000000 36.669788 -17.793552 1661.283813
1.100000 1.200000 3.008333 75.892006 16.885841 6044.728516
1.100000 1.200000 3.016667 45.642429 34.587891 3279.553711
1.200000 0.800000 2.983333 -10.257742 4.433800 124.879852
1.200000 0.800000 2.991667 -39.138607 -75.893600 7291.668945
1.200000 0.800000 3.000000 55.741776 -37.323303 4500.174316
1.200000 0.800000 3.008333 25.557318 0.380240 653.321106
1.200000 0.800000 3.016667 9.321037 33.762188 1226.767090
1.200000 0.900000 2.983333 16.712376 -29.199492 1131.913818
1.200000 0.900000 2.991667 82.359787 21.070641 7227.105957
1.200000 0.900000 3.000000 9.984683 59.538399 3644.514893
1.200000 0.900000 3.008333 -14.544521 37.288429 1601.970093
1.200000 0.900000 3.016667 -23.048286 -1.837990 534.601746
1.200000 1.000000 2.983333 64.009468 -3.150063 4107.134766
1.200000 1.000000 2.991667 -62.963211 51.274776 6593.468750
1.200000 1.000000 3.000000 -17.615253 -45.952606 2421.939209
1.200000 1.000000 3.008333 -9.256363 -17.115116 378.607422
1.200000 1.000000 3.016667 18.267693 -3.168423 343.747498
1.200000 1.100000 2.983333 49.155708 44.779495 4421.486816
1.200000 1.100000 2.991667 -1.649422 -59.645248 3560.276367
1.200000 1.100000 3.000000 98.715172 3.598177 9757.632812
1.200000 1.100000 3.008333 31.969208 43.420334 2907.355713
1.200000 1.100000 3.016667 -4.909386 25.889172 694.351257
1.200000 1.200000 2.983333 17.957745 60.649967 4000.898926
1.200000 1.200000 2.991667 21.812050 21.885132 954.724487
1.200000 1.200000 3.000000 23.362724 93.537537 9295.087891
1.200000 1.200000 3.008333 -71.659866 50.101612 7645.307617
1.200000 1.200000 3.016667 -19.055386 -7.979671 426.782898
