#kx 	ky 	kz 	real 	imag 	intensity
-1.200000 6.800000 4.800000 11.946942 -14.483902 352.512848
-1.200000 6.800000 4.840000 6.674485 -1.305084 46.251995
-1.200000 6.800000 4.880000 -6.911066 -0.210728 47.807240
-1.200000 6.800000 4.920000 -14.288651 -13.108153 375.989197
-1.200000 6.800000 4.960000 -5.507171 -28.345160 833.776978
-1.200000 6.800000 5.000000 14.940710 -30.580051 1158.364380
-1.200000 6.800000 5.040000 31.301895 -14.924664 1202.554199
-1.200000 6.800000 5.080000 30.587688 8.146278 1001.968567
-1.200000 6.800000 5.120000 14.212004 22.249981 697.042725
-1.200000 6.800000 5.160000 -4.047574 19.895870 412.228485
-1.200000 6.800000 5.200000 -11.593925 8.093634 199.925995
-1.200000 6.840000 4.800000 9.702250 -8.904631 173.426117
-1.200000 6.840000 4.840000 2.455815 0.137512 6.049938
-1.200000 6.840000 4.880000 -9.610606 -2.793900 100.169632
-1.200000 6.840000 4.920000 -12.799810 -17.156748 458.189148
-1.200000 6.840000 4.960000 0.259080 -29.602943 876.401428
-1.200000 6.840000 5.000000 21.288342 -25.549417 1105.966187
-1.200000 6.840000 5.040000 32.205414 -4.240950 1055.174316
-1.200000 6.840000 5.080000 22.110744 18.634827 836.141785
-1.200000 6.840000 5.120000 -1.421999 24.976562 625.850769
-1.200000 6.840000 5.160000 -19.074461 11.538764 496.978149
-1.200000 6.840000 5.200000 -18.399200 -7.363248 392.747986
-1.200000 6.880000 4.800000 8.574474 -11.015865 194.870895
-1.200000 6.880000 4.840000 2.584917 -4.678843 28.573364
-1.200000 6.880000 4.880000 -6.289203 -9.046282 121.389282
-1.200000 6.880000 4.920000 -5.432726 -21.837313 506.382751
-1.200000 6.880000 4.960000 9.433098 -29.184963 940.745422
-1.200000 6.880000 5.000000 26.947289 -19.499378 1106.382080
-1.200000 6.880000 5.040000 29.918907 2.637066 902.095093
-1.200000 6.880000 5.080000 13.335367 18.824846 532.206848
-1.200000 6.880000 5.120000 -8.904405 14.815395 298.784363
-1.200000 6.880000 5.160000 -17.154369 -4.511366 314.624817
-1.200000 6.880000 5.200000 -5.932193 -19.820827 428.056122
-1.200000 6.920000 4.800000 15.650872 -13.390875 424.265320
-1.200000 6.920000 4.840000 10.827555 -6.634644 161.254425
-1.200000 6.920000 4.880000 3.776127 -9.973788 113.735596
-1.200000 6.920000 4.920000 6.128335 -19.617035 422.384552
-1.200000 6.920000 4.960000 19.313686 -22.368773 873.380493
-1.200000 6.920000 5.000000 31.070934 -10.653974 1078.910156
-1.200000 6.920000 5.040000 28.163065 7.426119 848.305420
-1.200000 6.920000 5.080000 11.664610 15.470285 375.392853
-1.200000 6.920000 5.120000 -2.882725 6.454856 49.975273
-1.200000 6.920000 5.160000 -1.771111 -9.016297 84.430450
-1.200000 6.920000 5.200000 11.893953 -13.870049 333.844360
-1.200000 6.960000 4.800000 26.597527 -6.343988 747.674622
-1.200000 6.960000 4.840000 20.025490 1.717424 403.969788
-1.200000 6.960000 4.880000 12.173702 -0.800133 148.839233
-1.200000 6.960000 4.920000 13.438409 -8.533914 253.418518
-1.200000 6.960000 4.960000 23.270077 -9.720016 635.975159
-1.200000 6.960000 5.000000 30.620005 0.136343 937.603271
-1.200000 6.960000 5.040000 26.594051 12.896757 873.569946
-1.200000 6.960000 5.080000 14.683402 16.972631 503.672516
-1.200000 6.960000 5.120000 6.708124 10.555850 156.424896
-1.200000 6.960000 5.160000 9.115053 3.406344 94.687378
-1.200000 6.960000 5.200000 15.650412 5.109853 271.045959
-1.200000 7.000000 4.800000 30.132816 10.409885 1016.352356
-1.200000 7.000000 4.840000 19.731533 17.225569 686.053589
-1.200000 7.000000 4.880000 10.183497 13.044122 273.852722
-1.200000 7.000000 4.920000 10.161448 4.482559 123.348351
-1.200000 7.000000 4.960000 18.135139 1.927991 332.600433
-1.200000 7.000000 5.000000 24.752205 8.862409 691.213928
-1.200000 7.000000 5.040000 22.951366 19.222113 896.254822
-1.200000 7.000000 5.080000 14.477226 24.741243 821.719238
-1.200000 7.000000 5.120000 6.402390 23.387960 587.987305
-1.200000 7.000000 5.160000 2.756145 19.690998 395.331757
-1.200000 7.000000 5.200000 1.313797 17.807510 318.833496
-1.200000 7.040000 4.800000 20.319510 26.688900 1125.179810
-1.200000 7.040000 4.840000 7.419959 28.991451 895.560059
-1.200000 7.040000 4.880000 -2.002819 21.088379 448.731018
-1.200000 7.040000 4.920000 -1.039514 10.179020 104.693039
-1.200000 7.040000 4.960000 8.236457 6.044250 104.372169
-1.200000 7.040000 5.000000 16.717674 12.505430 435.866394
-1.200000 7.040000 5.040000 16.244503 24.460724 862.210938
-1.200000 7.040000 5.080000 6.172156 32.738064 1109.876221
-1.200000 7.040000 5.120000 -7.019610 31.682684 1053.067383
-1.200000 7.040000 5.160000 -15.638447 22.730431 761.233521
-1.200000 7.040000 5.200000 -16.291870 11.881931 406.605316
-1.200000 7.080000 4.800000 2.891818 32.208054 1045.721313
-1.200000 7.080000 4.840000 -9.117143 29.389620 946.872070
-1.200000 7.080000 4.880000 -15.713919 18.121078 575.300720
-1.200000 7.080000 4.920000 -11.233612 5.981631 161.973953
-1.200000 7.080000 4.960000 1.091182 2.926027 9.752314
-1.200000 7.080000 5.000000 10.443492 12.304620 260.470184
-1.200000 7.080000 5.040000 7.269407 26.752592 768.545471
-1.200000 7.080000 5.080000 -7.889833 33.656998 1195.042969
-1.200000 7.080000 5.120000 -24.100382 25.960087 1254.754517
-1.200000 7.080000 5.160000 -29.104828 8.547883 920.157288
-1.200000 7.080000 5.200000 -19.758591 -5.813054 424.193512
-1.200000 7.120000 4.800000 -11.035861 26.677475 833.477905
-1.200000 7.120000 4.840000 -20.233673 20.894428 845.978638
-1.200000 7.120000 4.880000 -22.827229 8.310203 590.141785
-1.200000 7.120000 4.920000 -14.253576 -2.420905 209.025223
-1.200000 7.120000 4.960000 -0.275651 -1.466031 2.225231
-1.200000 7.120000 5.000000 6.262896 11.570395 173.097885
-1.200000 7.120000 5.040000 -2.551499 24.993654 631.192871
-1.200000 7.120000 5.080000 -20.645344 24.861589 1044.328857
-1.200000 7.120000 5.120000 -32.121078 8.684466 1107.183594
-1.200000 7.120000 5.160000 -25.883192 -10.967229 790.219727
-1.200000 7.120000 5.200000 -6.632764 -17.533018 351.400299
-1.200000 7.160000 4.800000 -16.470383 18.688580 620.536499
-1.200000 7.160000 4.840000 -23.809353 11.696091 703.683777
-1.200000 7.160000 4.880000 -23.007814 -0.757684 529.933594
-1.200000 7.160000 4.920000 -11.784962 -8.221937 206.485565
-1.200000 7.160000 4.960000 0.638900 -2.782207 8.148871
-1.200000 7.160000 5.000000 1.617637 10.889719 121.202728
-1.200000 7.160000 5.040000 -11.186682 18.320387 460.778412
-1.200000 7.160000 5.080000 -25.524389 9.643570 744.492920
-1.200000 7.160000 5.120000 -25.831440 -9.084827 749.797363
-1.200000 7.160000 5.160000 -9.373847 -20.516396 508.791504
-1.200000 7.160000 5.200000 9.745462 -12.952446 262.739899
-1.200000 7.200000 4.800000 -18.444511 15.253090 572.856750
-1.200000 7.200000 4.840000 -25.235355 5.908290 671.731079
-1.200000 7.200000 4.880000 -21.446962 -6.508119 502.327820
-1.200000 7.200000 4.920000 -9.227417 -10.582035 197.124695
-1.200000 7.200000 4.960000 -0.418886 -2.836374 8.220485
-1.200000 7.200000 5.000000 -3.927634 7.305842 68.801636
-1.200000 7.200000 5.040000 -15.172688 7.084220 280.396637
-1.200000 7.200000 5.080000 -20.042219 -5.238802 429.135590
-1.200000 7.200000 5.120000 -10.109392 -17.251307 399.807373
-1.200000 7.200000 5.160000 7.172927 -14.900725 273.482513
-1.200000 7.200000 5.200000 14.965290 2.103950 228.386505
-1.160000 6.800000 4.800000 14.459092 1.511088 211.348724
-1.160000 6.800000 4.840000 3.286372 5.830752 44.797913
-1.160000 6.800000 4.880000 -6.034578 -0.786374 37.034515
-1.160000 6.800000 4.920000 -5.435481 -12.683222 190.408569
-1.160000 6.800000 4.960000 5.759383 -19.957304 431.464478
-1.160000 6.800000 5.000000 20.257935 -15.754046 658.573853
-1.160000 6.800000 5.040000 28.120506 -1.318419 792.501099
-1.160000 6.800000 5.080000 24.002258 15.063837 803.027588
-1.160000 6.800000 5.120000 10.658652 24.323151 705.222534
-1.160000 6.800000 5.160000 -3.835150 22.972010 542.421631
-1.160000 6.800000 5.200000 -12.485425 14.475685 365.431274
-1.160000 6.840000 4.800000 6.918333 2.468538 53.957012
-1.160000 6.840000 4.840000 1.066711 1.707759 4.054316
-1.160000 6.840000 4.880000 -1.221531 -3.403921 13.078816
-1.160000 6.840000 4.920000 2.629106 -8.471431 78.677338
-1.160000 6.840000 4.960000 10.761764 -8.009833 179.972992
-1.160000 6.840000 5.000000 16.962257 0.277655 287.795258
-1.160000 6.840000 5.040000 14.868280 12.458976 376.291840
-1.160000 6.840000 5.080000 3.662590 20.322315 426.411072
-1.160000 6.840000 5.120000 -10.159983 17.894264 423.429932
-1.160000 6.840000 5.160000 -17.684734 6.906623 360.451263
-1.160000 6.840000 5.200000 -15.173075 -4.500839 250.479752
-1.160000 6.880000 4.800000 7.002575 -3.299698 59.924065
-1.160000 6.880000 4.840000 7.965920 -1.311364 65.175560
-1.160000 6.880000 4.880000 7.518093 1.230994 58.037071
-1.160000 6.880000 4.920000 6.237823 3.116080 48.620384
-1.160000 6.880000 4.960000 4.979538 4.875363 48.564964
-1.160000 6.880000 5.000000 2.723842 7.331480 61.169914
-1.160000 6.880000 5.040000 -2.205750 8.955353 85.063675
-1.160000 6.880000 5.080000 -8.705477 6.446488 117.342537
-1.160000 6.880000 5.120000 -12.167807 -1.067807 149.195724
-1.160000 6.880000 5.160000 -8.740982 -9.327093 163.399445
-1.160000 6.880000 5.200000 -0.228209 -12.035834 144.913391
-1.160000 6.920000 4.800000 16.065794 -3.289694 268.931824
-1.160000 6.920000 4.840000 17.204632 6.722763 341.194885
-1.160000 6.920000 4.880000 9.806841 15.159904 325.996826
-1.160000 6.920000 4.920000 -1.515697 15.816124 252.447113
-1.160000 6.920000 4.960000 -9.563394 8.970942 171.936310
-1.160000 6.920000 5.000000 -10.852798 -0.137523 117.802147
-1.160000 6.920000 5.040000 -7.002953 -6.755786 94.681992
-1.160000 6.920000 5.080000 -1.275367 -9.588306 93.562187
-1.160000 6.920000 5.120000 4.493567 -9.261976 105.976341
-1.160000 6.920000 5.160000 9.353209 -5.977351 123.211243
-1.160000 6.920000 5.200000 11.430147 -0.087042 130.655853
-1.160000 6.960000 4.800000 22.797323 8.845165 597.954895
-1.160000 6.960000 4.840000 15.773743 23.506237 801.354126
-1.160000 6.960000 4.880000 -1.928658 28.603125 821.858459
-1.160000 6.960000 4.920000 -18.577450 18.536751 688.732788
-1.160000 6.960000 4.960000 -22.630085 -0.473455 512.344910
-1.160000 6.960000 5.000000 -12.086319 -15.800522 395.735596
-1.160000 6.960000 5.040000 4.919433 -18.598888 370.119446
-1.160000 6.960000 5.080000 17.503942 -9.487896 396.408173
-1.160000 6.960000 5.120000 19.907476 3.967379 412.047699
-1.160000 6.960000 5.160000 13.612752 13.875781 377.844299
-1.160000 6.960000 5.200000 4.125611 16.576260 291.793030
-1.160000 7.000000 4.800000 16.079887 25.264647 896.865112
-1.160000 7.000000 4.840000 -0.650971 35.351315 1250.139160
-1.160000 7.000000 4.880000 -22.439798 28.740467 1329.559082
-1.160000 7.000000 4.920000 -33.167072 6.348539 1140.358643
-1.160000 7.000000 4.960000 -23.463394 -17.501417 856.830444
-1.160000 7.000000 5.000000 0.751089 -26.178270 685.865967
-1.160000 7.000000 5.040000 22.658882 -14.193079 714.868408
-1.160000 7.000000 5.080000 27.945789 8.826286 858.870483
-1.160000 7.000000 5.120000 15.430674 26.557018 943.380859
-1.160000 7.000000 5.160000 -3.681239 28.789734 842.400269
-1.160000 7.000000 5.200000 -15.845377 17.824976 568.805725
-1.160000 7.040000 4.800000 -2.248337 32.002205 1029.196167
-1.160000 7.040000 4.840000 -21.852013 31.203794 1451.187256
-1.160000 7.040000 4.880000 -37.184643 13.178144 1556.361084
-1.160000 7.040000 4.920000 -33.895771 -13.196061 1323.059326
-1.160000 7.040000 4.960000 -10.578054 -29.279842 969.204346
-1.160000 7.040000 5.000000 17.555790 -21.941063 789.615967
-1.160000 7.040000 5.040000 30.022453 4.273667 919.611938
-1.160000 7.040000 5.080000 18.102571 29.914795 1222.598022
-1.160000 7.040000 5.120000 -7.847010 36.593426 1400.654419
-1.160000 7.040000 5.160000 -27.528313 21.920536 1238.317871
-1.160000 7.040000 5.200000 -27.883963 0.221844 777.564575
-1.160000 7.080000 4.800000 -19.069992 23.913521 935.521118
-1.160000 7.080000 4.840000 -33.087166 14.246531 1297.724121
-1.160000 7.080000 4.880000 -36.346741 -6.904095 1368.752075
-1.160000 7.080000 4.920000 -20.810776 -26.148830 1116.849731
-1.160000 7.080000 4.960000 6.120718 -27.098259 771.778809
-1.160000 7.080000 5.000000 24.834431 -5.966743 652.351013
-1.160000 7.080000 5.040000 19.794655 22.369759 892.234497
-1.160000 7.080000 5.080000 -5.649504 35.680977 1305.048950
-1.160000 7.080000 5.120000 -30.958675 23.792957 1524.544434
-1.160000 7.080000 5.160000 -36.174744 -2.138217 1313.184082
-1.160000 7.080000 5.200000 -19.433353 -19.808048 770.013977
-1.160000 7.120000 4.800000 -23.979065 9.706143 669.204773
-1.160000 7.120000 4.840000 -29.965675 -1.805220 901.200562
-1.160000 7.120000 4.880000 -24.244917 -17.861286 906.841553
-1.160000 7.120000 4.920000 -5.496558 -25.271112 668.841309
-1.160000 7.120000 4.960000 13.953394 -14.373691 401.300171
-1.160000 7.120000 5.000000 17.261171 9.082021 380.431122
-1.160000 7.120000 5.040000 -0.476194 26.172499 685.226440
-1.160000 7.120000 5.080000 -25.258423 21.432693 1097.348267
-1.160000 7.120000 5.120000 -35.623158 -1.727112 1271.992310
-1.160000 7.120000 5.160000 -22.615025 -22.978096 1039.432251
-1.160000 7.120000 5.200000 1.353014 -23.739090 565.375000
-1.160000 7.160000 4.800000 -19.854025 1.680258 397.005585
-1.160000 7.160000 4.840000 -21.733404 -7.488218 528.414246
-1.160000 7.160000 4.880000 -13.874479 -17.064127 483.685608
-1.160000 7.160000 4.920000 0.568013 -16.579128 275.190125
-1.160000 7.160000 4.960000 9.125580 -3.381460 94.710480
-1.160000 7.160000 5.000000 2.159659 11.783286 143.509949
-1.160000 7.160000 5.040000 -15.505123 13.768298 429.974884
-1.160000 7.160000 5.080000 -27.157272 -1.284921 739.168457
-1.160000 7.160000 5.120000 -20.238834 -20.236601 819.130432
-1.160000 7.160000 5.160000 0.176947 -24.756376 612.909485
-1.160000 7.160000 5.200000 15.096392 -9.604743 320.152130
-1.160000 7.200000 4.800000 -18.226681 1.989876 336.171478
-1.160000 7.200000 4.840000 -19.698641 -6.921040 435.937225
-1.160000 7.200000 4.880000 -12.547056 -14.157883 357.874268
-1.160000 7.200000 4.920000 -2.650643 -12.251955 157.136307
-1.160000 7.200000 4.960000 0.007391 -3.396102 11.533563
-1.160000 7.200000 5.000000 -7.135308 1.814969 54.206738
-1.160000 7.200000 5.040000 -15.131972 -4.026204 245.186920
-1.160000 7.200000 5.080000 -12.628079 -15.835319 410.225708
-1.160000 7.200000 5.120000 1.041044 -20.227013 410.215820
-1.160000 7.200000 5.160000 13.442556 -9.780905 276.368408
-1.160000 7.200000 5.200000 11.093186 7.701336 182.369354
-1.120000 6.800000 4.800000 3.585021 12.126269 159.898773
-1.120000 6.800000 4.840000 -2.881702 6.086084 45.344635
-1.120000 6.800000 4.880000 -2.522836 -0.946703 7.260947
-1.120000 6.800000 4.920000 1.942230 -4.664822 25.532820
-1.120000 6.800000 4.960000 7.234554 -4.745662 74.860077
-1.120000 6.800000 5.000000 12.262295 -2.048899 154.561859
-1.120000 6.800000 5.040000 16.350321 3.940044 282.856934
-1.120000 6.800000 5.080000 16.725576 13.529842 462.801544
-1.120000 6.800000 5.120000 9.939904 23.486691 650.426331
-1.120000 6.800000 5.160000 -3.483110 27.373205 761.424438
-1.120000 6.800000 5.200000 -16.940134 20.835945 721.104736
-1.120000 6.840000 4.800000 -2.675089 5.321382 35.473206
-1.120000 6.840000 4.840000 2.632311 2.366669 12.530182
-1.120000 6.840000 4.880000 6.822689 7.854870 108.248062
-1.120000 6.840000 4.920000 2.848520 15.599047 251.444336
-1.120000 6.840000 4.960000 -6.740570 16.897264 330.952820
-1.120000 6.840000 5.000000 -13.273019 10.355850 283.416687
-1.120000 6.840000 5.040000 -11.935966 2.930920 151.057556
-1.120000 6.840000 5.080000 -6.794373 1.608059 48.749352
-1.120000 6.840000 5.120000 -5.542404 5.572632 61.772476
-1.120000 6.840000 5.160000 -10.422450 7.633328 166.895172
-1.120000 6.840000 5.200000 -15.728522 2.850823 255.513611
-1.120000 6.880000 4.800000 2.602083 -1.173849 8.148759
-1.120000 6.880000 4.840000 11.695628 9.772686 232.293121
-1.120000 6.880000 4.880000 4.748039 27.565636 782.408142
-1.120000 6.880000 4.920000 -17.923553 33.818909 1464.972412
-1.120000 6.880000 4.960000 -39.624348 18.989695 1930.697510
-1.120000 6.880000 5.000000 -43.049934 -7.658630 1911.951538
-1.120000 6.880000 5.040000 -26.580572 -26.797020 1424.607056
-1.120000 6.880000 5.080000 -4.765728 -27.031681 753.423950
-1.120000 6.880000 5.120000 6.347445 -13.903074 233.585526
-1.120000 6.880000 5.160000 3.440864 -2.054917 16.062227
-1.120000 6.880000 5.200000 -4.044888 -0.250656 16.423943
-1.120000 6.920000 4.800000 11.504312 3.967452 148.089859
-1.120000 6.920000 4.840000 9.424747 27.343079 836.469788
-1.120000 6.920000 4.880000 -17.522072 42.542404 2116.879150
-1.120000 6.920000 4.920000 -52.419113 28.924425 3584.385742
-1.120000 6.920000 4.960000 -66.885757 -10.326941 4580.350098
-1.120000 6.920000 5.000000 -47.074863 -48.958740 4613.000977
-1.120000 6.920000 5.040000 -6.615761 -60.432690 3695.878174
-1.120000 6.920000 5.080000 25.883463 -40.630142 2320.762207
-1.120000 6.920000 5.120000 31.852818 -9.127580 1097.914673
-1.120000 6.920000 5.160000 16.239090 10.336074 370.542480
-1.120000 6.920000 5.200000 -1.455744 9.910918 100.345490
-1.120000 6.960000 4.800000 9.884251 17.853664 416.451721
-1.120000 6.960000 4.840000 -10.751738 39.161121 1649.193237
-1.120000 6.960000 4.880000 -49.413887 34.388676 3624.313232
-1.120000 6.960000 4.920000 -75.360428 -4.840187 5702.621094
-1.120000 6.960000 4.960000 -62.340225 -55.878231 7008.680664
-1.120000 6.960000 5.000000 -13.946783 -82.326736 6972.204102
-1.120000 6.960000 5.040000 37.578114 -65.417480 5691.561523
-1.120000 6.960000 5.080000 58.574745 -19.887119 3826.498291
-1.120000 6.960000 5.120000 41.526581 20.152409 2130.576416
-1.120000 6.960000 5.160000 7.873740 30.850712 1013.762207
-1.120000 6.960000 5.200000 -14.124022 15.769415 448.162476
-1.120000 7.000000 4.800000 -5.831463 25.638315 691.329163
-1.120000 7.000000 4.840000 -36.794403 30.121696 2261.144775
-1.120000 7.000000 4.880000 -67.064011 1.935365 4501.327148
-1.120000 7.000000 4.920000 -65.760384 -48.186317 6646.349609
-1.120000 7.000000 4.960000 -23.266708 -85.364197 7828.385742
-1.120000 7.000000 5.000000 36.020767 -79.446915 7609.307617
-1.120000 7.000000 5.040000 71.973511 -32.391953 6229.424805
-1.120000 7.000000 5.080000 62.342407 22.309765 4384.301270
-1.120000 7.000000 5.120000 20.527060 48.125854 2737.458008
-1.120000 7.000000 5.160000 -18.358120 35.240910 1578.942383
-1.120000 7.000000 5.200000 -28.700495 4.716081 845.959778
-1.120000 7.040000 4.800000 -23.432194 16.966745 836.938110
-1.120000 7.040000 4.840000 -48.039734 3.072799 2317.258057
-1.120000 7.040000 4.880000 -55.276749 -34.145679 4221.446289
-1.120000 7.040000 4.920000 -27.586617 -71.360268 5853.309082
-1.120000 7.040000 4.960000 24.739012 -77.223793 6575.532715
-1.120000 7.040000 5.000000 67.364166 -40.849499 6206.612305
-1.120000 7.040000 5.040000 69.653503 15.359699 5087.530762
-1.120000 7.040000 5.080000 31.495213 52.750488 3774.562500
-1.120000 7.040000 5.120000 -16.387817 48.794315 2649.445801
-1.120000 7.040000 5.160000 -39.391315 14.869518 1772.778320
-1.120000 7.040000 5.200000 -27.870785 -16.492933 1048.797485
-1.120000 7.080000 4.800000 -27.674324 -1.992625 769.838806
-1.120000 7.080000 4.840000 -35.916950 -22.129761 1779.753662
-1.120000 7.080000 4.880000 -23.103336 -49.101685 2944.739502
-1.120000 7.080000 4.920000 12.171057 -60.435585 3800.594482
-1.120000 7.080000 4.960000 49.399429 -39.888206 4031.372559
-1.120000 7.080000 5.000000 60.498211 4.487629 3680.172363
-1.120000 7.080000 5.040000 34.721840 43.139202 3066.596924
-1.120000 7.080000 5.080000 -9.635102 49.005997 2494.422852
-1.120000 7.080000 5.120000 -39.713840 21.187445 2026.096924
-1.120000 7.080000 5.160000 -36.365578 -14.503654 1532.811157
-1.120000 7.080000 5.200000 -9.717850 -29.090338 940.684326
-1.120000 7.120000 4.800000 -16.952583 -14.843164 507.709595
-1.120000 7.120000 4.840000 -13.058985 -27.965609 952.612305
-1.120000 7.120000 4.880000 4.067213 -37.118240 1394.306030
-1.120000 7.120000 4.920000 27.467991 -29.533712 1626.730713
-1.120000 7.120000 4.960000 39.655212 -3.544090 1585.096436
-1.120000 7.120000 5.000000 27.535927 25.395590 1403.163330
-1.120000 7.120000 5.040000 -3.248409 35.615406 1279.009277
-1.120000 7.120000 5.080000 -30.348703 18.766823 1273.237427
-1.120000 7.120000 5.120000 -33.547813 -11.077188 1248.159912
-1.120000 7.120000 5.160000 -13.193384 -29.163586 1024.580078
-1.120000 7.120000 5.200000 10.147570 -22.404572 604.937988
-1.120000 7.160000 4.800000 -4.994652 -12.901095 191.384811
-1.120000 7.160000 4.840000 -0.342873 -16.679653 278.328369
-1.120000 7.160000 4.880000 8.694079 -15.962416 330.385742
-1.120000 7.160000 4.920000 16.037315 -6.579769 300.488861
-1.120000 7.160000 4.960000 13.180237 7.474028 229.579727
-1.120000 7.160000 5.000000 -1.234268 14.973978 225.743439
-1.120000 7.160000 5.040000 -17.187490 7.641946 353.809143
-1.120000 7.160000 5.080000 -20.993462 -10.165787 544.068665
-1.120000 7.160000 5.120000 -8.663382 -23.560595 630.155823
-1.120000 7.160000 5.160000 8.827753 -20.670887 505.214813
-1.120000 7.160000 5.200000 15.118912 -4.649499 250.199341
-1.120000 7.200000 4.800000 -5.356031 -4.752748 51.275688
-1.120000 7.200000 4.840000 -5.265296 -7.017397 76.967201
-1.120000 7.200000 4.880000 -2.982466 -8.299837 77.782402
-1.120000 7.200000 4.920000 -1.166437 -6.887875 48.803394
-1.120000 7.200000 4.960000 -2.573036 -5.178214 33.434410
-1.120000 7.200000 5.000000 -5.585585 -7.204158 83.098656
-1.120000 7.200000 5.040000 -4.950206 -12.996642 193.417252
-1.120000 7.200000 5.080000 2.042548 -16.840302 287.767761
-1.120000 7.200000 5.120000 10.857697 -12.756603 280.620483
-1.120000 7.200000 5.160000 12.852327 -1.938443 168.939880
-1.120000 7.200000 5.200000 4.200583 6.479119 59.623890
-1.080000 6.800000 4.800000 -10.273104 10.223893 210.064651
-1.080000 6.800000 4.840000 -5.270908 2.182335 32.545059
-1.080000 6.800000 4.880000 0.952330 3.307032 11.843390
-1.080000 6.800000 4.920000 0.383400 7.722685 59.786858
-1.080000 6.800000 4.960000 -4.156986 6.522209 59.819748
-1.080000 6.800000 5.000000 -3.141749 -0.179344 9.902754
-1.080000 6.800000 5.040000 6.717800 -2.323246 50.526310
-1.080000 6.800000 5.080000 16.195744 8.053448 327.160156
-1.080000 6.800000 5.120000 12.401730 25.524174 805.286377
-1.080000 6.800000 5.160000 -6.320065 34.501373 1230.287964
-1.080000 6.800000 5.200000 -26.254152 24.838573 1306.235229
-1.080000 6.840000 4.800000 -9.289490 -0.096832 86.303993
-1.080000 6.840000 4.840000 4.176624 7.623148 75.556580
-1.080000 6.840000 4.880000 0.199097 26.410116 697.533875
-1.080000 6.840000 4.920000 -22.975811 33.381447 1642.208984
-1.080000 6.840000 4.960000 -44.920944 15.756454 2266.156982
-1.080000 6.840000 5.000000 -43.699001 -14.194592 2111.089111
-1.080000 6.840000 5.040000 -19.130978 -30.642769 1304.973633
-1.080000 6.840000 5.080000 6.362640 -20.406742 456.918304
-1.080000 6.840000 5.120000 10.460594 3.868638 124.390396
-1.080000 6.840000 5.160000 -6.858549 17.344358 347.866486
-1.080000 6.840000 5.200000 -24.800804 8.541907 688.044067
-1.080000 6.880000 4.800000 -0.082825 -2.059313 4.247629
-1.080000 6.880000 4.840000 3.164158 25.084717 639.254944
-1.080000 6.880000 4.880000 -27.104263 45.914822 2842.812012
-1.080000 6.880000 4.920000 -70.537231 30.052904 5878.678223
-1.080000 6.880000 4.960000 -87.879028 -20.376202 8137.913086
-1.080000 6.880000 5.000000 -59.142139 -69.170685 8282.375977
-1.080000 6.880000 5.040000 -4.339016 -79.087593 6273.674316
-1.080000 6.880000 5.080000 34.798683 -46.553402 3378.167480
-1.080000 6.880000 5.120000 33.645977 -3.275650 1142.781616
-1.080000 6.880000 5.160000 4.939447 15.657234 269.547119
-1.080000 6.880000 5.200000 -18.126661 3.802484 343.034729
-1.080000 6.920000 4.800000 3.815821 7.194849 66.326340
-1.080000 6.920000 4.840000 -18.121435 38.141258 1783.142090
-1.080000 6.920000 4.880000 -69.679863 35.331993 6103.632812
-1.080000 6.920000 4.920000 -106.738403 -17.674858 11705.487305
-1.080000 6.920000 4.960000 -88.519562 -89.802231 15900.153320
-1.080000 6.920000 5.000000 -18.602726 -126.852898 16437.718750
-1.080000 6.920000 5.040000 55.032532 -100.509758 13130.791016
-1.080000 6.920000 5.080000 82.311157 -33.943676 7927.299805
-1.080000 6.920000 5.120000 54.416374 20.853287 3396.001465
-1.080000 6.920000 5.160000 6.709685 30.423527 970.610901
-1.080000 6.920000 5.200000 -18.568939 5.302300 372.919891
-1.080000 6.960000 4.800000 -6.124569 15.598212 280.814575
-1.080000 6.960000 4.840000 -48.276100 27.324238 3077.195801
-1.080000 6.960000 4.880000 -94.514404 -10.883442 9051.421875
-1.080000 6.960000 4.920000 -94.686539 -85.988098 16359.494141
-1.080000 6.960000 4.960000 -30.569588 -143.940643 21653.408203
-1.080000 6.960000 5.000000 61.263863 -136.070663 22268.484375
-1.080000 6.960000 5.040000 118.046097 -64.269867 18065.496094
-1.080000 6.960000 5.080000 105.068214 19.513113 11420.091797
-1.080000 6.960000 5.120000 43.739048 59.289757 5428.379395
-1.080000 6.960000 5.160000 -12.027719 41.835037 1894.836304
-1.080000 6.960000 5.200000 -25.632206 0.814784 657.673889
-1.080000 7.000000 4.800000 -21.913221 9.311005 566.884094
-1.080000 7.000000 4.840000 -61.629333 -7.623436 3856.291504
-1.080000 7.000000 4.880000 -75.975273 -65.668747 10084.626953
-1.080000 7.000000 4.920000 -32.771011 -127.141373 17238.867188
-1.080000 7.000000 4.960000 53.152435 -138.884308 22114.033203
-1.080000 7.000000 5.000000 125.765343 -81.029549 22382.708984
-1.080000 7.000000 5.040000 134.239288 11.260834 18146.994141
-1.080000 7.000000 5.080000 77.084076 76.063034 11727.539062
-1.080000 7.000000 5.120000 1.952800 77.132629 5953.255859
-1.080000 7.000000 5.160000 -37.863655 31.236988 2409.405762
-1.080000 7.000000 5.200000 -27.802563 -13.325377 950.548157
-1.080000 7.040000 4.800000 -26.324856 -10.556860 804.445312
-1.080000 7.040000 4.840000 -42.993118 -43.048244 3701.559570
-1.080000 7.040000 4.880000 -22.360989 -90.085960 8615.494141
-1.080000 7.040000 4.920000 39.229389 -110.979050 13855.294922
-1.080000 7.040000 4.960000 106.238129 -76.191460 17091.679688
-1.080000 7.040000 5.000000 129.870087 1.586113 16868.755859
-1.080000 7.040000 5.040000 90.496017 73.120316 13536.109375
-1.080000 7.040000 5.080000 16.364645 92.761391 8872.477539
-1.080000 7.040000 5.120000 -40.245110 56.370815 4797.337402
-1.080000 7.040000 5.160000 -47.391426 1.739196 2248.972168
-1.080000 7.040000 5.200000 -16.899300 -27.435452 1038.290283
-1.080000 7.080000 4.800000 -11.928554 -27.164936 880.224182
-1.080000 7.080000 4.840000 -4.746817 -52.016441 2728.242432
-1.080000 7.080000 4.880000 28.578575 -68.443466 5501.243164
-1.080000 7.080000 4.920000 73.480858 -52.653641 8171.842773
-1.080000 7.080000 4.960000 97.696632 -2.412163 9550.450195
-1.080000 7.080000 5.000000 77.900459 54.842766 9076.210938
-1.080000 7.080000 5.040000 22.586090 81.520302 7155.690918
-1.080000 7.080000 5.080000 -32.060276 61.340374 4790.502930
-1.080000 7.080000 5.120000 -51.629890 13.481017 2847.383301
-1.080000 7.080000 5.160000 -31.639748 -24.522041 1602.404053
-1.080000 7.080000 5.200000 1.628188 -29.249126 858.162415
-1.080000 7.120000 4.800000 9.392046 -25.352896 730.979858
-1.080000 7.120000 4.840000 23.159639 -30.467497 1464.637207
-1.080000 7.120000 4.880000 42.967819 -22.966885 2373.711426
-1.080000 7.120000 4.920000 55.600925 1.344402 3093.270264
-1.080000 7.120000 4.960000 47.159069 32.749889 3296.533203
-1.080000 7.120000 5.000000 16.648281 51.580238 2937.686279
-1.080000 7.120000 5.040000 -19.402115 43.564075 2274.270752
-1.080000 7.120000 5.080000 -38.271561 13.346680 1642.846313
-1.080000 7.120000 5.120000 -29.742638 -17.687401 1197.468628
-1.080000 7.120000 5.160000 -4.902931 -28.929104 860.931824
-1.080000 7.120000 5.200000 13.946304 -17.744671 509.372742
-1.080000 7.160000 4.800000 18.090105 -8.563527 400.585876
-1.080000 7.160000 4.840000 21.703541 -1.564974 473.492828
-1.080000 7.160000 4.880000 20.832371 7.386009 488.540802
-1.080000 7.160000 4.920000 14.318172 15.483055 444.735046
-1.080000 7.160000 4.960000 2.836159 18.725197 358.676788
-1.080000 7.160000 5.000000 -9.470802 13.679032 276.812012
-1.080000 7.160000 5.040000 -15.906090 1.083969 254.178680
-1.080000 7.160000 5.080000 -11.968045 -12.548302 300.693970
-1.080000 7.160000 5.120000 -0.163300 -18.747707 351.503204
-1.080000 7.160000 5.160000 10.656715 -14.226710 315.964874
-1.080000 7.160000 5.200000 12.451460 -4.517727 175.448700
-1.080000 7.200000 4.800000 7.994651 3.896009 79.093330
-1.080000 7.200000 4.840000 0.883031 7.266565 53.582714
-1.080000 7.200000 4.880000 -6.724613 3.263802 55.872822
-1.080000 7.200000 4.920000 -8.789364 -5.534595 107.884651
-1.080000 7.200000 4.960000 -3.951881 -13.112570 187.556854
-1.080000 7.200000 5.000000 4.213091 -15.165773 247.750824
-1.080000 7.200000 5.040000 10.793033 -11.722025 253.895416
-1.080000 7.200000 5.080000 13.048370 -5.892075 204.976501
-1.080000 7.200000 5.120000 11.169796 -1.095509 125.964485
-1.080000 7.200000 5.160000 7.105391 0.570467 50.812008
-1.080000 7.200000 5.200000 3.421353 -1.444504 13.792250
-1.040000 6.800000 4.800000 -16.977886 0.105322 288.259705
-1.040000 6.800000 4.840000 -3.983250 -0.075043 15.871909
-1.040000 6.800000 4.880000 -1.242043 10.278202 107.184105
-1.040000 6.800000 4.920000 -11.526108 14.837738 353.009644
-1.040000 6.800000 4.960000 -20.608154 4.345345 443.578033
-1.040000 6.800000 5.000000 -13.407045 -11.335312 308.238159
-1.040000 6.800000 5.040000 7.390060 -12.814674 218.828873
-1.040000 6.800000 5.080000 21.637627 6.957184 516.589294
-1.040000 6.800000 5.120000 12.202126 32.604229 1211.927612
-1.040000 6.800000 5.160000 -15.855978 40.306339 1876.012939
-1.040000 6.800000 5.200000 -38.658630 22.048288 1980.616699
-1.040000 6.840000 4.800000 -9.578448 -6.620345 135.575638
-1.040000 6.840000 4.840000 -1.708323 15.232576 234.949753
-1.040000 6.840000 4.880000 -24.319658 34.261375 1765.287598
-1.040000 6.840000 4.920000 -59.775833 21.461002 4033.724854
-1.040000 6.840000 4.960000 -71.675438 -21.538116 5601.258789
-1.040000 6.840000 5.000000 -42.215698 -60.362823 5425.835449
-1.040000 6.840000 5.040000 7.374481 -60.671921 3735.465088
-1.040000 6.840000 5.080000 35.956116 -22.697144 1808.002686
-1.040000 6.840000 5.120000 22.379604 18.571112 845.732910
-1.040000 6.840000 5.160000 -14.878228 28.007660 1005.790710
-1.040000 6.840000 5.200000 -38.082077 3.882661 1465.319702
-1.040000 6.880000 4.800000 -2.198172 -2.869022 13.063248
-1.040000 6.880000 4.840000 -19.985378 29.837637 1289.699951
-1.040000 6.880000 4.880000 -70.880646 29.081516 5869.800293
-1.040000 6.880000 4.920000 -107.880646 -24.420387 12234.588867
-1.040000 6.880000 4.960000 -86.698502 -97.533173 17029.349609
-1.040000 6.880000 5.000000 -12.060226 -131.559662 17453.394531
-1.040000 6.880000 5.040000 62.450325 -97.461502 13398.787109
-1.040000 6.880000 5.080000 82.951645 -24.054977 7459.617676
-1.040000 6.880000 5.120000 44.141945 29.561735 2822.407471
-1.040000 6.880000 5.160000 -9.785467 29.196062 948.165405
-1.040000 6.880000 5.200000 -30.938038 -6.955837 1005.545837
-1.040000 6.920000 4.800000 -5.325123 4.561383 49.163151
-1.040000 6.920000 4.840000 -51.169281 21.525173 3081.628418
-1.040000 6.920000 4.880000 -104.724335 -20.406984 11383.631836
-1.040000 6.920000 4.920000 -104.686317 -107.092110 22427.945312
-1.040000 6.920000 4.960000 -28.431087 -173.291901 30838.408203
-1.040000 6.920000 5.000000 79.227570 -160.471176 32028.005859
-1.040000 6.920000 5.040000 142.223389 -72.862106 25536.378906
-1.040000 6.920000 5.080000 120.984573 24.620464 15243.433594
-1.040000 6.920000 5.120000 45.595055 65.214882 6331.889648
-1.040000 6.920000 5.160000 -16.700571 37.758766 1704.633423
-1.040000 6.920000 5.200000 -24.840672 -11.948438 759.824097
-1.040000 6.960000 4.800000 -16.610695 2.093563 280.298187
-1.040000 6.960000 4.840000 -68.144966 -15.406872 4881.107910
-1.040000 6.960000 4.880000 -88.486954 -89.072144 15763.787109
-1.040000 6.960000 4.920000 -32.816299 -168.925735 29612.814453
-1.040000 6.960000 4.960000 79.514038 -183.354431 39941.328125
-1.040000 6.960000 5.000000 173.434525 -106.249817 41368.558594
-1.040000 6.960000 5.040000 182.210388 14.346468 33406.445312
-1.040000 6.960000 5.080000 106.389381 96.423134 20616.121094
-1.040000 6.960000 5.120000 10.711624 95.011436 9141.912109
-1.040000 6.960000 5.160000 -36.484772 35.969337 2624.931641
-1.040000 6.960000 5.200000 -20.956785 -16.760893 720.114380
-1.040000 7.000000 4.800000 -21.115740 -14.237097 648.569397
-1.040000 7.000000 4.840000 -48.848965 -58.407459 5797.652832
-1.040000 7.000000 4.880000 -21.676355 -127.211189 16652.550781
-1.040000 7.000000 4.920000 67.316513 -158.845093 29763.277344
-1.040000 7.000000 4.960000 165.214828 -108.648758 39100.492188
-1.040000 7.000000 5.000000 199.912918 4.337890 39983.992188
-1.040000 7.000000 5.040000 143.678802 107.848320 32274.857422
-1.040000 7.000000 5.080000 38.583691 136.954193 20245.152344
-1.040000 7.000000 5.120000 -41.032085 87.866524 9404.158203
-1.040000 7.000000 5.160000 -52.573326 14.875557 2985.236816
-1.040000 7.000000 5.200000 -14.985949 -23.222286 763.853271
-1.040000 7.040000 4.800000 -7.303667 -31.442488 1041.973511
-1.040000 7.040000 4.840000 -0.575848 -73.617760 5419.906250
-1.040000 7.040000 4.880000 52.784225 -104.077271 13618.252930
-1.040000 7.040000 4.920000 128.025726 -80.406273 22855.753906
-1.040000 7.040000 4.960000 170.042572 1.658070 28917.226562
-1.040000 7.040000 5.000000 140.007477 96.381699 28891.525391
-1.040000 7.040000 5.040000 52.083405 142.714233 23080.033203
-1.040000 7.040000 5.080000 -36.114452 115.281502 14594.078125
-1.040000 7.040000 5.120000 -71.695343 44.116203 7086.461426
-1.040000 7.040000 5.160000 -48.373264 -14.546484 2551.572754
-1.040000 7.040000 5.200000 -4.341835 -27.247791 761.293701
-1.040000 7.080000 4.800000 18.277431 -31.412506 1320.810059
-1.040000 7.080000 4.840000 42.585899 -47.463974 4066.387695
-1.040000 7.080000 4.880000 83.872536 -37.476166 8439.065430
-1.040000 7.080000 4.920000 112.951492 9.006241 12839.152344
-1.040000 7.080000 4.960000 100.349792 72.131813 15273.080078
-1.040000 7.080000 5.000000 43.734295 112.848129 14647.388672
-1.040000 7.080000 5.040000 -25.859631 103.817909 11446.878906
-1.040000 7.080000 5.080000 -67.157516 52.711143 7288.596680
-1.040000 7.080000 5.120000 -61.388599 -4.081198 3785.216309
-1.040000 7.080000 5.160000 -25.126137 -31.911022 1649.636108
-1.040000 7.080000 5.200000 7.470095 -24.483303 655.234436
-1.040000 7.120000 4.800000 35.067158 -10.607969 1342.234619
-1.040000 7.120000 4.840000 49.660858 -1.255821 2467.778076
-1.040000 7.120000 4.880000 57.251156 21.106731 3723.188965
-1.040000 7.120000 4.920000 47.436172 48.796486 4631.287109
-1.040000 7.120000 4.960000 18.678024 66.787254 4809.405762
-1.040000 7.120000 5.000000 -17.699913 62.411423 4208.472656
-1.040000 7.120000 5.040000 -43.315819 35.538940 3139.276367
-1.040000 7.120000 5.080000 -45.337601 0.340294 2055.613770
-1.040000 7.120000 5.120000 -26.015911 -24.204981 1262.708740
-1.040000 7.120000 5.160000 -0.710068 -28.013885 785.281982
-1.040000 7.120000 5.200000 14.414202 -16.339691 474.754700
-1.040000 7.160000 4.800000 28.933487 14.063288 1034.922729
-1.040000 7.160000 4.840000 21.514360 27.607410 1225.036865
-1.040000 7.160000 4.880000 6.140900 32.634163 1102.699341
-1.040000 7.160000 4.920000 -8.262703 26.804432 786.749878
-1.040000 7.160000 4.960000 -15.395187 15.036589 463.110779
-1.040000 7.160000 5.000000 -15.228310 3.665710 245.338852
-1.040000 7.160000 5.040000 -11.189261 -4.522308 145.650848
-1.040000 7.160000 5.080000 -5.613489 -10.016109 131.833710
-1.040000 7.160000 5.120000 1.264946 -13.204823 175.967422
-1.040000 7.160000 5.160000 8.903814 -13.024685 248.920319
-1.040000 7.160000 5.200000 14.902974 -8.986420 302.854370
-1.040000 7.200000 4.800000 7.695267 21.200718 508.687561
-1.040000 7.200000 4.840000 -10.665346 20.403603 530.056641
-1.040000 7.200000 4.880000 -21.896723 3.362593 490.773499
-1.040000 7.200000 4.920000 -15.073376 -16.856821 511.359070
-1.040000 7.200000 4.960000 4.491238 -24.077946 599.918701
-1.040000 7.200000 5.000000 20.709560 -14.282574 632.877808
-1.040000 7.200000 5.040000 22.247429 1.581772 497.450104
-1.040000 7.200000 5.080000 12.314171 9.265888 237.495483
-1.040000 7.200000 5.120000 3.575373 4.686337 34.745049
-1.040000 7.200000 5.160000 4.862755 -4.034828 39.926228
-1.040000 7.200000 5.200000 13.603186 -6.451389 226.667084
-1.000000 6.800000 4.800000 -15.239733 -9.179445 316.511658
-1.000000 6.800000 4.840000 -3.810034 0.561100 14.831191
-1.000000 6.800000 4.880000 -10.031166 12.866543 266.172211
-1.000000 6.800000 4.920000 -25.577885 9.414963 742.869751
-1.000000 6.800000 4.960000 -29.267082 -10.228836 961.191162
-1.000000 6.800000 5.000000 -10.579163 -25.877178 781.547058
-1.000000 6.800000 5.040000 16.451706 -17.285856 569.459473
-1.000000 6.800000 5.080000 25.446007 12.981918 816.029480
-1.000000 6.800000 5.120000 4.674376 39.468681 1579.626709
-1.000000 6.800000 5.160000 -29.526749 38.201702 2331.198730
-1.000000 6.800000 5.200000 -47.866325 10.738970 2406.510498
-1.000000 6.840000 4.800000 -7.809038 -9.896595 158.923660
-1.000000 6.840000 4.840000 -15.781723 15.210146 480.411316
-1.000000 6.840000 4.880000 -50.604225 17.345795 2861.664062
-1.000000 6.840000 4.920000 -76.582443 -19.992294 6264.562500
-1.000000 6.840000 4.960000 -59.007652 -71.762459 8631.753906
-1.000000 6.840000 5.000000 -1.969559 -92.138405 8493.364258
-1.000000 6.840000 5.040000 51.227112 -59.418930 6154.826172
-1.000000 6.840000 5.080000 58.043709 0.728508 3369.602783
-1.000000 6.840000 5.120000 17.354156 38.713768 1799.922607
-1.000000 6.840000 5.160000 -30.543442 28.019623 1718.001099
-1.000000 6.840000 5.200000 -44.230801 -11.746800 2094.351074
-1.000000 6.880000 4.800000 -6.085789 -5.436357 66.590805
-1.000000 6.880000 4.840000 -43.445763 11.872347 2028.486938
-1.000000 6.880000 4.880000 -89.742645 -23.074814 8586.189453
-1.000000 6.880000 4.920000 -88.650047 -98.450363 17551.304688
-1.000000 6.880000 4.960000 -19.322250 -154.551392 24259.482422
-1.000000 6.880000 5.000000 76.193001 -138.054993 24864.554688
-1.000000 6.880000 5.040000 127.346451 -54.973503 19239.203125
-1.000000 6.880000 5.080000 99.599174 32.117474 10951.527344
-1.000000 6.880000 5.120000 25.143333 61.251328 4383.912109
-1.000000 6.880000 5.160000 -30.212826 25.996864 1588.651855
-1.000000 6.880000 5.200000 -29.362236 -25.327974 1503.647217
-1.000000 6.920000 4.800000 -11.567850 -5.562325 164.754608
-1.000000 6.920000 4.840000 -62.835274 -20.399246 4364.400879
-1.000000 6.920000 4.880000 -83.489670 -93.684998 15747.404297
-1.000000 6.920000 4.920000 -26.114391 -173.579285 30811.728516
-1.000000 6.920000 4.960000 88.750473 -185.300049 42212.757812
-1.000000 6.920000 5.000000 182.057861 -102.855904 43724.402344
-1.000000 6.920000 5.040000 185.202179 21.303383 34753.683594
-1.000000 6.920000 5.080000 102.246468 100.781624 20611.275391
-1.000000 6.920000 5.120000 4.201298 91.512825 8392.248047
-1.000000 6.920000 5.160000 -37.863316 25.686995 2093.452393
-1.000000 6.920000 5.200000 -13.882008 -26.801773 911.045166
-1.000000 6.960000 4.800000 -14.493497 -16.283779 475.222900
-1.000000 6.960000 4.840000 -48.079632 -64.738052 6502.666504
-1.000000 6.960000 4.880000 -17.935244 -143.658951 20959.568359
-1.000000 6.960000 4.920000 84.723701 -179.518890 39405.136719
-1.000000 6.960000 4.960000 196.933136 -119.775223 53128.765625
-1.000000 6.960000 5.000000 234.022888 11.650542 54902.445312
-1.000000 6.960000 5.040000 165.735321 128.851196 44070.828125
-1.000000 6.960000 5.080000 44.338680 157.558609 26790.632812
-1.000000 6.960000 5.120000 -42.990486 97.624283 11378.682617
-1.000000 6.960000 5.160000 -50.451031 15.431827 2783.447754
-1.000000 6.960000 5.200000 -5.284194 -22.238276 522.463623
-1.000000 7.000000 4.800000 -3.442002 -30.224461 925.365356
-1.000000 7.000000 4.840000 1.188736 -86.141182 7421.716309
-1.000000 7.000000 4.880000 69.902534 -128.654236 21438.277344
-1.000000 7.000000 4.920000 169.433136 -98.878700 38484.585938
-1.000000 7.000000 4.960000 224.857086 8.949808 50640.808594
-1.000000 7.000000 5.000000 184.757172 132.634369 51727.085938
-1.000000 7.000000 5.040000 69.983566 191.362396 41517.265625
-1.000000 7.000000 5.080000 -42.376007 154.375656 25627.570312
-1.000000 7.000000 5.120000 -85.236061 64.006371 11362.001953
-1.000000 7.000000 5.160000 -54.740265 -6.940575 3044.668213
-1.000000 7.000000 5.200000 -2.475554 -19.599669 390.275360
-1.000000 7.040000 4.800000 20.365452 -31.425087 1402.287720
-1.000000 7.040000 4.840000 53.662987 -62.546589 6791.791992
-1.000000 7.040000 4.880000 119.164276 -53.448051 17056.818359
-1.000000 7.040000 4.920000 168.589172 15.800777 28671.972656
-1.000000 7.040000 4.960000 152.819458 113.774475 36298.417969
-1.000000 7.040000 5.000000 67.887840 177.854950 36241.140625
-1.000000 7.040000 5.040000 -36.931480 165.778229 28846.355469
-1.000000 7.040000 5.080000 -98.599167 91.092690 18019.673828
-1.000000 7.040000 5.120000 -91.225510 9.505699 8412.452148
-1.000000 7.040000 5.160000 -41.760468 -29.729996 2627.809326
-1.000000 7.040000 5.200000 0.825906 -21.074745 444.827026
-1.000000 7.080000 4.800000 40.477512 -11.751483 1776.526367
-1.000000 7.080000 4.840000 71.289360 -7.720320 5141.776367
-1.000000 7.080000 4.880000 97.818489 28.606966 10386.815430
-1.000000 7.080000 4.920000 90.622749 85.643333 15547.263672
-1.000000 7.080000 4.960000 40.113350 129.250259 18314.708984
-1.000000 7.080000 5.000000 -31.274914 128.481735 17485.677734
-1.000000 7.080000 5.040000 -84.049973 81.182266 13654.958984
-1.000000 7.080000 5.080000 -91.732040 16.294231 8680.269531
-1.000000 7.080000 5.120000 -59.717995 -29.323818 4426.125000
-1.000000 7.080000 5.160000 -17.210773 -38.566658 1783.597778
-1.000000 7.080000 5.200000 8.558325 -22.444946 577.020508
-1.000000 7.120000 4.800000 39.612068 18.145052 1898.358887
-1.000000 7.120000 4.840000 43.395782 38.405418 3358.170166
-1.000000 7.120000 4.880000 30.655514 61.419342 4712.096191
-1.000000 7.120000 4.920000 2.598343 73.679543 5435.426270
-1.000000 7.120000 4.960000 -29.814026 66.478935 5308.324707
-1.000000 7.120000 5.000000 -52.672340 41.318470 4481.591309
-1.000000 7.120000 5.040000 -57.089870 8.504570 3331.581055
-1.000000 7.120000 5.080000 -43.333351 -19.081253 2241.873535
-1.000000 7.120000 5.120000 -19.414423 -32.608780 1440.252319
-1.000000 7.120000 5.160000 3.930092 -30.728622 959.693848
-1.000000 7.120000 5.200000 18.682316 -18.746346 700.454407
-1.000000 7.160000 4.800000 17.441418 36.606705 1644.253906
-1.000000 7.160000 4.840000 -3.357748 44.788086 2017.247070
-1.000000 7.160000 4.880000 -24.756481 34.192196 1781.989502
-1.000000 7.160000 4.920000 -31.718037 12.388784 1159.515869
-1.000000 7.160000 4.960000 -22.887840 -4.873688 547.606018
-1.000000 7.160000 5.000000 -9.819189 -9.381233 184.424011
-1.000000 7.160000 5.040000 -3.412403 -6.669041 56.120598
-1.000000 7.160000 5.080000 -2.977715 -7.141878 59.873207
-1.000000 7.160000 5.120000 0.594465 -13.160604 173.554901
-1.000000 7.160000 5.160000 12.343404 -16.680920 430.612701
-1.000000 7.160000 5.200000 26.151299 -9.380730 771.888550
-1.000000 7.200000 4.800000 -7.314442 31.403547 1039.683838
-1.000000 7.200000 4.840000 -29.811728 16.341145 1155.772095
-1.000000 7.200000 4.880000 -30.538906 -13.907882 1126.053955
-1.000000 7.200000 4.920000 -5.634144 -33.546196 1157.090820
-1.000000 7.200000 4.960000 24.434278 -25.791382 1262.229248
-1.000000 7.200000 5.000000 34.974251 0.484673 1223.433105
-1.000000 7.200000 5.040000 21.240765 20.305305 863.475464
-1.000000 7.200000 5.080000 1.660351 17.921852 323.949554
-1.000000 7.200000 5.120000 -2.337257 1.403196 7.431732
-1.000000 7.200000 5.160000 12.039657 -7.786877 205.588791
-1.000000 7.200000 5.200000 27.954685 2.165349 786.153137
-0.960000 6.800000 4.800000 -10.791198 -13.393801 295.843872
-0.960000 6.800000 4.840000 -6.843307 -0.178158 46.862598
-0.960000 6.800000 4.880000 -18.656452 6.261288 387.266937
-0.960000 6.800000 4.920000 -30.460239 -5.512947 958.218750
-0.960000 6.800000 4.960000 -23.702583 -25.943687 1234.887329
-0.960000 6.800000 5.000000 1.837051 -32.358208 1050.428345
-0.960000 6.800000 5.040000 24.768120 -12.511284 769.992004
-0.960000 6.800000 5.080000 22.103455 20.509480 909.201477
-0.960000 6.800000 5.120000 -7.060127 38.909519 1563.796143
-0.960000 6.800000 5.160000 -39.046585 26.792248 2242.460449
-0.960000 6.800000 5.200000 -47.822174 -4.225465 2304.814941
-0.960000 6.840000 4.800000 -7.973735 -12.647494 223.539551
-0.960000 6.840000 4.840000 -27.452618 1.037704 754.723083
-0.960000 6.840000 4.880000 -55.604721 -17.585327 3401.128662
-0.960000 6.840000 4.920000 -55.188763 -63.154373 7034.274414
-0.960000 6.840000 4.960000 -10.884140 -97.055984 9538.329102
-0.960000 6.840000 5.000000 50.111328 -83.203705 9434.001953
-0.960000 6.840000 5.040000 79.932014 -25.390984 7033.829102
-0.960000 6.840000 5.080000 54.881962 32.834480 4090.132812
-0.960000 6.840000 5.120000 -1.550419 47.676582 2275.460205
-0.960000 6.840000 5.160000 -41.109756 15.165079 1919.991699
-0.960000 6.840000 5.200000 -36.217861 -27.935564 2092.129395
-0.960000 6.880000 4.800000 -8.892892 -13.529469 262.130066
-0.960000 6.880000 4.840000 -45.944855 -22.558380 2619.810303
-0.960000 6.880000 4.880000 -60.976883 -76.871506 9627.408203
-0.960000 6.880000 4.920000 -16.001259 -136.612610 18919.046875
-0.960000 6.880000 4.960000 73.169113 -142.755112 25732.740234
-0.960000 6.880000 5.000000 143.571747 -74.971970 26233.642578
-0.960000 6.880000 5.040000 140.692688 23.730476 20357.566406
-0.960000 6.880000 5.080000 69.473427 83.086823 11729.976562
-0.960000 6.880000 5.120000 -10.335707 68.431213 4789.657715
-0.960000 6.880000 5.160000 -39.956879 8.874326 1675.305786
-0.960000 6.880000 5.200000 -12.952871 -35.394489 1420.546753
-0.960000 6.920000 4.800000 -8.450751 -20.235895 480.906647
-0.960000 6.920000 4.840000 -37.372849 -61.406086 5167.437012
-0.960000 6.920000 4.880000 -9.723221 -130.209991 17049.183594
-0.960000 6.920000 4.920000 82.650398 -159.875198 32391.166016
-0.960000 6.920000 4.960000 182.003571 -103.043839 43743.332031
-0.960000 6.920000 5.000000 211.281067 17.035725 44929.902344
-0.960000 6.920000 5.040000 144.706055 120.658531 35498.324219
-0.960000 6.920000 5.080000 32.926445 140.754227 20895.902344
-0.960000 6.920000 5.120000 -42.855667 80.507629 8318.086914
-0.960000 6.920000 5.160000 -42.625801 4.385364 1836.190308
-0.960000 6.920000 5.200000 4.188129 -25.602261 673.016174
-0.960000 6.960000 4.800000 1.009331 -29.040808 844.387268
-0.960000 6.960000 4.840000 4.990982 -85.189819 7282.214844
-0.960000 6.960000 4.880000 75.326591 -128.035553 22067.199219
-0.960000 6.960000 4.920000 177.084167 -95.900414 40555.691406
-0.960000 6.960000 4.960000 231.812927 16.311197 54003.289062
-0.960000 6.960000 5.000000 187.160889 142.428680 55315.128906
-0.960000 6.960000 5.040000 67.489342 198.665283 44022.707031
-0.960000 6.960000 5.080000 -45.385559 156.059631 26414.458984
-0.960000 6.960000 5.120000 -83.507652 62.287739 10853.290039
-0.960000 6.960000 5.160000 -47.409546 -6.205894 2286.178223
-0.960000 6.960000 5.200000 5.809445 -12.546189 191.156525
-0.960000 7.000000 4.800000 20.122187 -29.084372 1250.803101
-0.960000 7.000000 4.840000 57.442883 -68.267914 7960.193359
-0.960000 7.000000 4.880000 135.712616 -59.724766 21984.960938
-0.960000 7.000000 4.920000 195.572128 22.004807 38732.667969
-0.960000 7.000000 4.960000 176.839722 138.318207 50404.210938
-0.960000 7.000000 5.000000 75.809807 212.884583 51066.968750
-0.960000 7.000000 5.040000 -46.488853 196.246826 40674.031250
-0.960000 7.000000 5.080000 -114.999100 107.782639 24841.890625
-0.960000 7.000000 5.120000 -102.494629 15.644899 10749.912109
-0.960000 7.000000 5.160000 -45.058140 -24.117077 2611.869385
-0.960000 7.000000 5.200000 -0.873415 -10.245462 105.732353
-0.960000 7.040000 4.800000 38.082809 -12.526426 1607.211792
-0.960000 7.040000 4.840000 82.391808 -15.402816 7025.656738
-0.960000 7.040000 4.880000 126.648491 31.254642 17016.693359
-0.960000 7.040000 4.920000 123.345078 113.356117 28063.617188
-0.960000 7.040000 4.960000 54.882172 179.150192 35106.843750
-0.960000 7.040000 5.000000 -45.786110 180.816391 34790.933594
-0.960000 7.040000 5.040000 -119.479858 115.385284 27589.199219
-0.960000 7.040000 5.080000 -128.506073 26.804119 17232.271484
-0.960000 7.040000 5.120000 -83.924599 -31.956074 8064.529297
-0.960000 7.040000 5.160000 -29.463133 -40.419594 2501.819824
-0.960000 7.040000 5.200000 -0.930718 -18.733213 351.799530
-0.960000 7.080000 4.800000 40.190392 15.428697 1853.312256
-0.960000 7.080000 4.840000 60.807392 38.566811 5184.937500
-0.960000 7.080000 4.880000 57.494514 82.292496 10077.673828
-0.960000 7.080000 4.920000 17.472794 119.709473 14635.656250
-0.960000 7.080000 4.960000 -44.673683 122.012398 16882.763672
-0.960000 7.080000 5.000000 -96.038643 82.051697 15955.902344
-0.960000 7.080000 5.040000 -110.004784 20.377182 12516.282227
-0.960000 7.080000 5.080000 -84.895401 -30.966221 8166.135742
-0.960000 7.080000 5.120000 -41.704346 -51.756245 4417.960938
-0.960000 7.080000 5.160000 -5.414113 -44.267437 1988.918579
-0.960000 7.080000 5.200000 12.252490 -25.055893 777.921326
-0.960000 7.120000 4.800000 21.698786 38.129372 1924.686279
-0.960000 7.120000 4.840000 10.014143 57.421532 3397.515381
-0.960000 7.120000 4.880000 -16.373810 65.368248 4541.109375
-0.960000 7.120000 4.920000 -44.365986 54.032745 4887.878418
-0.960000 7.120000 4.960000 -60.409424 28.275528 4448.804199
-0.960000 7.120000 5.000000 -59.905182 -0.218628 3588.678711
-0.960000 7.120000 5.040000 -46.973625 -22.440250 2710.086426
-0.960000 7.120000 5.080000 -27.745575 -35.567429 2034.858887
-0.960000 7.120000 5.120000 -5.972015 -39.530891 1598.356323
-0.960000 7.120000 5.160000 15.256333 -33.448330 1351.546509
-0.960000 7.120000 5.200000 30.418770 -17.303394 1224.708984
-0.960000 7.160000 4.800000 -5.958452 41.246155 1736.748413
-0.960000 7.160000 4.840000 -31.257483 34.529373 2169.307861
-0.960000 7.160000 4.880000 -43.171261 8.612736 1937.937012
-0.960000 7.160000 4.920000 -31.629404 -16.767685 1281.574463
-0.960000 7.160000 4.960000 -8.438417 -23.484810 622.743225
-0.960000 7.160000 5.000000 6.002411 -13.042751 206.142303
-0.960000 7.160000 5.040000 4.415222 -2.946705 28.177256
-0.960000 7.160000 5.080000 -1.085651 -6.049349 37.773258
-0.960000 7.160000 5.120000 5.476889 -16.164274 291.280060
-0.960000 7.160000 5.160000 24.478426 -15.725126 846.472961
-0.960000 7.160000 5.200000 39.141247 3.433835 1543.828491
-0.960000 7.200000 4.800000 -24.212196 26.001219 1262.293823
-0.960000 7.200000 4.840000 -37.044811 -3.292778 1383.160400
-0.960000 7.200000 4.880000 -18.094255 -33.750523 1466.499878
-0.960000 7.200000 4.920000 19.572815 -36.470974 1713.227051
-0.960000 7.200000 4.960000 43.679966 -8.183151 1974.903442
-0.960000 7.200000 5.000000 35.190865 24.854832 1856.159668
-0.960000 7.200000 5.040000 7.201942 33.692558 1187.056396
-0.960000 7.200000 5.080000 -9.658960 15.854973 344.675659
-0.960000 7.200000 5.120000 0.573107 -3.758936 14.458051
-0.960000 7.200000 5.160000 23.651627 -0.373602 559.539001
-0.960000 7.200000 5.200000 31.751713 24.740231 1620.250244
-0.920000 6.800000 4.800000 -8.092743 -15.243316 297.851166
-0.920000 6.800000 4.840000 -9.106079 -5.648352 114.824554
-0.920000 6.800000 4.880000 -18.801544 -5.671177 385.660339
-0.920000 6.800000 4.920000 -22.461559 -18.546806 848.505676
-0.920000 6.800000 4.960000 -9.575012 -31.598524 1090.147583
-0.920000 6.800000 5.000000 13.140614 -27.902519 951.226318
-0.920000 6.800000 5.040000 25.841232 -4.410286 687.219910
-0.920000 6.800000 5.080000 14.416338 22.346519 707.197754
-0.920000 6.800000 5.120000 -14.516733 30.394405 1134.555420
-0.920000 6.800000 5.160000 -38.357792 13.072510 1642.210693
-0.920000 6.800000 5.200000 -39.210262 -14.393379 1744.614014
-0.920000 6.840000 4.800000 -7.552068 -18.993196 417.775238
-0.920000 6.840000 4.840000 -23.800089 -20.392399 982.294189
-0.920000 6.840000 4.880000 -31.722895 -45.799973 3103.979492
-0.920000 6.840000 4.920000 -8.957397 -76.275215 5898.143066
-0.920000 6.840000 4.960000 38.719120 -79.308212 7788.962891
-0.920000 6.840000 5.000000 77.426422 -41.203819 7692.605957
-0.920000 6.840000 5.040000 74.794960 15.689812 5840.456543
-0.920000 6.840000 5.080000 31.206524 50.384796 3512.474854
-0.920000 6.840000 5.120000 -18.948349 39.925682 1953.099976
-0.920000 6.840000 5.160000 -38.306122 -0.326485 1467.465576
-0.920000 6.840000 5.200000 -19.639591 -32.704735 1455.313232
-0.920000 6.880000 4.800000 -3.802273 -25.273245 653.194153
-0.920000 6.880000 4.840000 -19.851082 -49.751095 2869.236816
-0.920000 6.880000 4.880000 -0.418457 -92.210724 8502.992188
-0.920000 6.880000 4.920000 60.849510 -109.186325 15624.316406
-0.920000 6.880000 4.960000 126.137268 -68.813141 20645.859375
-0.920000 6.880000 5.000000 143.524658 13.655552 20785.802734
-0.920000 6.880000 5.040000 95.176056 83.857620 16090.582031
-0.920000 6.880000 5.080000 16.082901 95.136292 9309.574219
-0.920000 6.880000 5.120000 -36.450455 49.508858 3779.762695
-0.920000 6.880000 5.160000 -33.369682 -6.924443 1161.483521
-0.920000 6.880000 5.200000 4.350239 -28.486280 830.392761
-0.920000 6.920000 4.800000 6.584163 -30.381344 966.377258
-0.920000 6.920000 4.840000 12.123920 -70.938797 5179.302246
-0.920000 6.920000 4.880000 67.610168 -100.508308 14673.054688
-0.920000 6.920000 4.920000 145.667755 -71.773422 26370.519531
-0.920000 6.920000 4.960000 185.199615 18.216133 34630.726562
-0.920000 6.920000 5.000000 146.210388 116.676636 34990.914062
-0.920000 6.920000 5.040000 49.569763 157.752136 27342.898438
-0.920000 6.920000 5.080000 -38.808796 120.048737 15917.822266
-0.920000 6.920000 5.120000 -65.293159 43.557388 6160.442871
-0.920000 6.920000 5.160000 -32.258621 -9.513691 1131.128906
-0.920000 6.920000 5.200000 12.195629 -10.308019 254.988617
-0.920000 6.960000 4.800000 22.338459 -27.540926 1257.509399
-0.920000 6.960000 4.840000 56.629028 -60.271362 6839.484375
-0.920000 6.960000 4.880000 126.602951 -49.710663 18499.457031
-0.920000 6.960000 4.920000 178.214478 26.239305 32448.902344
-0.920000 6.960000 4.960000 157.765991 131.221619 42109.218750
-0.920000 6.960000 5.000000 64.040977 195.721741 42408.246094
-0.920000 6.960000 5.040000 -45.669865 176.700439 33308.781250
-0.920000 6.960000 5.080000 -103.546783 94.815979 19712.007812
-0.920000 6.960000 5.120000 -87.791962 13.753170 7896.578613
-0.920000 6.960000 5.160000 -34.637917 -16.891899 1485.121582
-0.920000 6.960000 5.200000 1.948531 0.280666 3.875547
-0.920000 7.000000 4.800000 35.730286 -12.612780 1435.735596
-0.920000 7.000000 4.840000 82.290382 -16.404932 7040.828613
-0.920000 7.000000 4.880000 129.593750 32.767532 17868.250000
-0.920000 7.000000 4.920000 126.051369 119.891014 30262.802734
-0.920000 7.000000 4.960000 53.110199 188.829651 38477.328125
-0.920000 7.000000 5.000000 -52.554943 188.749695 38388.472656
-0.920000 7.000000 5.040000 -127.168198 118.665756 30253.312500
-0.920000 7.000000 5.080000 -132.619202 27.687359 18354.443359
-0.920000 7.000000 5.120000 -84.441833 -28.363348 7934.902832
-0.920000 7.000000 5.160000 -31.108885 -31.662725 1970.290894
-0.920000 7.000000 5.200000 -8.368504 -7.931845 132.946014
-0.920000 7.040000 4.800000 37.047993 10.507294 1482.956909
-0.920000 7.040000 4.840000 68.072594 34.483524 5822.991211
-0.920000 7.040000 4.880000 71.362457 90.460785 13275.753906
-0.920000 7.040000 4.920000 24.760349 143.301727 21148.458984
-0.920000 7.040000 4.960000 -54.812916 151.282730 25890.919922
-0.920000 7.040000 5.000000 -122.018044 102.236015 25340.605469
-0.920000 7.040000 5.040000 -139.460571 24.370808 20043.185547
-0.920000 7.040000 5.080000 -106.114784 -37.709663 12682.366211
-0.920000 7.040000 5.120000 -53.142830 -58.282593 6221.020996
-0.920000 7.040000 5.160000 -14.314442 -45.068081 2236.035156
-0.920000 7.040000 5.200000 -0.656912 -23.748131 564.405212
-0.920000 7.080000 4.800000 22.554680 30.638088 1447.406006
-0.920000 7.080000 4.840000 22.699657 58.919319 3986.760498
-0.920000 7.080000 4.880000 -4.918858 86.005714 7421.178223
-0.920000 7.080000 4.920000 -51.584549 87.869621 10382.036133
-0.920000 7.080000 4.960000 -92.033966 56.485058 11660.812500
-0.920000 7.080000 5.000000 -104.225639 6.209991 10901.548828
-0.920000 7.080000 5.040000 -84.895058 -38.388279 8680.831055
-0.920000 7.080000 5.080000 -48.372356 -60.589619 6010.986328
-0.920000 7.080000 5.120000 -12.878864 -59.593109 3717.203857
-0.920000 7.080000 5.160000 11.369066 -44.766026 2133.252686
-0.920000 7.080000 5.200000 23.369053 -25.427908 1192.691162
-0.920000 7.120000 4.800000 -1.234776 37.050003 1374.227417
-0.920000 7.120000 4.840000 -21.969975 44.116837 2428.975098
-0.920000 7.120000 4.880000 -45.303570 32.713951 3122.615967
-0.920000 7.120000 4.920000 -55.707584 7.699577 3162.618408
-0.920000 7.120000 4.960000 -49.039696 -16.557686 2679.048828
-0.920000 7.120000 5.000000 -33.520210 -30.508324 2054.362305
-0.920000 7.120000 5.040000 -18.354191 -35.890617 1625.012817
-0.920000 7.120000 5.080000 -4.318180 -38.528938 1503.125854
-0.920000 7.120000 5.120000 12.947799 -37.922157 1605.735474
-0.920000 7.120000 5.160000 32.249374 -27.180475 1778.800293
-0.920000 7.120000 5.200000 43.212906 -3.678629 1880.887573
-0.920000 7.160000 4.800000 -21.764622 27.898783 1252.040894
-0.920000 7.160000 4.840000 -38.153770 7.614185 1513.686035
-0.920000 7.160000 4.880000 -31.347105 -20.403336 1398.937134
-0.920000 7.160000 4.920000 -5.247411 -32.423470 1078.816650
-0.920000 7.160000 4.960000 17.428936 -20.465538 722.606079
-0.920000 7.160000 5.000000 19.416389 -0.480663 377.227234
-0.920000 7.160000 5.040000 7.097389 5.795072 83.955788
-0.920000 7.160000 5.080000 2.268898 -4.800915 28.196680
-0.920000 7.160000 5.120000 16.575272 -13.505745 457.144775
-0.920000 7.160000 5.160000 37.183590 -1.315063 1384.348755
-0.920000 7.160000 5.200000 40.036446 28.374292 2408.017578
-0.920000 7.200000 4.800000 -30.190865 11.533723 1044.515015
-0.920000 7.200000 4.840000 -24.539501 -20.210453 1010.649536
-0.920000 7.200000 4.880000 8.697082 -34.594650 1272.429077
-0.920000 7.200000 4.920000 41.355640 -14.531448 1921.451904
-0.920000 7.200000 4.960000 43.871998 23.404835 2472.538574
-0.920000 7.200000 5.000000 16.118561 45.068531 2290.980469
-0.920000 7.200000 5.040000 -12.419430 33.968815 1308.122559
-0.920000 7.200000 5.080000 -13.860956 7.891041 254.394638
-0.920000 7.200000 5.120000 8.940382 -0.957329 80.846909
-0.920000 7.200000 5.160000 26.468096 19.303635 1073.190430
-0.920000 7.200000 5.200000 14.898973 47.965546 2522.673096
-0.880000 6.800000 4.800000 -5.780108 -18.322084 369.108459
-0.880000 6.800000 4.840000 -5.407976 -12.800950 193.110519
-0.880000 6.800000 4.880000 -9.614090 -13.246113 267.890228
-0.880000 6.800000 4.920000 -9.184216 -20.624622 509.724884
-0.880000 6.800000 4.960000 1.402573 -26.168283 686.746277
-0.880000 6.800000 5.000000 16.293272 -19.562115 648.147034
-0.880000 6.800000 5.040000 21.944855 -0.564949 481.895813
-0.880000 6.800000 5.080000 10.009850 18.192356 431.158905
-0.880000 6.800000 5.120000 -13.130980 21.578815 638.067871
-0.880000 6.800000 5.160000 -30.589293 6.174867 973.833801
-0.880000 6.800000 5.200000 -29.811653 -15.846933 1139.859985
-0.880000 6.840000 4.800000 -0.894666 -26.779810 717.958618
-0.880000 6.840000 4.840000 -3.788776 -32.708298 1084.187622
-0.880000 6.840000 4.880000 4.053917 -46.534340 2181.879150
-0.880000 6.840000 4.920000 28.318649 -52.732052 3582.615234
-0.880000 6.840000 4.960000 56.619980 -36.225975 4518.143555
-0.880000 6.840000 5.000000 66.668510 0.558929 4445.002930
-0.880000 6.840000 5.040000 46.549767 35.825748 3450.365234
-0.880000 6.840000 5.080000 7.688713 45.737701 2151.053467
-0.880000 6.840000 5.120000 -23.272343 25.428011 1188.185669
-0.880000 6.840000 5.160000 -27.104687 -6.523249 777.216858
-0.880000 6.840000 5.200000 -7.843353 -24.893518 681.205444
-0.880000 6.880000 4.800000 11.342045 -31.541632 1123.516479
-0.880000 6.880000 4.840000 18.469255 -48.486301 2692.034668
-0.880000 6.880000 4.880000 48.952724 -59.109776 5890.334961
-0.880000 6.880000 4.920000 89.553307 -39.895218 9611.423828
-0.880000 6.880000 4.960000 109.101425 11.026470 12024.704102
-0.880000 6.880000 5.000000 86.054901 66.322098 11804.066406
-0.880000 6.880000 5.040000 30.549179 90.189545 9067.406250
-0.880000 6.880000 5.080000 -21.684925 69.223793 5262.169434
-0.880000 6.880000 5.120000 -39.190250 24.027428 2113.192871
-0.880000 6.880000 5.160000 -20.528790 -9.733601 516.174194
-0.880000 6.880000 5.200000 8.008933 -12.497230 220.323746
-0.880000 6.920000 4.800000 26.776386 -26.708300 1430.308105
-0.880000 6.920000 4.840000 51.728527 -41.393730 4389.281250
-0.880000 6.920000 4.880000 95.545044 -27.998373 9912.764648
-0.880000 6.920000 4.920000 124.488464 25.165926 16130.702148
-0.880000 6.920000 4.960000 106.281403 93.735992 20082.171875
-0.880000 6.920000 5.000000 42.099041 133.712280 19651.304688
-0.880000 6.920000 5.040000 -30.385933 118.848831 15048.349609
-0.880000 6.920000 5.080000 -67.676392 63.708740 8638.897461
-0.880000 6.920000 5.120000 -56.344307 10.145615 3277.614502
-0.880000 6.920000 5.160000 -20.660660 -9.431107 515.808594
-0.880000 6.920000 5.200000 3.421892 3.096171 21.295624
-0.880000 6.960000 4.800000 37.201462 -11.388863 1513.654907
-0.880000 6.960000 4.840000 72.418274 -8.160092 5310.993164
-0.880000 6.960000 4.880000 104.465225 33.975105 12067.291016
-0.880000 6.960000 4.920000 96.047569 101.237137 19474.093750
-0.880000 6.960000 4.960000 36.297234 150.823975 24065.359375
-0.880000 6.960000 5.000000 -44.679295 146.525452 23465.947266
-0.880000 6.960000 5.040000 -98.868759 90.811096 18021.687500
-0.880000 6.960000 5.080000 -100.021370 22.591173 10514.635742
-0.880000 6.960000 5.120000 -62.738716 -16.823915 4219.190430
-0.880000 6.960000 5.160000 -24.642551 -16.641293 884.187988
-0.880000 6.960000 5.200000 -11.307959 1.388168 129.796936
-0.880000 7.000000 4.800000 35.948235 8.473454 1364.074951
-0.880000 7.000000 4.840000 62.598320 32.643761 4984.164551
-0.880000 7.000000 4.880000 62.926033 84.436630 11089.230469
-0.880000 7.000000 4.920000 18.166124 131.163818 17533.955078
-0.880000 7.000000 4.960000 -54.389179 135.676544 21366.308594
-0.880000 7.000000 5.000000 -112.880348 89.361450 20727.441406
-0.880000 7.000000 5.040000 -125.159828 20.160461 16071.426758
-0.880000 7.000000 5.080000 -93.654762 -31.534008 9765.608398
-0.880000 7.000000 5.120000 -48.746384 -45.432625 4440.333008
-0.880000 7.000000 5.160000 -19.792784 -32.328655 1436.896240
-0.880000 7.000000 5.200000 -12.818926 -16.831493 447.624023
-0.880000 7.040000 4.800000 22.868702 23.741667 1086.644287
-0.880000 7.040000 4.840000 26.624435 54.459503 3674.697998
-0.880000 7.040000 4.880000 -0.913568 87.381119 7636.294434
-0.880000 7.040000 4.920000 -52.687546 93.458908 11510.544922
-0.880000 7.040000 4.960000 -99.571541 60.760460 13606.326172
-0.880000 7.040000 5.000000 -114.173309 5.270226 13063.320312
-0.880000 7.040000 5.040000 -92.195999 -42.947701 10344.607422
-0.880000 7.040000 5.080000 -52.372879 -63.798904 6813.218750
-0.880000 7.040000 5.120000 -17.889240 -58.952591 3795.432861
-0.880000 7.040000 5.160000 1.084026 -43.414253 1885.972534
-0.880000 7.040000 5.200000 8.739477 -29.079241 921.980713
-0.880000 7.080000 4.800000 4.317865 28.308014 819.987610
-0.880000 7.080000 4.840000 -11.593358 44.875015 2148.172852
-0.880000 7.080000 4.880000 -41.517624 45.127029 3760.161865
-0.880000 7.080000 4.920000 -67.188995 22.425982 5017.286133
-0.880000 7.080000 4.960000 -72.804214 -12.553871 5458.053223
-0.880000 7.080000 5.000000 -57.245342 -42.284389 5064.999023
-0.880000 7.080000 5.040000 -31.470156 -56.689552 4204.076172
-0.880000 7.080000 5.080000 -6.572266 -57.166634 3311.218506
-0.880000 7.080000 5.120000 13.553474 -49.282997 2612.510498
-0.880000 7.080000 5.160000 28.933674 -35.225582 2077.999023
-0.880000 7.080000 5.200000 36.923885 -15.000498 1588.388184
-0.880000 7.120000 4.800000 -11.764488 22.637199 650.846008
-0.880000 7.120000 4.840000 -28.858547 15.312233 1067.280273
-0.880000 7.120000 4.880000 -35.780739 -4.907116 1304.341064
-0.880000 7.120000 4.920000 -26.373171 -23.979973 1270.583252
-0.880000 7.120000 4.960000 -9.477270 -30.489204 1019.410278
-0.880000 7.120000 5.000000 2.308727 -26.937138 730.939575
-0.880000 7.120000 5.040000 7.072666 -24.182821 634.831421
-0.880000 7.120000 5.080000 13.967873 -26.228001 883.009521
-0.880000 7.120000 5.120000 29.184132 -24.183954 1436.577148
-0.880000 7.120000 5.160000 44.684288 -7.407058 2051.550049
-0.880000 7.120000 5.200000 44.372688 20.837576 2403.139893
-0.880000 7.160000 4.800000 -21.230648 11.878482 591.838745
-0.880000 7.160000 4.840000 -21.384121 -10.714417 572.079346
-0.880000 7.160000 4.880000 -0.834273 -25.360474 643.849609
-0.880000 7.160000 4.920000 23.493958 -17.078773 843.650574
-0.880000 7.160000 4.960000 29.934715 5.865501 930.491272
-0.880000 7.160000 5.000000 15.958385 20.285067 666.153992
-0.880000 7.160000 5.040000 1.248707 13.751450 190.661636
-0.880000 7.160000 5.080000 5.523768 -1.054535 31.624062
-0.880000 7.160000 5.120000 25.391884 -0.246696 644.808594
-0.880000 7.160000 5.160000 36.637421 23.751904 1906.453369
-0.880000 7.160000 5.200000 20.442043 51.680359 3088.736572
-0.880000 7.200000 4.800000 -25.021280 0.843155 626.775391
-0.880000 7.200000 4.840000 -4.665964 -18.910763 379.388153
-0.880000 7.200000 4.880000 26.231461 -11.321807 816.272827
-0.880000 7.200000 4.920000 37.736702 20.624599 1849.432861
-0.880000 7.200000 4.960000 17.627071 48.208637 2634.786377
-0.880000 7.200000 5.000000 -14.440105 46.487064 2369.563721
-0.880000 7.200000 5.040000 -27.115782 20.979557 1175.407471
-0.880000 7.200000 5.080000 -10.820961 1.884546 120.644714
-0.880000 7.200000 5.120000 11.962745 11.367814 272.334473
-0.880000 7.200000 5.160000 11.208249 39.322525 1671.885864
-0.880000 7.200000 5.200000 -17.820307 54.086082 3242.867432
-0.840000 6.800000 4.800000 -0.454445 -21.383562 457.463226
-0.840000 6.800000 4.840000 3.414297 -14.804734 230.837585
-0.840000 6.800000 4.880000 0.659456 -10.822519 117.561806
-0.840000 6.800000 4.920000 -1.830045 -13.696934 190.955048
-0.840000 6.800000 4.960000 3.161828 -18.561323 354.519867
-0.840000 6.800000 5.000000 14.110223 -15.746674 447.056122
-0.840000 6.800000 5.040000 20.322620 -1.686908 415.854584
-0.840000 6.800000 5.080000 12.166146 15.027891 373.852631
-0.840000 6.800000 5.120000 -7.877077 20.186462 469.541595
-0.840000 6.800000 5.160000 -25.422855 7.640878 704.704590
-0.840000 6.800000 5.200000 -26.734684 -13.629466 900.505676
-0.840000 6.840000 4.800000 11.995155 -28.304546 945.031128
-0.840000 6.840000 4.840000 18.297646 -25.624989 991.443848
-0.840000 6.840000 4.880000 24.981697 -22.622145 1135.846680
-0.840000 6.840000 4.920000 33.322018 -16.318630 1376.654541
-0.840000 6.840000 4.960000 39.708111 -3.206387 1587.014893
-0.840000 6.840000 5.000000 37.148445 15.036190 1606.093994
-0.840000 6.840000 5.040000 21.984188 29.840073 1373.734497
-0.840000 6.840000 5.080000 -0.420614 31.423176 987.592896
-0.840000 6.840000 5.120000 -17.710793 17.646936 625.086548
-0.840000 6.840000 5.160000 -19.939983 -2.562668 404.170197
-0.840000 6.840000 5.200000 -8.112998 -15.637275 310.345093
-0.840000 6.880000 4.800000 28.397137 -24.351086 1399.372803
-0.840000 6.880000 4.840000 41.312553 -20.381266 2122.123047
-0.840000 6.880000 4.880000 55.043594 -7.120647 3080.500977
-0.840000 6.880000 4.920000 60.741547 16.544262 3963.248047
-0.840000 6.880000 4.960000 50.318459 42.893692 4371.815918
-0.840000 6.880000 5.000000 24.419695 58.899441 4065.465576
-0.840000 6.880000 5.040000 -5.767534 55.626198 3127.538330
-0.840000 6.880000 5.080000 -25.544792 35.632893 1922.239380
-0.840000 6.880000 5.120000 -27.237558 11.615561 876.805847
-0.840000 6.880000 5.160000 -15.349813 -3.052640 244.935394
-0.840000 6.880000 5.200000 -1.982675 -3.891054 19.071299
-0.840000 6.920000 4.800000 38.953579 -8.986406 1598.136841
-0.840000 6.920000 4.840000 55.286461 3.777184 3070.859863
-0.840000 6.920000 4.880000 63.316292 31.626862 5009.211426
-0.840000 6.920000 4.920000 50.315895 64.642380 6710.326172
-0.840000 6.920000 4.960000 16.372828 84.421875 7395.122070
-0.840000 6.920000 5.000000 -23.094475 78.560890 6705.167969
-0.840000 6.920000 5.040000 -48.306145 51.073650 4942.001465
-0.840000 6.920000 5.080000 -50.024025 19.164974 2869.699219
-0.840000 6.920000 5.120000 -35.133060 -0.559933 1234.645386
-0.840000 6.920000 5.160000 -18.805840 -3.881189 368.723236
-0.840000 6.920000 5.200000 -11.343657 1.053815 129.789078
-0.840000 6.960000 4.800000 36.691620 10.058853 1447.455566
-0.840000 6.960000 4.840000 46.769081 33.126747 3284.728271
-0.840000 6.960000 4.880000 36.989552 66.056938 5731.746094
-0.840000 6.960000 4.920000 2.841603 88.668480 7870.173828
-0.840000 6.960000 4.960000 -40.969147 83.882996 8714.828125
-0.840000 6.960000 5.000000 -71.189209 52.836945 7859.645996
-0.840000 6.960000 5.040000 -74.536697 14.044500 5752.967285
-0.840000 6.960000 5.080000 -56.820320 -12.230392 3378.131348
-0.840000 6.960000 5.120000 -35.156921 -19.208546 1604.977417
-0.840000 6.960000 5.160000 -22.285601 -15.041979 722.909119
-0.840000 6.960000 5.200000 -18.185356 -11.393919 460.528564
-0.840000 7.000000 4.800000 23.330059 22.525814 1051.703857
-0.840000 7.000000 4.840000 19.305447 47.680428 2646.123291
-0.840000 7.000000 4.880000 -7.242991 68.667007 4767.618652
-0.840000 7.000000 4.920000 -46.533527 66.667450 6609.917969
-0.840000 7.000000 4.960000 -76.564903 38.419861 7338.270508
-0.840000 7.000000 5.000000 -81.549042 -0.598835 6650.604492
-0.840000 7.000000 5.040000 -63.933300 -29.836401 4977.677734
-0.840000 7.000000 5.080000 -39.347977 -40.038891 3151.375977
-0.840000 7.000000 5.120000 -21.342728 -37.032967 1826.952637
-0.840000 7.000000 5.160000 -11.793019 -31.570877 1135.795532
-0.840000 7.000000 5.200000 -4.775838 -27.873310 799.730042
-0.840000 7.040000 4.800000 7.460382 23.828850 623.471375
-0.840000 7.040000 4.840000 -8.556655 38.617085 1564.495483
-0.840000 7.040000 4.880000 -36.459759 37.922306 2767.415283
-0.840000 7.040000 4.920000 -59.211483 16.463871 3777.058838
-0.840000 7.040000 4.960000 -62.770313 -14.783991 4158.678711
-0.840000 7.040000 5.000000 -47.753410 -39.131821 3811.687500
-0.840000 7.040000 5.040000 -26.187624 -48.490494 3037.119629
-0.840000 7.040000 5.080000 -8.665846 -46.972694 2281.531006
-0.840000 7.040000 5.120000 3.554643 -42.167404 1790.725464
-0.840000 7.040000 5.160000 14.359950 -35.812824 1488.766479
-0.840000 7.040000 5.200000 23.750416 -24.462563 1162.499268
-0.840000 7.080000 4.800000 -3.326625 17.733654 325.548920
-0.840000 7.080000 4.840000 -19.530407 15.752962 629.592651
-0.840000 7.080000 4.880000 -31.308605 0.199923 980.268738
-0.840000 7.080000 4.920000 -29.173786 -19.857586 1245.433594
-0.840000 7.080000 4.960000 -15.948859 -32.367157 1301.998901
-0.840000 7.080000 5.000000 -2.010790 -34.304516 1180.843140
-0.840000 7.080000 5.040000 6.944077 -32.170555 1083.164795
-0.840000 7.080000 5.080000 14.706684 -31.426569 1203.915771
-0.840000 7.080000 5.120000 26.605202 -28.563147 1523.690063
-0.840000 7.080000 5.160000 39.200718 -15.950865 1791.126343
-0.840000 7.080000 5.200000 41.280609 6.132755 1741.699463
-0.840000 7.120000 4.800000 -8.474209 11.027832 193.425293
-0.840000 7.120000 4.840000 -12.291283 -2.498732 157.319275
-0.840000 7.120000 4.880000 -3.037256 -15.026094 235.008438
-0.840000 7.120000 4.920000 11.987336 -15.345615 379.184143
-0.840000 7.120000 4.960000 19.359272 -5.326036 403.148071
-0.840000 7.120000 5.000000 15.385838 2.052814 240.938049
-0.840000 7.120000 5.040000 10.833342 -1.513068 119.650665
-0.840000 7.120000 5.080000 17.904127 -8.502616 392.852234
-0.840000 7.120000 5.120000 33.923336 -3.256284 1161.396118
-0.840000 7.120000 5.160000 41.478928 18.961826 2080.052246
-0.840000 7.120000 5.200000 26.688349 43.289486 2586.247559
-0.840000 7.160000 4.800000 -12.676578 5.988261 196.554886
-0.840000 7.160000 4.840000 -0.296250 -6.555788 43.066120
-0.840000 7.160000 4.880000 19.167107 -2.234437 372.370697
-0.840000 7.160000 4.920000 26.410746 17.629841 1008.338745
-0.840000 7.160000 4.960000 13.417156 34.131355 1344.969482
-0.840000 7.160000 5.000000 -5.964304 30.910156 991.010681
-0.840000 7.160000 5.040000 -10.140829 13.312246 280.052307
-0.840000 7.160000 5.080000 5.736095 4.004311 48.937294
-0.840000 7.160000 5.120000 22.515339 18.088898 834.148682
-0.840000 7.160000 5.160000 16.720621 44.717339 2279.219482
-0.840000 7.160000 5.200000 -13.198132 56.570900 3374.457275
-0.840000 7.200000 4.800000 -18.541256 -1.253986 345.350647
-0.840000 7.200000 4.840000 3.514575 -2.923409 20.898552
-0.840000 7.200000 4.880000 17.367355 17.642937 612.898254
-0.840000 7.200000 4.920000 6.109578 42.182396 1816.681396
-0.840000 7.200000 4.960000 -21.598444 45.978848 2580.547119
-0.840000 7.200000 5.000000 -38.940258 24.969492 2139.819336
-0.840000 7.200000 5.040000 -29.487860 1.582262 872.037415
-0.840000 7.200000 5.080000 -5.928776 1.190765 36.568306
-0.840000 7.200000 5.120000 2.745836 24.024141 584.698975
-0.840000 7.200000 5.160000 -17.253693 43.711033 2208.344238
-0.840000 7.200000 5.200000 -48.465576 35.128899 3582.951660
-0.800000 6.800000 4.800000 6.986917 -20.105719 453.056946
-0.800000 6.800000 4.840000 10.111641 -9.213686 187.137299
-0.800000 6.800000 4.880000 3.092202 -3.070156 18.987570
-0.800000 6.800000 4.920000 -3.711626 -8.086070 79.160690
-0.800000 6.800000 4.960000 0.636715 -17.398708 303.120453
-0.800000 6.800000 5.000000 14.708457 -17.052891 507.139801
-0.800000 6.800000 5.040000 24.083675 -1.348849 581.842834
-0.800000 6.800000 5.080000 15.490660 18.841900 594.977722
-0.800000 6.800000 5.120000 -8.219091 24.979448 691.526306
-0.800000 6.800000 5.160000 -28.567648 9.230290 901.308777
-0.800000 6.800000 5.200000 -28.295145 -16.516823 1073.420654
-0.800000 6.840000 4.800000 22.774099 -19.445274 896.778320
-0.800000 6.840000 4.840000 25.600109 -6.086146 692.406799
-0.800000 6.840000 4.880000 19.456871 2.473784 384.689423
-0.800000 6.840000 4.920000 13.316836 2.477771 183.477478
-0.800000 6.840000 4.960000 14.130454 0.209390 199.713577
-0.800000 6.840000 5.000000 18.698427 4.550475 370.337982
-0.800000 6.840000 5.040000 16.868721 15.951092 538.991089
-0.800000 6.840000 5.080000 3.374480 24.272657 600.549072
-0.800000 6.840000 5.120000 -14.475993 18.905727 566.980896
-0.800000 6.840000 5.160000 -22.517620 0.878103 507.814270
-0.800000 6.840000 5.200000 -13.694221 -16.361046 455.215515
-0.800000 6.880000 4.800000 34.711342 -6.754932 1250.506348
-0.800000 6.880000 4.840000 34.594589 10.558204 1308.261353
-0.800000 6.880000 4.880000 24.464817 22.429703 1101.618896
-0.800000 6.880000 4.920000 12.486422 24.724970 767.234863
-0.800000 6.880000 4.960000 5.570581 21.744513 503.855194
-0.800000 6.880000 5.000000 3.005854 20.443686 426.979431
-0.800000 6.880000 5.040000 -1.231076 22.245218 496.365295
-0.800000 6.880000 5.080000 -10.175520 21.691261 574.052002
-0.800000 6.880000 5.120000 -19.129528 13.458792 547.077881
-0.800000 6.880000 5.160000 -20.157169 -0.197631 406.350525
-0.800000 6.880000 5.200000 -11.057419 -10.269372 227.726501
-0.800000 6.920000 4.800000 34.428818 11.287547 1312.752197
-0.800000 6.920000 4.840000 27.039879 30.394634 1654.988770
-0.800000 6.920000 4.880000 9.014430 40.266018 1702.612061
-0.800000 6.920000 4.920000 -9.139002 36.648117 1426.605835
-0.800000 6.920000 4.960000 -18.376781 25.385784 982.144165
-0.800000 6.920000 5.000000 -18.705818 16.118710 609.720459
-0.800000 6.920000 5.040000 -17.337608 12.843658 465.552216
-0.800000 6.920000 5.080000 -19.862026 11.265780 521.417908
-0.800000 6.920000 5.120000 -24.166628 5.238073 611.463318
-0.800000 6.920000 5.160000 -23.517387 -5.230615 580.426819
-0.800000 6.920000 5.200000 -14.966035 -13.360079 402.473877
-0.800000 6.960000 4.800000 22.190723 23.577816 1048.341553
-0.800000 6.960000 4.840000 6.211658 38.023148 1484.344482
-0.800000 6.960000 4.880000 -16.576443 38.112877 1727.369873
-0.800000 6.960000 4.920000 -32.606880 23.643322 1622.215332
-0.800000 6.960000 4.960000 -34.177895 5.641355 1199.953247
-0.800000 6.960000 5.000000 -26.116539 -4.185204 699.589539
-0.800000 6.960000 5.040000 -19.779381 -4.282675 409.565216
-0.800000 6.960000 5.080000 -20.942657 -3.120991 448.335480
-0.800000 6.960000 5.120000 -24.501148 -8.658311 675.272644
-0.800000 6.960000 5.160000 -21.284187 -19.147453 819.641602
-0.800000 6.960000 5.200000 -9.074477 -25.081926 711.449158
-0.800000 7.000000 4.800000 7.042106 23.944977 622.953186
-0.800000 7.000000 4.840000 -12.502489 27.415476 907.920593
-0.800000 7.000000 4.880000 -30.271290 15.439458 1154.727905
-0.800000 7.000000 4.920000 -34.298481 -4.700381 1198.479370
-0.800000 7.000000 4.960000 -24.427151 -18.930613 955.053772
-0.800000 7.000000 5.000000 -12.191751 -20.203354 556.814270
-0.800000 7.000000 5.040000 -8.489065 -14.825510 291.859985
-0.800000 7.000000 5.080000 -12.385612 -14.458167 362.441986
-0.800000 7.000000 5.120000 -13.210821 -22.666279 688.286011
-0.800000 7.000000 5.160000 -3.407005 -30.854250 963.592407
-0.800000 7.000000 5.200000 12.164253 -27.962826 929.888672
-0.800000 7.040000 4.800000 -1.526240 16.295387 267.869049
-0.800000 7.040000 4.840000 -15.528854 8.414488 311.948914
-0.800000 7.040000 4.880000 -19.605854 -8.362668 454.323730
-0.800000 7.040000 4.920000 -10.303438 -21.795712 581.213867
-0.800000 7.040000 4.960000 3.199718 -22.774670 528.923828
-0.800000 7.040000 5.000000 8.780797 -15.062268 303.974304
-0.800000 7.040000 5.040000 4.610015 -10.819004 138.303085
-0.800000 7.040000 5.080000 0.916869 -16.492161 272.832001
-0.800000 7.040000 5.120000 7.874650 -25.008551 687.437744
-0.800000 7.040000 5.160000 23.042038 -23.397793 1078.392212
-0.800000 7.040000 5.200000 32.734985 -7.755408 1131.725586
-0.800000 7.080000 4.800000 -2.365460 9.821875 102.064621
-0.800000 7.080000 4.840000 -4.206949 -2.490625 23.901636
-0.800000 7.080000 4.880000 4.994742 -12.064144 170.491028
-0.800000 7.080000 4.920000 17.613636 -9.998575 410.211670
-0.800000 7.080000 4.960000 21.597673 0.678452 466.919800
-0.800000 7.080000 5.000000 14.291419 7.331055 257.989014
-0.800000 7.080000 5.040000 6.423428 1.907043 44.897232
-0.800000 7.080000 5.080000 10.432472 -8.855056 187.248489
-0.800000 7.080000 5.120000 25.490974 -9.760501 745.057190
-0.800000 7.080000 5.160000 36.469971 5.810417 1363.819702
-0.800000 7.080000 5.200000 29.343021 26.937841 1586.660156
-0.800000 7.120000 4.800000 -2.657428 8.846575 85.323814
-0.800000 7.120000 4.840000 6.906850 1.452516 49.814377
-0.800000 7.120000 4.880000 19.670725 6.208643 425.484650
-0.800000 7.120000 4.920000 22.313332 20.722124 927.291199
-0.800000 7.120000 4.960000 10.530815 30.687252 1052.605469
-0.800000 7.120000 5.000000 -4.000002 24.900389 636.029358
-0.800000 7.120000 5.040000 -4.872148 9.084309 106.262489
-0.800000 7.120000 5.080000 10.455446 1.717130 112.264885
-0.800000 7.120000 5.120000 25.664459 14.381899 865.503540
-0.800000 7.120000 5.160000 21.541313 37.606396 1878.269165
-0.800000 7.120000 5.200000 -3.089716 48.727997 2383.964111
-0.800000 7.160000 4.800000 -8.710443 8.067453 140.955612
-0.800000 7.160000 4.840000 5.440212 10.706885 144.233292
-0.800000 7.160000 4.880000 10.821570 26.680023 828.929993
-0.800000 7.160000 4.920000 -1.672537 41.353058 1712.872803
-0.800000 7.160000 4.960000 -22.439465 38.359909 1975.012207
-0.800000 7.160000 5.000000 -30.978863 18.564634 1304.335571
-0.800000 7.160000 5.040000 -17.824699 1.760850 320.820496
-0.800000 7.160000 5.080000 3.188052 6.689507 54.913170
-0.800000 7.160000 5.120000 7.670518 29.834457 948.931702
-0.800000 7.160000 5.160000 -13.432220 46.881966 2378.343262
-0.800000 7.160000 5.200000 -42.528908 37.213078 3193.520996
-0.800000 7.200000 4.800000 -17.297222 -1.139200 300.491699
-0.800000 7.200000 4.840000 -5.448155 10.018883 130.060410
-0.800000 7.200000 4.880000 -11.014862 27.782213 893.178589
-0.800000 7.200000 4.920000 -31.973171 32.112347 2053.486328
-0.800000 7.200000 4.960000 -48.128845 14.965484 2540.351562
-0.800000 7.200000 5.000000 -41.884293 -8.591125 1828.101318
-0.800000 7.200000 5.040000 -18.645248 -14.678674 563.108765
-0.800000 7.200000 5.080000 -3.242388 3.396465 22.049053
-0.800000 7.200000 5.120000 -14.050820 25.993893 873.107971
-0.800000 7.200000 5.160000 -42.113380 26.545214 2478.185303
-0.800000 7.200000 5.200000 -58.814743 0.013684 3459.174316
