#kx 	ky 	kz 	real 	imag 	intensity
4.800000 6.800000 0.800000 -1.418178 -28.566076 818.031921
4.800000 6.800000 0.840000 5.843585 -20.996164 474.986420
4.800000 6.800000 0.880000 3.625432 -14.261595 216.536835
4.800000 6.800000 0.920000 -1.478382 -16.029785 259.139618
4.800000 6.800000 0.960000 0.484249 -23.936630 573.196777
4.800000 6.800000 1.000000 12.142873 -27.747427 917.369019
4.800000 6.800000 1.040000 25.585707 -19.869879 1049.440430
4.800000 6.800000 1.080000 30.006315 -3.170337 910.429993
4.800000 6.800000 1.120000 22.030586 11.901191 626.985107
4.800000 6.800000 1.160000 8.044098 17.392740 367.214935
4.800000 6.800000 1.200000 -3.198737 14.235570 212.883377
4.800000 6.840000 0.800000 9.421006 -28.589622 906.121887
4.800000 6.840000 0.840000 12.864172 -21.028042 607.665466
4.800000 6.840000 0.880000 10.654676 -18.574549 458.535980
4.800000 6.840000 0.920000 11.734487 -22.151093 628.369080
4.800000 6.840000 0.960000 20.320757 -23.874516 982.925659
4.800000 6.840000 1.000000 30.672314 -16.403728 1209.873169
4.800000 6.840000 1.040000 33.199093 -1.685219 1105.019775
4.800000 6.840000 1.080000 24.901840 10.734283 735.326477
4.800000 6.840000 1.120000 12.414291 13.715382 342.226318
4.800000 6.840000 1.160000 4.426728 9.441772 108.742989
4.800000 6.840000 1.200000 2.485157 5.607857 37.624062
4.800000 6.880000 0.800000 18.657917 -24.661732 956.318848
4.800000 6.880000 0.840000 21.145046 -18.890335 803.957764
4.800000 6.880000 0.880000 22.664303 -17.510769 820.297607
4.800000 6.880000 0.920000 28.359512 -16.328426 1070.879395
4.800000 6.880000 0.960000 35.453579 -9.199848 1341.593506
4.800000 6.880000 1.000000 36.522118 3.254282 1344.455444
4.800000 6.880000 1.040000 28.851360 13.318500 1009.783447
4.800000 6.880000 1.080000 18.424582 14.841103 559.723511
4.800000 6.880000 1.120000 13.445621 10.486413 290.749603
4.800000 6.880000 1.160000 14.804150 8.692425 294.721100
4.800000 6.880000 1.200000 14.971141 13.396330 403.596710
4.800000 6.920000 0.800000 26.708004 -17.376953 1015.276001
4.800000 6.920000 0.840000 29.860342 -11.149652 1015.954773
4.800000 6.920000 0.880000 33.084129 -6.261250 1133.762817
4.800000 6.920000 0.920000 36.539993 1.041257 1336.255371
4.800000 6.920000 0.960000 35.939911 11.131098 1415.578613
4.800000 6.920000 1.000000 29.314692 18.938507 1218.018188
4.800000 6.920000 1.040000 21.297649 19.975315 852.603088
4.800000 6.920000 1.080000 18.612814 16.904640 632.203674
4.800000 6.920000 1.120000 21.557667 17.679928 777.312866
4.800000 6.920000 1.160000 22.151281 26.184299 1176.296875
4.800000 6.920000 1.200000 12.506409 36.093277 1459.134888
4.800000 6.960000 0.800000 32.056553 -4.978725 1052.410278
4.800000 6.960000 0.840000 33.071640 3.709383 1107.492920
4.800000 6.960000 0.880000 32.353340 11.487059 1178.691162
4.800000 6.960000 0.920000 29.250261 18.870178 1211.661377
4.800000 6.960000 0.960000 23.434017 23.682945 1110.035034
4.800000 6.960000 1.000000 18.131941 24.060230 907.661926
4.800000 6.960000 1.040000 17.539522 22.911436 832.568726
4.800000 6.960000 1.080000 20.662987 26.670498 1138.274414
4.800000 6.960000 1.120000 19.788601 37.933979 1830.575562
4.800000 6.960000 1.160000 7.473013 50.086327 2564.486084
4.800000 6.960000 1.200000 -14.327999 51.467281 2854.172607
4.800000 7.000000 0.800000 29.442883 11.865740 1007.679138
4.800000 7.000000 0.840000 24.202543 19.947300 983.657898
4.800000 7.000000 0.880000 17.616529 23.998297 886.260376
4.800000 7.000000 0.920000 11.924588 24.310793 733.210449
4.800000 7.000000 0.960000 9.683689 22.393007 595.220581
4.800000 7.000000 1.000000 12.099005 22.383999 647.429321
4.800000 7.000000 1.040000 15.717033 29.120037 1095.001709
4.800000 7.000000 1.080000 12.729154 42.699982 1985.319824
4.800000 7.000000 1.120000 -2.786085 55.277935 3063.412354
4.800000 7.000000 1.160000 -27.610601 55.513657 3844.111328
4.800000 7.000000 1.200000 -49.270302 38.369339 3899.769043
4.800000 7.040000 0.800000 14.684653 26.118469 897.813477
4.800000 7.040000 0.840000 4.102162 26.547523 721.598755
4.800000 7.040000 0.880000 -2.328435 21.000561 446.445160
4.800000 7.040000 0.920000 -1.404552 14.433635 210.302582
4.800000 7.040000 0.960000 5.639807 13.467518 213.181458
4.800000 7.040000 1.000000 12.049202 22.444118 648.921753
4.800000 7.040000 1.040000 8.574665 38.700287 1571.237061
4.800000 7.040000 1.080000 -9.483072 51.899574 2783.494629
4.800000 7.040000 1.120000 -36.570267 50.262230 3863.676270
4.800000 7.040000 1.160000 -58.805443 30.029999 4359.880859
4.800000 7.040000 1.200000 -63.612595 -0.193598 4046.599854
4.800000 7.080000 0.800000 -8.428375 27.749470 841.070557
4.800000 7.080000 0.840000 -16.409847 16.440601 539.576416
4.800000 7.080000 0.880000 -13.052354 3.624741 183.502686
4.800000 7.080000 0.920000 -0.388729 -0.856830 0.885267
4.800000 7.080000 0.960000 11.778044 8.695346 214.331360
4.800000 7.080000 1.000000 11.333583 28.100624 918.095215
4.800000 7.080000 1.040000 -6.930709 44.015530 1985.401489
4.800000 7.080000 1.080000 -35.551353 42.638649 3081.953125
4.800000 7.080000 1.120000 -58.151810 20.510612 3802.318359
4.800000 7.080000 1.160000 -61.085621 -11.807648 3870.873779
4.800000 7.080000 1.200000 -43.569164 -37.209961 3282.853271
4.800000 7.120000 0.800000 -27.854324 12.848036 940.935425
4.800000 7.120000 0.840000 -23.928207 -5.716203 605.234070
4.800000 7.120000 0.880000 -6.720243 -15.469037 284.452789
4.800000 7.120000 0.920000 12.641366 -7.769636 220.171387
4.800000 7.120000 0.960000 18.854771 14.115748 554.756714
4.800000 7.120000 1.000000 3.984974 34.991653 1240.295776
4.800000 7.120000 1.040000 -24.756563 37.921799 2050.950195
4.800000 7.120000 1.080000 -48.821678 17.499420 2689.785889
4.800000 7.120000 1.120000 -51.971123 -15.103094 2929.101074
4.800000 7.120000 1.160000 -32.602440 -40.477520 2701.348633
4.800000 7.120000 1.200000 -4.115977 -45.772335 2112.047852
4.800000 7.160000 0.800000 -32.060299 -10.874186 1146.110718
4.800000 7.160000 0.840000 -13.803526 -25.888077 860.729858
4.800000 7.160000 0.880000 11.062794 -22.577854 632.144897
4.800000 7.160000 0.920000 25.469893 -0.805093 649.363647
4.800000 7.160000 0.960000 17.545599 25.115980 938.660522
4.800000 7.160000 1.000000 -8.723698 35.753090 1354.386353
4.800000 7.160000 1.040000 -34.886917 21.749228 1690.125977
4.800000 7.160000 1.080000 -41.819275 -8.034233 1813.400757
4.800000 7.160000 1.120000 -24.743549 -33.236526 1716.909912
4.800000 7.160000 1.160000 3.691725 -38.165100 1470.203613
4.800000 7.160000 1.200000 24.674490 -23.184349 1146.344482
4.800000 7.200000 0.800000 -20.137379 -29.185450 1257.304443
4.800000 7.200000 0.840000 5.572814 -32.015610 1056.055542
4.800000 7.200000 0.880000 26.441666 -14.432013 907.444702
4.800000 7.200000 0.920000 27.401302 13.309460 927.973083
4.800000 7.200000 0.960000 7.032671 31.864531 1064.806763
4.800000 7.200000 1.000000 -19.703558 27.703896 1155.736084
4.800000 7.200000 1.040000 -32.639233 4.511788 1085.675659
4.800000 7.200000 1.080000 -22.575565 -19.516232 890.539429
4.800000 7.200000 1.120000 1.713116 -26.602715 710.639160
4.800000 7.200000 1.160000 21.714697 -13.333481 649.309753
4.800000 7.200000 1.200000 24.690441 8.453098 681.072754
4.840000 6.800000 0.800000 17.462975 -9.515525 395.500671
4.840000 6.800000 0.840000 12.011462 -3.796738 158.690445
4.840000 6.800000 0.880000 5.532219 -6.968631 79.167259
4.840000 6.800000 0.920000 6.909505 -15.397801 284.833557
4.840000 6.800000 0.960000 17.422920 -19.172426 671.140076
4.840000 6.800000 1.000000 28.979200 -11.963726 982.924805
4.840000 6.800000 1.040000 31.905678 2.659253 1025.043945
4.840000 6.800000 1.080000 24.114166 14.997375 806.414307
4.840000 6.800000 1.120000 12.034110 18.729073 495.597961
4.840000 6.800000 1.160000 3.021832 15.789329 258.434387
4.840000 6.800000 1.200000 -1.798486 11.895443 144.736115
4.840000 6.840000 0.800000 17.276434 -3.584884 311.326538
4.840000 6.840000 0.840000 15.899246 -3.398542 264.336121
4.840000 6.840000 0.880000 18.774475 -4.893228 376.424591
4.840000 6.840000 0.920000 25.197670 -1.763425 638.032227
4.840000 6.840000 0.960000 28.347128 8.102255 869.206177
4.840000 6.840000 1.000000 22.689255 18.934895 873.332520
4.840000 6.840000 1.040000 10.849808 22.476677 622.919373
4.840000 6.840000 1.080000 1.665541 16.956905 290.310669
4.840000 6.840000 1.120000 0.878544 9.381358 88.781723
4.840000 6.840000 1.160000 4.731524 7.870014 84.324440
4.840000 6.840000 1.200000 4.241370 12.199284 166.811752
4.840000 6.880000 0.800000 15.747852 -1.469294 250.153687
4.840000 6.880000 0.840000 22.147755 0.727840 491.052795
4.840000 6.880000 0.880000 28.294029 10.053245 901.619812
4.840000 6.880000 0.920000 25.912075 24.887024 1290.799561
4.840000 6.880000 0.960000 11.574232 35.239502 1375.785400
4.840000 6.880000 1.000000 -6.833862 31.443951 1035.423706
4.840000 6.880000 1.040000 -15.395226 15.140604 466.250854
4.840000 6.880000 1.080000 -7.540520 -0.008206 56.859505
4.840000 6.880000 1.120000 8.148562 -0.554548 66.706596
4.840000 6.880000 1.160000 15.191233 13.066422 401.504944
4.840000 6.880000 1.200000 5.421946 26.045420 707.761414
4.840000 6.920000 0.800000 17.270086 0.011397 298.256012
4.840000 6.920000 0.840000 25.497673 11.827766 790.027405
4.840000 6.920000 0.880000 22.363255 30.912006 1455.667236
4.840000 6.920000 0.920000 3.133533 44.080692 1952.926514
4.840000 6.920000 0.960000 -21.980064 37.869812 1917.245850
4.840000 6.920000 1.000000 -33.601559 13.485645 1310.927368
4.840000 6.920000 1.040000 -20.927696 -10.535089 548.956604
4.840000 6.920000 1.080000 5.898470 -13.553751 218.496109
4.840000 6.920000 1.120000 23.042862 7.434944 586.251892
4.840000 6.920000 1.160000 14.610607 33.629890 1344.439331
4.840000 6.920000 1.200000 -12.087440 41.338894 1855.010376
4.840000 6.960000 0.800000 19.427132 6.340501 417.615417
4.840000 6.960000 0.840000 18.501734 25.883869 1012.288818
4.840000 6.960000 0.880000 -0.144599 41.891460 1754.915283
4.840000 6.960000 0.920000 -28.359861 37.994923 2247.895996
4.840000 6.960000 0.960000 -44.668400 11.514480 2127.849121
4.840000 6.960000 1.000000 -32.925385 -19.010914 1445.495850
4.840000 6.960000 1.040000 -0.103663 -27.483101 755.331604
4.840000 6.960000 1.080000 26.528313 -4.487844 723.892151
4.840000 6.960000 1.120000 22.949142 31.883053 1543.192139
4.840000 6.960000 1.160000 -9.180832 51.041306 2689.502441
4.840000 6.960000 1.200000 -43.591354 37.442150 3302.120605
4.840000 7.000000 0.800000 14.740092 16.789425 499.155121
4.840000 7.000000 0.840000 0.162145 32.220985 1038.218140
4.840000 7.000000 0.880000 -25.702757 31.686125 1664.642212
4.840000 7.000000 0.920000 -44.297703 8.688742 2037.780762
4.840000 7.000000 0.960000 -37.007408 -22.847342 1891.549316
4.840000 7.000000 1.000000 -5.091987 -36.502110 1358.332397
4.840000 7.000000 1.040000 26.590935 -17.047441 997.693115
4.840000 7.000000 1.080000 29.508060 22.721670 1387.000000
4.840000 7.000000 1.120000 -2.197026 50.660149 2571.277588
4.840000 7.000000 1.160000 -44.946999 43.293610 3894.569336
4.840000 7.000000 1.200000 -66.325073 6.703328 4443.949707
4.840000 7.040000 0.800000 -0.039921 22.424145 502.843842
4.840000 7.040000 0.840000 -19.903522 22.480423 901.519653
4.840000 7.040000 0.880000 -35.984291 4.746371 1317.397339
4.840000 7.040000 0.920000 -32.127834 -22.428305 1535.226562
4.840000 7.040000 0.960000 -5.562027 -37.474792 1435.296265
4.840000 7.040000 1.000000 25.138088 -23.648815 1191.189941
4.840000 7.040000 1.040000 32.835350 12.723394 1240.044922
4.840000 7.040000 1.080000 6.278130 43.687515 1948.013916
4.840000 7.040000 1.120000 -37.368919 42.624615 3213.293945
4.840000 7.040000 1.160000 -65.827568 8.096577 4398.823242
4.840000 7.040000 1.200000 -59.464966 -34.696007 4739.895020
4.840000 7.080000 0.800000 -17.569038 14.400458 516.044312
4.840000 7.080000 0.840000 -27.720810 -0.233209 768.497681
4.840000 7.080000 0.880000 -23.360229 -21.055641 989.040344
4.840000 7.080000 0.920000 -1.933475 -33.008743 1093.315430
4.840000 7.080000 0.960000 23.806765 -22.677616 1081.036377
4.840000 7.080000 1.000000 32.452293 7.274900 1106.075562
4.840000 7.080000 1.040000 12.128541 35.673508 1419.700684
4.840000 7.080000 1.080000 -26.294268 38.403381 2166.208252
4.840000 7.080000 1.120000 -55.550835 9.521670 3176.557373
4.840000 7.080000 1.160000 -54.184052 -32.250256 3975.990234
4.840000 7.080000 1.200000 -24.440641 -58.934044 4070.566406
4.840000 7.120000 0.800000 -24.788965 -5.705788 647.048828
4.840000 7.120000 0.840000 -16.992542 -21.984447 772.062378
4.840000 7.120000 0.880000 2.487330 -29.030056 848.930969
4.840000 7.120000 0.920000 23.283957 -18.596708 887.980225
4.840000 7.120000 0.960000 29.971664 6.330235 938.372559
4.840000 7.120000 1.000000 13.892521 29.887943 1086.291260
4.840000 7.120000 1.040000 -17.276100 33.430401 1416.055298
4.840000 7.120000 1.080000 -42.614975 10.843086 1933.608643
4.840000 7.120000 1.120000 -43.486435 -24.723923 2502.342285
4.840000 7.120000 1.160000 -18.644508 -50.216984 2869.363037
4.840000 7.120000 1.200000 14.929278 -50.790024 2802.509766
4.840000 7.160000 0.800000 -15.231089 -25.201820 867.117859
4.840000 7.160000 0.840000 4.710725 -29.100042 869.003357
4.840000 7.160000 0.880000 23.181000 -17.134405 830.946594
4.840000 7.160000 0.920000 27.944365 5.695736 813.328918
4.840000 7.160000 0.960000 13.952316 25.736372 857.027954
4.840000 7.160000 1.000000 -11.413681 29.023058 972.609985
4.840000 7.160000 1.040000 -31.797949 11.672440 1147.355469
4.840000 7.160000 1.080000 -33.030952 -16.089760 1349.924194
4.840000 7.160000 1.120000 -13.674328 -36.610558 1527.320068
4.840000 7.160000 1.160000 13.904385 -37.576908 1605.355957
4.840000 7.160000 1.200000 33.111729 -20.493267 1516.360596
4.840000 7.200000 0.800000 3.995275 -31.258741 993.071106
4.840000 7.200000 0.840000 22.183228 -19.704779 880.373901
4.840000 7.200000 0.880000 27.232861 1.924894 745.333923
4.840000 7.200000 0.920000 15.388525 20.697533 665.194580
4.840000 7.200000 0.960000 -5.973733 24.874241 654.413330
4.840000 7.200000 1.000000 -22.997505 12.164780 676.867126
4.840000 7.200000 1.040000 -24.836708 -8.586018 690.581787
4.840000 7.200000 1.080000 -10.970980 -23.691776 681.662720
4.840000 7.200000 1.120000 9.074789 -24.108234 663.558777
4.840000 7.200000 1.160000 23.032734 -10.896759 649.246216
4.840000 7.200000 1.200000 24.135111 6.935198 630.600586
4.880000 6.800000 0.800000 13.431407 21.249565 631.946716
4.880000 6.800000 0.840000 0.446428 14.315706 205.138748
4.880000 6.800000 0.880000 -0.624075 0.085356 0.396755
4.880000 6.800000 0.920000 11.029081 -8.045994 186.378647
4.880000 6.800000 0.960000 24.384480 -2.317318 599.972778
4.880000 6.800000 1.000000 27.382973 11.982334 893.403564
4.880000 6.800000 1.040000 18.550785 22.452866 848.262817
4.880000 6.800000 1.080000 7.198427 22.381769 552.760986
4.880000 6.800000 1.120000 2.377373 16.524261 278.703125
4.880000 6.800000 1.160000 3.259092 13.849568 202.432236
4.880000 6.800000 1.200000 1.726988 16.072357 261.303162
4.880000 6.840000 0.800000 -0.342628 19.872890 395.049164
4.880000 6.840000 0.840000 2.125101 11.709347 141.624847
4.880000 6.840000 0.880000 11.023706 12.938871 288.936493
4.880000 6.840000 0.920000 13.522217 24.778288 796.813904
4.880000 6.840000 0.960000 2.136345 35.611435 1272.738281
4.880000 6.840000 1.000000 -15.928358 32.454399 1307.000488
4.880000 6.840000 1.040000 -24.838694 15.310879 851.383667
4.880000 6.840000 1.080000 -16.412857 -1.339716 271.176697
4.880000 6.840000 1.120000 0.482576 -2.750734 7.799419
4.880000 6.840000 1.160000 8.253978 10.481548 177.990997
4.880000 6.840000 1.200000 -1.148857 22.302507 498.721710
4.880000 6.880000 0.800000 -6.677250 9.432226 133.552551
4.880000 6.880000 0.840000 5.729198 15.411278 270.331177
4.880000 6.880000 0.880000 5.170708 35.520203 1288.421021
4.880000 6.880000 0.920000 -17.849613 50.222309 2840.888916
4.880000 6.880000 0.960000 -49.571541 39.244244 3997.448242
4.880000 6.880000 1.000000 -62.908684 3.886169 3972.604736
4.880000 6.880000 1.040000 -43.375977 -30.419134 2806.799072
4.880000 6.880000 1.080000 -5.151855 -36.392044 1350.922485
4.880000 6.880000 1.120000 20.460537 -11.061832 540.997681
4.880000 6.880000 1.160000 14.136334 20.782978 631.768127
4.880000 6.880000 1.200000 -13.472295 30.169979 1091.730347
4.880000 6.920000 0.800000 -2.310404 0.793636 5.967824
4.880000 6.920000 0.840000 2.523699 24.492243 606.239014
4.880000 6.920000 0.880000 -22.087606 47.205517 2716.223145
4.880000 6.920000 0.920000 -64.339096 39.189465 5675.333008
4.880000 6.920000 0.960000 -88.546059 -5.722609 7873.152344
4.880000 6.920000 1.000000 -67.730873 -58.098404 7962.895508
4.880000 6.920000 1.040000 -12.257849 -76.454453 5995.538086
4.880000 6.920000 1.080000 36.061642 -45.709343 3389.786133
4.880000 6.920000 1.120000 41.039021 7.530128 1740.904053
4.880000 6.920000 1.160000 4.867994 39.107559 1553.098633
4.880000 6.920000 1.200000 -35.630180 27.761385 2040.204346
4.880000 6.960000 0.800000 4.759362 1.661934 25.413553
4.880000 6.960000 0.840000 -11.251156 29.177959 977.941833
4.880000 6.960000 0.880000 -53.762138 31.593559 3888.520508
4.880000 6.960000 0.920000 -88.352623 -8.951946 7886.323242
4.880000 6.960000 0.960000 -77.129730 -70.232407 10881.585938
4.880000 6.960000 1.000000 -17.661144 -103.956039 11118.774414
4.880000 6.960000 1.040000 48.706814 -79.178345 8641.564453
4.880000 6.960000 1.080000 71.362503 -13.252056 5268.224121
4.880000 6.960000 1.120000 36.078312 41.917580 3058.728027
4.880000 6.960000 1.160000 -22.811752 46.447781 2677.772217
4.880000 6.960000 1.200000 -55.591499 6.771069 3136.262207
4.880000 7.000000 0.800000 4.275369 8.204617 85.594513
4.880000 7.000000 0.840000 -27.901920 19.864304 1173.107666
4.880000 7.000000 0.880000 -64.645126 -6.227050 4217.768555
4.880000 7.000000 0.920000 -66.867470 -62.009068 8316.382812
4.880000 7.000000 0.960000 -18.238144 -105.073906 11373.155273
4.880000 7.000000 1.000000 52.264000 -94.462296 11654.650391
4.880000 7.000000 1.040000 90.941986 -31.121212 9238.975586
4.880000 7.000000 1.080000 66.981903 38.498436 5968.704590
4.880000 7.000000 1.120000 1.262930 62.311657 3884.337646
4.880000 7.000000 1.160000 -52.676823 28.452528 3584.394043
4.880000 7.000000 1.200000 -57.195087 -27.107697 4006.105225
4.880000 7.040000 0.800000 -4.603939 9.362614 108.854782
4.880000 7.040000 0.840000 -33.482609 -1.995234 1125.066040
4.880000 7.040000 0.880000 -43.731812 -41.538254 3637.897949
4.880000 7.040000 0.920000 -13.199669 -81.926003 6886.101562
4.880000 7.040000 0.960000 45.813595 -84.543892 9246.554688
4.880000 7.040000 1.000000 90.009544 -36.594891 9440.904297
4.880000 7.040000 1.040000 81.449966 31.376295 7618.569336
4.880000 7.040000 1.080000 23.546736 68.590279 5259.075195
4.880000 7.040000 1.120000 -39.630688 48.345978 3907.924805
4.880000 7.040000 1.160000 -61.869495 -8.857793 3906.294922
4.880000 7.040000 1.200000 -34.430069 -55.751213 4293.627441
4.880000 7.080000 0.800000 -11.857395 -0.586040 140.941269
4.880000 7.080000 0.840000 -20.706402 -22.857040 951.199341
4.880000 7.080000 0.880000 -4.816477 -50.603371 2583.899658
4.880000 7.080000 0.920000 34.515076 -57.747688 4526.085938
4.880000 7.080000 0.960000 71.096519 -28.188908 5849.329102
4.880000 7.080000 1.000000 72.897217 24.242237 5901.690430
4.880000 7.080000 1.040000 31.868378 62.188393 4882.989746
4.880000 7.080000 1.080000 -24.901150 55.594650 3710.832520
4.880000 7.080000 1.120000 -56.217735 8.904129 3239.717285
4.880000 7.080000 1.160000 -41.821213 -42.212593 3530.916748
4.880000 7.080000 1.200000 1.683386 -62.186226 3869.960449
4.880000 7.120000 0.800000 -7.326831 -14.975574 277.950287
4.880000 7.120000 0.840000 3.142817 -28.276754 809.452148
4.880000 7.120000 0.880000 25.380581 -30.759499 1590.320557
4.880000 7.120000 0.920000 46.926273 -13.100160 2373.689453
4.880000 7.120000 0.960000 49.399979 19.640369 2826.102051
4.880000 7.120000 1.000000 24.346859 46.797066 2782.734863
4.880000 7.120000 1.040000 -15.644061 46.636536 2419.703125
4.880000 7.120000 1.080000 -43.608589 15.554191 2143.641846
4.880000 7.120000 1.120000 -39.371063 -26.456751 2250.040283
4.880000 7.120000 1.160000 -6.536015 -51.024002 2646.168213
4.880000 7.120000 1.200000 30.844925 -44.308479 2914.650879
4.880000 7.160000 0.800000 7.956518 -21.182161 511.990143
4.880000 7.160000 0.840000 21.903383 -15.884951 732.089844
4.880000 7.160000 0.880000 30.214291 -1.099726 914.112793
4.880000 7.160000 0.920000 26.621414 17.565475 1017.245605
4.880000 7.160000 0.960000 9.983047 30.417702 1024.897827
4.880000 7.160000 1.000000 -12.914261 28.382797 972.361328
4.880000 7.160000 1.040000 -29.247852 9.686085 949.257141
4.880000 7.160000 1.080000 -27.815655 -16.685345 1052.111328
4.880000 7.160000 1.120000 -7.614524 -35.318535 1305.379883
4.880000 7.160000 1.160000 20.105534 -34.788410 1614.466064
4.880000 7.160000 1.200000 39.308872 -16.047922 1802.723145
4.880000 7.200000 0.800000 22.288105 -13.765435 686.246826
4.880000 7.200000 0.840000 24.788006 2.678201 621.617981
4.880000 7.200000 0.880000 15.438714 16.026703 495.209106
4.880000 7.200000 0.920000 0.337873 19.337196 374.041321
4.880000 7.200000 0.960000 -12.318960 12.262804 302.133118
4.880000 7.200000 1.000000 -17.163071 -0.628871 294.966461
4.880000 7.200000 1.040000 -12.988297 -13.488338 350.631104
4.880000 7.200000 1.080000 -1.622335 -21.393925 460.331970
4.880000 7.200000 1.120000 13.028409 -20.952971 608.766418
4.880000 7.200000 1.160000 25.316824 -11.193100 766.227051
4.880000 7.200000 1.200000 29.356129 4.894037 885.733887
4.920000 6.800000 0.800000 -16.012560 40.408676 1889.263184
4.920000 6.800000 0.840000 -24.566984 17.863964 922.657898
4.920000 6.800000 0.880000 -13.104778 -0.891224 172.529495
4.920000 6.800000 0.920000 6.140106 -1.872807 41.208309
4.920000 6.800000 0.960000 15.420544 11.950268 380.602051
4.920000 6.800000 1.000000 8.755181 24.679070 685.709656
4.920000 6.800000 1.040000 -3.440365 24.455040 609.885071
4.920000 6.800000 1.080000 -7.110935 15.194704 281.444427
4.920000 6.800000 1.120000 -0.386795 10.467114 109.710098
4.920000 6.800000 1.160000 5.113215 16.813110 308.825653
4.920000 6.800000 1.200000 -1.100449 25.558605 654.453308
4.920000 6.840000 0.800000 -33.401581 21.076008 1559.863770
4.920000 6.840000 0.840000 -21.882875 10.626785 591.788818
4.920000 6.840000 0.880000 -12.083088 17.883259 465.811951
4.920000 6.840000 0.920000 -19.504013 30.463898 1308.455566
4.920000 6.840000 0.960000 -39.838852 28.141727 2379.091064
4.920000 6.840000 1.000000 -51.884941 5.140503 2718.471924
4.920000 6.840000 1.040000 -39.414577 -21.552891 2018.036011
4.920000 6.840000 1.080000 -9.577370 -28.078836 880.147095
4.920000 6.840000 1.120000 12.369617 -8.292120 221.766663
4.920000 6.840000 1.160000 7.852606 18.714752 411.905365
4.920000 6.840000 1.200000 -15.969929 27.033737 985.861572
4.920000 6.880000 0.800000 -31.422155 -3.440387 999.188110
4.920000 6.880000 0.840000 -19.327530 11.266893 500.496277
4.920000 6.880000 0.880000 -35.458431 31.879086 2273.576416
4.920000 6.880000 0.920000 -72.465027 25.985657 5926.434570
4.920000 6.880000 0.960000 -95.118095 -16.706852 9326.571289
4.920000 6.880000 1.000000 -74.024292 -68.836197 10218.017578
4.920000 6.880000 1.040000 -17.292267 -88.124146 8064.887695
4.920000 6.880000 1.080000 33.442493 -57.734528 4451.675781
4.920000 6.880000 1.120000 40.807217 -3.674995 1678.734497
4.920000 6.880000 1.160000 6.325460 29.135351 888.880188
4.920000 6.880000 1.200000 -32.562683 18.842899 1415.383179
4.920000 6.920000 0.800000 -14.695757 -16.692579 494.607483
4.920000 6.920000 0.840000 -24.814846 13.269236 791.849243
4.920000 6.920000 0.880000 -69.434845 17.713289 5134.958496
4.920000 6.920000 0.920000 -108.138641 -28.540056 12508.500977
4.920000 6.920000 0.960000 -93.834541 -101.134224 19033.050781
4.920000 6.920000 1.000000 -21.564804 -142.442932 20755.029297
4.920000 6.920000 1.040000 60.446850 -114.486809 16761.050781
4.920000 6.920000 1.080000 92.088028 -36.705925 9827.530273
4.920000 6.920000 1.120000 55.979843 30.327957 4053.527832
4.920000 6.920000 1.160000 -8.294731 40.175396 1682.865112
4.920000 6.920000 1.200000 -43.690647 0.545535 1909.170288
4.920000 6.960000 0.800000 1.627556 -13.915585 196.292435
4.920000 6.960000 0.840000 -35.022091 5.876165 1261.076172
4.920000 6.960000 0.880000 -83.494308 -25.399418 7616.429688
4.920000 6.960000 0.920000 -87.577705 -100.466949 17763.462891
4.920000 6.960000 0.960000 -21.225212 -161.646591 26580.130859
4.920000 6.960000 1.000000 78.351212 -150.946411 28923.730469
4.920000 6.960000 1.040000 138.381561 -66.833740 23616.207031
4.920000 6.960000 1.080000 115.579247 30.103539 14264.785156
4.920000 6.960000 1.120000 35.311256 70.621223 6234.242188
4.920000 6.960000 1.160000 -33.680237 37.848457 2566.864258
4.920000 6.960000 1.200000 -43.227806 -23.082750 2401.456543
4.920000 7.000000 0.800000 6.916951 -4.505037 68.139572
4.920000 7.000000 0.840000 -37.189793 -12.751554 1545.682861
4.920000 7.000000 0.880000 -58.505249 -70.133430 8341.562500
4.920000 7.000000 0.920000 -15.914755 -136.238480 18814.203125
4.920000 7.000000 0.960000 76.949722 -147.887756 27792.048828
4.920000 7.000000 1.000000 154.471619 -79.412086 30167.759766
4.920000 7.000000 1.040000 155.159180 27.226091 24815.630859
4.920000 7.000000 1.080000 78.475357 95.933899 15361.694336
4.920000 7.000000 1.120000 -14.021355 83.430946 7157.321289
4.920000 7.000000 1.160000 -54.926731 15.055177 3243.604248
4.920000 7.000000 1.200000 -29.348789 -44.069786 2803.497559
4.920000 7.040000 0.800000 4.016376 -0.455527 16.338781
4.920000 7.040000 0.840000 -22.444756 -30.862120 1456.237549
4.920000 7.040000 0.880000 -6.758635 -83.461502 7011.501465
4.920000 7.040000 0.920000 58.974247 -108.647736 15282.291992
4.920000 7.040000 0.960000 132.558502 -68.433952 22254.960938
4.920000 7.040000 1.000000 153.548065 22.162762 24068.195312
4.920000 7.040000 1.040000 98.414963 101.321571 19951.566406
4.920000 7.040000 1.080000 5.135133 112.740547 12736.799805
4.920000 7.040000 1.120000 -58.917110 55.012718 6497.625000
4.920000 7.040000 1.160000 -55.712399 -19.598038 3487.954346
4.920000 7.040000 1.200000 -5.611701 -54.715378 3025.263672
4.920000 7.080000 0.800000 3.456107 -3.811633 26.473221
4.920000 7.080000 0.840000 3.241916 -33.247490 1115.905640
4.920000 7.080000 0.880000 37.012657 -56.285637 4538.009766
4.920000 7.080000 0.920000 87.857353 -40.780022 9381.924805
4.920000 7.080000 0.960000 114.210701 17.650223 13355.614258
4.920000 7.080000 1.000000 85.658936 83.754768 14352.314453
4.920000 7.080000 1.040000 14.089479 108.859032 12048.802734
4.920000 7.080000 1.080000 -52.267529 73.286606 8102.821289
4.920000 7.080000 1.120000 -69.004807 4.600348 4782.826172
4.920000 7.080000 1.160000 -32.627403 -46.741604 3249.325195
4.920000 7.080000 1.200000 20.255230 -50.930882 3004.229004
4.920000 7.120000 0.800000 10.432962 -6.340924 149.054016
4.920000 7.120000 0.840000 22.801683 -16.419949 789.531494
4.920000 7.120000 0.880000 45.893635 -11.366468 2235.422363
4.920000 7.120000 0.920000 61.816063 16.347950 4088.480957
4.920000 7.120000 0.960000 50.609234 54.466396 5527.882812
4.920000 7.120000 1.000000 9.957451 75.928093 5864.226074
4.920000 7.120000 1.040000 -37.613544 60.500729 5075.116699
4.920000 7.120000 1.080000 -60.173996 14.165970 3821.584717
4.920000 7.120000 1.120000 -42.499855 -33.190807 2907.867188
4.920000 7.120000 1.160000 1.095762 -51.490940 2652.517578
4.920000 7.120000 1.200000 39.490917 -34.236752 2731.687744
4.920000 7.160000 0.800000 19.233404 -0.537868 370.213135
4.920000 7.160000 0.840000 23.636108 7.014032 607.862305
4.920000 7.160000 0.880000 23.158125 18.084274 863.339722
4.920000 7.160000 0.920000 14.963747 29.533482 1096.140259
4.920000 7.160000 0.960000 -1.712700 35.227592 1243.916626
4.920000 7.160000 1.000000 -21.898766 28.151152 1272.043335
4.920000 7.160000 1.040000 -34.540310 6.607830 1236.696411
4.920000 7.160000 1.080000 -29.040003 -20.874882 1279.082520
4.920000 7.160000 1.120000 -4.627357 -38.664986 1516.393555
4.920000 7.160000 1.160000 26.376160 -34.901287 1913.801636
4.920000 7.160000 1.200000 46.241570 -11.266346 2265.213379
4.920000 7.200000 0.800000 20.689070 11.079184 550.785889
4.920000 7.200000 0.840000 9.397665 19.908363 484.659027
4.920000 7.200000 0.880000 -4.156914 17.763313 332.815247
4.920000 7.200000 0.920000 -11.384239 8.090879 195.063232
4.920000 7.200000 0.960000 -11.002697 -1.600200 123.619980
4.920000 7.200000 1.000000 -7.401520 -7.974014 118.367401
4.920000 7.200000 1.040000 -3.179835 -13.218143 184.830673
4.920000 7.200000 1.080000 4.286985 -18.824135 372.726288
4.920000 7.200000 1.120000 17.818819 -20.415909 734.319641
4.920000 7.200000 1.160000 33.323223 -11.129803 1234.309814
4.920000 7.200000 1.200000 40.253117 9.495983 1710.487061
4.960000 6.800000 0.800000 -52.966499 31.262493 3782.793457
4.960000 6.800000 0.840000 -47.013573 0.041161 2210.277832
4.960000 6.800000 0.880000 -22.859276 -14.046318 719.845581
4.960000 6.800000 0.920000 -1.845070 -5.517040 33.842014
4.960000 6.800000 0.960000 1.094652 11.223396 127.162888
4.960000 6.800000 1.000000 -9.178406 17.728676 398.549072
4.960000 6.800000 1.040000 -15.573921 10.528393 353.394073
4.960000 6.800000 1.080000 -8.770237 2.973667 85.759750
4.960000 6.800000 1.120000 2.515327 8.375271 76.472038
4.960000 6.800000 1.160000 2.288380 23.588127 561.636414
4.960000 6.800000 1.200000 -13.159556 31.798925 1184.345581
4.960000 6.840000 0.800000 -58.813522 -4.651430 3480.666260
4.960000 6.840000 0.840000 -39.867287 -10.680502 1703.473633
4.960000 6.840000 0.880000 -33.593258 -0.479664 1128.737061
4.960000 6.840000 0.920000 -46.123943 3.562057 2140.106445
4.960000 6.840000 0.960000 -59.338291 -14.058792 3718.682373
4.960000 6.840000 1.000000 -49.931427 -43.209885 4360.241699
4.960000 6.840000 1.040000 -15.870522 -56.466263 3440.312256
4.960000 6.840000 1.080000 18.282784 -37.354973 1729.654175
4.960000 6.840000 1.120000 24.330254 0.797428 592.597107
4.960000 6.840000 1.160000 -1.144491 26.093094 682.159424
4.960000 6.840000 1.200000 -32.540405 18.928417 1417.162842
4.960000 6.880000 0.800000 -38.884975 -33.421955 2629.068359
4.960000 6.880000 0.840000 -34.670082 -13.821143 1393.038696
4.960000 6.880000 0.880000 -61.302650 -7.130112 3808.853271
4.960000 6.880000 0.920000 -89.042870 -39.457260 9485.507812
4.960000 6.880000 0.960000 -77.121490 -95.615540 15090.054688
4.960000 6.880000 1.000000 -17.385201 -128.668610 16857.857422
4.960000 6.880000 1.040000 52.003281 -104.548340 13634.697266
4.960000 6.880000 1.080000 79.533707 -37.368340 7722.002930
4.960000 6.880000 1.120000 48.505486 21.471531 2813.808838
4.960000 6.880000 1.160000 -7.782024 30.653570 1000.201233
4.960000 6.880000 1.200000 -38.891502 -4.147952 1529.754517
4.960000 6.920000 0.800000 -8.312874 -39.893478 1660.593506
4.960000 6.920000 0.840000 -34.856316 -18.517780 1557.870972
4.960000 6.920000 0.880000 -77.879196 -44.770756 8069.589844
4.960000 6.920000 0.920000 -80.529350 -115.457748 19815.466797
4.960000 6.920000 0.960000 -14.115471 -174.370575 30604.343750
4.960000 6.920000 1.000000 86.019913 -162.631317 33848.371094
4.960000 6.920000 1.040000 147.250214 -77.400742 27673.500000
4.960000 6.920000 1.080000 125.673492 21.125111 16240.097656
4.960000 6.920000 1.120000 46.450653 63.508858 6191.038086
4.960000 6.920000 1.160000 -21.503750 33.019436 1552.694458
4.960000 6.920000 1.200000 -30.339233 -24.592442 1525.257324
4.960000 6.960000 0.800000 13.780133 -26.977880 917.698120
4.960000 6.960000 0.840000 -32.178818 -30.679436 1976.704102
4.960000 6.960000 0.880000 -56.270172 -92.292137 11684.170898
4.960000 6.960000 0.920000 -7.834185 -166.783081 27877.970703
4.960000 6.960000 0.960000 99.687927 -180.140366 42388.234375
4.960000 6.960000 1.000000 191.044785 -101.122879 46723.945312
4.960000 6.960000 1.040000 194.911621 22.912607 38515.527344
4.960000 6.960000 1.080000 110.119370 104.986389 23148.417969
4.960000 6.960000 1.120000 6.493135 95.982452 9254.791992
4.960000 6.960000 1.160000 -40.327473 24.976494 2250.130371
4.960000 6.960000 1.200000 -15.074908 -34.986702 1451.322144
4.960000 7.000000 0.800000 20.067547 -9.348871 490.107849
4.960000 7.000000 0.840000 -16.888823 -43.383492 2167.359619
4.960000 7.000000 0.880000 0.199541 -111.815193 12502.677734
4.960000 7.000000 0.920000 85.986786 -147.401886 29121.042969
4.960000 7.000000 0.960000 185.774689 -96.635391 43850.632812
4.960000 7.000000 1.000000 218.614014 22.996813 48320.937500
4.960000 7.000000 1.040000 151.751572 131.083679 40211.468750
4.960000 7.000000 1.080000 33.156433 153.928375 24793.294922
4.960000 7.000000 1.120000 -51.240715 88.996460 10545.980469
4.960000 7.000000 1.160000 -53.847466 1.998655 2903.544189
4.960000 7.000000 1.200000 -1.050958 -37.812119 1430.860840
4.960000 7.040000 0.800000 17.140446 1.848506 297.211853
4.960000 7.040000 0.840000 8.505985 -42.396446 1869.810425
4.960000 7.040000 0.880000 55.994572 -83.505234 10108.515625
4.960000 7.040000 0.920000 136.588837 -66.350685 23058.923828
4.960000 7.040000 0.960000 184.548508 20.700224 34486.652344
4.960000 7.040000 1.000000 149.480621 125.517319 38099.054688
4.960000 7.040000 1.040000 46.066704 173.295044 32153.312500
4.960000 7.040000 1.080000 -55.118210 132.324982 20547.917969
4.960000 7.040000 1.120000 -88.816772 41.031754 9572.023438
4.960000 7.040000 1.160000 -49.575066 -29.353394 3319.308594
4.960000 7.040000 1.200000 11.612662 -38.500313 1617.127930
4.960000 7.080000 0.800000 14.432425 7.033951 257.771332
4.960000 7.080000 0.840000 28.168028 -21.971388 1276.179688
4.960000 7.080000 0.880000 73.432190 -25.776062 6056.691895
4.960000 7.080000 0.920000 114.328636 18.949715 13430.128906
4.960000 7.080000 0.960000 106.445656 92.833153 19948.671875
4.960000 7.080000 1.000000 39.515091 143.625366 22189.687500
4.960000 7.080000 1.040000 -47.657417 130.108322 19199.406250
4.960000 7.080000 1.080000 -97.452393 59.513557 13038.832031
4.960000 7.080000 1.120000 -81.951996 -18.026373 7041.079590
4.960000 7.080000 1.160000 -24.086575 -53.034554 3392.826904
4.960000 7.080000 1.200000 27.165447 -36.444672 2066.175781
4.960000 7.120000 0.800000 13.717914 12.494537 344.294617
4.960000 7.120000 0.840000 27.361740 6.448782 790.251587
4.960000 7.120000 0.880000 46.165405 20.244753 2541.094727
4.960000 7.120000 0.920000 47.975929 53.619247 5176.713379
4.960000 7.120000 0.960000 18.212936 84.953171 7548.751953
4.960000 7.120000 1.000000 -32.949333 86.275536 8529.126953
4.960000 7.120000 1.040000 -74.161636 47.975380 7801.584961
4.960000 7.120000 1.080000 -76.980644 -9.869942 6023.435059
4.960000 7.120000 1.120000 -39.615318 -51.762421 4248.721680
4.960000 7.120000 1.160000 11.672091 -54.806396 3139.979004
4.960000 7.120000 1.200000 44.764099 -25.208820 2639.309082
4.960000 7.160000 0.800000 10.190699 19.975002 502.851044
4.960000 7.160000 0.840000 7.760734 23.299929 603.115662
4.960000 7.160000 0.880000 3.293751 27.376404 760.316284
4.960000 7.160000 0.920000 -5.479431 31.030968 992.945129
4.960000 7.160000 0.960000 -19.692276 29.466946 1256.086670
4.960000 7.160000 1.000000 -34.659409 16.527431 1474.430664
4.960000 7.160000 1.040000 -39.625229 -8.218597 1637.704102
4.960000 7.160000 1.080000 -25.349613 -34.609089 1840.391968
4.960000 7.160000 1.120000 6.050129 -46.419807 2191.402588
4.960000 7.160000 1.160000 39.156197 -33.639385 2664.815918
4.960000 7.160000 1.200000 55.212212 -1.833191 3051.749023
4.960000 7.200000 0.800000 1.653811 24.455360 600.799744
4.960000 7.200000 0.840000 -13.119405 19.382893 547.815308
4.960000 7.200000 0.880000 -19.331188 4.411909 393.159760
4.960000 7.200000 0.920000 -13.181381 -9.172593 257.885284
4.960000 7.200000 0.960000 -2.292740 -13.330357 182.955063
4.960000 7.200000 1.000000 4.024086 -11.293327 143.732513
4.960000 7.200000 1.040000 5.924424 -11.945248 177.787735
4.960000 7.200000 1.080000 12.259651 -17.198383 446.083435
4.960000 7.200000 1.120000 28.209023 -17.632046 1106.637939
4.960000 7.200000 1.160000 45.701347 -2.569708 2095.216553
4.960000 7.200000 1.200000 48.752808 25.967682 3051.156738
5.000000 6.800000 0.800000 -73.041458 -2.034878 5339.195312
5.000000 6.800000 0.840000 -50.781887 -30.445972 3505.757324
5.000000 6.800000 0.880000 -19.531181 -33.740185 1519.867065
5.000000 6.800000 0.920000 -1.254760 -17.265121 299.658844
5.000000 6.800000 0.960000 -2.487782 -0.673286 6.642372
5.000000 6.800000 1.000000 -10.757980 2.508667 122.027550
5.000000 6.800000 1.040000 -10.538185 -2.719785 118.450577
5.000000 6.800000 1.080000 -1.015182 -1.255505 2.606887
5.000000 6.800000 1.120000 3.863864 12.792698 178.582565
5.000000 6.800000 1.160000 -7.266954 27.972458 835.267029
5.000000 6.800000 1.200000 -28.314964 27.889400 1579.555908
5.000000 6.840000 0.800000 -58.831161 -42.035248 5228.067383
5.000000 6.840000 0.840000 -37.397377 -41.487450 3119.772461
5.000000 6.840000 0.880000 -33.189209 -32.945198 2186.909668
5.000000 6.840000 0.920000 -39.913010 -37.236752 2979.624023
5.000000 6.840000 0.960000 -35.636871 -56.737495 4489.129883
5.000000 6.840000 1.000000 -8.442795 -70.905533 5098.875488
5.000000 6.840000 1.040000 27.285759 -57.691837 4072.860840
5.000000 6.840000 1.080000 42.622875 -18.924187 2174.834229
5.000000 6.840000 1.120000 23.115540 17.892540 854.471191
5.000000 6.840000 1.160000 -15.084403 24.859316 845.524780
5.000000 6.840000 1.200000 -39.565166 0.743944 1565.955811
5.000000 6.880000 0.800000 -22.377760 -61.414822 4272.544434
5.000000 6.880000 0.840000 -26.002520 -45.733799 2767.711426
5.000000 6.880000 0.880000 -46.951515 -56.455086 5391.621582
5.000000 6.880000 0.920000 -46.508896 -97.913193 11750.070312
5.000000 6.880000 0.960000 -0.749336 -134.329834 18045.064453
5.000000 6.880000 1.000000 69.162857 -123.128571 19944.144531
5.000000 6.880000 1.040000 111.998497 -59.511631 16085.296875
5.000000 6.880000 1.080000 94.219078 14.192661 9078.666016
5.000000 6.880000 1.120000 32.812187 45.912621 3184.608398
5.000000 6.880000 1.160000 -20.414787 21.442806 876.557495
5.000000 6.880000 1.200000 -27.441589 -24.999958 1378.038818
5.000000 6.920000 0.800000 14.180576 -52.726837 2981.208008
5.000000 6.920000 0.840000 -16.054111 -50.247128 2782.508301
5.000000 6.920000 0.880000 -33.093109 -95.803192 10273.406250
5.000000 6.920000 0.920000 8.537319 -154.130157 23828.992188
5.000000 6.920000 0.960000 99.959755 -161.949356 36219.546875
5.000000 6.920000 1.000000 177.382431 -91.163620 39775.332031
5.000000 6.920000 1.040000 178.884247 17.912605 32320.435547
5.000000 6.920000 1.080000 103.368660 89.582733 18710.146484
5.000000 6.920000 1.120000 12.266748 81.051346 6719.793945
5.000000 6.920000 1.160000 -27.867779 18.626892 1123.574219
5.000000 6.920000 1.200000 -4.377243 -32.519089 1076.651367
5.000000 6.960000 0.800000 33.376991 -27.213104 1854.576660
5.000000 6.960000 0.840000 -0.540676 -54.530571 2973.875488
5.000000 6.960000 0.880000 16.330418 -118.054123 14203.458984
5.000000 6.960000 0.920000 101.238419 -150.698975 32959.398438
5.000000 6.960000 0.960000 200.323822 -97.770988 49688.796875
5.000000 6.960000 1.000000 232.282349 23.663162 54515.035156
5.000000 6.960000 1.040000 164.527008 132.798279 44704.519531
5.000000 6.960000 1.080000 45.965050 156.243240 26524.734375
5.000000 6.960000 1.120000 -37.311287 93.003929 10041.862305
5.000000 6.960000 1.160000 -39.444847 10.030682 1656.510620
5.000000 6.960000 1.200000 10.606472 -24.460865 710.831177
5.000000 7.000000 0.800000 33.458847 -1.964384 1123.353149
5.000000 7.000000 0.840000 21.606033 -49.011620 2868.959473
5.000000 7.000000 0.880000 74.831070 -95.439911 14708.464844
5.000000 7.000000 0.920000 167.861984 -75.279572 33844.660156
5.000000 7.000000 0.960000 223.862640 26.180649 50799.906250
5.000000 7.000000 1.000000 184.057205 148.426712 55907.542969
5.000000 7.000000 1.040000 66.012878 205.189270 46460.335938
5.000000 7.000000 1.080000 -48.869331 161.440277 28451.173828
5.000000 7.000000 1.120000 -87.694695 62.696255 11621.179688
5.000000 7.000000 1.160000 -47.468239 -10.772638 2369.283447
5.000000 7.000000 1.200000 12.436539 -17.294668 453.773071
5.000000 7.040000 0.800000 23.713276 14.011277 758.635376
5.000000 7.040000 0.840000 39.067356 -26.902315 2249.992920
5.000000 7.040000 0.880000 101.169525 -34.840862 11449.158203
5.000000 7.040000 0.920000 159.690308 25.266754 26139.402344
5.000000 7.040000 0.960000 151.845642 127.157120 39226.031250
5.000000 7.040000 1.000000 63.380154 198.783844 43532.058594
5.000000 7.040000 1.040000 -52.509861 184.929901 36956.351562
5.000000 7.040000 1.080000 -119.530014 97.090111 23713.914062
5.000000 7.040000 1.120000 -103.990601 1.944786 10817.827148
5.000000 7.040000 1.160000 -38.902493 -39.284554 3056.680176
5.000000 7.040000 1.200000 13.695551 -20.701437 616.117615
5.000000 7.080000 0.800000 12.468574 21.982754 638.706787
5.000000 7.080000 0.840000 37.244186 4.026666 1403.343384
5.000000 7.080000 0.880000 76.586075 24.229042 6452.473145
5.000000 7.080000 0.920000 86.772705 83.817558 14554.885742
5.000000 7.080000 0.960000 39.962593 142.600128 21931.804688
5.000000 7.080000 1.000000 -45.042824 150.803497 24770.550781
5.000000 7.080000 1.040000 -114.139832 93.948135 21854.152344
5.000000 7.080000 1.080000 -122.983650 7.545200 15181.908203
5.000000 7.080000 1.120000 -73.637238 -53.053749 8237.142578
5.000000 7.080000 1.160000 -8.950841 -58.751808 3531.892578
5.000000 7.080000 1.200000 27.608536 -25.598459 1417.512451
5.000000 7.120000 0.800000 1.472956 25.594255 657.235535
5.000000 7.120000 0.840000 14.369480 24.745962 818.844604
5.000000 7.120000 0.880000 22.889446 43.570969 2422.355957
5.000000 7.120000 0.920000 7.859562 70.938812 5094.087891
5.000000 7.120000 0.960000 -32.514076 81.428528 7687.770020
5.000000 7.120000 1.000000 -76.300468 56.642620 9030.148438
5.000000 7.120000 1.040000 -93.097725 3.418343 8678.872070
5.000000 7.120000 1.080000 -68.734016 -48.758286 7101.735352
5.000000 7.120000 1.120000 -17.355724 -70.059067 5209.494141
5.000000 7.120000 1.160000 30.048908 -52.802391 3691.029297
5.000000 7.120000 1.200000 49.862335 -14.655685 2701.041504
5.000000 7.160000 0.800000 -9.729211 24.763884 707.907471
5.000000 7.160000 0.840000 -13.516928 22.214458 676.189514
5.000000 7.160000 0.880000 -17.453075 19.758198 694.996216
5.000000 7.160000 0.920000 -23.279686 16.411337 811.275757
5.000000 7.160000 0.960000 -31.049644 8.417873 1034.941040
5.000000 7.160000 1.000000 -35.799335 -7.860909 1343.386230
5.000000 7.160000 1.040000 -28.875572 -29.996830 1733.608398
5.000000 7.160000 1.080000 -5.403633 -47.039627 2241.925781
5.000000 7.160000 1.120000 28.237595 -45.593857 2876.161621
5.000000 7.160000 1.160000 55.435345 -21.033823 3515.499023
5.000000 7.160000 1.200000 60.355194 16.281712 3907.843750
5.000000 7.200000 0.800000 -18.178490 18.305798 665.559692
5.000000 7.200000 0.840000 -26.165684 2.895754 693.028381
5.000000 7.200000 0.880000 -19.909218 -15.632113 640.739868
5.000000 7.200000 0.920000 -2.576649 -24.140739 589.414429
5.000000 7.200000 0.960000 12.904675 -19.036575 528.921875
5.000000 7.200000 1.000000 17.976196 -9.741039 418.031494
5.000000 7.200000 1.040000 17.752876 -7.074005 365.206177
5.000000 7.200000 1.080000 24.129387 -9.604992 674.483154
5.000000 7.200000 1.120000 39.875912 -4.244627 1608.105225
5.000000 7.200000 1.160000 52.086666 18.285748 3047.389404
5.000000 7.200000 1.200000 43.766582 49.944653 4409.981934
5.040000 6.800000 0.800000 -64.958084 -38.137352 5674.010254
5.040000 6.800000 0.840000 -32.556873 -55.186157 4105.461914
5.040000 6.800000 0.880000 -1.272253 -46.691635 2181.727539
5.040000 6.800000 0.920000 12.179287 -24.632526 755.096375
5.040000 6.800000 0.960000 8.415390 -7.350822 124.853378
5.040000 6.800000 1.000000 1.170593 -2.236139 6.370607
5.040000 6.800000 1.040000 0.779152 -1.452953 2.718151
5.040000 6.800000 1.080000 3.507991 5.730713 45.147072
5.040000 6.800000 1.120000 -2.025816 18.602367 350.152008
5.040000 6.800000 1.160000 -19.376783 24.967766 998.849121
5.040000 6.800000 1.200000 -37.797935 15.353686 1664.419678
5.040000 6.840000 0.800000 -34.454460 -68.526520 5882.993652
5.040000 6.840000 0.840000 -13.611864 -63.082600 4164.697266
5.040000 6.840000 0.880000 -6.688749 -55.811939 3159.711914
5.040000 6.840000 0.920000 -2.629131 -58.169971 3390.657959
5.040000 6.840000 0.960000 12.717674 -63.445671 4187.092285
5.040000 6.840000 1.000000 37.699417 -54.376907 4378.094238
5.040000 6.840000 1.040000 53.255581 -24.223099 3422.915527
5.040000 6.840000 1.080000 41.850372 11.766560 1889.905518
5.040000 6.840000 1.120000 7.443081 28.233009 852.502319
5.040000 6.840000 1.160000 -25.309557 13.984106 836.128906
5.040000 6.840000 1.200000 -33.224457 -16.398560 1372.777222
5.040000 6.880000 0.800000 7.920637 -71.181137 5129.490723
5.040000 6.880000 0.840000 4.457840 -63.410435 4040.755615
5.040000 6.880000 0.880000 1.242794 -79.220871 6277.490723
5.040000 6.880000 0.920000 26.044434 -103.818283 11456.548828
5.040000 6.880000 0.960000 77.603714 -101.840195 16393.761719
5.040000 6.880000 1.000000 120.444893 -55.047344 17537.183594
5.040000 6.880000 1.040000 116.931953 13.938889 13867.375000
5.040000 6.880000 1.080000 65.215790 58.527859 7678.609375
5.040000 6.880000 1.120000 3.705990 50.610474 2575.154297
5.040000 6.880000 1.160000 -23.617956 6.196370 596.202881
5.040000 6.880000 1.200000 -6.729140 -31.372948 1029.543213
5.040000 6.920000 0.800000 39.651772 -47.788605 3856.013672
5.040000 6.920000 0.840000 22.074192 -59.127247 3983.301270
5.040000 6.920000 0.880000 36.039394 -96.730682 10655.663086
5.040000 6.920000 0.920000 96.636566 -113.854729 22301.525391
5.040000 6.920000 0.960000 166.386169 -70.132935 32602.986328
5.040000 6.920000 1.000000 185.819794 22.530800 35036.632812
5.040000 6.920000 1.040000 130.865494 104.072411 27956.843750
5.040000 6.920000 1.080000 38.892960 119.430832 15776.385742
5.040000 6.920000 1.120000 -24.215124 68.658195 5300.319824
5.040000 6.920000 1.160000 -23.673086 4.145658 577.601501
5.040000 6.920000 1.200000 16.937443 -20.924911 724.728882
5.040000 6.960000 0.800000 48.856728 -14.415979 2594.800293
5.040000 6.960000 0.840000 40.247890 -47.421379 3868.679688
5.040000 6.960000 0.880000 84.964981 -81.698807 13893.742188
5.040000 6.960000 0.920000 163.011353 -60.154415 30191.253906
5.040000 6.960000 0.960000 208.333527 30.452921 44330.238281
5.040000 6.960000 1.000000 170.191177 137.362473 47833.484375
5.040000 6.960000 1.040000 65.021233 185.428421 38611.460938
5.040000 6.960000 1.080000 -35.007847 145.459259 22383.945312
5.040000 6.960000 1.120000 -66.781158 59.502480 8000.268555
5.040000 6.960000 1.160000 -30.352642 -1.244061 922.830566
5.040000 6.960000 1.200000 19.561647 -2.213282 387.556671
5.040000 7.000000 0.800000 38.850021 12.779235 1672.633057
5.040000 7.000000 0.840000 52.913609 -24.161966 3383.650391
5.040000 7.000000 0.880000 113.889404 -29.544344 13843.665039
5.040000 7.000000 0.920000 171.209915 33.121033 30409.837891
5.040000 7.000000 0.960000 161.116653 137.116150 44759.414062
5.040000 7.000000 1.000000 70.109352 209.086182 48632.351562
5.040000 7.000000 1.040000 -46.525211 194.344864 39934.519531
5.040000 7.000000 1.080000 -112.084770 107.190109 24052.714844
5.040000 7.000000 1.120000 -95.826828 16.338638 9449.732422
5.040000 7.000000 1.160000 -34.739647 -18.915630 1564.644043
5.040000 7.000000 1.200000 8.555734 2.077597 77.516983
5.040000 7.040000 0.800000 20.177004 27.150629 1144.268188
5.040000 7.040000 0.840000 49.218330 6.111839 2459.798584
5.040000 7.040000 0.880000 96.990067 31.358301 10390.416016
5.040000 7.040000 0.920000 109.192726 104.759293 22897.562500
5.040000 7.040000 0.960000 52.190201 176.473709 33866.789062
5.040000 7.040000 1.000000 -49.471500 186.614258 37272.312500
5.040000 7.040000 1.040000 -130.103088 120.592545 31469.375000
5.040000 7.040000 1.080000 -139.780518 23.553022 20093.337891
5.040000 7.040000 1.120000 -86.133621 -40.330513 9045.550781
5.040000 7.040000 1.160000 -21.730690 -43.147697 2333.946777
5.040000 7.040000 1.200000 7.227568 -10.088038 154.006256
5.040000 7.080000 0.800000 1.103058 30.092916 906.800354
5.040000 7.080000 0.840000 25.577974 28.242489 1451.870972
5.040000 7.080000 0.880000 43.032158 61.111763 5586.414062
5.040000 7.080000 0.920000 20.524643 108.644821 12224.958008
5.040000 7.080000 0.960000 -42.900501 128.089783 18247.445312
5.040000 7.080000 1.000000 -109.707436 92.487236 20589.609375
5.040000 7.080000 1.040000 -134.150894 17.269600 18294.701172
5.040000 7.080000 1.080000 -101.380730 -51.406860 12920.717773
5.040000 7.080000 1.120000 -38.433006 -75.496536 7176.823242
5.040000 7.080000 1.160000 11.792831 -54.136848 3069.869141
5.040000 7.080000 1.200000 26.758337 -17.364628 1017.538940
5.040000 7.120000 0.800000 -14.456870 24.719490 820.054260
5.040000 7.120000 0.840000 -6.052325 28.163338 829.804199
5.040000 7.120000 0.880000 -9.580887 43.487179 1982.928223
5.040000 7.120000 0.920000 -33.192707 53.533585 3967.600586
5.040000 7.120000 0.960000 -65.898300 39.974060 5940.511719
5.040000 7.120000 1.000000 -84.155388 0.759819 7082.706543
5.040000 7.120000 1.040000 -70.728500 -45.509216 7073.609863
5.040000 7.120000 1.080000 -29.234127 -72.847519 6161.395508
5.040000 7.120000 1.120000 18.319773 -67.324265 4868.170898
5.040000 7.120000 1.160000 48.245590 -36.045132 3626.888428
5.040000 7.120000 1.200000 51.201073 0.683796 2622.017334
5.040000 7.160000 0.800000 -23.694309 13.685793 748.721191
5.040000 7.160000 0.840000 -25.483725 7.503879 705.728394
5.040000 7.160000 0.880000 -26.277325 0.413568 690.668823
5.040000 7.160000 0.920000 -25.638016 -7.811253 718.323547
5.040000 7.160000 0.960000 -22.711298 -17.676075 828.246704
5.040000 7.160000 1.000000 -15.044744 -29.136322 1075.269531
5.040000 7.160000 1.040000 0.685787 -38.975925 1519.593140
5.040000 7.160000 1.080000 24.515526 -39.928322 2195.281738
5.040000 7.160000 1.120000 49.155483 -25.004959 3041.509521
5.040000 7.160000 1.160000 61.800282 5.103561 3845.321289
5.040000 7.160000 1.200000 52.781799 38.754490 4287.829102
5.040000 7.200000 0.800000 -24.146868 1.660707 585.829163
5.040000 7.200000 0.840000 -22.237522 -15.488169 734.390747
5.040000 7.200000 0.880000 -6.271138 -29.222797 893.299011
5.040000 7.200000 0.920000 16.034138 -28.438654 1065.850586
5.040000 7.200000 0.960000 30.725132 -14.203152 1145.763306
5.040000 7.200000 1.000000 32.117283 1.091408 1032.711060
5.040000 7.200000 1.040000 28.424469 7.622844 866.058167
5.040000 7.200000 1.080000 31.251331 9.454769 1066.038330
5.040000 7.200000 1.120000 40.347855 19.578215 2011.255859
5.040000 7.200000 1.160000 41.528492 43.213802 3592.048340
5.040000 7.200000 1.200000 21.607592 68.086456 5102.653809
5.080000 6.800000 0.800000 -38.196274 -56.399612 4639.871582
5.080000 6.800000 0.840000 -4.604056 -60.246517 3650.840088
5.080000 6.800000 0.880000 21.353596 -42.656204 2275.527832
5.080000 6.800000 0.920000 28.506111 -16.904800 1098.370605
5.080000 6.800000 0.960000 20.323105 1.933737 416.767944
5.080000 6.800000 1.000000 8.751160 9.134102 160.014618
5.080000 6.800000 1.040000 1.503490 10.930344 121.732895
5.080000 6.800000 1.080000 -3.839971 14.328899 220.062729
5.080000 6.800000 1.120000 -13.617461 18.164494 515.384094
5.080000 6.800000 1.160000 -27.958973 15.086177 1009.296875
5.080000 6.800000 1.200000 -38.666222 1.510407 1497.358032
5.080000 6.840000 0.800000 -2.746220 -71.839050 5168.390625
5.080000 6.840000 0.840000 17.290884 -62.880558 4252.939453
5.080000 6.840000 0.880000 27.968370 -51.526840 3437.245117
5.080000 6.840000 0.920000 35.771843 -42.429070 3079.850586
5.080000 6.840000 0.960000 45.115307 -30.751556 2981.049072
5.080000 6.840000 1.000000 50.640343 -10.665192 2678.190674
5.080000 6.840000 1.040000 42.170372 13.801826 1968.830811
5.080000 6.840000 1.080000 17.527292 28.768599 1134.838257
5.080000 6.840000 1.120000 -11.256073 22.926056 652.303223
5.080000 6.840000 1.160000 -26.507797 -0.247169 702.724426
5.080000 6.840000 1.200000 -20.570253 -23.939980 996.257935
5.080000 6.880000 0.800000 34.577957 -60.592274 4867.058594
5.080000 6.880000 0.840000 38.448769 -55.302937 4536.722656
5.080000 6.880000 0.880000 48.940529 -59.367348 5919.657227
5.080000 6.880000 0.920000 74.812759 -55.931931 8725.330078
5.080000 6.880000 0.960000 101.820953 -27.541878 11126.061523
5.080000 6.880000 1.000000 103.685143 20.884064 11186.752930
5.080000 6.880000 1.040000 69.180786 60.935757 8499.147461
5.080000 6.880000 1.080000 17.112312 65.201477 4544.063477
5.080000 6.880000 1.120000 -18.079731 33.521187 1450.546631
5.080000 6.880000 1.160000 -16.904026 -6.104142 323.006653
5.080000 6.880000 1.200000 8.769968 -23.455765 627.085266
5.080000 6.920000 0.800000 55.578785 -29.863562 3980.833496
5.080000 6.920000 0.840000 55.410267 -38.531044 4554.938965
5.080000 6.920000 0.880000 81.313004 -48.647755 8978.408203
5.080000 6.920000 0.920000 123.771523 -28.018532 16104.427734
5.080000 6.920000 0.960000 144.878036 31.348558 21972.376953
5.080000 6.920000 1.000000 114.678329 97.655014 22687.621094
5.080000 6.920000 1.040000 44.159401 124.793930 17523.578125
5.080000 6.920000 1.080000 -20.621117 95.214439 9491.019531
5.080000 6.920000 1.120000 -39.306450 36.933922 2909.111572
5.080000 6.920000 1.160000 -12.696086 -3.003672 170.212646
5.080000 6.920000 1.200000 22.104868 -1.783079 491.804565
5.080000 6.960000 0.800000 53.842186 4.035141 2915.263428
5.080000 6.960000 0.840000 63.688728 -13.426013 4236.512207
5.080000 6.960000 0.880000 104.028030 -10.556657 10933.274414
5.080000 6.960000 0.920000 140.369553 38.816681 21210.345703
5.080000 6.960000 0.960000 127.464096 115.709541 29635.792969
5.080000 6.960000 1.000000 56.288258 166.814484 30995.439453
5.080000 6.960000 1.040000 -31.479666 152.726929 24316.484375
5.080000 6.960000 1.080000 -78.778122 85.779953 13564.193359
5.080000 6.960000 1.120000 -64.149361 18.805309 4468.780273
5.080000 6.960000 1.160000 -17.848602 -3.980106 334.413849
5.080000 6.960000 1.200000 11.453863 15.429420 369.257996
5.080000 7.000000 0.800000 35.244583 27.456562 1996.043457
5.080000 7.000000 0.840000 57.068939 15.196263 3487.790283
5.080000 7.000000 0.880000 93.855087 40.037064 10411.744141
5.080000 7.000000 0.920000 100.110023 104.146652 20868.542969
5.080000 7.000000 0.960000 47.565784 164.999557 29487.357422
5.080000 7.000000 1.000000 -41.633007 171.618362 31186.169922
5.080000 7.000000 1.040000 -110.250153 113.200516 24969.453125
5.080000 7.000000 1.080000 -116.614311 30.883045 14552.660156
5.080000 7.000000 1.120000 -70.627182 -19.743950 5378.022461
5.080000 7.000000 1.160000 -20.214933 -17.780127 724.776428
5.080000 7.000000 1.200000 -3.948507 10.375523 123.242172
5.080000 7.040000 0.800000 10.635721 35.304092 1359.497437
5.080000 7.040000 0.840000 33.461197 36.073357 2420.938965
5.080000 7.040000 0.880000 49.019104 71.674850 7540.156738
5.080000 7.040000 0.920000 23.173679 121.367813 15267.166016
5.080000 7.040000 0.960000 -44.131538 140.670639 21735.820312
5.080000 7.040000 1.000000 -112.754028 103.079208 23338.792969
5.080000 7.040000 1.040000 -136.220612 27.299904 19301.339844
5.080000 7.040000 1.080000 -103.012558 -37.997398 12055.388672
5.080000 7.040000 1.120000 -44.791733 -57.020111 5257.592285
5.080000 7.040000 1.160000 -4.891696 -35.128777 1257.959595
5.080000 7.040000 1.200000 0.030090 -6.765854 45.777683
5.080000 7.080000 0.800000 -10.747276 29.433035 981.807495
5.080000 7.080000 0.840000 1.549486 37.413719 1402.187256
5.080000 7.080000 0.880000 -4.087925 62.608246 3936.503662
5.080000 7.080000 0.920000 -39.073616 79.331810 7820.283691
5.080000 7.080000 0.960000 -85.814957 61.832851 11187.508789
5.080000 7.080000 1.000000 -110.619141 10.349678 12343.710938
5.080000 7.080000 1.040000 -93.302429 -46.446011 10862.576172
5.080000 7.080000 1.080000 -44.877552 -75.386314 7697.090820
5.080000 7.080000 1.120000 3.158111 -65.945831 4358.826172
5.080000 7.080000 1.160000 26.247089 -35.282845 1933.788818
5.080000 7.080000 1.200000 24.093391 -8.932203 660.275757
5.080000 7.120000 0.800000 -23.117401 15.086736 762.023804
5.080000 7.120000 0.840000 -21.647411 18.016720 793.212646
5.080000 7.120000 0.880000 -31.113459 21.667217 1437.515625
5.080000 7.120000 0.920000 -47.825470 13.313967 2464.537354
5.080000 7.120000 0.960000 -57.635498 -11.105194 3445.176025
5.080000 7.120000 1.000000 -47.963577 -41.643276 4034.666992
5.080000 7.120000 1.040000 -18.789776 -61.436001 4127.437500
5.080000 7.120000 1.080000 17.009245 -59.448051 3823.385254
5.080000 7.120000 1.120000 43.321796 -37.696434 3297.799316
5.080000 7.120000 1.160000 51.318649 -8.016941 2697.875000
5.080000 7.120000 1.200000 42.702675 17.007490 2112.773193
5.080000 7.160000 0.800000 -24.157360 -0.651800 584.002930
5.080000 7.160000 0.840000 -23.628756 -8.405808 628.975708
5.080000 7.160000 0.880000 -19.424650 -18.164646 707.271423
5.080000 7.160000 0.920000 -9.600241 -26.516762 795.303284
5.080000 7.160000 0.960000 3.964758 -29.815842 904.703735
5.080000 7.160000 1.000000 17.835178 -27.454720 1071.855225
5.080000 7.160000 1.040000 30.491928 -20.736261 1359.750244
5.080000 7.160000 1.080000 41.903671 -9.389810 1844.086304
5.080000 7.160000 1.120000 49.662693 8.564987 2539.742188
5.080000 7.160000 1.160000 47.605438 32.141136 3299.330566
5.080000 7.160000 1.200000 30.757223 53.447216 3802.611816
5.080000 7.200000 0.800000 -16.350513 -10.166629 370.699646
5.080000 7.200000 0.840000 -8.194915 -23.057659 598.812256
5.080000 7.200000 0.880000 11.563684 -29.000177 974.729126
5.080000 7.200000 0.920000 33.189182 -19.103935 1466.482178
5.080000 7.200000 0.960000 43.071991 2.588594 1861.897217
5.080000 7.200000 1.000000 37.676861 22.300150 1916.842529
5.080000 7.200000 1.040000 26.796970 30.861668 1670.520142
5.080000 7.200000 1.080000 21.778391 33.011742 1564.073486
5.080000 7.200000 1.120000 21.822403 40.498375 2116.335693
5.080000 7.200000 1.160000 14.570521 56.297264 3381.681885
5.080000 7.200000 1.200000 -8.704118 68.206322 4727.864258
5.120000 6.800000 0.800000 -12.901205 -52.370979 2909.160645
5.120000 6.800000 0.840000 15.150301 -46.678261 2408.391602
5.120000 6.800000 0.880000 32.882751 -24.387737 1676.037109
5.120000 6.800000 0.920000 32.143845 2.118057 1037.713013
5.120000 6.800000 0.960000 17.016956 19.404716 666.119873
5.120000 6.800000 1.000000 -0.905967 22.832638 522.150146
5.120000 6.800000 1.040000 -12.823844 17.825096 482.184998
5.120000 6.800000 1.080000 -18.644615 12.279654 498.411560
5.120000 6.800000 1.120000 -23.588387 8.512246 628.870300
5.120000 6.800000 1.160000 -30.233448 2.670303 921.191895
5.120000 6.800000 1.200000 -34.848289 -8.827353 1292.325439
5.120000 6.840000 0.800000 18.115622 -57.224838 3602.857910
5.120000 6.840000 0.840000 36.910347 -44.211319 3317.014404
5.120000 6.840000 0.880000 45.892845 -25.247288 2743.578857
5.120000 6.840000 0.920000 45.454086 -6.412746 2107.197266
5.120000 6.840000 0.960000 38.111526 9.277012 1538.551392
5.120000 6.840000 1.000000 25.438114 20.491840 1067.013184
5.120000 6.840000 1.040000 8.666822 24.994961 699.861877
5.120000 6.840000 1.080000 -8.577833 20.102341 477.683319
5.120000 6.840000 1.120000 -20.027615 6.206367 439.624329
5.120000 6.840000 1.160000 -20.682148 -11.093983 550.827698
5.120000 6.840000 1.200000 -11.250493 -23.779520 692.039185
5.120000 6.880000 0.800000 46.408943 -40.388355 3785.009277
5.120000 6.880000 0.840000 55.869591 -28.699917 3945.096436
5.120000 6.880000 0.880000 64.084625 -15.777040 4355.754395
5.120000 6.880000 0.920000 70.173729 3.089230 4933.895508
5.120000 6.880000 0.960000 66.107048 28.393410 5176.327148
5.120000 6.880000 1.000000 45.352436 50.398941 4596.896484
5.120000 6.880000 1.040000 13.224945 55.140228 3215.343994
5.120000 6.880000 1.080000 -13.638630 37.815720 1616.040894
5.120000 6.880000 1.120000 -20.308439 9.558123 503.790405
5.120000 6.880000 1.160000 -6.786529 -10.796345 162.618027
5.120000 6.880000 1.200000 12.241136 -12.764851 312.786804
5.120000 6.920000 0.800000 58.143211 -9.669479 3474.131836
5.120000 6.920000 0.840000 64.325577 -3.186800 4147.935547
5.120000 6.920000 0.880000 76.753502 9.738577 5985.939941
5.120000 6.920000 0.920000 83.896149 38.158768 8494.655273
5.120000 6.920000 0.960000 68.736176 74.001976 10200.954102
5.120000 6.920000 1.000000 28.763966 94.500549 9757.718750
5.120000 6.920000 1.040000 -16.156769 82.696915 7099.820801
5.120000 6.920000 1.080000 -38.828373 45.536736 3581.236816
5.120000 6.920000 1.120000 -29.072863 9.736717 940.034973
5.120000 6.920000 1.160000 -2.714591 -1.855061 10.810254
5.120000 6.920000 1.200000 14.291131 9.974861 303.734283
5.120000 6.960000 0.800000 49.246571 20.595581 2849.402588
5.120000 6.960000 0.840000 56.901615 24.831638 3854.404053
5.120000 6.960000 0.880000 69.120682 44.569099 6764.073242
5.120000 6.960000 0.920000 64.420158 81.358078 10769.093750
5.120000 6.960000 0.960000 28.692707 113.340782 13669.404297
5.120000 6.960000 1.000000 -25.395473 113.292343 13480.084961
5.120000 6.960000 1.040000 -65.353989 76.005440 10047.970703
5.120000 6.960000 1.080000 -67.481323 26.205963 5240.481445
5.120000 6.960000 1.120000 -38.686638 -2.834515 1504.690430
5.120000 6.960000 1.160000 -8.986621 0.860254 81.499390
5.120000 6.960000 1.200000 -2.266267 19.637436 390.764832
5.120000 7.000000 0.800000 25.876291 38.247139 2132.426025
5.120000 7.000000 0.840000 33.653389 44.535782 3115.986328
5.120000 7.000000 0.880000 36.480637 69.168274 6115.086914
5.120000 7.000000 0.920000 13.708469 100.334763 10254.986328
5.120000 7.000000 0.960000 -34.536060 110.112877 13317.584961
5.120000 7.000000 1.000000 -81.623352 81.716614 13339.976562
5.120000 7.000000 1.040000 -96.608322 28.734001 10158.810547
5.120000 7.000000 1.080000 -72.942047 -14.921848 5543.204102
5.120000 7.000000 1.120000 -34.311016 -25.320166 1818.356689
5.120000 7.000000 1.160000 -11.564375 -8.716515 209.712402
5.120000 7.000000 1.200000 -14.348315 8.167892 272.588623
5.120000 7.040000 0.800000 -0.563551 38.578484 1488.617065
5.120000 7.040000 0.840000 2.814857 46.298012 2151.429199
5.120000 7.040000 0.880000 -6.675016 65.175934 4292.458008
5.120000 7.040000 0.920000 -37.919308 76.128220 7233.379883
5.120000 7.040000 0.960000 -76.832939 59.289890 9418.591797
5.120000 7.040000 1.000000 -96.337936 15.935299 9534.931641
5.120000 7.040000 1.040000 -81.336975 -29.436451 7482.208008
5.120000 7.040000 1.080000 -43.340099 -50.147446 4393.130859
5.120000 7.040000 1.120000 -9.704539 -40.639462 1745.743896
5.120000 7.040000 1.160000 1.400976 -18.913601 359.687042
5.120000 7.040000 1.200000 -4.959367 -6.874912 71.859741
5.120000 7.080000 0.800000 -19.285679 24.877888 990.846680
5.120000 7.080000 0.840000 -21.286572 28.718742 1277.884277
5.120000 7.080000 0.880000 -34.557560 32.746593 2266.564453
5.120000 7.080000 0.920000 -55.303375 23.046370 3589.598633
5.120000 7.080000 0.960000 -67.444214 -4.462624 4568.637207
5.120000 7.080000 1.000000 -57.459969 -37.292576 4692.384277
5.120000 7.080000 1.040000 -27.902161 -56.189934 3935.839111
5.120000 7.080000 1.080000 4.243727 -51.853622 2706.807373
5.120000 7.080000 1.120000 22.425125 -31.903553 1520.722900
5.120000 7.080000 1.160000 23.515865 -12.142485 700.435852
5.120000 7.080000 1.200000 16.884928 -2.058680 289.338959
5.120000 7.120000 0.800000 -24.425850 5.955212 632.086670
5.120000 7.120000 0.840000 -26.880198 2.142558 727.135620
5.120000 7.120000 0.880000 -30.818184 -6.474031 991.673523
5.120000 7.120000 0.920000 -29.346783 -21.144882 1308.339722
5.120000 7.120000 0.960000 -17.187567 -35.559383 1559.882202
5.120000 7.120000 1.000000 3.280155 -40.962051 1688.649048
5.120000 7.120000 1.040000 23.548061 -33.761013 1694.317139
5.120000 7.120000 1.080000 35.915241 -17.858612 1608.834595
5.120000 7.120000 1.120000 38.467415 -0.270518 1479.815186
5.120000 7.120000 1.160000 33.857494 14.384285 1353.237549
5.120000 7.120000 1.200000 24.958754 24.900539 1242.976318
5.120000 7.160000 0.800000 -17.375616 -8.036118 366.491241
5.120000 7.160000 0.840000 -14.191754 -17.071476 492.841187
5.120000 7.160000 0.880000 -3.222734 -26.226463 698.213440
5.120000 7.160000 0.920000 14.606345 -27.585979 974.331604
5.120000 7.160000 0.960000 31.112766 -17.272182 1266.332520
5.120000 7.160000 1.000000 38.295456 -0.076191 1466.547852
5.120000 7.160000 1.040000 35.822750 15.311344 1517.706665
5.120000 7.160000 1.080000 29.898319 25.058191 1521.822510
5.120000 7.160000 1.120000 24.942253 32.639690 1687.465332
5.120000 7.160000 1.160000 18.234303 42.135517 2107.891602
5.120000 7.160000 1.200000 4.302033 50.651134 2584.044922
5.120000 7.200000 0.800000 -6.175990 -10.962126 158.311066
5.120000 7.200000 0.840000 3.653666 -18.987732 373.883240
5.120000 7.200000 0.880000 22.955742 -17.968380 849.828735
5.120000 7.200000 0.920000 39.992661 -0.790112 1600.037109
5.120000 7.200000 0.960000 41.373386 25.414383 2357.647949
5.120000 7.200000 1.000000 26.048134 44.969849 2700.792480
5.120000 7.200000 1.040000 6.528475 49.105850 2454.005615
5.120000 7.200000 1.080000 -4.576488 44.054657 1961.756958
5.120000 7.200000 1.120000 -7.732575 42.454060 1862.139893
5.120000 7.200000 1.160000 -14.327190 47.771912 2487.423828
5.120000 7.200000 1.200000 -31.477514 49.695858 3460.512207
5.160000 6.800000 0.800000 -2.723171 -37.945343 1447.264648
5.160000 6.800000 0.840000 17.176525 -28.584551 1112.109619
5.160000 6.800000 0.880000 26.355597 -6.762135 740.343933
5.160000 6.800000 0.920000 18.243183 15.707725 579.546326
5.160000 6.800000 0.960000 -1.834361 26.025248 680.678406
5.160000 6.800000 1.000000 -20.871193 20.704277 864.273804
5.160000 6.800000 1.040000 -29.207760 7.535745 909.880737
5.160000 6.800000 1.080000 -27.889210 -2.669358 784.933533
5.160000 6.800000 1.120000 -25.357357 -6.270906 682.319824
5.160000 6.800000 1.160000 -27.307859 -8.805487 823.255798
5.160000 6.800000 1.200000 -30.379299 -17.229246 1219.748779
5.160000 6.840000 0.800000 22.080462 -39.995083 2087.153564
5.160000 6.840000 0.840000 37.057716 -23.128340 1908.194336
5.160000 6.840000 0.880000 37.945976 -0.391464 1440.050293
5.160000 6.840000 0.920000 25.092932 16.812466 912.314209
5.160000 6.840000 0.960000 6.736412 21.725468 517.375183
5.160000 6.840000 1.000000 -7.890587 15.907383 315.306183
5.160000 6.840000 1.040000 -14.896946 5.910213 256.849640
5.160000 6.840000 1.080000 -16.261538 -3.052387 273.754669
5.160000 6.840000 1.120000 -15.383900 -10.251740 341.762543
5.160000 6.840000 1.160000 -12.920300 -17.344980 467.782471
5.160000 6.840000 1.200000 -6.925391 -24.274591 637.216858
5.160000 6.880000 0.800000 44.493977 -23.704615 2541.622803
5.160000 6.880000 0.840000 50.746338 -3.288141 2586.002686
5.160000 6.880000 0.880000 44.797527 16.130632 2267.015869
5.160000 6.880000 0.920000 30.898888 28.311493 1756.281982
5.160000 6.880000 0.960000 14.774187 31.667219 1221.089355
5.160000 6.880000 1.000000 0.600178 27.511154 757.223816
5.160000 6.880000 1.040000 -8.975410 17.948895 402.720795
5.160000 6.880000 1.080000 -12.009446 5.743658 177.216400
5.160000 6.880000 1.120000 -7.956212 -5.132293 89.641731
5.160000 6.880000 1.160000 0.914747 -10.717232 115.695816
5.160000 6.880000 1.200000 10.045248 -9.620720 193.465256
5.160000 6.920000 0.800000 51.732727 4.790714 2699.226074
5.160000 6.920000 0.840000 48.727402 23.552937 2929.100586
5.160000 6.920000 0.880000 38.499981 37.884190 2917.460449
5.160000 6.920000 0.920000 24.088968 46.706924 2761.815186
5.160000 6.920000 0.960000 7.032734 49.004467 2450.896973
5.160000 6.920000 1.000000 -9.696684 42.738228 1920.581787
5.160000 6.920000 1.040000 -20.225822 28.267090 1208.112305
5.160000 6.920000 1.080000 -19.576822 11.539653 516.415588
5.160000 6.920000 1.120000 -9.316866 1.389645 88.735107
5.160000 6.920000 1.160000 2.132736 2.230027 9.521584
5.160000 6.920000 1.200000 6.403485 9.759408 136.250671
5.160000 6.960000 0.800000 39.122826 31.831116 2543.815430
5.160000 6.960000 0.840000 29.135689 44.630020 2840.727051
5.160000 6.960000 0.880000 16.331175 53.084995 3084.723877
5.160000 6.960000 0.920000 0.376367 57.461159 3301.926270
5.160000 6.960000 0.960000 -18.284153 54.386757 3292.229736
5.160000 6.960000 1.000000 -33.925179 40.816448 2816.900146
5.160000 6.960000 1.040000 -38.369762 20.538105 1894.052368
5.160000 6.960000 1.080000 -29.375530 4.113769 879.844849
5.160000 6.960000 1.120000 -14.874394 0.253633 221.311935
5.160000 6.960000 1.160000 -6.776933 7.218513 98.033745
5.160000 6.960000 1.200000 -9.750835 14.211149 297.035553
5.160000 7.000000 0.800000 13.013112 44.438171 2144.092285
5.160000 7.000000 0.840000 -0.018585 48.817825 2383.180420
5.160000 7.000000 0.880000 -13.470485 49.902611 2671.724365
5.160000 7.000000 0.920000 -28.799038 46.422546 2984.437256
5.160000 7.000000 0.960000 -43.242718 34.571861 3065.146240
5.160000 7.000000 1.000000 -49.348114 14.976685 2659.537354
5.160000 7.000000 1.040000 -42.258484 -4.009103 1801.852295
5.160000 7.000000 1.080000 -26.574789 -12.286150 857.168884
5.160000 7.000000 1.120000 -13.878403 -7.829279 253.907669
5.160000 7.000000 1.160000 -12.137073 0.680009 147.770950
5.160000 7.000000 1.200000 -17.966982 2.332818 328.254486
5.160000 7.040000 0.800000 -13.125637 37.976425 1614.491211
5.160000 7.040000 0.840000 -24.552402 33.750191 1741.895752
5.160000 7.040000 0.880000 -34.522552 26.544149 1896.398438
5.160000 7.040000 0.920000 -42.549866 14.848770 2030.977051
5.160000 7.040000 0.960000 -44.512840 -1.426000 1983.426392
5.160000 7.040000 1.000000 -36.676640 -17.122116 1638.342773
5.160000 7.040000 1.040000 -21.480490 -24.572035 1065.196289
5.160000 7.040000 1.080000 -7.502865 -20.897728 493.007996
5.160000 7.040000 1.120000 -2.298786 -11.697721 142.121094
5.160000 7.040000 1.160000 -5.264364 -6.202678 66.186737
5.160000 7.040000 1.200000 -8.483101 -8.342214 141.555527
5.160000 7.080000 0.800000 -26.905334 18.619062 1070.566528
5.160000 7.080000 0.840000 -32.568264 8.221982 1128.292725
5.160000 7.080000 0.880000 -33.735504 -4.528629 1158.592773
5.160000 7.080000 0.920000 -28.466536 -17.721588 1124.398315
5.160000 7.080000 0.960000 -16.307348 -26.895813 989.314331
5.160000 7.080000 1.000000 -1.092015 -27.590981 762.454712
5.160000 7.080000 1.040000 10.410436 -19.773874 499.383270
5.160000 7.080000 1.080000 13.708549 -8.944236 267.923676
5.160000 7.080000 1.120000 10.484350 -1.813260 113.209511
5.160000 7.080000 1.160000 6.730654 -0.561025 45.616447
5.160000 7.080000 1.200000 6.840150 -1.519554 49.096695
5.160000 7.120000 0.800000 -24.468029 -0.958261 599.602722
5.160000 7.120000 0.840000 -22.494629 -12.951271 673.743774
5.160000 7.120000 0.880000 -12.597252 -24.322777 750.288208
5.160000 7.120000 0.920000 4.329279 -28.422773 826.596741
5.160000 7.120000 0.960000 21.241259 -20.949528 890.073792
5.160000 7.120000 1.000000 29.506721 -5.069745 896.348938
5.160000 7.120000 1.040000 26.304066 10.182244 795.581970
5.160000 7.120000 1.080000 17.073360 17.527554 598.714783
5.160000 7.120000 1.120000 10.014134 17.477430 405.743469
5.160000 7.120000 1.160000 8.198037 16.421665 336.878906
5.160000 7.120000 1.200000 7.672723 19.019016 420.593658
5.160000 7.160000 0.800000 -12.318160 -10.047800 252.695343
5.160000 7.160000 0.840000 -4.337935 -19.132439 384.867889
5.160000 7.160000 0.880000 12.754986 -22.163528 653.911621
5.160000 7.160000 0.920000 31.266016 -11.239898 1103.899048
5.160000 7.160000 0.960000 38.657726 11.229744 1620.526978
5.160000 7.160000 1.000000 29.444696 32.625134 1931.389404
5.160000 7.160000 1.040000 11.049691 41.205162 1819.961060
5.160000 7.160000 1.080000 -3.295867 36.846149 1368.501465
5.160000 7.160000 1.120000 -7.465030 29.853291 946.945618
5.160000 7.160000 1.160000 -7.233004 29.112568 899.857971
5.160000 7.160000 1.200000 -12.013559 32.723934 1215.181396
5.160000 7.200000 0.800000 -2.057251 -6.949188 52.523499
5.160000 7.200000 0.840000 7.943458 -11.462784 194.493927
5.160000 7.200000 0.880000 24.439642 -4.562762 618.114868
5.160000 7.200000 0.920000 33.480827 17.149839 1415.082764
5.160000 7.200000 0.960000 23.849628 42.152813 2345.664307
5.160000 7.200000 1.000000 -0.409285 53.861336 2901.210938
5.160000 7.200000 1.040000 -23.045559 46.807720 2722.060547
5.160000 7.200000 1.080000 -31.558092 31.543148 1990.883423
5.160000 7.200000 1.120000 -28.882416 22.751751 1351.836182
5.160000 7.200000 1.160000 -28.122799 23.678471 1351.561768
5.160000 7.200000 1.200000 -36.543560 24.093782 1915.942139
5.200000 6.800000 0.800000 -6.202518 -28.493044 850.324829
5.200000 6.800000 0.840000 6.730211 -21.040386 487.993591
5.200000 6.800000 0.880000 10.316121 -4.425395 126.006477
5.200000 6.800000 0.920000 -0.351688 10.230659 104.790085
5.200000 6.800000 0.960000 -18.460129 12.023241 485.334686
5.200000 6.800000 1.000000 -31.004389 0.521507 961.544128
5.200000 6.800000 1.040000 -30.835154 -13.897385 1143.943970
5.200000 6.800000 1.080000 -22.910511 -20.557491 947.501953
5.200000 6.800000 1.120000 -18.059656 -19.046623 688.925049
5.200000 6.800000 1.160000 -20.679123 -18.615059 774.146545
5.200000 6.800000 1.200000 -23.598234 -26.885921 1279.729492
5.200000 6.840000 0.800000 16.404379 -32.043816 1295.909790
5.200000 6.840000 0.840000 25.501316 -14.911440 872.668213
5.200000 6.840000 0.880000 18.799309 3.407926 365.027954
5.200000 6.840000 0.920000 1.577999 10.230429 107.151756
5.200000 6.840000 0.960000 -13.219582 2.701337 182.054565
5.200000 6.840000 1.000000 -16.639702 -10.733328 392.083984
5.200000 6.840000 1.040000 -10.740946 -19.294111 487.630646
5.200000 6.840000 1.080000 -4.508444 -19.917999 417.052734
5.200000 6.840000 1.120000 -3.621119 -18.503906 355.507019
5.200000 6.840000 1.160000 -4.828479 -21.817657 499.324371
5.200000 6.840000 1.200000 -0.440109 -29.040457 843.541870
5.200000 6.880000 0.800000 37.769772 -16.635250 1703.287231
5.200000 6.880000 0.840000 34.911026 5.595435 1250.088623
5.200000 6.880000 0.880000 18.104687 17.270187 626.039062
5.200000 6.880000 0.920000 1.192475 13.140734 174.100876
5.200000 6.880000 0.960000 -4.934821 0.856569 25.086170
5.200000 6.880000 1.000000 -0.707943 -8.088097 65.918488
5.200000 6.880000 1.040000 5.444611 -9.115177 112.730240
5.200000 6.880000 1.080000 7.095482 -6.640750 94.445419
5.200000 6.880000 1.120000 5.632758 -6.967028 80.267441
5.200000 6.880000 1.160000 6.851537 -10.698290 161.396973
5.200000 6.880000 1.200000 13.330010 -12.494849 333.810425
5.200000 6.920000 0.800000 43.010780 11.781547 1988.732056
5.200000 6.920000 0.840000 26.028782 28.884754 1511.826538
5.200000 6.920000 0.880000 5.503178 27.882076 807.695129
5.200000 6.920000 0.920000 -4.290299 15.230223 250.366364
5.200000 6.920000 0.960000 -1.341763 4.375542 20.945696
5.200000 6.920000 1.000000 5.600472 2.580268 38.023075
5.200000 6.920000 1.040000 7.969800 6.455312 105.188766
5.200000 6.920000 1.080000 5.297565 8.668180 103.201546
5.200000 6.920000 1.120000 2.987332 6.730678 54.226173
5.200000 6.920000 1.160000 4.501492 4.382443 39.469238
5.200000 6.920000 1.200000 7.582954 5.759310 90.670837
5.200000 6.960000 0.800000 26.685709 37.138771 2091.415527
5.200000 6.960000 0.840000 2.031686 39.949875 1600.120239
5.200000 6.960000 0.880000 -13.305977 26.256308 866.442688
5.200000 6.960000 0.920000 -12.673152 10.783879 276.900818
5.200000 6.960000 0.960000 -3.644820 5.226690 40.603001
5.200000 6.960000 1.000000 2.185647 9.256408 90.458138
5.200000 6.960000 1.040000 0.459084 14.600042 213.371994
5.200000 6.960000 1.080000 -4.606312 15.289368 254.982880
5.200000 6.960000 1.120000 -7.573187 12.422680 211.676147
5.200000 6.960000 1.160000 -7.873528 10.081142 163.621887
5.200000 6.960000 1.200000 -8.404406 9.337803 157.828598
5.200000 7.000000 0.800000 -2.301776 44.438164 1980.048584
5.200000 7.000000 0.840000 -23.268740 31.238075 1517.251587
5.200000 7.000000 0.880000 -26.873344 10.625064 835.068604
5.200000 7.000000 0.920000 -16.326149 -1.882104 270.085480
5.200000 7.000000 0.960000 -4.338871 -0.937304 19.704344
5.200000 7.000000 1.000000 -0.567956 7.112273 50.906998
5.200000 7.000000 1.040000 -5.003506 12.948626 192.701981
5.200000 7.000000 1.080000 -11.629906 12.732471 297.370544
5.200000 7.000000 1.120000 -15.852907 8.607649 325.406281
5.200000 7.000000 1.160000 -17.294949 3.640106 312.365601
5.200000 7.000000 1.200000 -16.887875 -1.395148 287.146759
5.200000 7.040000 0.800000 -26.761335 30.745014 1661.425049
5.200000 7.040000 0.840000 -35.102180 8.327780 1301.515015
5.200000 7.040000 0.880000 -25.722622 -10.980521 782.225098
5.200000 7.040000 0.920000 -8.206240 -16.219641 330.419128
5.200000 7.040000 0.960000 4.410490 -8.109562 85.217407
5.200000 7.040000 1.000000 5.600007 4.061399 47.855042
5.200000 7.040000 1.040000 -1.979091 11.105956 127.259064
5.200000 7.040000 1.080000 -11.177550 9.885891 222.668472
5.200000 7.040000 1.120000 -16.386410 2.941560 277.167206
5.200000 7.040000 1.160000 -15.864541 -5.329902 280.091522
5.200000 7.040000 1.200000 -10.601783 -11.386073 242.040451
5.200000 7.080000 0.800000 -33.814026 7.050011 1193.090942
5.200000 7.080000 0.840000 -28.274605 -14.203423 1001.190430
5.200000 7.080000 0.880000 -9.820992 -25.512848 747.357300
5.200000 7.080000 0.920000 10.205772 -20.934660 542.417786
5.200000 7.080000 0.960000 20.177944 -4.900789 431.167175
5.200000 7.080000 1.000000 15.924812 11.496858 385.777374
5.200000 7.080000 1.040000 2.666238 18.478077 348.548157
5.200000 7.080000 1.080000 -9.662928 13.746499 282.338409
5.200000 7.080000 1.120000 -13.596778 2.751127 192.441071
5.200000 7.080000 1.160000 -8.478391 -6.265718 111.142326
5.200000 7.080000 1.200000 0.542469 -8.129720 66.386620
5.200000 7.120000 0.800000 -23.874931 -10.657806 683.601196
5.200000 7.120000 0.840000 -10.362838 -23.628422 665.690735
5.200000 7.120000 0.880000 10.556816 -24.368076 705.249512
5.200000 7.120000 0.920000 27.504122 -9.866254 853.819641
5.200000 7.120000 0.960000 29.884686 12.627724 1052.553833
5.200000 7.120000 1.000000 16.362713 29.697269 1149.666138
5.200000 7.120000 1.040000 -3.378928 31.714516 1017.227661
5.200000 7.120000 1.080000 -16.077713 20.304180 670.752563
5.200000 7.120000 1.120000 -15.403681 6.425643 278.562256
5.200000 7.120000 1.160000 -6.153436 0.687955 38.338055
5.200000 7.120000 1.200000 1.415920 4.884271 25.860933
5.200000 7.160000 0.800000 -8.821946 -13.676994 264.886902
5.200000 7.160000 0.840000 4.926829 -18.054272 350.230377
5.200000 7.160000 0.880000 22.231085 -10.155035 597.345886
5.200000 7.160000 0.920000 30.900845 10.830776 1072.167847
5.200000 7.160000 0.960000 21.960503 34.021603 1639.733154
5.200000 7.160000 1.000000 -0.776268 44.514099 1982.107544
5.200000 7.160000 1.040000 -22.459309 36.441341 1832.391846
5.200000 7.160000 1.080000 -29.867661 18.497787 1234.245361
5.200000 7.160000 1.120000 -22.833279 5.737364 554.276001
5.200000 7.160000 1.160000 -12.989635 5.676399 200.952148
5.200000 7.160000 1.200000 -11.413555 12.678953 291.025085
5.200000 7.200000 0.800000 -1.312033 -6.032750 38.115501
5.200000 7.200000 0.840000 8.611094 -6.414627 115.298370
5.200000 7.200000 0.880000 19.331696 5.363465 402.481201
5.200000 7.200000 0.920000 17.810154 26.397163 1014.011841
5.200000 7.200000 0.960000 -0.749070 42.361320 1795.042603
5.200000 7.200000 1.000000 -26.083158 40.533283 2323.278320
5.200000 7.200000 1.040000 -41.420906 22.630301 2227.821777
5.200000 7.200000 1.080000 -39.266499 3.472026 1553.912842
5.200000 7.200000 1.120000 -27.864006 -3.547881 788.990295
5.200000 7.200000 1.160000 -21.653580 1.056387 469.993469
5.200000 7.200000 1.200000 -26.203514 5.445229 716.274658
