#kx 	ky 	kz 	real 	imag 	intensity
5.800000 3.800000 3.983333 -8.012524 -72.755936 5357.626953
5.800000 3.800000 3.991667 -26.395218 -13.934153 890.868164
5.800000 3.800000 4.000000 -20.771740 -86.242485 7869.231445
5.800000 3.800000 4.008334 28.104887 -100.074699 10804.830078
5.800000 3.800000 4.016667 120.759216 -25.184517 15217.047852
5.800000 3.900000 3.983333 -58.085014 5.384121 3402.857666
5.800000 3.900000 3.991667 9.595688 -28.164131 885.295471
5.800000 3.900000 4.000000 26.072239 20.821957 1113.315552
5.800000 3.900000 4.008334 -19.812111 19.658020 778.957520
5.800000 3.900000 4.016667 6.873819 -30.421190 972.698181
5.800000 4.000000 3.983333 -14.779711 -120.887161 14832.145508
5.800000 4.000000 3.991667 97.050995 -26.459293 10118.989258
5.800000 4.000000 4.000000 -11.178684 86.572205 7619.709473
5.800000 4.000000 4.008334 -50.594063 -89.974274 10655.128906
5.800000 4.000000 4.016667 142.070023 39.892017 21775.263672
5.800000 4.100000 3.983333 45.863647 -12.922352 2270.461426
5.800000 4.100000 3.991667 102.706177 144.032196 31293.832031
5.800000 4.100000 4.000000 -185.290131 73.087669 39674.242188
5.800000 4.100000 4.008334 45.087204 -58.088661 5407.148438
5.800000 4.100000 4.016667 -147.498108 113.675034 34677.703125
5.800000 4.200000 3.983333 3.898056 -53.642502 2892.712891
5.800000 4.200000 3.991667 -68.359909 142.090546 24862.800781
5.800000 4.200000 4.000000 -113.530792 -152.130676 36032.984375
5.800000 4.200000 4.008334 27.660040 -4.609413 786.324524
5.800000 4.200000 4.016667 -22.890480 -196.051102 38960.007812
5.900000 3.800000 3.983333 -69.409256 35.076050 6047.974121
5.900000 3.800000 3.991667 -17.596149 -210.219193 44501.734375
5.900000 3.800000 4.000000 105.550819 48.887138 13530.927734
5.900000 3.800000 4.008334 -49.535595 -100.866547 12627.835938
5.900000 3.800000 4.016667 143.399689 29.943735 21460.097656
5.900000 3.900000 3.983333 228.883713 -726.593689 580326.125000
5.900000 3.900000 3.991667 102.908585 353.885956 135825.453125
5.900000 3.900000 4.000000 -484.432434 -293.949524 321081.093750
5.900000 3.900000 4.008334 -26.784393 -519.641663 270744.875000
5.900000 3.900000 4.016667 347.733337 -540.002258 412520.906250
5.900000 4.000000 3.983333 1096.332275 220.376068 1250510.125000
5.900000 4.000000 3.991667 -552.635803 115.544891 318756.968750
5.900000 4.000000 4.000000 357.062683 -717.672852 642548.062500
5.900000 4.000000 4.008334 645.194214 -289.549988 500114.750000
5.900000 4.000000 4.016667 1037.296143 375.941986 1217315.625000
5.900000 4.100000 3.983333 33.239548 661.547729 438750.281250
5.900000 4.100000 3.991667 -169.243866 -228.061951 80655.742188
5.900000 4.100000 4.000000 359.122772 63.488533 132999.953125
5.900000 4.100000 4.008334 304.856995 286.598541 175076.515625
5.900000 4.100000 4.016667 -115.989975 680.656738 476747.281250
5.900000 4.200000 3.983333 70.531410 164.862320 32154.263672
5.900000 4.200000 3.991667 -236.455322 -57.271145 59191.105469
5.900000 4.200000 4.000000 116.839729 -158.548859 38789.261719
5.900000 4.200000 4.008334 40.340004 58.974171 5105.268555
5.900000 4.200000 4.016667 39.092457 -4.772736 1550.999268
6.000000 3.800000 3.983333 -97.728195 -147.384567 31273.011719
6.000000 3.800000 3.991667 245.900787 -101.049316 70678.156250
6.000000 3.800000 4.000000 -30.514732 93.025101 9584.817383
6.000000 3.800000 4.008334 96.299301 -180.603561 41891.203125
6.000000 3.800000 4.016667 173.548691 118.128479 44073.484375
6.000000 3.900000 3.983333 1125.704224 174.767960 1297753.875000
6.000000 3.900000 3.991667 -503.280579 195.794952 291627.000000
6.000000 3.900000 4.000000 378.032227 -788.717407 764983.500000
6.000000 3.900000 4.008334 796.122559 -159.481461 659245.437500
6.000000 3.900000 4.016667 943.603821 438.205200 1082412.000000
6.000000 4.000000 3.983333 -108.313354 1619.863892 2635690.750000
6.000000 4.000000 3.991667 -253.739075 -845.855591 779855.187500
6.000000 4.000000 4.000000 1202.499634 426.251923 1627696.125000
6.000000 4.000000 4.008334 516.681946 880.999390 1043120.125000
6.000000 4.000000 4.016667 -218.088989 1633.077148 2714503.750000
6.000000 4.100000 3.983333 -959.330627 164.928284 947516.562500
6.000000 4.100000 3.991667 411.338745 -248.284897 230844.953125
6.000000 4.100000 4.000000 -118.841675 644.710571 429775.062500
6.000000 4.100000 4.008334 -341.980286 438.826996 309519.625000
6.000000 4.100000 4.016667 -1091.521851 89.517998 1199433.500000
6.000000 4.200000 3.983333 -211.150879 85.527870 51899.710938
6.000000 4.200000 3.991667 20.515661 -232.421310 54440.554688
6.000000 4.200000 4.000000 184.635101 25.103901 34720.328125
6.000000 4.200000 4.008334 -18.775414 88.620483 8206.106445
6.000000 4.200000 4.016667 8.494465 -81.558838 6724.000000
6.100000 3.800000 3.983333 84.319809 -70.414886 12068.085938
6.100000 3.800000 3.991667 88.032875 106.712563 19137.359375
6.100000 3.800000 4.000000 -77.190025 58.221062 9347.992188
6.100000 3.800000 4.008334 90.506676 -63.055378 12167.439453
6.100000 3.800000 4.016667 65.984703 209.917145 48419.187500
6.100000 3.900000 3.983333 -28.511482 723.897949 524841.125000
6.100000 3.900000 3.991667 -150.811783 -330.880066 132225.812500
6.100000 3.900000 4.000000 525.028320 144.194870 296446.906250
6.100000 3.900000 4.008334 248.027512 480.728516 292617.562500
6.100000 3.900000 4.016667 -239.194443 701.739380 549652.125000
6.100000 4.000000 3.983333 -1024.847046 27.855644 1051087.375000
6.100000 4.000000 3.991667 522.348938 -273.995667 347922.031250
6.100000 4.000000 4.000000 -111.286613 794.788513 644073.437500
6.100000 4.000000 4.008334 -513.016296 403.917419 426335.000000
6.100000 4.000000 4.016667 -1001.874512 -4.818703 1003775.812500
6.100000 4.100000 3.983333 -134.966721 -618.131104 400302.062500
6.100000 4.100000 3.991667 244.111572 200.564529 99816.593750
6.100000 4.100000 4.000000 -353.797974 -6.471441 125214.890625
6.100000 4.100000 4.008334 -245.643219 -170.449936 89393.765625
6.100000 4.100000 4.016667 -108.824417 -614.061218 388913.937500
6.100000 4.200000 3.983333 -3.024440 -91.507034 8382.684570
6.100000 4.200000 3.991667 174.270737 13.414088 30550.226562
6.100000 4.200000 4.000000 59.634281 201.448410 44137.707031
6.100000 4.200000 4.008334 -77.287643 57.031288 9225.947266
6.100000 4.200000 4.016667 71.243935 85.194679 12333.832031
6.200000 3.800000 3.983333 -4.003525 13.409683 195.847824
6.200000 3.800000 3.991667 10.569543 -23.605957 668.956421
6.200000 3.800000 4.000000 -74.411659 -68.271851 10198.140625
6.200000 3.800000 4.008334 163.763016 -81.148521 33403.410156
6.200000 3.800000 4.016667 -35.527504 165.629349 28695.285156
6.200000 3.900000 3.983333 -27.721439 -71.279747 5849.280273
6.200000 3.900000 3.991667 101.808197 5.874901 10399.423828
6.200000 3.900000 4.000000 64.625618 25.191109 4811.062500
6.200000 3.900000 4.008334 15.012318 137.077148 19015.513672
6.200000 3.900000 4.016667 -97.166420 -46.825806 11633.969727
6.200000 4.000000 3.983333 121.626579 -70.738464 19796.955078
6.200000 4.000000 3.991667 79.925003 47.474709 8641.854492
6.200000 4.000000 4.000000 5.783600 71.650764 5167.282227
6.200000 4.000000 4.008334 -27.149647 -21.343357 1192.642212
6.200000 4.000000 4.016667 84.014839 25.352688 7701.251953
6.200000 4.100000 3.983333 118.899765 83.127174 21047.281250
6.200000 4.100000 3.991667 97.767189 100.449409 19648.507812
6.200000 4.100000 4.000000 3.648354 141.494705 20034.062500
6.200000 4.100000 4.008334 5.778439 79.418510 6340.689941
6.200000 4.100000 4.016667 -50.738281 138.784775 21835.585938
6.200000 4.200000 3.983333 -11.443850 130.768372 17231.328125
6.200000 4.200000 3.991667 -37.767479 118.003647 15351.243164
6.200000 4.200000 4.000000 -170.386475 92.521515 37591.781250
6.200000 4.200000 4.008334 -85.707489 -23.543400 7900.064941
6.200000 4.200000 4.016667 -149.593689 23.901405 22949.548828
