#kx 	ky 	kz 	real 	imag 	intensity
5.800000 3.800000 3.800000 -20.853174 -5.139744 461.271851
5.800000 3.800000 3.840000 -17.463943 -8.273726 373.443848
5.800000 3.800000 3.880000 -15.856926 -10.762225 367.267609
5.800000 3.800000 3.920000 -13.567814 -15.587124 427.044006
5.800000 3.800000 3.960000 -6.427076 -20.760105 472.289276
5.800000 3.800000 4.000000 5.378018 -20.456070 447.373901
5.800000 3.800000 4.040000 15.727229 -11.345966 376.076691
5.800000 3.800000 4.080000 17.789223 3.013488 325.537567
5.800000 3.800000 4.120000 10.481712 14.852427 330.460876
5.800000 3.800000 4.160000 -0.928795 19.156382 367.829620
5.800000 3.800000 4.200000 -10.550525 17.164574 405.936157
5.800000 3.840000 3.800000 -13.877983 -21.802986 667.968628
5.800000 3.840000 3.840000 -9.002877 -20.964777 520.573669
5.800000 3.840000 3.880000 -6.211136 -21.698336 509.395996
5.800000 3.840000 3.920000 -0.959605 -23.446375 550.653320
5.800000 3.840000 3.960000 7.060847 -21.378857 506.911072
5.800000 3.840000 4.000000 12.619831 -13.410473 339.100922
5.800000 3.840000 4.040000 11.111315 -3.980987 139.309570
5.800000 3.840000 4.080000 4.623222 0.408870 21.541361
5.800000 3.840000 4.120000 0.004930 -1.135831 1.290136
5.800000 3.840000 4.160000 0.662033 -2.633141 7.371717
5.800000 3.840000 4.200000 1.869817 1.304840 5.198825
5.800000 3.880000 3.800000 3.781539 -30.236624 928.553467
5.800000 3.880000 3.840000 7.805465 -25.539152 713.173584
5.800000 3.880000 3.880000 10.830948 -23.278931 659.218079
5.800000 3.880000 3.920000 15.325666 -19.780754 626.154297
5.800000 3.880000 3.960000 17.419888 -12.610856 462.486176
5.800000 3.880000 4.000000 13.195747 -6.159160 212.062988
5.800000 3.880000 4.040000 6.270659 -7.011072 88.476303
5.800000 3.880000 4.080000 5.782404 -14.295303 237.791901
5.800000 3.880000 4.120000 15.446386 -17.743954 553.438721
5.800000 3.880000 4.160000 26.460464 -8.022997 764.524658
5.800000 3.880000 4.200000 24.427015 11.035419 718.459534
5.800000 3.920000 3.800000 23.657696 -24.115023 1141.220947
5.800000 3.920000 3.840000 24.531984 -16.454918 872.582520
5.800000 3.920000 3.880000 24.911970 -11.280436 747.854492
5.800000 3.920000 3.920000 24.130259 -5.236031 609.685364
5.800000 3.920000 3.960000 18.725601 -0.573922 350.977509
5.800000 3.920000 4.000000 11.423349 -3.467196 142.514359
5.800000 3.920000 4.040000 11.974197 -13.723097 331.704773
5.800000 3.920000 4.080000 26.043289 -19.786701 1069.766479
5.800000 3.920000 4.120000 44.576969 -8.383583 2057.390625
5.800000 3.920000 4.160000 48.365791 19.456779 2717.815918
5.800000 3.920000 4.200000 26.476624 44.407707 2673.056152
5.800000 3.960000 3.800000 34.373482 -5.214899 1208.731445
5.800000 3.960000 3.840000 29.950428 2.887647 905.366638
5.800000 3.960000 3.880000 25.331924 7.523612 698.311157
5.800000 3.960000 3.920000 19.334084 9.904926 471.914368
5.800000 3.960000 3.960000 12.788029 6.524305 206.100235
5.800000 3.960000 4.000000 13.089650 -3.417018 183.014954
5.800000 3.960000 4.040000 26.775679 -10.502510 827.239685
5.800000 3.960000 4.080000 47.501362 -0.517174 2256.646973
5.800000 3.960000 4.120000 55.828770 29.528748 3988.798584
5.800000 3.960000 4.160000 35.796570 62.332859 5166.779785
5.800000 3.960000 4.200000 -6.802330 71.597572 5172.483887
5.800000 4.000000 3.800000 28.946358 16.450432 1108.508301
5.800000 4.000000 3.840000 19.081047 20.512281 784.840088
5.800000 4.000000 3.880000 11.294676 19.478712 506.989929
5.800000 4.000000 3.920000 6.205646 14.514894 249.192169
5.800000 4.000000 3.960000 7.197063 6.059319 88.513069
5.800000 4.000000 4.000000 18.612785 0.277665 346.512878
5.800000 4.000000 4.040000 36.659924 8.446933 1415.300659
5.800000 4.000000 4.080000 45.690052 35.330944 3335.856445
5.800000 4.000000 4.120000 29.189140 68.379921 5527.819336
5.800000 4.000000 4.160000 -12.472605 82.822723 7015.169434
5.800000 4.000000 4.200000 -56.517609 62.159496 7058.042969
5.800000 4.040000 3.800000 9.942537 28.589909 916.236938
5.800000 4.040000 3.840000 -1.564243 24.357723 595.745544
5.800000 4.040000 3.880000 -6.191838 15.661048 283.607269
5.800000 4.040000 3.920000 -3.111660 6.877587 56.983635
5.800000 4.040000 3.960000 7.604249 3.082465 67.326195
5.800000 4.040000 4.000000 21.766804 10.967593 594.081848
5.800000 4.040000 4.040000 28.104435 33.250572 1895.459839
5.800000 4.040000 4.080000 13.895457 60.924896 3904.926758
5.800000 4.040000 4.120000 -22.332891 74.507362 6050.104980
5.800000 4.040000 4.160000 -63.823200 58.110348 7450.213379
5.800000 4.040000 4.200000 -84.879288 15.148535 7433.971680
5.800000 4.080000 3.800000 -11.959067 24.734137 754.796814
5.800000 4.080000 3.840000 -18.356339 11.888321 478.287354
5.800000 4.080000 3.880000 -13.512621 -0.162982 182.617493
5.800000 4.080000 3.920000 -0.876228 -4.003299 16.794182
5.800000 4.080000 3.960000 12.144506 4.570667 168.380035
5.800000 4.080000 4.000000 15.718081 24.233047 834.298706
5.800000 4.080000 4.040000 1.848677 45.861824 2106.724609
5.800000 4.080000 4.080000 -28.645790 54.714497 3814.257324
5.800000 4.080000 4.120000 -62.494408 39.484512 5464.577637
5.800000 4.080000 4.160000 -80.055222 2.663974 6415.935059
5.800000 4.080000 4.200000 -69.174065 -37.942436 6224.679688
5.800000 4.120000 3.800000 -25.266056 8.204294 705.684021
5.800000 4.120000 3.840000 -21.127186 -8.105323 512.054199
5.800000 4.120000 3.880000 -6.087410 -15.247442 269.541046
5.800000 4.120000 3.920000 9.543743 -7.438105 146.408432
5.800000 4.120000 3.960000 13.842604 11.838320 331.763489
5.800000 4.120000 4.000000 0.494455 30.886684 954.231812
5.800000 4.120000 4.040000 -26.321180 35.975697 1987.055176
5.800000 4.120000 4.080000 -52.880775 19.965942 3195.015381
5.800000 4.120000 4.120000 -63.573799 -11.921282 4183.745117
5.800000 4.120000 4.160000 -51.131310 -44.143745 4563.081055
5.800000 4.120000 4.200000 -22.055182 -60.568554 4154.980957
5.800000 4.160000 3.800000 -25.155853 -11.160754 757.379395
5.800000 4.160000 3.840000 -10.462921 -23.248680 649.973816
5.800000 4.160000 3.880000 8.834263 -19.465612 456.954254
5.800000 4.160000 3.920000 18.081993 -1.041762 328.043732
5.800000 4.160000 3.960000 8.403753 19.128075 436.506317
5.800000 4.160000 4.000000 -15.707150 25.182381 880.866821
5.800000 4.160000 4.040000 -38.647099 10.115679 1595.925171
5.800000 4.160000 4.080000 -44.691833 -18.550446 2341.479004
5.800000 4.160000 4.120000 -29.378338 -44.036987 2802.343018
5.800000 4.160000 4.160000 -2.288740 -52.457325 2757.009277
5.800000 4.160000 4.200000 20.720449 -42.237530 2213.345947
5.800000 4.200000 3.800000 -15.218449 -24.576868 835.623657
5.800000 4.200000 3.840000 4.767154 -27.403622 773.684265
5.800000 4.200000 3.880000 20.330612 -13.200467 587.586121
5.800000 4.200000 3.920000 18.389194 8.338945 407.700500
5.800000 4.200000 3.960000 -0.978248 19.792721 392.708771
5.800000 4.200000 4.000000 -23.000511 10.378950 636.746094
5.800000 4.200000 4.040000 -29.717575 -14.302834 1087.705322
5.800000 4.200000 4.080000 -14.840373 -36.355415 1541.952881
5.800000 4.200000 4.120000 11.172123 -40.252815 1745.105469
5.800000 4.200000 4.160000 30.296818 -25.180696 1551.964600
5.800000 4.200000 4.200000 31.853748 -4.385920 1033.897583
5.840000 3.800000 3.800000 -20.175714 -0.795320 407.691986
5.840000 3.800000 3.840000 -20.658531 -7.548924 483.761169
5.840000 3.800000 3.880000 -17.432461 -15.878396 556.014160
5.840000 3.800000 3.920000 -8.555159 -22.570766 582.630249
5.840000 3.800000 3.960000 4.278854 -22.929485 544.069885
5.840000 3.800000 4.000000 15.497437 -14.904162 462.304596
5.840000 3.800000 4.040000 19.464203 -1.633366 381.523071
5.840000 3.800000 4.080000 14.872436 10.598472 333.516937
5.840000 3.800000 4.120000 5.236557 17.163532 322.008392
5.840000 3.800000 4.160000 -4.827557 17.752932 338.471893
5.840000 3.800000 4.200000 -13.256950 14.441999 384.318085
5.840000 3.840000 3.800000 -10.677099 -16.445055 384.440277
5.840000 3.840000 3.840000 -3.493498 -19.133999 378.314453
5.840000 3.840000 3.880000 5.280880 -17.494656 333.950684
5.840000 3.840000 3.920000 11.748865 -10.253613 243.172424
5.840000 3.840000 3.960000 11.606886 -0.550446 135.022797
5.840000 3.840000 4.000000 4.986468 5.341740 53.399048
5.840000 3.840000 4.040000 -2.243930 3.768312 19.235401
5.840000 3.840000 4.080000 -3.545904 -1.932189 16.306793
5.840000 3.840000 4.120000 1.307825 -4.033829 17.982182
5.840000 3.840000 4.160000 5.045124 1.450470 27.557140
5.840000 3.840000 4.200000 0.104750 9.341215 87.269272
5.840000 3.880000 3.800000 8.749170 -20.033274 477.880035
5.840000 3.880000 3.840000 18.684925 -12.031298 493.878540
5.840000 3.880000 3.880000 21.834476 2.823837 484.718414
5.840000 3.880000 3.920000 12.455994 17.378830 457.175537
5.840000 3.880000 3.960000 -6.402626 20.168293 447.753662
5.840000 3.880000 4.000000 -21.375416 6.084953 493.935059
5.840000 3.880000 4.040000 -18.813671 -15.703996 600.569702
5.840000 3.880000 4.080000 1.537188 -26.938889 728.066650
5.840000 3.880000 4.120000 23.486069 -16.274876 816.466980
5.840000 3.880000 4.160000 27.443428 8.722967 829.231873
5.840000 3.880000 4.200000 8.650717 26.623056 783.622009
5.840000 3.920000 3.800000 24.993488 -6.855388 671.670776
5.840000 3.920000 3.840000 27.320627 11.986574 890.094666
5.840000 3.920000 3.880000 14.013308 31.181574 1168.663330
5.840000 3.920000 3.920000 -13.259411 35.684128 1449.168945
5.840000 3.920000 3.960000 -37.813210 15.699585 1676.315796
5.840000 3.920000 4.000000 -38.280247 -19.618761 1850.273071
5.840000 3.920000 4.040000 -8.697664 -44.278542 2036.238647
5.840000 3.920000 4.080000 31.500446 -36.077801 2293.885742
5.840000 3.920000 4.120000 50.772285 1.922638 2581.521484
5.840000 3.920000 4.160000 32.615604 40.977852 2742.961914
5.840000 3.920000 4.200000 -8.692070 50.402603 2615.974365
5.840000 3.960000 3.800000 25.310625 15.085879 868.211487
5.840000 3.960000 3.840000 12.457741 35.172253 1392.282715
5.840000 3.960000 3.880000 -16.227909 42.715355 2087.946533
5.840000 3.960000 3.920000 -46.595741 24.257450 2759.586914
5.840000 3.960000 3.960000 -54.147678 -16.195215 3194.256104
5.840000 3.960000 4.000000 -25.138374 -52.274849 3364.597656
5.840000 3.960000 4.040000 25.568596 -53.316376 3496.389160
5.840000 3.960000 4.080000 60.989319 -12.413458 3873.791016
5.840000 3.960000 4.120000 51.747078 42.927696 4520.546875
5.840000 3.960000 4.160000 2.932850 71.206230 5078.928711
5.840000 3.960000 4.200000 -48.459637 51.994759 5051.791016
5.840000 4.000000 3.800000 8.045145 30.091862 970.244507
5.840000 4.000000 3.840000 -16.622953 38.116856 1729.217285
5.840000 4.000000 3.880000 -45.841946 24.625805 2707.914062
5.840000 4.000000 3.920000 -58.678616 -11.802209 3582.472168
5.840000 4.000000 3.960000 -37.362461 -51.294182 4027.046387
5.840000 4.000000 4.000000 12.088959 -62.435944 4044.389893
5.840000 4.000000 4.040000 56.749355 -28.984375 4060.583252
5.840000 4.000000 4.080000 60.384155 30.735489 4590.916504
5.840000 4.000000 4.120000 15.450304 73.944244 5706.463379
5.840000 4.000000 4.160000 -47.108105 67.857292 6823.786133
5.840000 4.000000 4.200000 -82.236542 17.915756 7083.822754
5.840000 4.040000 3.800000 -15.277964 26.965000 960.527344
5.840000 4.040000 3.840000 -38.244038 17.052162 1753.382690
5.840000 4.040000 3.880000 -50.778149 -10.829849 2695.706055
5.840000 4.040000 3.920000 -37.696335 -44.843636 3431.965332
5.840000 4.040000 3.960000 1.597894 -60.491077 3661.723633
5.840000 4.040000 4.000000 44.385151 -38.892952 3482.703369
5.840000 4.040000 4.040000 57.376213 12.619390 3451.278809
5.840000 4.040000 4.080000 24.447058 59.751572 4167.908691
5.840000 4.040000 4.120000 -35.670269 66.351349 5674.869629
5.840000 4.040000 4.160000 -81.258926 25.137520 7234.908203
5.840000 4.040000 4.200000 -81.121750 -34.789009 7791.013672
5.840000 4.080000 3.800000 -28.955385 7.814685 899.483582
5.840000 4.080000 3.840000 -36.923157 -12.758237 1526.092041
5.840000 4.080000 3.880000 -27.726557 -37.125755 2147.083496
5.840000 4.080000 3.920000 -0.173052 -49.961327 2496.164307
5.840000 4.080000 3.960000 32.344158 -37.176205 2428.214844
5.840000 4.080000 4.000000 46.364422 -0.127211 2149.675781
5.840000 4.080000 4.040000 25.846609 39.099880 2196.847900
5.840000 4.080000 4.080000 -21.179039 51.011604 3050.735596
5.840000 4.080000 4.120000 -64.343658 22.557156 4648.931641
5.840000 4.080000 4.160000 -73.261887 -29.767159 6253.387695
5.840000 4.080000 4.200000 -42.170143 -71.502747 6890.963379
5.840000 4.120000 3.800000 -25.366220 -14.359453 849.639038
5.840000 4.120000 3.840000 -16.003752 -30.897934 1210.802368
5.840000 4.120000 3.880000 4.030220 -37.522255 1424.162231
5.840000 4.120000 3.920000 25.155518 -27.416267 1384.451782
5.840000 4.120000 3.960000 33.541954 -2.720692 1132.464844
5.840000 4.120000 4.000000 19.782188 23.034954 921.944092
5.840000 4.120000 4.040000 -11.830331 31.389999 1125.288818
5.840000 4.120000 4.080000 -42.603790 12.379521 1968.335449
5.840000 4.120000 4.120000 -51.175163 -25.600410 3274.278320
5.840000 4.120000 4.160000 -29.885349 -59.747002 4462.838379
5.840000 4.120000 4.200000 8.401760 -69.371628 4883.012207
5.840000 4.160000 3.800000 -9.657481 -26.802769 811.655396
5.840000 4.160000 3.840000 7.450880 -29.279711 912.817078
5.840000 4.160000 3.880000 21.898766 -18.487885 821.357788
5.840000 4.160000 3.920000 24.222439 0.056789 586.729797
5.840000 4.160000 3.960000 11.602000 15.111484 362.963348
5.840000 4.160000 4.000000 -9.517529 16.172365 352.128784
5.840000 4.160000 4.040000 -26.377378 0.364216 695.898743
5.840000 4.160000 4.080000 -27.495417 -24.712021 1366.681885
5.840000 4.160000 4.120000 -10.428452 -45.011223 2134.762695
5.840000 4.160000 4.160000 16.062510 -49.038513 2662.780029
5.840000 4.160000 4.200000 37.786873 -35.593765 2694.763916
5.840000 4.200000 3.800000 6.597015 -26.497553 745.640930
5.840000 4.200000 3.840000 19.385267 -16.525307 648.874329
5.840000 4.200000 3.880000 20.313953 -0.097328 412.666168
5.840000 4.200000 3.920000 8.128252 11.026573 187.653809
5.840000 4.200000 3.960000 -8.530849 8.228568 140.484726
5.840000 4.200000 4.000000 -17.326986 -7.271589 353.100464
5.840000 4.200000 4.040000 -11.306100 -25.231375 764.450134
5.840000 4.200000 4.080000 6.278411 -33.983021 1194.264160
5.840000 4.200000 4.120000 24.911657 -28.653028 1441.586670
5.840000 4.200000 4.160000 34.766365 -13.738766 1397.453857
5.840000 4.200000 4.200000 33.192070 1.308132 1103.424683
5.880000 3.800000 3.800000 -24.997988 1.117827 626.148926
5.880000 3.800000 3.840000 -24.378136 -11.905754 736.040527
5.880000 3.800000 3.880000 -14.373400 -23.109707 740.653137
5.880000 3.800000 3.920000 1.461952 -25.606264 657.818115
5.880000 3.800000 3.960000 15.219608 -17.567492 540.253235
5.880000 3.800000 4.000000 20.481316 -3.783821 433.801575
5.880000 3.800000 4.040000 16.854589 8.381626 354.328827
5.880000 3.800000 4.080000 8.976604 14.772892 298.817780
5.880000 3.800000 4.120000 1.384983 16.344170 269.050049
5.880000 3.800000 4.160000 -5.143297 15.737246 274.114410
5.880000 3.800000 4.200000 -11.965636 12.968203 311.350739
5.880000 3.840000 3.800000 -12.241613 -12.863282 315.321136
5.880000 3.840000 3.840000 0.053976 -13.906132 193.383408
5.880000 3.840000 3.880000 9.430145 -4.114460 105.856422
5.880000 3.840000 3.920000 7.163406 9.792833 147.213974
5.880000 3.840000 3.960000 -5.660255 15.905403 285.020325
5.880000 3.840000 4.000000 -17.723930 8.437531 385.329620
5.880000 3.840000 4.040000 -17.648138 -5.770565 344.756195
5.880000 3.840000 4.080000 -5.338093 -12.989508 197.222549
5.880000 3.840000 4.120000 7.130434 -5.891895 85.557526
5.880000 3.840000 4.160000 6.946603 8.653446 123.137436
5.880000 3.840000 4.200000 -6.496920 15.623115 286.291687
5.880000 3.880000 3.800000 6.608215 -10.429000 152.432556
5.880000 3.880000 3.840000 15.686142 8.586660 319.785797
5.880000 3.880000 3.880000 3.491344 32.486889 1067.587402
5.880000 3.880000 3.920000 -28.186600 38.928909 2309.944336
5.880000 3.880000 3.960000 -56.921417 15.507668 3480.535645
5.880000 3.880000 4.000000 -57.352646 -25.006149 3914.633301
5.880000 3.880000 4.040000 -25.244175 -52.389668 3381.945557
5.880000 3.880000 4.080000 16.007242 -44.990437 2280.371094
5.880000 3.880000 4.120000 34.718857 -9.864437 1302.706177
5.880000 3.880000 4.160000 18.931133 22.951950 885.179810
5.880000 3.880000 4.200000 -13.433651 27.449276 933.925781
5.880000 3.920000 3.800000 14.773346 6.971440 266.852722
5.880000 3.920000 3.840000 3.140383 37.228588 1395.829834
5.880000 3.920000 3.880000 -37.493996 50.801720 3986.614258
5.880000 3.920000 3.920000 -82.792374 23.810875 7421.535156
5.880000 3.920000 3.960000 -94.065414 -36.122253 10153.119141
5.880000 3.920000 4.000000 -53.389469 -88.869019 10748.137695
5.880000 3.920000 4.040000 15.387121 -93.576630 8993.349609
5.880000 3.920000 4.080000 63.192520 -45.515228 6064.930664
5.880000 3.920000 4.120000 57.246662 17.764051 3592.741943
5.880000 3.920000 4.160000 9.114927 48.630371 2447.994873
5.880000 3.920000 4.200000 -37.308041 30.251158 2307.022461
5.880000 3.960000 3.800000 3.740433 23.795650 580.223816
5.880000 3.960000 3.840000 -31.929020 43.836239 2941.078125
5.880000 3.960000 3.880000 -83.257339 25.309481 7572.354492
5.880000 3.960000 3.920000 -108.564407 -37.204079 13170.374023
5.880000 3.960000 3.960000 -74.899254 -107.604446 17188.615234
5.880000 3.960000 4.000000 6.496964 -132.388031 17568.800781
5.880000 3.960000 4.040000 81.887016 -87.323280 14330.838867
5.880000 3.960000 4.080000 97.787560 -2.639064 9569.372070
5.880000 3.960000 4.120000 47.038883 60.072918 5821.412109
5.880000 3.960000 4.160000 -25.467499 59.894005 4235.885254
5.880000 3.960000 4.200000 -63.260044 9.367310 4089.579834
5.880000 4.000000 3.800000 -18.018215 23.785513 890.406677
5.880000 4.000000 3.840000 -61.328682 17.285532 4059.996826
5.880000 4.000000 3.880000 -93.547897 -31.640146 9752.307617
5.880000 4.000000 3.920000 -76.120026 -102.032379 16204.865234
5.880000 4.000000 3.960000 -2.791312 -142.917313 20433.148438
5.880000 4.000000 4.000000 84.361877 -114.791763 20294.074219
5.880000 4.000000 4.040000 123.850281 -28.791115 16167.820312
5.880000 4.000000 4.080000 86.675117 56.556870 10711.255859
5.880000 4.000000 4.120000 2.990097 82.460526 6808.679199
5.880000 4.000000 4.160000 -63.222015 38.807640 5503.056152
5.880000 4.000000 4.200000 -68.717064 -30.479786 5651.051758
5.880000 4.040000 3.800000 -31.990665 4.831455 1046.745605
5.880000 4.040000 3.840000 -59.532410 -24.567575 4147.673828
5.880000 4.040000 3.880000 -56.042458 -78.390396 9285.811523
5.880000 4.040000 3.920000 -4.770369 -121.325516 14742.637695
5.880000 4.040000 3.960000 72.325439 -112.735992 17940.373047
5.880000 4.040000 4.000000 123.457458 -45.013916 17267.996094
5.880000 4.040000 4.040000 108.000664 41.728687 13405.426758
5.880000 4.040000 4.080000 33.874722 87.934601 8879.991211
5.880000 4.040000 4.120000 -45.617847 63.628914 6129.626953
5.880000 4.040000 4.160000 -75.449387 -6.644753 5736.762695
5.880000 4.040000 4.200000 -43.580879 -66.604904 6335.506348
5.880000 4.080000 3.800000 -26.067337 -19.047880 1042.327759
5.880000 4.080000 3.840000 -27.137020 -50.645069 3301.340820
5.880000 4.080000 3.880000 1.598848 -81.573265 6656.753906
5.880000 4.080000 3.920000 53.946255 -83.570518 9894.230469
5.880000 4.080000 3.960000 98.413208 -41.883957 11439.424805
5.880000 4.080000 4.000000 99.430939 25.175999 10520.342773
5.880000 4.080000 4.040000 48.939644 74.111961 7887.671875
5.880000 4.080000 4.080000 -21.655174 69.761749 5335.648438
5.880000 4.080000 4.120000 -63.929611 15.670489 4332.559570
5.880000 4.080000 4.160000 -51.465748 -47.639610 4918.255859
5.880000 4.080000 4.200000 -0.246402 -76.371246 5832.627930
5.880000 4.120000 3.800000 -4.815171 -30.516989 954.472473
5.880000 4.120000 3.840000 10.619099 -44.718315 2112.492920
5.880000 4.120000 3.880000 37.865891 -45.502323 3504.287109
5.880000 4.120000 3.920000 63.320518 -23.811892 4576.494141
5.880000 4.120000 3.960000 67.492516 14.848862 4775.728516
5.880000 4.120000 4.000000 40.586788 48.578648 4007.172363
5.880000 4.120000 4.040000 -5.250877 52.974796 2833.900879
5.880000 4.120000 4.080000 -40.943203 21.496328 2138.437988
5.880000 4.120000 4.120000 -41.888016 -26.305862 2446.604248
5.880000 4.120000 4.160000 -8.065541 -58.454887 3482.026855
5.880000 4.120000 4.200000 35.826954 -55.541595 4368.439453
5.880000 4.160000 3.800000 15.915308 -23.990364 828.834595
5.880000 4.160000 3.840000 28.187599 -18.156940 1124.215332
5.880000 4.160000 3.880000 35.108974 -4.692745 1254.661987
5.880000 4.160000 3.920000 32.102318 11.713795 1167.771851
5.880000 4.160000 3.960000 18.160110 23.584116 886.000122
5.880000 4.160000 4.000000 -1.921257 23.275846 545.456238
5.880000 4.160000 4.040000 -17.774368 8.020951 380.263824
5.880000 4.160000 4.080000 -18.674747 -15.933292 602.615967
5.880000 4.160000 4.120000 -1.511795 -35.083092 1233.108887
5.880000 4.160000 4.160000 25.195240 -37.244389 2021.944580
5.880000 4.160000 4.200000 46.235706 -20.747414 2568.195557
5.880000 4.200000 3.800000 24.049816 -8.690042 653.910522
5.880000 4.200000 3.840000 22.061718 4.120708 503.699615
5.880000 4.200000 3.880000 11.433929 11.095570 253.846405
5.880000 4.200000 3.920000 -0.213970 7.983738 63.785854
5.880000 4.200000 3.960000 -5.459980 -2.107104 34.251270
5.880000 4.200000 4.000000 -2.239521 -12.429904 159.517975
5.880000 4.200000 4.040000 6.442822 -18.020113 366.234436
5.880000 4.200000 4.080000 16.337887 -17.844814 585.363953
5.880000 4.200000 4.120000 24.807173 -13.113564 787.361328
5.880000 4.200000 4.160000 30.601795 -5.068240 962.156921
5.880000 4.200000 4.200000 32.510590 5.173355 1083.702026
5.920000 3.800000 3.800000 -30.491016 -2.240391 934.721436
5.920000 3.800000 3.840000 -24.037205 -18.710300 927.862549
5.920000 3.800000 3.880000 -7.074154 -26.927727 775.146118
5.920000 3.800000 3.920000 10.878105 -21.686949 588.656921
5.920000 3.800000 3.960000 20.035093 -7.160656 452.679962
5.920000 3.800000 4.000000 17.950150 7.082642 372.371674
5.920000 3.800000 4.040000 10.130386 14.419582 310.549072
5.920000 3.800000 4.080000 3.507828 15.700804 258.820099
5.920000 3.800000 4.120000 -0.200809 15.872312 251.970612
5.920000 3.800000 4.160000 -4.329506 16.997570 307.662018
5.920000 3.800000 4.200000 -11.037782 15.762169 370.278595
5.920000 3.840000 3.800000 -15.552306 -12.112424 388.585022
5.920000 3.840000 3.840000 -2.485832 -6.800797 52.430195
5.920000 3.840000 3.880000 -1.143936 8.151728 67.759247
5.920000 3.840000 3.920000 -15.050819 17.219063 523.023315
5.920000 3.840000 3.960000 -31.819744 8.862198 1091.034668
5.920000 3.840000 4.000000 -34.255886 -11.917564 1315.494019
5.920000 3.840000 4.040000 -17.452103 -26.997612 1033.446899
5.920000 3.840000 4.080000 5.328442 -22.179491 520.322083
5.920000 3.840000 4.120000 14.612901 -1.264172 215.134995
5.920000 3.840000 4.160000 3.274057 17.090899 302.818268
5.920000 3.840000 4.200000 -16.622402 17.058460 567.295288
5.920000 3.880000 3.800000 -1.687624 -4.937651 27.228468
5.920000 3.880000 3.840000 -5.606739 21.410173 489.831055
5.920000 3.880000 3.880000 -38.415771 35.892719 2764.058838
5.920000 3.880000 3.920000 -77.961853 13.952141 6272.712402
5.920000 3.880000 3.960000 -87.877991 -38.230705 9184.127930
5.920000 3.880000 4.000000 -51.860428 -84.022919 9749.355469
5.920000 3.880000 4.040000 7.922348 -87.383583 7698.654297
5.920000 3.880000 4.080000 48.206196 -45.935623 4433.918945
5.920000 3.880000 4.120000 42.595459 6.281971 1853.836304
5.920000 3.880000 4.160000 3.949686 29.640047 894.132446
5.920000 3.880000 4.200000 -29.773834 13.641212 1072.563843
5.920000 3.920000 3.800000 -3.225325 9.433386 99.391487
5.920000 3.920000 3.840000 -38.192169 34.352291 2638.721680
5.920000 3.920000 3.880000 -94.339508 16.026325 9156.785156
5.920000 3.920000 3.920000 -122.245010 -52.877460 17739.869141
5.920000 3.920000 3.960000 -84.321815 -130.510895 24143.261719
5.920000 3.920000 4.000000 5.222794 -157.250061 24754.859375
5.920000 3.920000 4.040000 86.513054 -109.003296 19366.226562
5.920000 3.920000 4.080000 104.163757 -21.099041 11295.257812
5.920000 3.920000 4.120000 54.965065 41.860474 4773.457520
5.920000 3.920000 4.160000 -12.212250 42.116730 1922.958008
5.920000 3.920000 4.200000 -42.931187 -2.255995 1848.176270
5.920000 3.960000 3.800000 -18.692947 13.154890 522.477417
5.920000 3.960000 3.840000 -73.406143 10.223364 5492.979004
5.920000 3.960000 3.880000 -117.037903 -51.407566 16340.609375
5.920000 3.960000 3.920000 -95.273773 -143.623962 29704.933594
5.920000 3.960000 3.960000 0.050278 -197.727707 39096.250000
5.920000 3.960000 4.000000 112.799774 -163.169083 39347.937500
5.920000 3.960000 4.040000 165.202881 -56.747200 30512.236328
5.920000 3.960000 4.080000 124.631691 47.546402 17793.718750
5.920000 3.960000 4.120000 31.284754 81.221756 7575.709473
5.920000 3.960000 4.160000 -39.607258 37.931847 3007.559814
5.920000 3.960000 4.200000 -44.083946 -28.307570 2744.712891
5.920000 4.000000 3.800000 -31.327259 -1.651630 984.125061
5.920000 4.000000 3.840000 -76.435188 -38.821571 7349.452148
5.920000 4.000000 3.880000 -76.525902 -119.552216 20148.945312
5.920000 4.000000 3.920000 -1.619003 -187.799316 35271.203125
5.920000 4.000000 3.960000 115.260925 -179.284271 45427.929688
5.920000 4.000000 4.000000 195.777344 -82.331085 45107.175781
5.920000 4.000000 4.040000 181.121674 43.582569 34704.503906
5.920000 4.000000 4.080000 84.565750 114.314491 20219.167969
5.920000 4.000000 4.120000 -19.397577 91.573959 8762.055664
5.920000 4.000000 4.160000 -59.907551 11.725858 3726.410400
5.920000 4.000000 4.200000 -27.275177 -52.510609 3501.299316
5.920000 4.040000 3.800000 -25.291929 -24.199373 1225.291382
5.920000 4.040000 3.840000 -38.358559 -75.384743 7154.238281
5.920000 4.040000 3.880000 3.858311 -135.513260 18378.730469
5.920000 4.040000 3.920000 95.622864 -148.430695 31175.404297
5.920000 4.040000 3.960000 180.562561 -82.396683 39392.050781
5.920000 4.040000 4.000000 193.725098 33.003151 38618.621094
5.920000 4.040000 4.040000 119.155304 123.635117 29483.628906
5.920000 4.040000 4.080000 7.863161 130.949142 17209.507812
5.920000 4.040000 4.120000 -63.637596 60.891102 7757.469727
5.920000 4.040000 4.160000 -56.834827 -24.191530 3815.427734
5.920000 4.040000 4.200000 1.883041 -61.966961 3843.450195
5.920000 4.080000 3.800000 -1.531114 -34.878311 1218.840942
5.920000 4.080000 3.840000 14.124815 -71.096359 5254.202637
5.920000 4.080000 3.880000 66.985863 -89.003220 12408.679688
5.920000 4.080000 3.920000 130.452698 -56.619675 20223.693359
5.920000 4.080000 3.960000 156.270813 22.839767 24942.220703
5.920000 4.080000 4.000000 115.015915 104.035629 24052.074219
5.920000 4.080000 4.040000 26.345676 132.260056 18186.816406
5.920000 4.080000 4.080000 -52.343300 89.259361 10707.054688
5.920000 4.080000 4.120000 -71.801346 9.611862 5247.820801
5.920000 4.080000 4.160000 -30.171902 -48.671158 3279.225098
5.920000 4.080000 4.200000 29.991169 -52.235973 3628.067139
5.920000 4.120000 3.800000 22.806324 -23.991474 1095.719238
5.920000 4.120000 3.840000 43.370377 -32.444832 2933.656738
5.920000 4.120000 3.880000 73.703964 -20.336075 5845.830566
5.920000 4.120000 3.920000 91.962608 18.382713 8795.044922
5.920000 4.120000 3.960000 76.318153 67.264153 10348.926758
5.920000 4.120000 4.000000 26.182739 94.769363 9666.768555
5.920000 4.120000 4.040000 -31.484150 78.677261 7181.363281
5.920000 4.120000 4.080000 -60.288124 26.703686 4347.744629
5.920000 4.120000 4.120000 -43.226143 -27.019613 2598.558838
5.920000 4.120000 4.160000 3.598457 -48.440643 2359.444824
5.920000 4.120000 4.200000 45.153107 -29.838037 2929.111572
5.920000 4.160000 3.800000 30.734745 -0.556740 944.934509
5.920000 4.160000 3.840000 35.023987 7.340279 1280.559326
5.920000 4.160000 3.880000 35.386242 19.236595 1622.232788
5.920000 4.160000 3.920000 28.082067 32.815384 1865.451904
5.920000 4.160000 3.960000 11.088093 41.722500 1863.712769
5.920000 4.160000 4.000000 -11.278214 37.775345 1554.174805
5.920000 4.160000 4.040000 -27.558830 18.011002 1083.885254
5.920000 4.160000 4.080000 -26.005962 -9.643211 769.301575
5.920000 4.160000 4.120000 -4.699316 -29.242081 877.182861
5.920000 4.160000 4.160000 24.632549 -28.050644 1393.601074
5.920000 4.160000 4.200000 44.196640 -6.844061 2000.184204
5.920000 4.200000 3.800000 20.943810 17.288937 737.550476
5.920000 4.200000 3.840000 7.920537 20.906963 499.835999
5.920000 4.200000 3.880000 -3.281853 13.856050 202.760696
5.920000 4.200000 3.920000 -5.200413 2.235982 32.043911
5.920000 4.200000 3.960000 0.843098 -5.066080 26.375980
5.920000 4.200000 4.000000 7.388386 -5.269211 82.352829
5.920000 4.200000 4.040000 9.619460 -3.188049 102.697670
5.920000 4.200000 4.080000 10.238535 -4.172821 122.240036
5.920000 4.200000 4.120000 15.129990 -6.924110 276.859894
5.920000 4.200000 4.160000 25.036259 -4.530054 647.335632
5.920000 4.200000 4.200000 32.909348 7.392753 1137.677979
5.960000 3.800000 3.800000 -32.579735 -8.432766 1132.550659
5.960000 3.800000 3.840000 -20.201317 -23.341320 952.910400
5.960000 3.800000 3.880000 -0.668610 -25.631798 657.436096
5.960000 3.800000 3.920000 14.424259 -14.572166 420.407288
5.960000 3.800000 3.960000 17.737560 1.508713 316.897247
5.960000 3.800000 4.000000 11.418861 12.791214 294.005554
5.960000 3.800000 4.040000 3.489952 16.099062 271.359589
5.960000 3.800000 4.080000 -0.587635 15.856477 251.773178
5.960000 3.800000 4.120000 -2.443033 17.430212 309.780701
5.960000 3.800000 4.160000 -6.998818 20.516975 469.929749
5.960000 3.800000 4.200000 -15.038266 19.877754 621.274536
5.960000 3.840000 3.800000 -19.610287 -13.680237 571.712219
5.960000 3.840000 3.840000 -12.507423 -4.574631 177.362885
5.960000 3.840000 3.880000 -20.559074 5.166714 449.370483
5.960000 3.840000 3.920000 -36.319756 0.159843 1319.150146
5.960000 3.840000 3.960000 -41.541740 -20.492371 2145.653320
5.960000 3.840000 4.000000 -25.543777 -40.310440 2277.416016
5.960000 3.840000 4.040000 2.688972 -40.419842 1640.994141
5.960000 3.840000 4.080000 21.482014 -18.066120 787.861572
5.960000 3.840000 4.120000 16.350655 9.795143 363.288727
5.960000 3.840000 4.160000 -6.555559 21.845690 520.209534
5.960000 3.840000 4.200000 -26.566864 11.775282 844.455566
5.960000 3.880000 3.800000 -13.267591 -7.682983 235.057205
5.960000 3.880000 3.840000 -33.416351 11.216631 1242.465454
5.960000 3.880000 3.880000 -71.866516 -0.227127 5164.847656
5.960000 3.880000 3.920000 -90.919289 -49.402954 10706.968750
5.960000 3.880000 3.960000 -61.511871 -105.097481 14829.190430
5.960000 3.880000 4.000000 5.481308 -122.415016 15015.481445
5.960000 3.880000 4.040000 64.721741 -84.118576 11264.838867
5.960000 3.880000 4.080000 75.512650 -17.971016 6025.117676
5.960000 3.880000 4.120000 37.377136 27.635263 2160.758057
5.960000 3.880000 4.160000 -11.901282 26.324293 834.608887
5.960000 3.880000 4.200000 -32.680088 -6.138330 1105.667236
5.960000 3.920000 3.800000 -18.837168 -3.927734 370.265991
5.960000 3.920000 3.840000 -66.324478 -4.254181 4417.034668
5.960000 3.920000 3.880000 -105.328690 -59.956688 14688.937500
5.960000 3.920000 3.920000 -83.357689 -144.368683 27790.820312
5.960000 3.920000 3.960000 6.552040 -192.181732 36976.746094
5.960000 3.920000 4.000000 110.428139 -157.322418 36944.718750
5.960000 3.920000 4.040000 156.537964 -58.125423 27882.699219
5.960000 3.920000 4.080000 118.047531 35.910965 15224.817383
5.960000 3.920000 4.120000 35.028397 64.556435 5394.521484
5.960000 3.920000 4.160000 -24.590446 26.677052 1316.355225
5.960000 3.920000 4.200000 -25.828926 -26.648090 1377.254150
5.960000 3.960000 3.800000 -26.036585 -13.162075 851.143982
5.960000 3.960000 3.840000 -75.082932 -50.327591 8170.313477
5.960000 3.960000 3.880000 -75.297974 -137.641632 24615.003906
5.960000 3.960000 3.920000 7.657383 -211.375580 44738.273438
5.960000 3.960000 3.960000 135.734848 -200.075043 58453.972656
5.960000 3.960000 4.000000 222.115204 -93.290085 58038.203125
5.960000 3.960000 4.040000 205.335205 41.800041 43909.789062
5.960000 3.960000 4.080000 104.022842 115.758835 24220.859375
5.960000 3.960000 4.120000 -0.966087 92.981911 8646.569336
5.960000 3.960000 4.160000 -39.195339 16.492657 1808.282349
5.960000 3.960000 4.200000 -7.777702 -39.074837 1587.335571
5.960000 4.000000 3.800000 -19.734722 -30.427050 1315.264648
5.960000 4.000000 3.840000 -39.986660 -92.984474 10245.044922
5.960000 4.000000 3.880000 11.860451 -170.439117 29190.162109
5.960000 4.000000 3.920000 128.958771 -187.648926 51842.484375
5.960000 4.000000 3.960000 237.228638 -103.704620 67032.078125
5.960000 4.000000 4.000000 254.224915 41.531651 66355.187500
5.960000 4.000000 4.040000 163.155518 154.105118 50368.109375
5.960000 4.000000 4.080000 30.272045 164.841400 28089.083984
5.960000 4.000000 4.120000 -52.707150 86.479469 10256.742188
5.960000 4.000000 4.160000 -46.222885 -4.170099 2153.944824
5.960000 4.000000 4.200000 12.211029 -38.758755 1651.350342
5.960000 4.040000 3.800000 2.993958 -38.584568 1497.732666
5.960000 4.040000 3.840000 19.760159 -95.158463 9445.596680
5.960000 4.040000 3.880000 97.763901 -127.264145 25753.941406
5.960000 4.040000 3.920000 195.551590 -81.913406 44950.230469
5.960000 4.040000 3.960000 237.443481 36.283394 57695.890625
5.960000 4.040000 4.000000 179.516006 157.608994 57066.593750
5.960000 4.040000 4.040000 53.309303 201.827606 43576.265625
5.960000 4.040000 4.080000 -57.346878 146.370422 24712.964844
5.960000 4.040000 4.120000 -86.688782 43.785343 9432.101562
5.960000 4.040000 4.160000 -38.749168 -27.358322 2249.975830
5.960000 4.040000 4.200000 26.057384 -29.771849 1565.350342
5.960000 4.080000 3.800000 27.697905 -25.558012 1420.385864
5.960000 4.080000 3.840000 61.439335 -52.350754 6515.393066
5.960000 4.080000 3.880000 123.250031 -39.111794 16720.302734
5.960000 4.080000 3.920000 166.179657 31.030884 28578.593750
5.960000 4.080000 3.960000 143.808792 125.400238 36406.187500
5.960000 4.080000 4.000000 54.938679 181.745422 36049.656250
5.960000 4.080000 4.040000 -48.635704 159.583115 27832.201172
5.960000 4.080000 4.080000 -102.384415 75.993256 16257.542969
5.960000 4.080000 4.120000 -81.610794 -8.636713 6734.914551
5.960000 4.080000 4.160000 -18.101715 -41.792572 2074.291016
5.960000 4.080000 4.200000 32.687649 -19.083893 1432.677368
5.960000 4.120000 3.800000 35.542900 2.463132 1269.364746
5.960000 4.120000 3.840000 57.763889 2.640850 3343.641113
5.960000 4.120000 3.880000 80.787407 29.495853 7396.610352
5.960000 4.120000 3.920000 77.566109 77.675140 12049.927734
5.960000 4.120000 3.960000 34.578209 117.992676 15117.923828
5.960000 4.120000 4.000000 -31.251030 118.486374 15015.647461
5.960000 4.120000 4.040000 -81.433609 72.311638 11860.406250
5.960000 4.120000 4.080000 -85.544556 6.390308 7358.707031
5.960000 4.120000 4.120000 -45.732162 -38.748508 3592.877441
5.960000 4.120000 4.160000 6.158754 -40.605988 1686.776489
5.960000 4.120000 4.200000 35.715019 -9.697109 1369.596558
5.960000 4.160000 3.800000 21.469477 25.975151 1135.646973
5.960000 4.160000 3.840000 20.526543 30.657318 1361.210083
5.960000 4.160000 3.880000 16.743904 39.094013 1808.700195
5.960000 4.160000 3.920000 5.190422 48.303360 2360.155029
5.960000 4.160000 3.960000 -15.189438 50.247589 2755.539307
5.960000 4.160000 4.000000 -37.088455 37.114906 2753.069824
5.960000 4.160000 4.040000 -47.305161 9.584770 2329.646240
5.960000 4.160000 4.080000 -36.368668 -20.090057 1726.290283
5.960000 4.160000 4.120000 -7.732349 -35.012737 1285.680908
5.960000 4.160000 4.160000 22.630962 -26.222492 1199.779541
5.960000 4.160000 4.200000 37.194477 -0.071169 1383.434082
5.960000 4.200000 3.800000 -1.097952 30.536825 933.703186
5.960000 4.200000 3.840000 -13.802452 21.383411 647.757935
5.960000 4.200000 3.880000 -16.148182 5.829392 294.745605
5.960000 4.200000 3.920000 -7.262417 -4.889584 76.650726
5.960000 4.200000 3.960000 3.421844 -4.424614 31.286228
5.960000 4.200000 4.000000 6.095845 1.953842 40.976830
5.960000 4.200000 4.040000 1.315428 3.318977 12.745961
5.960000 4.200000 4.080000 -0.494987 -4.263561 18.422966
5.960000 4.200000 4.120000 9.092329 -12.296911 233.884460
5.960000 4.200000 4.160000 25.841349 -8.180597 734.697510
5.960000 4.200000 4.200000 35.240005 10.942633 1361.599243
6.000000 3.800000 3.800000 -31.657173 -13.619751 1187.674316
6.000000 3.800000 3.840000 -16.899633 -24.858593 903.547241
6.000000 3.800000 3.880000 1.430115 -23.176182 539.180603
6.000000 3.800000 3.920000 13.131742 -10.464226 281.942688
6.000000 3.800000 3.960000 13.502720 4.605919 203.537933
6.000000 3.800000 4.000000 6.224495 13.937618 233.001541
6.000000 3.800000 4.040000 -1.256393 16.277817 266.545837
6.000000 3.800000 4.080000 -5.143047 16.410122 295.743042
6.000000 3.800000 4.120000 -7.990501 18.566097 408.548096
6.000000 3.800000 4.160000 -14.134415 21.333015 654.879211
6.000000 3.800000 4.200000 -23.309063 19.653467 929.571167
6.000000 3.840000 3.800000 -24.119982 -18.587273 927.260193
6.000000 3.840000 3.840000 -23.519974 -13.813850 744.011597
6.000000 3.840000 3.880000 -31.441734 -16.188423 1250.647705
6.000000 3.840000 3.920000 -34.760689 -31.127419 2177.221680
6.000000 3.840000 3.960000 -21.542656 -48.448662 2811.358887
6.000000 3.840000 4.000000 5.086731 -50.962624 2623.063721
6.000000 3.840000 4.040000 27.461987 -31.388943 1739.426514
6.000000 3.840000 4.080000 28.644714 -0.840267 821.225708
6.000000 3.840000 4.120000 7.922218 19.977312 461.854523
6.000000 3.840000 4.160000 -18.448452 18.653540 688.299927
6.000000 3.840000 4.200000 -31.876495 1.118177 1017.361267
6.000000 3.880000 3.800000 -21.219542 -20.844179 884.748779
6.000000 3.880000 3.840000 -45.238983 -21.334309 2501.718262
6.000000 3.880000 3.880000 -64.914009 -54.957062 7234.107422
6.000000 3.880000 3.920000 -46.980553 -105.145599 13262.769531
6.000000 3.880000 3.960000 12.247177 -130.523148 17186.287109
6.000000 3.880000 4.000000 77.435684 -102.878075 16580.183594
6.000000 3.880000 4.040000 103.034309 -35.862049 11902.156250
6.000000 3.880000 4.080000 73.674500 24.860817 6045.991699
6.000000 3.880000 4.120000 17.078114 41.291382 1996.640259
6.000000 3.880000 4.160000 -22.469948 14.489838 714.853943
6.000000 3.880000 4.200000 -23.409042 -21.384060 1005.261292
6.000000 3.920000 3.800000 -19.447437 -28.085987 1167.025513
6.000000 3.920000 3.840000 -54.305611 -56.093796 6095.613281
6.000000 3.920000 3.880000 -50.745129 -123.432251 17810.587891
6.000000 3.920000 3.920000 18.478687 -178.204193 32098.195312
6.000000 3.920000 3.960000 121.070534 -163.555054 41408.328125
6.000000 3.920000 4.000000 186.661682 -73.745697 40281.007812
6.000000 3.920000 4.040000 168.214203 34.801064 29507.130859
6.000000 3.920000 4.080000 84.408066 90.950737 15396.757812
6.000000 3.920000 4.120000 1.636169 69.842407 4880.639160
6.000000 3.920000 4.160000 -26.104658 9.279068 767.554321
6.000000 3.920000 4.200000 -0.737317 -31.431425 988.478149
6.000000 3.960000 3.800000 -9.272960 -38.824619 1593.338867
6.000000 3.960000 3.840000 -26.764828 -95.173859 9774.419922
6.000000 3.960000 3.880000 23.914457 -165.723465 28036.167969
6.000000 3.960000 3.920000 135.384750 -177.945740 49993.718750
6.000000 3.960000 3.960000 235.524597 -94.402229 64383.617188
6.000000 3.960000 4.000000 247.043137 43.945374 62961.507812
6.000000 3.960000 4.040000 158.124374 147.220154 46677.093750
6.000000 3.960000 4.080000 34.715031 153.677094 24821.781250
6.000000 3.960000 4.120000 -38.298294 80.702469 7979.647949
6.000000 3.960000 4.160000 -29.770287 2.090691 890.640930
6.000000 3.960000 4.200000 20.144152 -22.801229 925.682861
6.000000 4.000000 3.800000 12.166624 -41.415268 1863.251099
6.000000 4.000000 3.840000 29.415857 -102.339195 11338.603516
6.000000 4.000000 3.880000 115.500809 -136.641022 32011.207031
6.000000 4.000000 3.920000 222.798798 -84.355797 56755.203125
6.000000 4.000000 3.960000 266.245605 47.318005 73125.710938
6.000000 4.000000 4.000000 199.777802 178.917633 71922.687500
6.000000 4.000000 4.040000 62.430935 223.752502 53962.804688
6.000000 4.000000 4.080000 -53.112862 162.795319 29323.292969
6.000000 4.000000 4.120000 -80.514809 57.662987 9807.654297
6.000000 4.000000 4.160000 -31.713165 -9.046047 1087.555786
6.000000 4.000000 4.200000 25.911680 -5.907894 706.318359
6.000000 4.040000 3.800000 34.077614 -25.867846 1830.429199
6.000000 4.040000 3.840000 76.602554 -63.387436 9885.917969
6.000000 4.040000 3.880000 158.686829 -47.391411 27427.455078
6.000000 4.040000 3.920000 215.461609 45.040085 48452.312500
6.000000 4.040000 3.960000 185.245850 168.104721 62575.218750
6.000000 4.040000 4.000000 69.978951 239.053009 62043.394531
6.000000 4.040000 4.040000 -59.756138 209.127808 47305.238281
6.000000 4.040000 4.080000 -123.271362 106.376747 26511.841797
6.000000 4.040000 4.120000 -97.007370 9.072639 9492.742188
6.000000 4.040000 4.160000 -27.399450 -23.588463 1307.145508
6.000000 4.040000 4.200000 18.974936 3.339085 371.197662
6.000000 4.080000 3.800000 39.931679 3.497282 1606.769897
6.000000 4.080000 3.840000 80.483566 -2.565020 6484.183594
6.000000 4.080000 3.880000 124.984375 41.013268 17303.181641
6.000000 4.080000 3.920000 122.968140 123.485039 30369.718750
6.000000 4.080000 3.960000 52.477482 191.355804 39370.929688
6.000000 4.080000 4.000000 -53.353149 191.548172 39537.261719
6.000000 4.080000 4.040000 -129.592377 118.894775 30930.152344
6.000000 4.080000 4.080000 -133.173523 22.246174 18230.080078
6.000000 4.080000 4.120000 -76.955490 -37.236927 7308.736328
6.000000 4.080000 4.160000 -13.442379 -35.928730 1471.571167
6.000000 4.080000 4.200000 13.632669 0.102639 185.860199
6.000000 4.120000 3.800000 23.416172 29.015696 1390.227783
6.000000 4.120000 3.840000 41.671379 37.978943 3178.903809
6.000000 4.120000 3.880000 47.465374 71.698051 7393.572266
6.000000 4.120000 3.920000 19.214218 110.580772 12597.293945
6.000000 4.120000 3.960000 -38.975998 121.851242 16366.853516
6.000000 4.120000 4.000000 -95.588943 87.678802 16824.818359
6.000000 4.120000 4.040000 -115.369476 22.858444 13832.625000
6.000000 4.120000 4.080000 -87.910210 -35.262154 8971.625000
6.000000 4.120000 4.120000 -35.305668 -56.130661 4397.141602
6.000000 4.120000 4.160000 7.364084 -38.204185 1513.789551
6.000000 4.120000 4.200000 19.829847 -5.279029 421.090973
6.000000 4.160000 3.800000 -4.074117 34.832077 1229.871948
6.000000 4.160000 3.840000 -5.850899 35.894230 1322.628784
6.000000 4.160000 3.880000 -12.158062 40.274471 1769.851562
6.000000 4.160000 3.920000 -26.141247 41.830746 2433.176025
6.000000 4.160000 3.960000 -44.257362 32.849148 3037.780762
6.000000 4.160000 4.000000 -56.576717 10.546501 3312.153809
6.000000 4.160000 4.040000 -52.869202 -18.529480 3138.494141
6.000000 4.160000 4.080000 -30.732996 -40.798500 2609.034668
6.000000 4.160000 4.120000 0.778137 -44.205597 1954.740234
6.000000 4.160000 4.160000 25.896618 -27.011698 1400.266602
6.000000 4.160000 4.200000 32.375259 0.326067 1048.263794
6.000000 4.200000 3.800000 -23.167660 21.480982 998.173096
6.000000 4.200000 3.840000 -27.374411 6.244883 788.356873
6.000000 4.200000 3.880000 -19.955395 -8.584709 471.915009
6.000000 4.200000 3.920000 -5.617737 -13.171242 205.040588
6.000000 4.200000 3.960000 4.001140 -6.687088 60.726265
6.000000 4.200000 4.000000 2.422913 0.652771 6.296615
6.000000 4.200000 4.040000 -3.874702 -1.864307 18.488960
6.000000 4.200000 4.080000 -1.666035 -12.931561 170.000916
6.000000 4.200000 4.120000 14.180479 -18.903816 558.440247
6.000000 4.200000 4.160000 32.971519 -7.514544 1143.589478
6.000000 4.200000 4.200000 36.949921 17.964844 1688.032227
6.040000 3.800000 3.800000 -30.767052 -17.130428 1240.062988
6.040000 3.800000 3.840000 -16.051664 -26.570639 963.654785
6.040000 3.800000 3.880000 1.565483 -24.009666 578.914856
6.040000 3.800000 3.920000 12.703487 -10.819450 278.439087
6.040000 3.800000 3.960000 12.381165 4.927340 177.571899
6.040000 3.800000 4.000000 3.659027 14.873425 234.607224
6.040000 3.800000 4.040000 -5.927052 16.935181 321.930298
6.040000 3.800000 4.080000 -11.729972 15.520683 378.483856
6.040000 3.800000 4.120000 -15.488983 15.398479 477.021790
6.040000 3.800000 4.160000 -21.577141 16.056355 723.379517
6.040000 3.800000 4.200000 -30.477036 12.778282 1092.134155
6.040000 3.840000 3.800000 -26.348133 -28.299440 1495.082520
6.040000 3.840000 3.840000 -24.370214 -32.532585 1652.276489
6.040000 3.840000 3.880000 -20.356213 -41.735561 2156.232422
6.040000 3.840000 3.920000 -6.969597 -51.137032 2663.571289
6.040000 3.840000 3.960000 14.675056 -50.033302 2718.688477
6.040000 3.840000 4.000000 33.157906 -32.608196 2162.741211
6.040000 3.840000 4.040000 35.553970 -5.385933 1293.093140
6.040000 3.840000 4.080000 18.861570 16.424973 625.538574
6.040000 3.840000 4.120000 -6.762749 20.753922 476.460022
6.040000 3.840000 4.160000 -26.007984 7.929804 739.296997
6.040000 3.840000 4.200000 -30.317213 -10.743608 1034.558594
6.040000 3.880000 3.800000 -17.115776 -39.881855 1883.512207
6.040000 3.880000 3.840000 -26.861677 -55.497269 3801.496582
6.040000 3.880000 3.880000 -16.478699 -87.668831 7957.371094
6.040000 3.880000 3.920000 25.935944 -109.038162 12561.994141
6.040000 3.880000 3.960000 80.891861 -91.636284 14940.702148
6.040000 3.880000 4.000000 110.754013 -36.041611 13565.449219
6.040000 3.880000 4.040000 92.904648 24.893456 9250.958008
6.040000 3.880000 4.080000 40.796875 52.971802 4470.396484
6.040000 3.880000 4.120000 -7.822119 36.890335 1422.082397
6.040000 3.880000 4.160000 -23.897289 -0.771107 571.675049
6.040000 3.880000 4.200000 -9.499084 -27.013693 819.972229
6.040000 3.920000 3.800000 0.445134 -48.054893 2309.470947
6.040000 3.920000 3.840000 -4.512026 -83.297272 6958.793945
6.040000 3.920000 3.880000 35.247475 -125.153519 16905.787109
6.040000 3.920000 3.920000 112.648300 -124.957626 28304.046875
6.040000 3.920000 3.960000 177.132233 -60.015015 34977.628906
6.040000 3.920000 4.000000 177.341156 38.126297 32903.500000
6.040000 3.920000 4.040000 109.205177 106.659813 23302.085938
6.040000 3.920000 4.080000 21.491760 105.612503 11615.896484
6.040000 3.920000 4.120000 -27.309345 50.974564 3344.206543
6.040000 3.920000 4.160000 -18.725643 -4.295112 369.097717
6.040000 3.920000 4.200000 16.565388 -20.590288 698.372070
6.040000 3.960000 3.800000 24.435417 -44.422684 2570.464355
6.040000 3.960000 3.840000 41.502510 -88.745651 9598.249023
6.040000 3.960000 3.880000 112.380203 -110.329292 24801.863281
6.040000 3.960000 3.920000 197.050598 -61.352798 42593.101562
6.040000 3.960000 3.960000 226.195190 49.515167 53616.015625
6.040000 3.960000 4.000000 165.235748 155.192566 51387.585938
6.040000 3.960000 4.040000 50.291859 186.201187 37200.152344
6.040000 3.960000 4.080000 -41.423222 131.663101 19051.054688
6.040000 3.960000 4.120000 -58.932106 45.972286 5586.444336
6.040000 3.960000 4.160000 -17.326387 -3.954626 315.842773
6.040000 3.960000 4.200000 25.955854 2.559258 680.256165
6.040000 4.000000 3.800000 44.083931 -23.888639 2514.060059
6.040000 4.000000 3.840000 84.039795 -55.824177 10179.025391
6.040000 4.000000 3.880000 160.574463 -36.844070 27141.644531
6.040000 4.000000 3.920000 210.759216 54.059662 47341.890625
6.040000 4.000000 3.960000 176.649292 170.766876 60366.296875
6.040000 4.000000 4.000000 63.802986 233.757126 58713.214844
6.040000 4.000000 4.040000 -57.376045 200.169891 43359.996094
6.040000 4.000000 4.080000 -111.708847 102.151527 22913.800781
6.040000 4.000000 4.120000 -83.039986 15.869568 7147.482422
6.040000 4.000000 4.160000 -20.862402 -7.303555 488.581726
6.040000 4.000000 4.200000 12.938490 19.996296 567.256348
6.040000 4.040000 3.800000 46.073128 7.143648 2173.764893
6.040000 4.040000 3.840000 91.434776 0.881446 8361.095703
6.040000 4.040000 3.880000 141.102020 51.634666 22575.917969
6.040000 4.040000 3.920000 136.305878 145.732086 39817.132812
6.040000 4.040000 3.960000 53.958748 220.117157 51363.109375
6.040000 4.040000 4.000000 -64.385147 215.866364 50743.734375
6.040000 4.040000 4.040000 -144.331894 132.545273 38399.945312
6.040000 4.040000 4.080000 -142.547607 29.641321 21198.427734
6.040000 4.040000 4.120000 -81.245300 -26.636166 7310.284180
6.040000 4.040000 4.160000 -21.632238 -18.928503 826.241943
6.040000 4.040000 4.200000 -5.575109 15.748474 279.096283
6.040000 4.080000 3.800000 26.506340 32.194550 1739.075073
6.040000 4.080000 3.840000 56.815941 45.222309 5273.108398
6.040000 4.080000 3.880000 67.388229 96.914124 13933.521484
6.040000 4.080000 3.920000 25.553371 155.020874 24684.445312
6.040000 4.080000 3.960000 -58.827385 169.583389 32219.187500
6.040000 4.080000 4.000000 -135.842255 118.509949 32497.726562
6.040000 4.080000 4.040000 -156.865051 30.034863 25508.738281
6.040000 4.080000 4.080000 -115.907570 -40.663345 15088.072266
6.040000 4.080000 4.120000 -51.729939 -58.286736 6073.330078
6.040000 4.080000 4.160000 -10.608433 -32.984550 1200.519409
6.040000 4.080000 4.200000 -7.486067 -2.951753 64.754044
6.040000 4.120000 3.800000 -3.356822 36.960312 1377.333008
6.040000 4.120000 3.840000 5.760498 50.324249 2565.713379
6.040000 4.120000 3.880000 -6.370804 76.608765 5909.489746
6.040000 4.120000 3.920000 -45.978382 89.969215 10208.471680
6.040000 4.120000 3.960000 -93.313164 68.742500 13432.877930
6.040000 4.120000 4.000000 -117.199524 16.412605 14005.102539
6.040000 4.120000 4.040000 -101.042961 -39.323433 11756.011719
6.040000 4.120000 4.080000 -56.234196 -68.744591 7888.103516
6.040000 4.120000 4.120000 -11.319003 -62.899307 4084.442627
6.040000 4.120000 4.160000 11.629338 -36.855492 1493.568726
6.040000 4.120000 4.200000 11.331791 -13.170668 301.875977
6.040000 4.160000 3.800000 -24.953390 21.681595 1092.763184
6.040000 4.160000 3.840000 -26.289894 21.425472 1150.209351
6.040000 4.160000 3.880000 -33.607784 20.527729 1550.870850
6.040000 4.160000 3.920000 -44.188652 12.660145 2112.916260
6.040000 4.160000 3.960000 -50.966759 -4.097816 2614.402588
6.040000 4.160000 4.000000 -47.332283 -25.581696 2894.768066
6.040000 4.160000 4.040000 -31.256512 -43.754814 2891.453369
6.040000 4.160000 4.080000 -6.713612 -50.807800 2626.505127
6.040000 4.160000 4.120000 17.786287 -43.071823 2171.533936
6.040000 4.160000 4.160000 32.803329 -23.297243 1618.820068
6.040000 4.160000 4.200000 32.637043 -0.199486 1065.216431
6.040000 4.200000 3.800000 -27.861320 1.136295 777.544312
6.040000 4.200000 3.840000 -24.949245 -11.526630 755.328064
6.040000 4.200000 3.880000 -13.258480 -21.137957 622.600464
6.040000 4.200000 3.920000 1.578230 -20.421444 419.526184
6.040000 4.200000 3.960000 9.319349 -11.137302 210.889771
6.040000 4.200000 4.000000 6.568741 -3.976772 58.963074
6.040000 4.200000 4.040000 1.995857 -7.179689 55.531387
6.040000 4.200000 4.080000 7.653080 -16.004900 314.726471
6.040000 4.200000 4.120000 24.604832 -16.055321 863.171082
6.040000 4.200000 4.160000 38.975151 1.281211 1520.703857
6.040000 4.200000 4.200000 34.596748 27.286484 1941.487061
6.080000 3.800000 3.800000 -31.016418 -21.544491 1426.183228
6.080000 3.800000 3.840000 -15.025293 -31.233852 1201.312988
6.080000 3.800000 3.880000 4.600859 -27.441242 774.189697
6.080000 3.800000 3.920000 16.265102 -11.096725 387.690857
6.080000 3.800000 3.960000 13.403378 7.614780 237.635406
6.080000 3.800000 4.000000 0.223846 17.638683 311.173248
6.080000 3.800000 4.040000 -12.745342 16.383358 430.858185
6.080000 3.800000 4.080000 -18.833223 10.412006 463.100189
6.080000 3.800000 4.120000 -20.458359 7.093533 468.862640
6.080000 3.800000 4.160000 -24.224499 6.511615 629.227478
6.080000 3.800000 4.200000 -31.839346 2.424859 1019.623901
6.080000 3.840000 3.800000 -21.731026 -40.811352 2137.803955
6.080000 3.840000 3.840000 -9.660254 -48.910828 2485.589600
6.080000 3.840000 3.880000 7.983341 -51.190926 2684.244385
6.080000 3.840000 3.920000 26.780907 -42.626568 2534.241211
6.080000 3.840000 3.960000 38.247032 -23.234093 2002.658447
6.080000 3.840000 4.000000 35.803211 -0.157883 1281.894775
6.080000 3.840000 4.040000 20.110615 16.330402 671.118896
6.080000 3.840000 4.080000 -1.055489 19.549826 383.309723
6.080000 3.840000 4.120000 -18.099323 10.228773 432.213318
6.080000 3.840000 4.160000 -25.380423 -5.215971 671.372192
6.080000 3.840000 4.200000 -23.176153 -19.646822 923.131714
6.080000 3.880000 3.800000 1.539956 -53.384438 2852.269775
6.080000 3.880000 3.840000 12.663200 -65.882355 4500.841309
6.080000 3.880000 3.880000 39.740055 -73.581329 6993.483887
6.080000 3.880000 3.920000 75.042313 -59.198669 9135.831055
6.080000 3.880000 3.960000 96.075684 -19.179153 9598.376953
6.080000 3.880000 4.000000 84.618073 28.104149 7950.061523
6.080000 3.880000 4.040000 44.568344 55.104771 5022.873047
6.080000 3.880000 4.080000 0.595711 47.771496 2282.470703
6.080000 3.880000 4.120000 -21.869703 16.740019 758.512207
6.080000 3.880000 4.160000 -16.542292 -13.283825 450.107422
6.080000 3.880000 4.200000 2.099070 -25.101330 634.482849
6.080000 3.920000 3.800000 31.921604 -48.177452 3340.055664
6.080000 3.920000 3.840000 49.688427 -64.485718 6627.347656
6.080000 3.920000 3.880000 91.890366 -64.596695 12616.572266
6.080000 3.920000 3.920000 134.727142 -25.804132 18817.255859
6.080000 3.920000 3.960000 141.087387 42.654373 21725.046875
6.080000 3.920000 4.000000 96.009415 101.004501 19419.716797
6.080000 3.920000 4.040000 24.446243 111.762154 13088.398438
6.080000 3.920000 4.080000 -28.142199 72.984299 6118.691406
6.080000 3.920000 4.120000 -34.542740 19.188448 1561.397461
6.080000 3.920000 4.160000 -6.577515 -10.711674 158.003647
6.080000 3.920000 4.200000 20.990833 -6.561123 483.663422
6.080000 3.960000 3.800000 54.057049 -22.362461 3422.244141
6.080000 3.960000 3.840000 81.918541 -34.165466 7877.926758
6.080000 3.960000 3.880000 129.527130 -12.531658 16934.320312
6.080000 3.960000 3.920000 155.407837 54.136864 27082.396484
6.080000 3.960000 3.960000 123.076622 132.744781 32769.031250
6.080000 3.960000 4.000000 40.122414 169.755020 30426.576172
6.080000 3.960000 4.040000 -42.924095 139.317917 21251.960938
6.080000 3.960000 4.080000 -75.555557 67.727295 10295.628906
6.080000 3.960000 4.120000 -50.635921 9.207264 2648.770264
6.080000 3.960000 4.160000 -6.033402 -2.880673 44.700218
6.080000 3.960000 4.200000 15.119284 18.615597 575.133179
6.080000 4.000000 3.800000 53.898155 13.237277 3080.236816
6.080000 4.000000 3.840000 85.806328 14.375582 7569.383301
6.080000 4.000000 3.880000 119.105957 58.000347 17550.269531
6.080000 4.000000 3.920000 108.391083 132.506165 29306.509766
6.080000 4.000000 3.960000 37.533749 187.398895 36527.128906
6.080000 4.000000 4.000000 -57.666199 177.437988 34809.628906
6.080000 4.000000 4.040000 -117.207642 106.269463 25030.828125
6.080000 4.000000 4.080000 -109.675972 24.928232 12650.235352
6.080000 4.000000 4.120000 -58.148918 -14.232946 3583.873291
6.080000 4.000000 4.160000 -14.384083 -2.457848 212.942856
6.080000 4.000000 4.200000 -9.000991 25.053360 708.688660
6.080000 4.040000 3.800000 30.179771 39.454376 2467.466309
6.080000 4.040000 3.840000 54.786083 53.405075 5853.617188
6.080000 4.040000 3.880000 60.704357 102.139633 14117.523438
6.080000 4.040000 3.920000 17.489983 154.706573 24240.023438
6.080000 4.040000 3.960000 -63.552914 163.815247 30874.408203
6.080000 4.040000 4.000000 -133.221405 111.168503 30106.378906
6.080000 4.040000 4.040000 -146.915268 27.743484 22353.796875
6.080000 4.040000 4.080000 -104.382896 -32.723133 11966.592773
6.080000 4.040000 4.120000 -47.401928 -41.187824 3943.379883
6.080000 4.040000 4.160000 -18.865612 -14.918294 578.466797
6.080000 4.040000 4.200000 -25.269070 5.972185 674.192871
6.080000 4.080000 3.800000 -2.852062 42.361397 1802.622192
6.080000 4.080000 3.840000 7.565825 59.687908 3619.888184
6.080000 4.080000 3.880000 -8.493378 92.414383 8612.555664
6.080000 4.080000 3.920000 -57.987526 107.593040 14938.816406
6.080000 4.080000 3.960000 -114.154472 79.335480 19325.361328
6.080000 4.080000 4.000000 -138.077789 15.897316 19318.201172
6.080000 4.080000 4.040000 -113.764938 -45.252510 14990.250977
6.080000 4.080000 4.080000 -62.019772 -70.121796 8763.518555
6.080000 4.080000 4.120000 -19.944798 -56.423843 3581.445068
6.080000 4.080000 4.160000 -7.562948 -30.490299 986.856506
6.080000 4.080000 4.200000 -14.587683 -18.642248 560.333923
6.080000 4.120000 3.800000 -25.480953 24.079359 1229.094482
6.080000 4.120000 3.840000 -26.103512 33.968399 1835.245483
6.080000 4.120000 3.880000 -44.908245 42.222015 3799.449219
6.080000 4.120000 3.920000 -73.476151 30.568384 6333.170898
6.080000 4.120000 3.960000 -90.319458 -3.926750 8173.023926
6.080000 4.120000 4.000000 -80.134079 -44.565392 8407.544922
6.080000 4.120000 4.040000 -47.347530 -69.138153 7021.872559
6.080000 4.120000 4.080000 -11.304407 -68.296860 4792.250488
6.080000 4.120000 4.120000 10.890879 -50.784439 2697.670654
6.080000 4.120000 4.160000 16.634699 -32.435436 1328.770752
6.080000 4.120000 4.200000 14.874404 -21.793999 696.226318
6.080000 4.160000 3.800000 -27.672318 0.770597 766.350952
6.080000 4.160000 3.840000 -29.917173 -0.541616 895.330627
6.080000 4.160000 3.880000 -34.669674 -7.644814 1260.429443
6.080000 4.160000 3.920000 -34.781395 -20.688984 1637.779541
6.080000 4.160000 3.960000 -26.598579 -33.908905 1857.298340
6.080000 4.160000 4.000000 -12.459873 -41.664169 1891.151367
6.080000 4.160000 4.040000 3.033020 -42.595825 1823.603516
6.080000 4.160000 4.080000 17.267830 -38.063583 1747.014404
6.080000 4.160000 4.120000 29.300653 -28.608805 1676.991943
6.080000 4.160000 4.160000 36.680878 -14.006553 1541.670288
6.080000 4.160000 4.200000 35.312782 3.038992 1256.228027
6.080000 4.200000 3.800000 -16.099634 -11.197073 384.572662
6.080000 4.200000 3.840000 -12.682490 -19.477345 540.212524
6.080000 4.200000 3.880000 -0.985631 -25.741762 663.609802
6.080000 4.200000 3.920000 13.591896 -21.913342 664.934204
6.080000 4.200000 3.960000 20.456112 -9.763952 513.787292
6.080000 4.200000 4.000000 16.498440 -0.360625 272.328552
6.080000 4.200000 4.040000 10.945583 -1.482895 122.004768
6.080000 4.200000 4.080000 15.248574 -7.455145 288.098206
6.080000 4.200000 4.120000 28.730448 -4.384224 844.660034
6.080000 4.200000 4.160000 37.034283 13.612167 1556.829224
6.080000 4.200000 4.200000 26.964302 35.270027 1971.048462
6.120000 3.800000 3.800000 -29.919046 -28.652111 1716.092773
6.120000 3.800000 3.840000 -10.166615 -37.153614 1483.751099
6.120000 3.800000 3.880000 11.464617 -28.639175 951.639832
6.120000 3.800000 3.920000 20.410057 -7.062671 466.451752
6.120000 3.800000 3.960000 11.322779 12.928778 295.358612
6.120000 3.800000 4.000000 -6.990273 18.852592 404.284180
6.120000 3.800000 4.040000 -20.317360 11.164116 537.432617
6.120000 3.800000 4.080000 -22.506248 0.883869 507.312439
6.120000 3.800000 4.120000 -19.604786 -2.961274 393.116760
6.120000 3.800000 4.160000 -20.912209 -2.355136 442.867126
6.120000 3.800000 4.200000 -27.357246 -6.348662 788.724426
6.120000 3.840000 3.800000 -8.803679 -49.735611 2551.135742
6.120000 3.840000 3.840000 13.329559 -50.850140 2763.414062
6.120000 3.840000 3.880000 33.430248 -37.196255 2501.143066
6.120000 3.840000 3.920000 40.917351 -13.508583 1856.711426
6.120000 3.840000 3.960000 32.236557 8.681149 1114.557861
6.120000 3.840000 4.000000 13.533235 19.359947 557.955994
6.120000 3.840000 4.040000 -4.701336 16.715551 301.512238
6.120000 3.840000 4.080000 -15.564255 6.349469 282.561798
6.120000 3.840000 4.120000 -18.881243 -5.108568 382.598816
6.120000 3.840000 4.160000 -17.761765 -15.029260 541.358948
6.120000 3.840000 4.200000 -13.601289 -23.951710 758.679443
6.120000 3.880000 3.800000 26.356962 -50.952187 3290.814697
6.120000 3.880000 3.840000 46.570133 -44.842216 4179.601562
6.120000 3.880000 3.880000 64.396187 -26.364525 4841.957031
6.120000 3.880000 3.920000 69.926178 2.574768 4896.299805
6.120000 3.880000 3.960000 56.539970 31.320356 4177.732910
6.120000 3.880000 4.000000 28.051365 46.054935 2907.936279
6.120000 3.880000 4.040000 -1.887745 39.804031 1587.924561
6.120000 3.880000 4.080000 -18.833008 18.055378 680.678833
6.120000 3.880000 4.120000 -17.566412 -5.422019 337.977112
6.120000 3.880000 4.160000 -4.411118 -18.995049 380.269806
6.120000 3.880000 4.200000 9.648750 -20.561596 515.877625
6.120000 3.920000 3.800000 55.654900 -25.264515 3735.763428
6.120000 3.920000 3.840000 71.007782 -14.261516 5245.495605
6.120000 3.920000 3.880000 84.539268 9.692078 7240.824219
6.120000 3.920000 3.920000 82.155121 45.360592 8807.046875
6.120000 3.920000 3.960000 54.791321 76.803452 8900.859375
6.120000 3.920000 4.000000 11.103111 84.032959 7184.817383
6.120000 3.920000 4.040000 -25.588352 61.081230 4385.680664
6.120000 3.920000 4.080000 -35.501339 23.290062 1802.772095
6.120000 3.920000 4.120000 -18.858055 -4.692812 377.648743
6.120000 3.920000 4.160000 5.566484 -9.427632 119.865997
6.120000 3.920000 4.200000 18.377016 1.944561 341.496033
6.120000 3.960000 3.800000 59.352272 15.369567 3758.915771
6.120000 3.960000 3.840000 68.742050 28.301994 5526.472168
6.120000 3.960000 3.880000 73.831085 56.403992 8632.439453
6.120000 3.960000 3.920000 56.442059 92.787041 11795.140625
6.120000 3.960000 3.960000 12.288912 113.675591 13073.157227
6.120000 3.960000 4.000000 -38.484394 99.420509 11365.486328
6.120000 3.960000 4.040000 -65.569672 55.548042 7384.966797
6.120000 3.960000 4.080000 -55.336067 10.870098 3180.239258
6.120000 3.960000 4.120000 -23.247490 -7.343170 594.367920
6.120000 3.960000 4.160000 1.280635 3.112077 11.325047
6.120000 3.960000 4.200000 2.471201 20.564331 428.998566
6.120000 4.000000 3.800000 33.980080 46.924355 3356.541016
6.120000 4.000000 3.840000 37.676025 59.102249 4912.558594
6.120000 4.000000 3.880000 31.161085 85.728653 8320.415039
6.120000 4.000000 3.920000 -1.032258 110.678192 12250.727539
6.120000 4.000000 3.960000 -51.267273 108.279144 14352.706055
6.120000 4.000000 4.000000 -90.217415 70.066177 13048.451172
6.120000 4.000000 4.040000 -92.568398 17.103676 8861.444336
6.120000 4.000000 4.080000 -61.442753 -17.044352 4065.721924
6.120000 4.000000 4.120000 -25.740059 -16.664902 940.269653
6.120000 4.000000 4.160000 -12.404809 3.268143 164.560043
6.120000 4.000000 4.200000 -21.974953 14.656073 697.699036
6.120000 4.040000 3.800000 -3.796960 51.286121 2644.683350
6.120000 4.040000 3.840000 -4.634035 60.571381 3690.366455
6.120000 4.040000 3.880000 -20.593842 77.875549 6488.707520
6.120000 4.040000 3.920000 -56.569466 82.202850 9957.413086
6.120000 4.040000 3.960000 -93.958099 56.720657 12045.357422
6.120000 4.040000 4.000000 -105.831604 9.076191 11282.705078
6.120000 4.040000 4.040000 -83.202599 -32.388039 7971.657227
6.120000 4.040000 4.080000 -44.809555 -44.261131 3966.943848
6.120000 4.040000 4.120000 -19.384750 -29.378908 1238.888794
6.120000 4.040000 4.160000 -18.513828 -11.848043 483.137970
6.120000 4.040000 4.200000 -28.096312 -11.384279 919.004517
6.120000 4.080000 3.800000 -29.926218 30.175022 1806.110596
6.120000 4.080000 3.840000 -33.501106 35.114883 2355.379150
6.120000 4.080000 3.880000 -50.865288 38.570225 4074.939941
6.120000 4.080000 3.920000 -75.123764 24.716648 6254.492676
6.120000 4.080000 3.960000 -86.855179 -8.268009 7612.182129
6.120000 4.080000 4.000000 -73.238220 -43.448944 7251.647461
6.120000 4.080000 4.040000 -41.699577 -60.059685 5346.020508
6.120000 4.080000 4.080000 -13.326362 -52.964218 2982.800293
6.120000 4.080000 4.120000 -2.770253 -36.255192 1322.113281
6.120000 4.080000 4.160000 -5.697538 -27.713249 800.486084
6.120000 4.080000 4.200000 -6.307638 -31.020748 1002.073120
6.120000 4.120000 3.800000 -31.848690 2.680155 1021.522278
6.120000 4.120000 3.840000 -36.003609 2.641197 1303.235840
6.120000 4.120000 3.880000 -45.504898 -5.068361 2096.384033
6.120000 4.120000 3.920000 -49.456520 -23.539196 3000.041016
6.120000 4.120000 3.960000 -39.232918 -44.067177 3481.137695
6.120000 4.120000 4.000000 -17.857248 -54.271065 3264.229736
6.120000 4.120000 4.040000 2.831697 -50.046844 2512.705078
6.120000 4.120000 4.080000 13.763756 -38.589485 1678.589355
6.120000 4.120000 4.120000 16.368189 -29.820751 1157.194824
6.120000 4.120000 4.160000 18.581114 -26.230692 1033.307007
6.120000 4.120000 4.200000 24.588676 -22.117573 1093.790039
6.120000 4.160000 3.800000 -17.008368 -11.526323 422.140686
6.120000 4.160000 3.840000 -19.525726 -16.357147 648.810303
6.120000 4.160000 3.880000 -16.723732 -26.968502 1006.983276
6.120000 4.160000 3.920000 -4.786087 -35.201553 1262.056030
6.120000 4.160000 3.960000 10.444685 -33.817627 1252.723267
6.120000 4.160000 4.000000 19.930635 -24.688801 1006.767090
6.120000 4.160000 4.040000 21.484619 -16.288578 726.906616
6.120000 4.160000 4.080000 21.528938 -13.532333 646.619263
6.120000 4.160000 4.120000 26.475479 -12.156626 848.734558
6.120000 4.160000 4.160000 34.109856 -4.467665 1183.442383
6.120000 4.160000 4.200000 35.519634 10.242333 1366.549805
6.120000 4.200000 3.800000 -3.899607 -8.145474 81.555687
6.120000 4.200000 3.840000 -2.597972 -16.784611 288.472595
6.120000 4.200000 3.880000 10.012093 -22.160547 591.331848
6.120000 4.200000 3.920000 24.927641 -14.390900 828.485229
6.120000 4.200000 3.960000 28.764843 2.312732 832.764954
6.120000 4.200000 4.000000 19.497841 13.619552 565.657959
6.120000 4.200000 4.040000 9.414822 11.461348 220.001343
6.120000 4.200000 4.080000 11.103048 3.786804 137.617569
6.120000 4.200000 4.120000 22.315889 5.724556 530.769470
6.120000 4.200000 4.160000 27.626112 21.593166 1229.466919
6.120000 4.200000 4.200000 15.898731 38.543941 1738.405029
6.160000 3.800000 3.800000 -24.516600 -36.513481 1934.297852
6.160000 3.800000 3.840000 -1.725545 -40.103149 1611.240112
6.160000 3.800000 3.880000 17.726149 -25.135740 946.021729
6.160000 3.800000 3.920000 19.779783 -0.994493 392.228851
6.160000 3.800000 3.960000 4.236674 15.110662 246.281525
6.160000 3.800000 4.000000 -15.080248 13.673307 414.373230
6.160000 3.800000 4.040000 -23.743057 0.786499 564.351379
6.160000 3.800000 4.080000 -19.887390 -9.579482 487.274780
6.160000 3.800000 4.120000 -13.719378 -10.353325 295.412659
6.160000 3.800000 4.160000 -14.611452 -7.460204 269.149170
6.160000 3.800000 4.200000 -20.296383 -11.257050 538.664307
6.160000 3.840000 3.800000 7.368155 -49.334244 2488.157471
6.160000 3.840000 3.840000 29.967075 -37.703262 2319.561523
6.160000 3.840000 3.880000 39.028362 -12.833731 1687.917725
6.160000 3.840000 3.920000 28.876755 10.763116 949.711609
6.160000 3.840000 3.960000 7.388320 19.820900 447.455353
6.160000 3.840000 4.000000 -11.035645 12.630432 281.313263
6.160000 3.840000 4.040000 -17.588360 -1.431426 311.399384
6.160000 3.840000 4.080000 -14.548972 -11.904079 353.379700
6.160000 3.840000 4.120000 -9.822561 -16.215162 359.414185
6.160000 3.840000 4.160000 -7.359054 -19.081718 418.267639
6.160000 3.840000 4.200000 -3.859971 -24.342806 607.471558
6.160000 3.880000 3.800000 42.849281 -33.000660 2925.104492
6.160000 3.880000 3.840000 53.352180 -9.957821 2945.613281
6.160000 3.880000 3.880000 47.317818 15.039729 2465.169189
6.160000 3.880000 3.920000 27.962282 30.338366 1702.305664
6.160000 3.880000 3.960000 5.484495 30.414074 955.095581
6.160000 3.880000 4.000000 -9.962364 18.446838 439.534546
6.160000 3.880000 4.040000 -14.174559 2.679829 208.099594
6.160000 3.880000 4.080000 -9.508591 -9.693331 184.373962
6.160000 3.880000 4.120000 -1.042554 -16.077841 259.583893
6.160000 3.880000 4.160000 7.600466 -17.559635 366.107880
6.160000 3.880000 4.200000 15.383357 -15.771162 485.377228
6.160000 3.920000 3.800000 56.516617 6.758286 3239.802246
6.160000 3.920000 3.840000 49.953194 29.280865 3352.690430
6.160000 3.920000 3.880000 32.682922 44.387909 3038.459961
6.160000 3.920000 3.920000 11.073383 47.950527 2421.873047
6.160000 3.920000 3.960000 -7.936596 40.043228 1666.449707
6.160000 3.920000 4.000000 -18.709858 24.260012 938.606934
6.160000 3.920000 4.040000 -18.468298 6.830503 387.733795
6.160000 3.920000 4.080000 -8.847263 -5.337595 106.763985
6.160000 3.920000 4.120000 4.238423 -8.051447 82.790024
6.160000 3.920000 4.160000 13.794981 -2.547870 196.793137
6.160000 3.920000 4.200000 16.427259 5.544784 300.599487
6.160000 3.960000 3.800000 36.827927 44.914127 3373.574951
6.160000 3.960000 3.840000 18.932405 55.555946 3444.899170
6.160000 3.960000 3.880000 -0.314516 56.848164 3231.812500
6.160000 3.960000 3.920000 -17.507172 50.272606 2833.835938
6.160000 3.960000 3.960000 -29.946209 36.841042 2254.037842
6.160000 3.960000 4.000000 -33.812134 18.938547 1501.928955
6.160000 3.960000 4.040000 -26.757011 2.774949 723.638000
6.160000 3.960000 4.080000 -12.382515 -4.096690 170.109543
6.160000 3.960000 4.120000 0.116222 0.653769 0.440921
6.160000 3.960000 4.160000 3.012762 10.723373 124.067474
6.160000 3.960000 4.200000 -2.702161 16.209629 270.053741
6.160000 4.000000 3.800000 -3.087675 56.522930 3204.375244
6.160000 4.000000 3.840000 -20.792797 52.495075 3188.073242
6.160000 4.000000 3.880000 -33.822411 43.317383 3020.351074
6.160000 4.000000 3.920000 -42.836830 30.973944 2794.379150
6.160000 4.000000 3.960000 -46.590500 15.366474 2406.802979
6.160000 4.000000 4.000000 -41.813507 -0.701314 1748.861206
6.160000 4.000000 4.040000 -28.791149 -10.331520 935.670593
6.160000 4.000000 4.080000 -14.872736 -8.582334 294.854736
6.160000 4.000000 4.120000 -9.467386 0.799850 90.271164
6.160000 4.000000 4.160000 -14.560939 7.144227 263.060913
6.160000 4.000000 4.200000 -21.583334 3.128668 475.628876
6.160000 4.040000 3.800000 -35.695797 37.020226 2644.687012
6.160000 4.040000 3.840000 -44.940857 24.578682 2623.792236
6.160000 4.040000 3.880000 -48.903091 11.509798 2523.987793
6.160000 4.040000 3.920000 -48.809441 -1.942900 2386.136475
6.160000 4.040000 3.960000 -43.128334 -15.081272 2087.498047
6.160000 4.040000 4.000000 -31.225664 -23.597746 1531.895752
6.160000 4.040000 4.040000 -17.858986 -23.007240 848.276489
6.160000 4.040000 4.080000 -11.013056 -15.082297 348.763092
6.160000 4.040000 4.120000 -13.848974 -8.604693 265.834839
6.160000 4.040000 4.160000 -19.860250 -11.405245 524.509155
6.160000 4.040000 4.200000 -18.253021 -21.449810 793.267151
6.160000 4.080000 3.800000 -41.788857 5.061656 1771.928833
6.160000 4.080000 3.840000 -42.601246 -7.381145 1869.347534
6.160000 4.080000 3.880000 -39.209076 -19.478292 1916.755615
6.160000 4.080000 3.920000 -30.838425 -29.950720 1848.053955
6.160000 4.080000 3.960000 -17.928751 -35.198509 1560.375244
6.160000 4.080000 4.000000 -5.097052 -32.197834 1062.680542
6.160000 4.080000 4.040000 1.054288 -23.345949 546.144836
6.160000 4.080000 4.080000 -1.515558 -16.521149 275.245270
6.160000 4.080000 4.120000 -6.680714 -18.280170 378.796570
6.160000 4.080000 4.160000 -4.914358 -26.600615 731.743652
6.160000 4.080000 4.200000 7.145731 -31.475809 1041.788086
6.160000 4.120000 3.800000 -25.219341 -14.670445 851.237183
6.160000 4.120000 3.840000 -22.969227 -23.859268 1096.850098
6.160000 4.120000 3.880000 -14.772783 -33.432701 1335.980591
6.160000 4.120000 3.920000 -0.417165 -37.315639 1392.630981
6.160000 4.120000 3.960000 13.676464 -31.137239 1156.573364
6.160000 4.120000 4.000000 19.116230 -18.381601 703.313477
6.160000 4.120000 4.040000 14.121860 -8.894407 278.537384
6.160000 4.120000 4.080000 6.557658 -9.784750 138.744217
6.160000 4.120000 4.120000 6.965438 -17.823944 366.210327
6.160000 4.120000 4.160000 18.003994 -21.916113 804.459839
6.160000 4.120000 4.200000 31.225439 -13.843096 1166.659302
6.160000 4.160000 3.800000 -6.671942 -12.616424 203.688965
6.160000 4.160000 3.840000 -4.880747 -21.439163 483.459412
6.160000 4.160000 3.880000 7.195776 -28.171726 845.425354
6.160000 4.160000 3.920000 23.353521 -22.998739 1074.328979
6.160000 4.160000 3.960000 30.845673 -6.892208 998.958008
6.160000 4.160000 4.000000 23.984447 7.742188 635.195190
6.160000 4.160000 4.040000 11.141872 9.487799 214.159637
6.160000 4.160000 4.080000 6.596044 0.228623 43.560066
6.160000 4.160000 4.120000 15.489782 -6.454748 281.597107
6.160000 4.160000 4.160000 28.215803 0.431222 796.317505
6.160000 4.160000 4.200000 30.522400 17.647013 1243.033936
6.160000 4.200000 3.800000 -3.287701 -0.134894 10.827171
6.160000 4.200000 3.840000 0.320572 -12.105716 146.651123
6.160000 4.200000 3.880000 16.023516 -14.461966 465.901489
6.160000 4.200000 3.920000 28.479151 -0.552744 811.367554
6.160000 4.200000 3.960000 24.451639 18.563477 942.485291
6.160000 4.200000 4.000000 7.844952 25.771023 725.688904
6.160000 4.200000 4.040000 -4.218297 16.777676 299.284424
6.160000 4.200000 4.080000 -0.302018 4.949193 24.585726
6.160000 4.200000 4.120000 12.645634 6.357131 200.325165
6.160000 4.200000 4.160000 17.164982 21.777758 768.907349
6.160000 4.200000 4.200000 4.905821 35.888599 1312.058594
6.200000 3.800000 3.800000 -15.242962 -41.349174 1942.102173
6.200000 3.800000 3.840000 6.262741 -38.760040 1541.562622
6.200000 3.800000 3.880000 19.464127 -20.649527 805.255188
6.200000 3.800000 3.920000 14.961174 0.389238 223.988235
6.200000 3.800000 3.960000 -2.100410 9.434700 93.425293
6.200000 3.800000 4.000000 -16.934048 2.678941 293.938690
6.200000 3.800000 4.040000 -19.211697 -10.094369 470.985596
6.200000 3.800000 4.080000 -11.911635 -16.362045 409.603577
6.200000 3.800000 4.120000 -6.195445 -13.420167 218.484421
6.200000 3.800000 4.160000 -8.324116 -9.586651 161.194778
6.200000 3.800000 4.200000 -12.957294 -13.318811 345.282166
6.200000 3.840000 3.800000 18.628132 -40.687119 2002.448975
6.200000 3.840000 3.840000 31.963320 -21.551693 1486.129272
6.200000 3.840000 3.880000 27.251162 1.137018 743.918579
6.200000 3.840000 3.920000 8.656679 12.268264 225.448395
6.200000 3.840000 3.960000 -9.625119 6.495608 134.835846
6.200000 3.840000 4.000000 -15.906942 -8.306163 322.023163
6.200000 3.840000 4.040000 -10.149210 -19.562717 485.706390
6.200000 3.840000 4.080000 -1.458726 -21.563747 467.123077
6.200000 3.840000 4.120000 2.453076 -18.741684 357.268311
6.200000 3.840000 4.160000 2.572705 -18.399227 345.150360
6.200000 3.840000 4.200000 5.523025 -21.565895 495.591644
6.200000 3.880000 3.800000 42.612232 -11.983603 1959.409058
6.200000 3.880000 3.840000 35.682426 11.989471 1416.983032
6.200000 3.880000 3.880000 14.282123 22.815628 724.531860
6.200000 3.880000 3.920000 -6.176326 15.166622 268.173431
6.200000 3.880000 3.960000 -13.195263 -2.417233 179.957977
6.200000 3.880000 4.000000 -6.359235 -16.436056 310.583832
6.200000 3.880000 4.040000 5.119725 -19.991859 425.886017
6.200000 3.880000 4.080000 12.497860 -16.299736 421.877899
6.200000 3.880000 4.120000 14.677344 -12.466475 370.837463
6.200000 3.880000 4.160000 16.377140 -11.270674 395.238800
6.200000 3.880000 4.200000 20.837530 -9.367176 521.946655
6.200000 3.920000 3.800000 36.592705 27.103209 2073.609863
6.200000 3.920000 3.840000 11.354103 38.132423 1582.997314
6.200000 3.920000 3.880000 -12.488479 27.413685 907.472229
6.200000 3.920000 3.920000 -19.748959 5.003349 415.054871
6.200000 3.920000 3.960000 -9.658055 -12.529490 250.266144
6.200000 3.920000 4.000000 6.464581 -16.127903 301.900055
6.200000 3.920000 4.040000 17.002768 -9.135474 372.550995
6.200000 3.920000 4.080000 19.045294 -0.639720 363.132446
6.200000 3.920000 4.120000 17.269506 4.026391 314.447662
6.200000 3.920000 4.160000 16.501867 6.236607 311.206879
6.200000 3.920000 4.200000 16.782707 9.607005 373.953827
6.200000 3.960000 3.800000 2.998317 48.756279 2386.164795
6.200000 3.960000 3.840000 -25.102196 37.180466 2012.507324
6.200000 3.960000 3.880000 -34.874504 9.866367 1313.576294
6.200000 3.960000 3.920000 -22.461494 -13.336441 682.379395
6.200000 3.960000 3.960000 -0.345012 -18.873352 356.322449
6.200000 3.960000 4.000000 15.431524 -8.465952 309.804291
6.200000 3.960000 4.040000 18.065340 6.234249 365.222382
6.200000 3.960000 4.080000 11.836669 15.433958 378.313782
6.200000 3.960000 4.120000 4.509639 17.490921 326.269165
6.200000 3.960000 4.160000 0.001728 16.105492 259.386871
6.200000 3.960000 4.200000 -2.223835 14.441875 213.513214
6.200000 4.000000 3.800000 -34.011158 38.355087 2627.871582
6.200000 4.000000 3.840000 -48.298111 10.094368 2434.603760
6.200000 4.000000 3.880000 -37.660622 -18.656216 1766.376709
6.200000 4.000000 3.920000 -11.611094 -29.546947 1007.839600
6.200000 4.000000 3.960000 11.108518 -19.264450 494.518219
6.200000 4.000000 4.000000 17.922319 0.899645 322.018890
6.200000 4.000000 4.040000 9.668711 16.558973 367.683533
6.200000 4.000000 4.080000 -4.161876 20.760075 448.301910
6.200000 4.000000 4.120000 -14.612365 15.512625 454.162720
6.200000 4.000000 4.160000 -18.100760 6.660077 371.994110
6.200000 4.000000 4.200000 -15.363468 -0.841316 236.743958
6.200000 4.040000 3.800000 -48.931122 6.762783 2439.989990
6.200000 4.040000 3.840000 -44.271233 -22.717661 2476.034180
6.200000 4.040000 3.880000 -20.182663 -39.858639 1996.050903
6.200000 4.040000 3.920000 7.298198 -34.952881 1274.967529
6.200000 4.040000 3.960000 21.488081 -13.906684 655.133484
6.200000 4.040000 4.000000 16.649387 8.077410 342.446625
6.200000 4.040000 4.040000 -0.351867 18.178951 330.598083
6.200000 4.040000 4.080000 -17.140558 13.285484 470.302826
6.200000 4.040000 4.120000 -24.329708 -0.724935 592.460205
6.200000 4.040000 4.160000 -19.648098 -14.471451 595.470642
6.200000 4.040000 4.200000 -7.289753 -20.400578 469.324066
6.200000 4.080000 3.800000 -36.326595 -20.132500 1724.939087
6.200000 4.080000 3.840000 -20.869598 -39.269939 1977.668335
6.200000 4.080000 3.880000 4.451172 -42.603100 1834.837158
6.200000 4.080000 3.920000 24.777405 -27.574318 1374.262817
6.200000 4.080000 3.960000 28.342522 -3.748757 817.351685
6.200000 4.080000 4.000000 14.540592 13.889802 404.355408
6.200000 4.080000 4.040000 -6.100049 15.172804 267.424591
6.200000 4.080000 4.080000 -19.456980 1.177512 379.960602
6.200000 4.080000 4.120000 -17.284687 -17.260820 596.696289
6.200000 4.080000 4.160000 -2.118136 -27.340755 752.003418
6.200000 4.080000 4.200000 15.284189 -22.776064 752.355530
6.200000 4.120000 3.800000 -13.439241 -24.737072 792.535950
6.200000 4.120000 3.840000 1.274165 -33.903679 1151.083008
6.200000 4.120000 3.880000 20.945410 -30.071850 1343.026367
6.200000 4.120000 3.920000 33.306488 -12.301457 1260.647949
6.200000 4.120000 3.960000 29.047276 9.342348 931.023682
6.200000 4.120000 4.000000 10.514752 20.229137 519.778015
6.200000 4.120000 4.040000 -8.589576 12.898852 240.161194
6.200000 4.120000 4.080000 -13.644627 -6.072027 223.045349
6.200000 4.120000 4.120000 -1.121711 -20.926867 439.191986
6.200000 4.120000 4.160000 18.558102 -19.610758 728.984985
6.200000 4.120000 4.200000 30.014065 -3.295209 911.702454
6.200000 4.160000 3.800000 -2.291790 -11.855110 145.795944
6.200000 4.160000 3.840000 7.786757 -19.194241 429.052460
6.200000 4.160000 3.880000 23.442554 -14.641985 763.941040
6.200000 4.160000 3.920000 31.056114 2.895028 972.863403
6.200000 4.160000 3.960000 21.768343 21.123566 920.065796
6.200000 4.160000 4.000000 1.791507 24.919172 624.174622
6.200000 4.160000 4.040000 -11.927789 11.351990 271.139832
6.200000 4.160000 4.080000 -7.569438 -6.446648 98.855667
6.200000 4.160000 4.120000 10.014592 -11.377007 229.728333
6.200000 4.160000 4.160000 23.989399 1.484878 577.696106
6.200000 4.160000 4.200000 21.691914 20.913616 907.918457
6.200000 4.200000 3.800000 -9.195095 -1.006289 85.562393
6.200000 4.200000 3.840000 1.515573 -11.652655 138.081329
6.200000 4.200000 3.880000 17.574224 -6.460536 350.591888
6.200000 4.200000 3.920000 21.828562 11.659101 612.420776
6.200000 4.200000 3.960000 8.530175 25.769415 736.826660
6.200000 4.200000 4.000000 -9.982296 22.520075 606.799988
6.200000 4.200000 4.040000 -16.001492 6.425413 297.333679
6.200000 4.200000 4.080000 -5.110151 -4.887416 50.000481
6.200000 4.200000 4.120000 9.449921 0.666903 89.745766
6.200000 4.200000 4.160000 11.160988 17.308456 424.150330
6.200000 4.200000 4.200000 -2.624751 28.396353 813.242188
