#kx 	ky 	kz 	real 	imag 	intensity
0.800000 -1.200000 -9.200000 -39.983139 4.008872 1614.722412
0.800000 -1.200000 -9.160000 -31.603260 -29.114979 1846.447998
0.800000 -1.200000 -9.120000 0.441148 -40.461452 1637.323730
0.800000 -1.200000 -9.080000 26.741091 -21.079842 1159.445679
0.800000 -1.200000 -9.040000 25.307503 9.244225 725.925354
0.800000 -1.200000 -9.000000 1.502585 23.029949 532.636292
0.800000 -1.200000 -8.960000 -20.167759 11.564946 540.486450
0.800000 -1.200000 -8.920000 -21.692497 -9.798218 566.569519
0.800000 -1.200000 -8.880000 -7.276191 -20.410532 469.532776
0.800000 -1.200000 -8.840000 5.354834 -15.266488 261.739899
0.800000 -1.200000 -8.800000 5.811288 -6.483860 75.811508
0.800000 -1.160000 -9.200000 -28.894989 -23.734516 1398.247681
0.800000 -1.160000 -9.160000 -2.960121 -42.661572 1828.771973
0.800000 -1.160000 -9.120000 27.571266 -33.419193 1877.017334
0.800000 -1.160000 -9.080000 37.863060 -5.335635 1462.080322
0.800000 -1.160000 -9.040000 22.884691 16.571537 798.324951
0.800000 -1.160000 -9.000000 0.244882 15.898911 252.835358
0.800000 -1.160000 -8.960000 -8.668045 -1.188915 76.548523
0.800000 -1.160000 -8.920000 1.055243 -15.086900 228.728088
0.800000 -1.160000 -8.880000 16.241091 -13.440262 444.413696
0.800000 -1.160000 -8.840000 21.844963 -1.474211 479.375732
0.800000 -1.160000 -8.800000 16.251310 6.987383 312.928619
0.800000 -1.120000 -9.200000 -3.313770 -30.262499 926.799927
0.800000 -1.120000 -9.160000 23.183014 -28.296108 1338.121826
0.800000 -1.120000 -9.120000 38.235634 -7.310472 1515.406738
0.800000 -1.120000 -9.080000 32.173553 15.135334 1264.215942
0.800000 -1.120000 -9.040000 14.230762 22.217060 696.112305
0.800000 -1.120000 -9.000000 2.353961 13.080572 176.642502
0.800000 -1.120000 -8.960000 5.600056 1.592766 33.897533
0.800000 -1.120000 -8.920000 16.936857 1.179877 288.249268
0.800000 -1.120000 -8.880000 22.530081 11.971645 650.924866
0.800000 -1.120000 -8.840000 16.469316 22.809235 791.499512
0.800000 -1.120000 -8.800000 5.409475 24.311974 620.334534
0.800000 -1.080000 -9.200000 13.059315 -15.737457 418.213257
0.800000 -1.080000 -9.160000 26.319092 -1.744474 695.737793
0.800000 -1.080000 -9.120000 24.810959 16.066931 873.729980
0.800000 -1.080000 -9.080000 12.542959 24.727598 768.779907
0.800000 -1.080000 -9.040000 2.070609 20.970068 444.031158
0.800000 -1.080000 -9.000000 1.969700 13.499390 186.113235
0.800000 -1.080000 -8.960000 8.849725 13.348397 256.497314
0.800000 -1.080000 -8.920000 11.795315 22.502409 645.487854
0.800000 -1.080000 -8.880000 4.147465 32.375427 1065.369751
0.800000 -1.080000 -8.840000 -9.788972 33.167385 1195.899414
0.800000 -1.080000 -8.800000 -19.620598 23.824335 952.566772
0.800000 -1.040000 -9.200000 9.575894 1.218768 93.183151
0.800000 -1.040000 -9.160000 9.063229 13.415854 262.127228
0.800000 -1.040000 -9.120000 0.554368 19.918674 397.060913
0.800000 -1.040000 -9.080000 -7.437311 17.372574 357.119934
0.800000 -1.040000 -9.040000 -7.790256 11.466343 192.165100
0.800000 -1.040000 -9.000000 -2.176352 11.225111 130.739624
0.800000 -1.040000 -8.960000 0.316855 19.434959 377.818054
0.800000 -1.040000 -8.920000 -7.493657 29.058441 900.547913
0.800000 -1.040000 -8.880000 -23.018026 29.718954 1413.045776
0.800000 -1.040000 -8.840000 -35.619858 17.920740 1589.927246
0.800000 -1.040000 -8.800000 -36.374893 0.712324 1323.640259
0.800000 -1.000000 -9.200000 -3.811194 4.284161 32.879230
0.800000 -1.000000 -9.160000 -9.273397 8.534455 158.832825
0.800000 -1.000000 -9.120000 -15.598328 6.160102 281.254700
0.800000 -1.000000 -9.080000 -16.287584 -0.360561 265.415405
0.800000 -1.000000 -9.040000 -10.236864 -3.391150 116.293289
0.800000 -1.000000 -9.000000 -4.325603 2.259068 23.814226
0.800000 -1.000000 -8.960000 -7.452583 12.757002 218.282104
0.800000 -1.000000 -8.920000 -21.101673 17.345455 746.145386
0.800000 -1.000000 -8.880000 -36.183746 8.239165 1377.147339
0.800000 -1.000000 -8.840000 -40.319550 -11.168213 1750.395142
0.800000 -1.000000 -8.800000 -29.029663 -28.339008 1645.820679
0.800000 -0.960000 -9.200000 -10.247748 -5.285398 132.951782
0.800000 -0.960000 -9.160000 -14.027296 -5.405057 225.979675
0.800000 -0.960000 -9.120000 -16.603735 -10.795317 392.222900
0.800000 -0.960000 -9.080000 -12.506060 -17.711752 470.107666
0.800000 -0.960000 -9.040000 -2.938850 -18.244493 341.498383
0.800000 -0.960000 -9.000000 3.151156 -9.332872 97.032295
0.800000 -0.960000 -8.960000 -2.390334 1.684964 8.552801
0.800000 -0.960000 -8.920000 -17.079758 2.594957 298.451904
0.800000 -0.960000 -8.880000 -27.930668 -11.402147 910.131165
0.800000 -0.960000 -8.840000 -22.964991 -31.303410 1507.294189
0.800000 -0.960000 -8.800000 -3.096938 -41.382751 1722.123169
0.800000 -0.920000 -9.200000 -4.435215 -13.451727 200.620102
0.800000 -0.920000 -9.160000 -7.990841 -13.200202 238.098877
0.800000 -0.920000 -9.120000 -9.597218 -20.505459 512.580444
0.800000 -0.920000 -9.080000 -1.472380 -28.820997 832.817810
0.800000 -0.920000 -9.040000 13.034167 -27.012781 899.579895
0.800000 -0.920000 -9.000000 20.891449 -12.980857 604.955261
0.800000 -0.920000 -8.960000 13.265404 1.527215 178.303314
0.800000 -0.920000 -8.920000 -3.295302 1.856263 14.304730
0.800000 -0.920000 -8.880000 -11.682648 -13.709414 324.432251
0.800000 -0.920000 -8.840000 -1.207806 -30.551140 934.830933
0.800000 -0.920000 -8.800000 20.860790 -31.398041 1421.009521
0.800000 -0.880000 -9.200000 3.726504 -10.805278 130.640869
0.800000 -0.880000 -9.160000 -3.886463 -12.155533 162.861572
0.800000 -0.880000 -9.120000 -3.690498 -24.634575 620.482056
0.800000 -0.880000 -9.080000 12.111942 -33.646500 1278.786011
0.800000 -0.880000 -9.040000 32.755920 -24.720558 1684.056396
0.800000 -0.880000 -9.000000 38.976357 -1.027916 1520.213013
0.800000 -0.880000 -8.960000 23.899450 17.856899 890.052612
0.800000 -0.880000 -8.920000 1.747168 15.740142 250.804657
0.800000 -0.880000 -8.880000 -6.000705 -2.914824 44.504654
0.800000 -0.880000 -8.840000 7.346173 -17.135752 347.600220
0.800000 -0.880000 -8.800000 26.865290 -10.934237 841.301331
0.800000 -0.840000 -9.200000 2.398801 -2.775835 13.459508
0.800000 -0.840000 -9.160000 -7.476578 -12.280727 206.715485
0.800000 -0.840000 -9.120000 0.909084 -29.933289 896.828186
0.800000 -0.840000 -9.080000 26.826298 -32.851135 1798.847412
0.800000 -0.840000 -9.040000 48.180725 -10.417717 2429.911133
0.800000 -0.840000 -9.000000 43.813828 22.442343 2423.310303
0.800000 -0.840000 -8.960000 16.051702 39.107475 1787.051758
0.800000 -0.840000 -8.920000 -10.887033 27.958067 900.181030
0.800000 -0.840000 -8.880000 -15.175991 3.704067 244.030807
0.800000 -0.840000 -8.840000 1.317969 -8.429121 72.787125
0.800000 -0.840000 -8.800000 16.739552 1.559055 282.643250
0.800000 -0.800000 -9.200000 -7.941578 -2.462007 69.130135
0.800000 -0.800000 -9.160000 -10.905032 -21.906057 598.795044
0.800000 -0.800000 -9.120000 10.621708 -36.804070 1467.360229
0.800000 -0.800000 -9.080000 41.056602 -25.056475 2313.471680
0.800000 -0.800000 -9.040000 51.859016 10.521118 2800.051514
0.800000 -0.800000 -9.000000 30.295879 42.934319 2761.196045
0.800000 -0.800000 -8.960000 -7.152674 46.841042 2245.243896
0.800000 -0.800000 -8.920000 -30.779720 22.802158 1467.329590
0.800000 -0.800000 -8.880000 -26.209959 -4.771807 709.732117
0.800000 -0.800000 -8.840000 -6.135214 -12.831555 202.289673
0.800000 -0.800000 -8.800000 5.429167 -1.207318 30.933470
0.840000 -1.200000 -9.200000 -24.150185 -28.331573 1385.909424
0.840000 -1.200000 -9.160000 6.466021 -43.426376 1927.659668
0.840000 -1.200000 -9.120000 37.058601 -25.890564 2043.661255
0.840000 -1.200000 -9.080000 40.488918 8.558445 1712.599487
0.840000 -1.200000 -9.040000 16.435097 29.722061 1153.513306
0.840000 -1.200000 -9.000000 -10.673342 22.871883 637.043274
0.840000 -1.200000 -8.960000 -17.772667 0.799082 316.506195
0.840000 -1.200000 -8.920000 -4.926342 -12.586004 182.676346
0.840000 -1.200000 -8.880000 8.844679 -7.549840 135.228424
0.840000 -1.200000 -8.840000 8.465977 4.277979 89.973869
0.840000 -1.200000 -8.800000 -1.748755 6.207646 41.593018
0.840000 -1.160000 -9.200000 -0.158165 -36.328709 1319.800049
0.840000 -1.160000 -9.160000 32.771423 -32.798412 2149.702148
0.840000 -1.160000 -9.120000 51.338608 -4.155363 2652.919678
0.840000 -1.160000 -9.080000 42.031601 27.185659 2505.715576
0.840000 -1.160000 -9.040000 15.770451 38.983471 1768.418213
0.840000 -1.160000 -9.000000 -4.872602 28.795826 852.941833
0.840000 -1.160000 -8.960000 -7.651779 12.594397 217.168549
0.840000 -1.160000 -8.920000 0.656693 6.301514 40.140324
0.840000 -1.160000 -8.880000 5.544850 10.856607 148.611298
0.840000 -1.160000 -8.840000 1.486629 15.374087 238.572632
0.840000 -1.160000 -8.800000 -4.200983 12.168642 165.724106
0.840000 -1.120000 -9.200000 18.360376 -22.578350 846.885315
0.840000 -1.120000 -9.160000 41.162125 -5.784074 1727.776123
0.840000 -1.120000 -9.120000 45.296490 23.484566 2603.296875
0.840000 -1.120000 -9.080000 28.685202 46.707352 3004.417480
0.840000 -1.120000 -9.040000 4.004069 52.153614 2736.031982
0.840000 -1.120000 -9.000000 -13.826305 42.765953 2020.093506
0.840000 -1.120000 -8.960000 -19.700806 30.040205 1290.535645
0.840000 -1.120000 -8.920000 -18.902195 22.081411 844.881714
0.840000 -1.120000 -8.880000 -18.236204 18.329130 668.516113
0.840000 -1.120000 -8.840000 -18.727180 14.437455 559.147400
0.840000 -1.120000 -8.800000 -17.179321 9.631577 387.896362
0.840000 -1.080000 -9.200000 16.933510 -3.072985 296.186981
0.840000 -1.080000 -9.160000 26.869194 15.919712 975.390869
0.840000 -1.080000 -9.120000 21.740030 38.929050 1988.099854
0.840000 -1.080000 -9.080000 2.816751 54.384277 2965.583740
0.840000 -1.080000 -9.040000 -21.012035 55.670296 3540.687500
0.840000 -1.080000 -9.000000 -39.908234 44.375923 3561.889648
0.840000 -1.080000 -8.960000 -48.860878 27.284885 3131.850586
0.840000 -1.080000 -8.920000 -48.511440 11.049727 2475.456299
0.840000 -1.080000 -8.880000 -42.275978 -0.726092 1787.785522
0.840000 -1.080000 -8.840000 -33.629505 -7.063347 1180.834473
0.840000 -1.080000 -8.800000 -25.464224 -8.341164 718.001709
0.840000 -1.040000 -9.200000 2.201214 3.092485 14.408810
0.840000 -1.040000 -9.160000 4.896381 17.808874 341.130554
0.840000 -1.040000 -9.120000 -3.780300 34.293045 1190.303589
0.840000 -1.040000 -9.080000 -23.632458 43.444565 2445.923340
0.840000 -1.040000 -9.040000 -47.282082 38.502834 3718.063477
0.840000 -1.040000 -9.000000 -64.325836 19.995600 4537.637207
0.840000 -1.040000 -8.960000 -67.804062 -4.443514 4617.135254
0.840000 -1.040000 -8.920000 -58.026970 -25.030682 3993.664062
0.840000 -1.040000 -8.880000 -41.347610 -35.546577 2973.184082
0.840000 -1.040000 -8.840000 -25.484112 -35.877914 1936.664673
0.840000 -1.040000 -8.800000 -15.177988 -30.403589 1154.749512
0.840000 -1.000000 -9.200000 -7.220539 -6.905171 99.817566
0.840000 -1.000000 -9.160000 -6.413071 4.780743 63.982986
0.840000 -1.000000 -9.120000 -17.213676 16.696829 575.094727
0.840000 -1.000000 -9.080000 -37.447372 18.282951 1736.572021
0.840000 -1.000000 -9.040000 -56.514225 4.215672 3211.629639
0.840000 -1.000000 -9.000000 -63.035965 -20.617296 4398.605957
0.840000 -1.000000 -8.960000 -53.208748 -44.547691 4815.667969
0.840000 -1.000000 -8.920000 -32.742702 -57.570282 4386.421875
0.840000 -1.000000 -8.880000 -11.592462 -57.352905 3423.740967
0.840000 -1.000000 -8.840000 3.139926 -48.570526 2368.955078
0.840000 -1.000000 -8.800000 10.236297 -37.678936 1524.484009
0.840000 -0.960000 -9.200000 -1.169312 -18.759563 353.288513
0.840000 -0.960000 -9.160000 -2.854953 -6.954012 56.509037
0.840000 -0.960000 -9.120000 -16.425098 -0.704273 270.279846
0.840000 -0.960000 -9.080000 -32.886467 -8.827005 1159.435669
0.840000 -0.960000 -9.040000 -39.439560 -29.031197 2398.289307
0.840000 -0.960000 -9.000000 -30.254105 -49.863869 3401.716309
0.840000 -0.960000 -8.960000 -10.338961 -60.358150 3750.000488
0.840000 -0.960000 -8.920000 10.023450 -57.782097 3439.240234
0.840000 -0.960000 -8.880000 23.736288 -47.104919 2782.284912
0.840000 -0.960000 -8.840000 30.175207 -34.623791 2109.350098
0.840000 -0.960000 -8.800000 31.979527 -23.132153 1557.786621
0.840000 -0.920000 -9.200000 12.424667 -17.987688 477.929260
0.840000 -0.920000 -9.160000 4.727710 -7.826408 83.603905
0.840000 -0.920000 -9.120000 -8.886279 -10.725452 194.001282
0.840000 -0.920000 -9.080000 -14.325482 -26.048180 883.727173
0.840000 -0.920000 -9.040000 -4.747782 -41.745506 1765.228638
0.840000 -0.920000 -9.000000 13.819061 -46.113441 2317.416016
0.840000 -0.920000 -8.960000 29.533962 -37.858124 2305.492432
0.840000 -0.920000 -8.920000 35.985710 -24.805630 1910.290527
0.840000 -0.920000 -8.880000 35.864761 -14.421333 1494.255981
0.840000 -0.920000 -8.840000 34.821800 -7.174185 1264.026611
0.840000 -0.920000 -8.800000 33.885849 0.810816 1148.908203
0.840000 -0.880000 -9.200000 17.783514 -5.490591 346.399933
0.840000 -0.880000 -9.160000 4.953744 -3.189898 34.715027
0.840000 -0.880000 -9.120000 -1.505392 -15.277020 235.653534
0.840000 -0.880000 -9.080000 8.075188 -28.549290 880.270630
0.840000 -0.880000 -9.040000 26.952408 -28.316738 1528.270020
0.840000 -0.880000 -9.000000 39.508949 -13.194423 1735.049805
0.840000 -0.880000 -8.960000 37.228729 4.701750 1408.084717
0.840000 -0.880000 -8.920000 25.946701 13.139408 845.875366
0.840000 -0.880000 -8.880000 17.660507 11.675802 448.217896
0.840000 -0.880000 -8.840000 17.069893 9.684557 385.171906
0.840000 -0.880000 -8.800000 17.804068 14.115004 516.218140
0.840000 -0.840000 -9.200000 9.056108 4.494462 102.213272
0.840000 -0.840000 -9.160000 -1.196801 -4.510192 21.774168
0.840000 -0.840000 -9.120000 5.531451 -18.683542 379.671692
0.840000 -0.840000 -9.080000 25.198479 -19.230833 1004.788269
0.840000 -0.840000 -9.040000 39.049561 -0.672410 1525.320312
0.840000 -0.840000 -9.000000 32.982643 23.279634 1629.796143
0.840000 -0.840000 -8.960000 11.647876 33.807285 1278.605469
0.840000 -0.840000 -8.920000 -7.149945 25.589882 705.963745
0.840000 -0.840000 -8.880000 -10.862760 10.510504 228.470230
0.840000 -0.840000 -8.840000 -3.531265 3.722418 26.326229
0.840000 -0.840000 -8.800000 1.017553 8.024541 65.428673
0.840000 -0.800000 -9.200000 -3.739543 0.521896 14.256557
0.840000 -0.800000 -9.160000 -2.701130 -14.797150 226.251755
0.840000 -0.800000 -9.120000 15.461254 -20.496208 659.144897
0.840000 -0.800000 -9.080000 33.113071 -4.749865 1119.036621
0.840000 -0.800000 -9.040000 30.598993 22.528435 1443.828735
0.840000 -0.800000 -9.000000 6.345473 38.864933 1550.748047
0.840000 -0.800000 -8.960000 -21.389927 31.113079 1425.552612
0.840000 -0.800000 -8.920000 -32.413467 7.433091 1105.883667
0.840000 -0.800000 -8.880000 -23.182045 -12.114534 684.169189
0.840000 -0.800000 -8.840000 -7.572174 -15.425060 295.270294
0.840000 -0.800000 -8.800000 -0.834536 -7.924767 63.498375
0.880000 -1.200000 -9.200000 11.502832 -35.053108 1361.035522
0.880000 -1.200000 -9.160000 43.068501 -19.303741 2227.530273
0.880000 -1.200000 -9.120000 48.327698 18.050419 2661.384033
0.880000 -1.200000 -9.080000 21.544903 44.370220 2432.899170
0.880000 -1.200000 -9.040000 -12.539457 38.950706 1674.395630
0.880000 -1.200000 -9.000000 -25.050838 12.512423 784.105225
0.880000 -1.200000 -8.960000 -11.693035 -6.402961 177.724976
0.880000 -1.200000 -8.920000 6.014767 -2.009687 40.216263
0.880000 -1.200000 -8.880000 6.223470 14.308493 243.464539
0.880000 -1.200000 -8.840000 -9.986286 19.590099 483.497925
0.880000 -1.200000 -8.800000 -22.219276 5.825547 527.633240
0.880000 -1.160000 -9.200000 27.253246 -21.279087 1195.539062
0.880000 -1.160000 -9.160000 48.232613 4.089075 2343.105469
0.880000 -1.160000 -9.120000 42.272785 38.373184 3259.489746
0.880000 -1.160000 -9.080000 14.114278 56.742058 3418.874023
0.880000 -1.160000 -9.040000 -14.414595 50.433769 2751.345703
0.880000 -1.160000 -9.000000 -26.383205 31.828663 1709.137329
0.880000 -1.160000 -8.960000 -23.696728 18.676046 910.329590
0.880000 -1.160000 -8.920000 -20.043476 16.080399 660.320190
0.880000 -1.160000 -8.880000 -23.298887 15.144585 772.196594
0.880000 -1.160000 -8.840000 -27.780418 7.197089 823.549744
0.880000 -1.160000 -8.800000 -23.747540 -4.389884 583.216675
0.880000 -1.120000 -9.200000 25.285940 -1.813306 642.666870
0.880000 -1.120000 -9.160000 35.601864 24.516281 1868.540771
0.880000 -1.120000 -9.120000 24.010986 53.995705 3492.063477
0.880000 -1.120000 -9.080000 -4.951120 69.876404 4907.225586
0.880000 -1.120000 -9.040000 -36.810093 65.209549 5607.268066
0.880000 -1.120000 -9.000000 -58.572868 45.194702 5473.342285
0.880000 -1.120000 -8.960000 -65.788483 20.278645 4739.348145
0.880000 -1.120000 -8.920000 -61.068054 -1.485802 3731.514648
0.880000 -1.120000 -8.880000 -48.939137 -16.377758 2663.270020
0.880000 -1.120000 -8.840000 -33.508804 -22.754852 1640.623291
0.880000 -1.120000 -8.800000 -19.573221 -20.172800 790.052856
0.880000 -1.080000 -9.200000 10.001999 5.362458 128.795944
0.880000 -1.080000 -9.160000 14.700023 29.475054 1084.869507
0.880000 -1.080000 -9.120000 -0.993746 56.878967 3236.204590
0.880000 -1.080000 -9.080000 -36.378723 70.429504 6283.726562
0.880000 -1.080000 -9.040000 -77.103485 57.799000 9285.671875
0.880000 -1.080000 -9.000000 -103.167160 20.939007 11081.905273
0.880000 -1.080000 -8.960000 -101.716949 -24.051645 10924.819336
0.880000 -1.080000 -8.920000 -75.251610 -56.915989 8902.234375
0.880000 -1.080000 -8.880000 -39.348171 -65.817657 5880.242188
0.880000 -1.080000 -8.840000 -11.954920 -53.566963 3012.339600
0.880000 -1.080000 -8.800000 -2.302561 -33.700775 1141.043945
0.880000 -1.040000 -9.200000 -0.953230 -4.300531 19.403217
0.880000 -1.040000 -9.160000 0.517659 20.090263 403.886658
0.880000 -1.040000 -9.120000 -22.753174 45.427292 2581.345703
0.880000 -1.040000 -9.080000 -66.891388 48.352943 6812.464844
0.880000 -1.040000 -9.040000 -108.094238 15.828642 11934.910156
0.880000 -1.040000 -9.000000 -118.779510 -41.010334 15790.419922
0.880000 -1.040000 -8.960000 -89.305298 -92.469124 16525.974609
0.880000 -1.040000 -8.920000 -36.202572 -111.845245 13819.985352
0.880000 -1.040000 -8.880000 10.563031 -94.684067 9076.649414
0.880000 -1.040000 -8.840000 30.065834 -59.665890 4463.972656
0.880000 -1.040000 -8.800000 23.505676 -31.696104 1557.159912
0.880000 -1.000000 -9.200000 4.477358 -17.638567 331.165771
0.880000 -1.000000 -9.160000 -0.539824 8.605774 74.350754
0.880000 -1.000000 -9.120000 -33.371284 25.574100 1767.677246
0.880000 -1.000000 -9.080000 -77.921127 8.927059 6151.394531
0.880000 -1.000000 -9.040000 -101.361343 -42.824966 12108.099609
0.880000 -1.000000 -9.000000 -80.800507 -102.438416 17022.351562
0.880000 -1.000000 -8.960000 -23.732735 -133.676727 18432.708984
0.880000 -1.000000 -8.920000 36.967480 -119.758377 15708.664062
0.880000 -1.000000 -8.880000 69.092560 -75.154160 10421.929688
0.880000 -1.000000 -8.840000 64.689636 -31.226536 5159.845703
0.880000 -1.000000 -8.800000 41.319260 -10.286846 1813.100464
0.880000 -0.960000 -9.200000 20.427582 -18.190290 748.172729
0.880000 -0.960000 -9.160000 4.910438 5.374149 52.993881
0.880000 -0.960000 -9.120000 -31.681965 6.254520 1042.865967
0.880000 -0.960000 -9.080000 -61.443111 -28.524755 4588.917480
0.880000 -0.960000 -9.040000 -54.997139 -82.197601 9781.130859
0.880000 -0.960000 -9.000000 -8.004041 -119.081696 14244.514648
0.880000 -0.960000 -8.960000 53.262062 -113.400589 15696.541016
0.880000 -0.960000 -8.920000 92.877632 -69.897186 13511.871094
0.880000 -0.960000 -8.880000 93.408501 -18.021280 9049.915039
0.880000 -0.960000 -8.840000 66.212936 13.450973 4565.081543
0.880000 -0.960000 -8.800000 37.015541 17.400471 1672.926636
0.880000 -0.920000 -9.200000 29.957649 -3.464712 909.464966
0.880000 -0.920000 -9.160000 6.092893 9.290192 123.431015
0.880000 -0.920000 -9.120000 -22.357679 -6.549478 542.761475
0.880000 -0.920000 -9.080000 -27.579733 -45.283939 2811.276855
0.880000 -0.920000 -9.040000 2.491226 -79.066727 6257.753418
0.880000 -0.920000 -9.000000 51.910515 -80.720268 9210.462891
0.880000 -0.920000 -8.960000 89.248711 -46.593254 10136.263672
0.880000 -0.920000 -8.920000 93.170288 1.357265 8682.543945
0.880000 -0.920000 -8.880000 67.663475 35.003403 5803.583984
0.880000 -0.920000 -8.840000 34.670822 41.954597 2962.254150
0.880000 -0.920000 -8.800000 13.612819 30.788897 1133.265015
0.880000 -0.880000 -9.200000 23.066296 13.106989 703.847168
0.880000 -0.880000 -9.160000 0.034568 11.033237 121.733528
0.880000 -0.880000 -9.120000 -11.123600 -12.133834 270.964386
0.880000 -0.880000 -9.080000 3.654612 -37.594749 1426.721436
0.880000 -0.880000 -9.040000 36.543819 -42.364288 3130.183594
0.880000 -0.880000 -9.000000 64.061272 -19.437504 4481.663086
0.880000 -0.880000 -8.960000 67.052467 16.683640 4774.376953
0.880000 -0.880000 -8.920000 45.642082 43.261894 3954.791260
0.880000 -0.880000 -8.880000 16.357805 47.947830 2566.572266
0.880000 -0.880000 -8.840000 -3.690325 35.746246 1291.412598
0.880000 -0.880000 -8.800000 -9.577444 20.327860 504.949341
0.880000 -0.840000 -9.200000 6.517832 16.740240 322.717773
0.880000 -0.840000 -9.160000 -6.079592 4.574780 57.890053
0.880000 -0.840000 -9.120000 -0.932582 -12.736009 163.075623
0.880000 -0.840000 -9.080000 18.434221 -17.406555 642.808716
0.880000 -0.840000 -9.040000 35.104740 -2.727648 1239.782837
0.880000 -0.840000 -9.000000 34.314457 21.090527 1622.292236
0.880000 -0.840000 -8.960000 16.091064 36.759979 1610.218384
0.880000 -0.840000 -8.920000 -6.377090 34.997459 1265.489380
0.880000 -0.840000 -8.880000 -19.477808 20.581459 802.981445
0.880000 -0.840000 -8.840000 -19.835169 5.285025 421.365417
0.880000 -0.840000 -8.800000 -13.688604 -3.415720 199.045029
0.880000 -0.800000 -9.200000 -4.133595 6.203847 55.574326
0.880000 -0.800000 -9.160000 -3.728348 -5.838035 47.983231
0.880000 -0.800000 -9.120000 7.832446 -9.894598 159.250275
0.880000 -0.800000 -9.080000 17.695707 0.012558 313.138214
0.880000 -0.800000 -9.040000 14.137433 15.852943 451.182831
0.880000 -0.800000 -9.000000 -2.201490 23.491322 556.688721
0.880000 -0.800000 -8.960000 -19.384501 15.912633 628.970703
0.880000 -0.800000 -8.920000 -25.551386 -1.234142 654.396423
0.880000 -0.800000 -8.880000 -18.777540 -16.136230 612.973938
0.880000 -0.800000 -8.840000 -6.504650 -21.600792 508.904694
0.880000 -0.800000 -8.800000 3.070856 -19.393370 385.532928
0.920000 -1.200000 -9.200000 37.968483 -10.484159 1551.523315
0.920000 -1.200000 -9.160000 45.657768 26.747782 2800.075684
0.920000 -1.200000 -9.120000 17.194660 57.381268 3588.266113
0.920000 -1.200000 -9.080000 -24.790319 53.109730 3435.203125
0.920000 -1.200000 -9.040000 -44.692497 19.582373 2380.888672
0.920000 -1.200000 -9.000000 -30.249744 -10.236420 1019.831360
0.920000 -1.200000 -8.960000 -3.523384 -10.799438 129.042099
0.920000 -1.200000 -8.920000 4.212553 10.654831 131.271027
0.920000 -1.200000 -8.880000 -14.303417 24.452297 802.502563
0.920000 -1.200000 -8.840000 -36.559792 11.803368 1475.937866
0.920000 -1.200000 -8.800000 -36.582062 -15.624992 1582.387573
0.920000 -1.160000 -9.200000 31.446220 8.728685 1065.054810
0.920000 -1.160000 -9.160000 28.239361 40.271076 2419.220947
0.920000 -1.160000 -9.120000 0.356190 60.193291 3623.359131
0.920000 -1.160000 -9.080000 -32.336311 54.311562 3995.382812
0.920000 -1.160000 -9.040000 -48.994823 31.436127 3388.722656
0.920000 -1.160000 -9.000000 -47.051750 11.389721 2343.593018
0.920000 -1.160000 -8.960000 -40.372330 3.803055 1644.388306
0.920000 -1.160000 -8.920000 -40.709904 1.058590 1658.416870
0.920000 -1.160000 -8.880000 -44.515652 -8.594330 2055.505615
0.920000 -1.160000 -8.840000 -39.520157 -24.613348 2167.659668
0.920000 -1.160000 -8.800000 -22.000587 -33.958427 1637.200684
0.920000 -1.120000 -9.200000 13.611958 14.231521 387.821564
0.920000 -1.120000 -9.160000 8.977346 40.081551 1687.123413
0.920000 -1.120000 -9.120000 -15.927542 59.483833 3792.012939
0.920000 -1.120000 -9.080000 -51.159714 59.296661 6133.410156
0.920000 -1.120000 -9.040000 -81.156059 37.705338 8007.998535
0.920000 -1.120000 -9.000000 -94.443565 3.237198 8930.066406
0.920000 -1.120000 -8.960000 -88.024536 -31.834587 8761.759766
0.920000 -1.120000 -8.920000 -66.013084 -57.176449 7626.874023
0.920000 -1.120000 -8.880000 -36.682140 -66.738037 5799.545410
0.920000 -1.120000 -8.840000 -10.210140 -59.817783 3682.414307
0.920000 -1.120000 -8.800000 4.313877 -42.124336 1793.069214
0.920000 -1.080000 -9.200000 1.719278 2.791044 10.745846
0.920000 -1.080000 -9.160000 -2.176908 30.695061 946.925720
0.920000 -1.080000 -9.120000 -33.450607 54.130058 4049.006348
0.920000 -1.080000 -9.080000 -82.989311 49.434151 9330.960938
0.920000 -1.080000 -9.040000 -123.704025 7.221420 15354.833984
0.920000 -1.080000 -9.000000 -128.504898 -57.001945 19762.730469
0.920000 -1.080000 -8.960000 -90.649727 -111.184692 20579.410156
0.920000 -1.080000 -8.920000 -29.698151 -128.617920 17424.548828
0.920000 -1.080000 -8.880000 22.236395 -106.115273 11754.908203
0.920000 -1.080000 -8.840000 42.898415 -64.315750 5976.789551
0.920000 -1.080000 -8.800000 33.249027 -30.804743 2054.429932
0.920000 -1.040000 -9.200000 7.478806 -11.970494 199.225281
0.920000 -1.040000 -9.160000 -3.385439 22.021635 496.413635
0.920000 -1.040000 -9.120000 -49.896950 40.420204 4123.498535
0.920000 -1.040000 -9.080000 -108.503639 12.878855 11938.905273
0.920000 -1.040000 -9.040000 -135.564545 -59.789356 21952.513672
0.920000 -1.040000 -9.000000 -102.440933 -139.379684 29920.841797
0.920000 -1.040000 -8.960000 -21.713480 -177.274750 31897.810547
0.920000 -1.040000 -8.920000 60.412365 -152.443817 26888.771484
0.920000 -1.040000 -8.880000 99.797340 -86.941383 17518.312500
0.920000 -1.040000 -8.840000 86.814514 -25.868019 8205.914062
0.920000 -1.040000 -8.800000 48.190647 -0.951466 2323.243652
0.920000 -1.000000 -9.200000 24.930656 -12.928305 788.678711
0.920000 -1.000000 -9.160000 -1.263992 20.172045 408.509064
0.920000 -1.000000 -9.120000 -58.414993 18.393826 3750.644287
0.920000 -1.000000 -9.080000 -104.237465 -38.357712 12336.763672
0.920000 -1.000000 -9.040000 -92.679596 -124.472794 24082.984375
0.920000 -1.000000 -9.000000 -16.124317 -183.241074 33837.285156
0.920000 -1.000000 -8.960000 83.201614 -172.228119 36585.035156
0.920000 -1.000000 -8.920000 145.485046 -98.781830 30923.748047
0.920000 -1.000000 -8.880000 140.786331 -12.969664 19989.003906
0.920000 -1.000000 -8.840000 89.100807 34.727219 9144.933594
0.920000 -1.000000 -8.800000 37.353775 31.639095 2396.336914
0.920000 -0.960000 -9.200000 36.314568 3.414618 1330.407471
0.920000 -0.960000 -9.160000 -3.390032 22.618504 523.089050
0.920000 -0.960000 -9.120000 -53.720802 -5.070326 2911.632812
0.920000 -0.960000 -9.080000 -66.598175 -75.604691 10151.386719
0.920000 -0.960000 -9.040000 -14.978376 -142.521301 20536.673828
0.920000 -0.960000 -9.000000 77.949806 -152.741272 29406.068359
0.920000 -0.960000 -8.960000 153.565857 -92.375229 32115.656250
0.920000 -0.960000 -8.920000 165.178146 0.318869 27283.921875
0.920000 -0.960000 -8.880000 114.780411 67.151810 17683.908203
0.920000 -0.960000 -8.840000 46.563034 77.091354 8111.193359
0.920000 -0.960000 -8.800000 6.136265 45.556900 2113.084961
0.920000 -0.920000 -9.200000 29.775265 23.756737 1450.948975
0.920000 -0.920000 -9.160000 -10.720797 22.120815 604.265930
0.920000 -0.920000 -9.120000 -37.934219 -20.590019 1862.953857
0.920000 -0.920000 -9.080000 -17.414711 -78.659470 6490.583984
0.920000 -0.920000 -9.040000 49.282509 -104.727814 13396.680664
0.920000 -0.920000 -9.000000 120.194016 -70.454994 19410.507812
0.920000 -0.920000 -8.960000 145.940582 6.851334 21345.595703
0.920000 -0.920000 -8.920000 110.614304 77.457741 18235.226562
0.920000 -0.920000 -8.880000 43.100571 100.300850 11917.919922
0.920000 -0.920000 -8.840000 -10.176548 73.976875 5576.140137
0.920000 -0.920000 -8.800000 -23.886164 31.051201 1534.725830
0.920000 -0.880000 -9.200000 10.480100 31.683599 1113.682983
0.920000 -0.880000 -9.160000 -17.335709 14.861532 521.391968
0.920000 -0.880000 -9.120000 -19.604103 -23.743820 948.089844
0.920000 -0.880000 -9.080000 15.084528 -53.132652 3050.621826
0.920000 -0.880000 -9.040000 66.140434 -43.873207 6299.415527
0.920000 -0.880000 -9.000000 95.566956 4.556072 9153.800781
0.920000 -0.880000 -8.960000 79.761101 61.085724 10093.298828
0.920000 -0.880000 -8.920000 29.346085 88.404526 8676.552734
0.920000 -0.880000 -8.880000 -20.943386 73.074394 5778.492676
0.920000 -0.880000 -8.840000 -41.872906 33.303741 2862.479492
0.920000 -0.880000 -8.800000 -31.040625 -0.409904 963.688416
0.920000 -0.840000 -9.200000 -5.792280 23.473898 584.574402
0.920000 -0.840000 -9.160000 -17.166281 4.399126 314.033508
0.920000 -0.840000 -9.120000 -6.812586 -17.930529 367.915161
0.920000 -0.840000 -9.080000 20.153923 -22.878122 929.589111
0.920000 -0.840000 -9.040000 42.555294 -2.377335 1816.604736
0.920000 -0.840000 -9.000000 40.700264 30.468651 2584.850098
0.920000 -0.840000 -8.960000 13.513382 51.552856 2840.308594
0.920000 -0.840000 -8.920000 -20.427494 45.700336 2505.803223
0.920000 -0.840000 -8.880000 -38.646645 18.375284 1831.214111
0.920000 -0.840000 -8.840000 -32.491295 -10.664661 1169.419189
0.920000 -0.840000 -8.800000 -11.364851 -24.521143 730.446289
0.920000 -0.800000 -9.200000 -8.842447 9.920863 176.612396
0.920000 -0.800000 -9.160000 -10.376027 -2.216287 112.573868
0.920000 -0.800000 -9.120000 -1.579723 -10.105531 104.617279
0.920000 -0.800000 -9.080000 9.519926 -6.867966 137.797943
0.920000 -0.800000 -9.040000 12.429977 4.669930 176.312576
0.920000 -0.800000 -9.000000 3.419949 14.016426 208.156250
0.920000 -0.800000 -8.960000 -10.998169 11.871536 261.893097
0.920000 -0.800000 -8.920000 -19.351303 -2.036991 378.622253
0.920000 -0.800000 -8.880000 -14.492975 -18.829311 564.589294
0.920000 -0.800000 -8.840000 1.170349 -27.718771 769.699951
0.920000 -0.800000 -8.800000 18.381847 -23.999039 913.846191
0.960000 -1.200000 -9.200000 34.160110 24.706228 1777.310913
0.960000 -1.200000 -9.160000 9.760021 57.259335 3373.889404
0.960000 -1.200000 -9.120000 -36.016434 56.960098 4541.636230
0.960000 -1.200000 -9.080000 -64.481407 19.553911 4540.207520
0.960000 -1.200000 -9.040000 -52.267109 -22.960707 3259.044678
0.960000 -1.200000 -9.000000 -15.448353 -34.522255 1430.437744
0.960000 -1.200000 -8.960000 7.481499 -11.520279 188.689651
0.960000 -1.200000 -8.920000 -4.408627 14.997623 244.364700
0.960000 -1.200000 -8.880000 -34.091217 13.164059 1335.503540
0.960000 -1.200000 -8.840000 -46.622078 -16.577362 2448.427002
0.960000 -1.200000 -8.800000 -26.884514 -43.878483 2648.098389
0.960000 -1.160000 -9.200000 10.817999 28.572611 933.423218
0.960000 -1.160000 -9.160000 -12.180136 46.791821 2337.830078
0.960000 -1.160000 -9.120000 -44.370621 41.168175 3663.570557
0.960000 -1.160000 -9.080000 -62.539680 14.836706 4131.339355
0.960000 -1.160000 -9.040000 -58.232086 -11.788456 3529.943604
0.960000 -1.160000 -9.000000 -43.952095 -23.137207 2467.116943
0.960000 -1.160000 -8.960000 -36.748260 -23.198380 1888.599487
0.960000 -1.160000 -8.920000 -38.725834 -27.312191 2245.645996
0.960000 -1.160000 -8.880000 -36.570759 -41.758945 3081.229980
0.960000 -1.160000 -8.840000 -19.662539 -55.311386 3445.964844
0.960000 -1.160000 -8.800000 4.940614 -52.478207 2778.371826
0.960000 -1.120000 -9.200000 -3.808292 13.013043 183.842392
0.960000 -1.120000 -9.160000 -18.203737 30.151524 1240.490479
0.960000 -1.120000 -9.120000 -47.033569 33.641670 3343.918701
0.960000 -1.120000 -9.080000 -76.395981 15.684151 6082.338379
0.960000 -1.120000 -9.040000 -91.365067 -19.272320 8718.997070
0.960000 -1.120000 -9.000000 -84.365158 -58.487705 10538.291992
0.960000 -1.120000 -8.960000 -57.488838 -88.219994 11087.733398
0.960000 -1.120000 -8.920000 -20.068512 -99.183182 10240.048828
0.960000 -1.120000 -8.880000 15.163280 -89.224442 8190.926270
0.960000 -1.120000 -8.840000 36.459076 -64.274612 5460.489746
0.960000 -1.120000 -8.800000 38.310730 -36.855728 2826.056641
0.960000 -1.080000 -9.200000 2.682684 -5.602226 38.581734
0.960000 -1.080000 -9.160000 -12.675739 21.646271 629.235413
0.960000 -1.080000 -9.120000 -55.857758 29.607277 3996.679932
0.960000 -1.080000 -9.080000 -102.627762 -2.894653 10540.835938
0.960000 -1.080000 -9.040000 -117.495834 -69.462914 18630.367188
0.960000 -1.080000 -9.000000 -81.226471 -136.057587 25109.406250
0.960000 -1.080000 -8.960000 -7.897591 -164.227936 27033.185547
0.960000 -1.080000 -8.920000 63.778744 -139.373138 23492.599609
0.960000 -1.080000 -8.880000 98.367340 -80.724701 16192.611328
0.960000 -1.080000 -8.840000 87.941643 -25.367434 8377.239258
0.960000 -1.080000 -8.800000 53.695580 -0.475960 2883.441895
0.960000 -1.040000 -9.200000 22.835938 -7.851448 583.125305
0.960000 -1.040000 -9.160000 -8.689795 24.599672 680.656372
0.960000 -1.040000 -9.120000 -69.737747 16.621958 5139.643066
0.960000 -1.040000 -9.080000 -113.731064 -48.872139 15323.241211
0.960000 -1.040000 -9.040000 -94.235062 -141.008453 28763.632812
0.960000 -1.040000 -9.000000 -7.344658 -199.349854 39794.308594
0.960000 -1.040000 -8.960000 99.573051 -181.664108 42916.640625
0.960000 -1.040000 -8.920000 163.411652 -98.969757 36498.378906
0.960000 -1.040000 -8.880000 154.474609 -6.015236 23898.587891
0.960000 -1.040000 -8.840000 96.004768 43.713074 11127.749023
0.960000 -1.040000 -8.800000 39.122368 37.641617 2947.451172
0.960000 -1.000000 -9.200000 36.272144 10.166090 1419.017822
0.960000 -1.000000 -9.160000 -14.623417 30.107132 1120.283691
0.960000 -1.000000 -9.120000 -75.498184 -8.970203 5780.439941
0.960000 -1.000000 -9.080000 -86.918808 -99.329193 17421.167969
0.960000 -1.000000 -9.040000 -17.430792 -181.614410 33287.625000
0.960000 -1.000000 -9.000000 101.429398 -190.220184 46471.640625
0.960000 -1.000000 -8.960000 195.049225 -110.064735 50158.445312
0.960000 -1.000000 -8.920000 205.623230 8.374247 42351.042969
0.960000 -1.000000 -8.880000 137.954926 90.708870 27259.660156
0.960000 -1.000000 -8.840000 50.279266 98.586182 12247.240234
0.960000 -1.000000 -8.800000 1.550560 53.862663 2903.590820
0.960000 -0.960000 -9.200000 29.204956 33.488708 1974.423096
0.960000 -0.960000 -9.160000 -26.792210 27.495424 1473.820801
0.960000 -0.960000 -9.120000 -62.879219 -35.874077 5240.745605
0.960000 -0.960000 -9.080000 -30.212822 -120.152023 15349.323242
0.960000 -0.960000 -9.040000 69.028130 -157.197540 29475.949219
0.960000 -0.960000 -9.000000 173.803345 -105.647354 41368.968750
0.960000 -0.960000 -8.960000 211.380646 9.116076 44764.878906
0.960000 -0.960000 -8.920000 158.122345 113.153503 37806.390625
0.960000 -0.960000 -8.880000 57.594948 144.916183 24317.878906
0.960000 -0.960000 -8.840000 -19.645344 102.768112 10947.224609
0.960000 -0.960000 -8.800000 -35.130131 37.407486 2633.446045
0.960000 -0.920000 -9.200000 6.861358 43.304657 1922.371582
0.960000 -0.920000 -9.160000 -34.648613 15.178665 1430.918213
0.960000 -0.920000 -9.120000 -36.574463 -48.431797 3683.330078
0.960000 -0.920000 -9.080000 22.625963 -98.713631 10256.315430
0.960000 -0.920000 -9.040000 111.786743 -84.887131 19702.101562
0.960000 -0.920000 -9.000000 166.697205 -2.315666 27793.322266
0.960000 -0.920000 -8.960000 143.708694 97.825989 30222.113281
0.960000 -0.920000 -8.920000 57.918129 149.388062 25671.302734
0.960000 -0.920000 -8.880000 -30.275055 125.643509 16702.869141
0.960000 -0.920000 -8.840000 -67.041428 57.299721 7777.811523
0.960000 -0.920000 -8.800000 -46.471897 0.052446 2159.639893
0.960000 -0.880000 -9.200000 -13.233990 34.619652 1373.658691
0.960000 -0.880000 -9.160000 -32.103569 1.271727 1032.256470
0.960000 -0.880000 -9.120000 -12.392288 -41.944885 1912.942261
0.960000 -0.880000 -9.080000 42.921577 -55.183849 4887.519043
0.960000 -0.880000 -9.040000 95.293114 -16.087738 9339.592773
0.960000 -0.880000 -9.000000 100.920998 55.336792 13247.208984
0.960000 -0.880000 -8.960000 49.782379 109.696892 14511.693359
0.960000 -0.880000 -8.920000 -23.872818 109.126205 12478.439453
0.960000 -0.880000 -8.880000 -70.301926 58.507484 8365.486328
0.960000 -0.880000 -8.840000 -65.335999 -1.569168 4271.254883
0.960000 -0.880000 -8.800000 -26.016058 -31.593252 1674.968872
0.960000 -0.840000 -9.200000 -19.153599 18.803764 720.441895
0.960000 -0.840000 -9.160000 -23.072464 -5.522946 562.841553
0.960000 -0.840000 -9.120000 -2.383247 -26.396835 702.472778
0.960000 -0.840000 -9.080000 31.267778 -21.751984 1450.822754
0.960000 -0.840000 -9.040000 50.328396 11.306591 2660.786621
0.960000 -0.840000 -9.000000 35.263332 50.063347 3749.841309
0.960000 -0.840000 -8.960000 -6.299835 63.921120 4125.597168
0.960000 -0.840000 -8.920000 -44.401573 40.901520 3644.434082
0.960000 -0.840000 -8.880000 -51.879082 -1.951733 2695.248535
0.960000 -0.840000 -8.840000 -26.509655 -33.831619 1847.340332
0.960000 -0.840000 -8.800000 9.782235 -36.139820 1401.778687
0.960000 -0.800000 -9.200000 -14.725789 9.812033 313.124847
0.960000 -0.800000 -9.160000 -16.348484 -4.534007 287.830139
0.960000 -0.800000 -9.120000 -4.979026 -15.676079 270.530151
0.960000 -0.800000 -9.080000 11.441778 -13.111195 302.817719
0.960000 -0.800000 -9.040000 18.688442 2.027588 353.368988
0.960000 -0.800000 -9.000000 9.577072 16.314411 357.880310
0.960000 -0.800000 -8.960000 -8.160976 15.702278 313.163086
0.960000 -0.800000 -8.920000 -17.871571 -1.161720 320.742615
0.960000 -0.800000 -8.880000 -8.801352 -20.883179 513.570923
0.960000 -0.800000 -8.840000 14.174711 -26.820045 920.237244
0.960000 -0.800000 -8.800000 34.931339 -13.308231 1397.307495
1.000000 -1.200000 -9.200000 5.173255 42.123352 1801.139404
1.000000 -1.200000 -9.160000 -35.650791 47.421875 3519.812988
1.000000 -1.200000 -9.120000 -69.098480 14.077112 4972.765137
1.000000 -1.200000 -9.080000 -63.525063 -35.058014 5264.498047
1.000000 -1.200000 -9.040000 -22.652065 -59.576141 4062.432617
1.000000 -1.200000 -9.000000 16.353970 -41.832695 2017.426758
1.000000 -1.200000 -8.960000 19.758202 -4.818489 413.604370
1.000000 -1.200000 -8.920000 -9.252911 11.704626 222.614624
1.000000 -1.200000 -8.880000 -35.509502 -8.211108 1328.347046
1.000000 -1.200000 -8.840000 -29.361465 -42.025513 2628.239258
1.000000 -1.200000 -8.800000 3.395144 -54.325867 2962.826904
1.000000 -1.160000 -9.200000 -15.096182 23.542210 782.130371
1.000000 -1.160000 -9.160000 -40.416859 20.000772 2033.553345
1.000000 -1.160000 -9.120000 -57.233040 -4.603729 3296.815186
1.000000 -1.160000 -9.080000 -51.422314 -34.016739 3801.393066
1.000000 -1.160000 -9.040000 -30.069248 -48.399246 3246.646729
1.000000 -1.160000 -9.000000 -12.795923 -44.769722 2168.063721
1.000000 -1.160000 -8.960000 -9.947136 -38.171341 1555.996826
1.000000 -1.160000 -8.920000 -12.335609 -42.849365 1988.235352
1.000000 -1.160000 -8.880000 -3.806736 -55.239048 3065.843750
1.000000 -1.160000 -8.840000 18.167465 -58.333603 3732.866211
1.000000 -1.160000 -8.800000 37.895267 -42.351337 3229.687012
1.000000 -1.120000 -9.200000 -10.122208 -1.112024 103.695686
1.000000 -1.120000 -9.160000 -25.811001 5.752045 699.293762
1.000000 -1.120000 -9.120000 -48.049255 -4.006941 2324.786621
1.000000 -1.120000 -9.080000 -61.523689 -31.435106 4773.330078
1.000000 -1.120000 -9.040000 -55.295563 -66.026581 7417.108398
1.000000 -1.120000 -9.000000 -28.909843 -93.134354 9509.787109
1.000000 -1.120000 -8.960000 8.803673 -101.999229 10481.347656
1.000000 -1.120000 -8.920000 44.890793 -89.775360 10074.798828
1.000000 -1.120000 -8.880000 67.544739 -61.783840 8379.534180
1.000000 -1.120000 -8.840000 70.504074 -29.507381 5841.510254
1.000000 -1.120000 -8.800000 56.335732 -6.205836 3212.227051
1.000000 -1.080000 -9.200000 13.223427 -7.735390 234.695282
1.000000 -1.080000 -9.160000 -12.903584 12.184195 314.957062
1.000000 -1.080000 -9.120000 -55.646320 -1.118605 3097.764160
1.000000 -1.080000 -9.080000 -79.731163 -53.761101 9247.314453
1.000000 -1.080000 -9.040000 -56.105782 -119.153061 17345.310547
1.000000 -1.080000 -9.000000 12.535233 -155.208771 24246.894531
1.000000 -1.080000 -8.960000 90.746506 -136.251648 26799.441406
1.000000 -1.080000 -8.920000 135.923813 -72.918396 23792.375000
1.000000 -1.080000 -8.880000 129.271057 -3.403831 16722.591797
1.000000 -1.080000 -8.840000 86.846390 35.809139 8824.589844
1.000000 -1.080000 -8.800000 43.389080 34.899353 3100.577148
1.000000 -1.040000 -9.200000 30.958374 10.509169 1068.863525
1.000000 -1.040000 -9.160000 -17.540949 25.586344 962.345886
1.000000 -1.040000 -9.120000 -70.255562 -15.029190 5161.720215
1.000000 -1.040000 -9.080000 -73.580742 -98.750870 15165.859375
1.000000 -1.040000 -9.040000 -3.835655 -169.263428 28664.820312
1.000000 -1.040000 -9.000000 105.903976 -169.731918 40024.578125
1.000000 -1.040000 -8.960000 187.750244 -91.274551 43581.195312
1.000000 -1.040000 -8.920000 192.641373 17.813059 37428.003906
1.000000 -1.040000 -8.880000 128.192993 91.184250 24748.011719
1.000000 -1.040000 -8.840000 47.891514 96.538345 11613.250000
1.000000 -1.040000 -8.800000 4.094385 54.925579 3033.583252
1.000000 -1.000000 -9.200000 25.037991 37.164314 2008.087280
1.000000 -1.000000 -9.160000 -35.525139 26.702841 1975.077148
1.000000 -1.000000 -9.120000 -70.011375 -44.657242 6895.862305
1.000000 -1.000000 -9.080000 -28.723303 -133.764221 18717.894531
1.000000 -1.000000 -9.040000 81.159775 -167.672333 34700.921875
1.000000 -1.000000 -9.000000 191.636490 -106.069565 47975.296875
1.000000 -1.000000 -8.960000 226.499817 19.568657 51685.101562
1.000000 -1.000000 -8.920000 164.619904 128.955994 43729.359375
1.000000 -1.000000 -8.880000 55.764305 158.609711 28266.699219
1.000000 -1.000000 -8.840000 -24.493975 110.268898 12759.184570
1.000000 -1.000000 -8.800000 -37.225433 40.149498 2997.715088
1.000000 -0.960000 -9.200000 -0.160127 49.169506 2417.666016
1.000000 -0.960000 -9.160000 -48.891537 10.434603 2499.263184
1.000000 -0.960000 -9.120000 -45.638134 -69.181381 6868.902832
1.000000 -0.960000 -9.080000 32.620003 -127.782562 17392.447266
1.000000 -0.960000 -9.040000 143.927032 -104.630745 31662.582031
1.000000 -0.960000 -9.000000 208.449310 2.026020 43455.218750
1.000000 -0.960000 -8.960000 175.075531 126.175270 46571.640625
1.000000 -0.960000 -8.920000 66.305573 186.580978 39208.890625
1.000000 -0.960000 -8.880000 -41.328777 153.470627 25261.300781
1.000000 -0.960000 -8.840000 -82.628281 68.169098 11474.458984
1.000000 -0.960000 -8.800000 -53.621780 0.574463 2875.625488
1.000000 -0.920000 -9.200000 -24.005636 38.820248 2083.282227
1.000000 -0.920000 -9.160000 -45.323402 -10.462708 2163.678955
1.000000 -0.920000 -9.120000 -11.099836 -69.794899 4994.534668
1.000000 -0.920000 -9.080000 71.343872 -82.926605 11966.769531
1.000000 -0.920000 -9.040000 145.318848 -20.723495 21547.031250
1.000000 -0.920000 -9.000000 149.239059 85.113190 29516.550781
1.000000 -0.920000 -8.960000 71.819702 162.733963 31640.412109
1.000000 -0.920000 -8.920000 -35.141663 159.601227 26707.486328
1.000000 -0.920000 -8.880000 -100.111206 85.919647 17404.439453
1.000000 -0.920000 -8.840000 -90.961250 1.948940 8277.748047
1.000000 -0.920000 -8.800000 -35.400894 -36.546940 2588.902100
1.000000 -0.880000 -9.200000 -30.912115 18.841011 1310.542480
1.000000 -0.880000 -9.160000 -29.962563 -20.049084 1299.720947
1.000000 -0.880000 -9.120000 10.398470 -48.797905 2489.363770
1.000000 -0.880000 -9.080000 68.142113 -32.307823 5687.143066
1.000000 -0.880000 -9.040000 96.410690 30.960623 10253.582031
1.000000 -0.880000 -9.000000 64.400703 99.990784 14145.607422
1.000000 -0.880000 -8.960000 -11.645248 122.991135 15262.431641
1.000000 -0.880000 -8.920000 -79.103477 82.203865 13014.835938
1.000000 -0.880000 -8.880000 -93.065826 9.281654 8747.397461
1.000000 -0.880000 -8.840000 -52.756123 -43.275654 4655.990723
1.000000 -0.880000 -8.800000 2.870907 -46.716221 2190.647461
1.000000 -0.840000 -9.200000 -24.277420 6.833893 636.095215
1.000000 -0.840000 -9.160000 -18.278221 -15.697778 580.513550
1.000000 -0.840000 -9.120000 9.160441 -26.311678 776.218079
1.000000 -0.840000 -9.080000 38.974560 -7.860821 1580.808838
1.000000 -0.840000 -9.040000 43.167610 31.859482 2878.469238
1.000000 -0.840000 -9.000000 11.838837 62.444695 4039.497803
1.000000 -0.840000 -8.960000 -34.176983 56.810333 4395.480469
1.000000 -0.840000 -8.920000 -59.431423 16.577518 3806.908203
1.000000 -0.840000 -8.880000 -44.616962 -28.139263 2782.491455
1.000000 -0.840000 -8.840000 -2.745771 -44.871174 2020.961548
1.000000 -0.840000 -8.800000 34.011902 -25.818394 1823.398926
1.000000 -0.800000 -9.200000 -19.460514 6.717204 423.832428
1.000000 -0.800000 -9.160000 -18.938797 -9.260811 444.440674
1.000000 -0.800000 -9.120000 -3.476398 -19.595287 396.060638
1.000000 -0.800000 -9.080000 15.380077 -12.699327 397.819672
1.000000 -0.800000 -9.040000 20.607845 7.011965 473.850952
1.000000 -0.800000 -9.000000 6.988487 21.667999 518.341125
1.000000 -0.800000 -8.960000 -12.301016 16.923737 437.727844
1.000000 -0.800000 -8.920000 -17.452015 -3.351082 315.802551
1.000000 -0.800000 -8.880000 -1.016281 -19.835890 394.495361
1.000000 -0.800000 -8.840000 24.680765 -15.565834 851.435425
1.000000 -0.800000 -8.800000 38.832825 8.655767 1582.910645
1.040000 -1.200000 -9.200000 -23.764215 30.690145 1506.622925
1.040000 -1.200000 -9.160000 -54.286186 7.481017 3002.955566
1.040000 -1.200000 -9.120000 -55.864140 -37.181843 4503.291504
1.040000 -1.200000 -9.080000 -20.209631 -68.896637 5155.175781
1.040000 -1.200000 -9.040000 26.265091 -61.025925 4414.018555
1.040000 -1.200000 -9.000000 45.971260 -22.200516 2606.219482
1.040000 -1.200000 -8.960000 26.597607 11.002184 828.480713
1.040000 -1.200000 -8.920000 -7.289024 9.823813 149.637177
1.040000 -1.200000 -8.880000 -19.791557 -19.103455 756.647705
1.040000 -1.200000 -8.840000 0.281021 -42.698574 1823.247192
1.040000 -1.200000 -8.800000 30.240137 -36.594700 2253.637939
1.040000 -1.160000 -9.200000 -24.446407 1.696680 600.505554
1.040000 -1.160000 -9.160000 -35.794643 -15.390873 1518.135498
1.040000 -1.160000 -9.120000 -30.496527 -40.243896 2549.609375
1.040000 -1.160000 -9.080000 -8.089247 -54.862885 3075.372070
1.040000 -1.160000 -9.040000 15.518545 -49.759338 2716.816895
1.040000 -1.160000 -9.000000 24.514534 -34.122925 1765.336426
1.040000 -1.160000 -8.960000 19.716118 -25.457869 1036.828369
1.040000 -1.160000 -8.920000 16.531166 -30.142845 1181.870605
1.040000 -1.160000 -8.880000 26.541714 -36.821930 2060.317139
1.040000 -1.160000 -8.840000 43.621452 -30.260668 2818.539062
1.040000 -1.160000 -8.800000 50.583969 -9.927184 2657.287109
1.040000 -1.120000 -9.200000 -0.774349 -12.111029 147.276627
1.040000 -1.120000 -9.160000 -12.221237 -10.992504 270.193787
1.040000 -1.120000 -9.120000 -23.137358 -25.184744 1169.608643
1.040000 -1.120000 -9.080000 -20.324896 -49.226269 2836.326904
1.040000 -1.120000 -9.040000 0.257912 -69.639664 4849.749023
1.040000 -1.120000 -9.000000 31.664490 -74.800507 6597.755859
1.040000 -1.120000 -8.960000 61.602371 -61.406410 7565.599609
1.040000 -1.120000 -8.920000 79.409142 -34.586887 7502.064453
1.040000 -1.120000 -8.880000 80.138374 -4.291775 6440.578613
1.040000 -1.120000 -8.840000 65.703880 18.831842 4671.638184
1.040000 -1.120000 -8.800000 44.293266 27.423820 2713.959473
1.040000 -1.080000 -9.200000 22.431206 2.567141 509.749207
1.040000 -1.080000 -9.160000 -8.890127 9.866988 176.391815
1.040000 -1.080000 -9.120000 -37.973999 -19.443813 1820.086548
1.040000 -1.080000 -9.080000 -32.184601 -71.554939 6155.958008
1.040000 -1.080000 -9.040000 17.714359 -109.470680 12297.628906
1.040000 -1.080000 -9.000000 87.046104 -101.549400 17889.304688
1.040000 -1.080000 -8.960000 134.712418 -47.115654 20367.320312
1.040000 -1.080000 -8.920000 134.255783 22.736599 18541.568359
1.040000 -1.080000 -8.880000 92.414948 69.322784 13346.170898
1.040000 -1.080000 -8.840000 40.904232 74.508743 7224.708984
1.040000 -1.080000 -8.800000 10.455629 50.052849 2614.607666
1.040000 -1.040000 -9.200000 21.289776 31.459412 1442.949097
1.040000 -1.040000 -9.160000 -28.548061 20.736385 1244.989502
1.040000 -1.040000 -9.120000 -52.395428 -38.560074 4232.160156
1.040000 -1.040000 -9.080000 -13.743881 -106.981110 11633.852539
1.040000 -1.040000 -9.040000 75.940788 -126.899818 21870.566406
1.040000 -1.040000 -9.000000 160.241241 -71.341866 30766.917969
1.040000 -1.040000 -8.960000 181.631195 30.336185 33910.175781
1.040000 -1.040000 -8.920000 128.133759 114.678375 29569.390625
1.040000 -1.040000 -8.880000 41.166397 134.991943 19917.496094
1.040000 -1.040000 -8.840000 -21.142344 95.483772 9564.149414
1.040000 -1.040000 -8.800000 -30.423199 40.469547 2563.355469
1.040000 -1.000000 -9.200000 -4.210003 47.489540 2272.980469
1.040000 -1.000000 -9.160000 -50.044483 7.057635 2554.260498
1.040000 -1.000000 -9.120000 -42.183434 -69.049164 6547.229004
1.040000 -1.000000 -9.080000 35.758675 -119.727638 15613.389648
1.040000 -1.000000 -9.040000 139.389832 -91.055466 27720.623047
1.040000 -1.000000 -9.000000 193.965530 12.833431 37787.324219
1.040000 -1.000000 -8.960000 156.421265 127.250000 40660.171875
1.040000 -1.000000 -8.920000 52.531937 178.526154 34631.191406
1.040000 -1.000000 -8.880000 -45.541893 143.611755 22698.400391
1.040000 -1.000000 -8.840000 -80.094772 63.933014 10502.602539
1.040000 -1.000000 -8.800000 -50.930786 3.866631 2608.895996
1.040000 -0.960000 -9.200000 -31.842529 37.452423 2416.630615
1.040000 -0.960000 -9.160000 -51.345680 -19.913000 3032.906494
1.040000 -0.960000 -9.120000 -8.043436 -82.682831 6901.147461
1.040000 -0.960000 -9.080000 83.964310 -90.208572 15187.591797
1.040000 -0.960000 -9.040000 160.367477 -16.330013 25984.398438
1.040000 -0.960000 -9.000000 157.513351 99.365891 34684.035156
1.040000 -0.960000 -8.960000 69.101845 178.834915 36756.992188
1.040000 -0.960000 -8.920000 -45.489845 169.873917 30926.474609
1.040000 -0.960000 -8.880000 -110.813248 88.577133 20125.484375
1.040000 -0.960000 -8.840000 -97.067513 1.264660 9423.701172
1.040000 -0.960000 -8.800000 -37.660431 -34.901905 2636.451172
1.040000 -0.920000 -9.200000 -40.529827 13.145008 1815.458130
1.040000 -0.920000 -9.160000 -31.954266 -36.453827 2349.956543
1.040000 -0.920000 -9.120000 24.757597 -66.219879 4998.010742
1.040000 -0.920000 -9.080000 96.370789 -36.133106 10592.930664
1.040000 -0.920000 -9.040000 124.377800 48.816460 17852.882812
1.040000 -0.920000 -9.000000 76.025383 133.600677 23629.000000
1.040000 -0.920000 -8.960000 -22.254034 156.145660 24876.708984
1.040000 -0.920000 -8.920000 -103.616234 100.581055 20852.873047
1.040000 -0.920000 -8.880000 -116.485992 10.586729 13681.065430
1.040000 -0.920000 -8.840000 -65.570572 -49.789268 6778.471191
1.040000 -0.920000 -8.800000 -1.268332 -50.010826 2502.691406
1.040000 -0.880000 -9.200000 -30.476513 -3.329917 939.906189
1.040000 -0.880000 -9.160000 -11.650902 -31.590553 1133.706543
1.040000 -0.880000 -9.120000 32.351768 -34.804188 2257.968506
1.040000 -0.880000 -9.080000 69.448730 4.373070 4842.249512
1.040000 -0.880000 -9.040000 62.622513 66.468872 8339.689453
1.040000 -0.880000 -9.000000 6.141617 105.577576 11184.343750
1.040000 -0.880000 -8.960000 -63.644863 88.226639 11834.608398
1.040000 -0.880000 -8.920000 -96.740822 24.572464 9962.591797
1.040000 -0.880000 -8.880000 -72.039520 -39.049831 6714.581543
1.040000 -0.880000 -8.840000 -13.837308 -59.976486 3788.650146
1.040000 -0.880000 -8.800000 32.365067 -33.615582 2177.504883
1.040000 -0.840000 -9.200000 -19.685257 -3.215721 397.850189
1.040000 -0.840000 -9.160000 -8.271778 -17.342600 369.188080
1.040000 -0.840000 -9.120000 15.811072 -15.766310 498.566528
1.040000 -0.840000 -9.080000 31.911228 9.069321 1100.579102
1.040000 -0.840000 -9.040000 20.357948 41.288589 2119.193848
1.040000 -0.840000 -9.000000 -15.694717 52.872662 3041.842529
1.040000 -0.840000 -8.960000 -49.028233 29.932014 3299.693115
1.040000 -0.840000 -8.920000 -51.479153 -12.032719 2794.889648
1.040000 -0.840000 -8.880000 -19.731537 -40.334053 2016.169434
1.040000 -0.840000 -8.840000 21.516762 -33.734447 1600.984009
1.040000 -0.840000 -8.800000 41.972778 0.053012 1761.716919
1.040000 -0.800000 -9.200000 -22.214485 1.572688 495.956696
1.040000 -0.800000 -9.160000 -19.009045 -14.140451 561.296143
1.040000 -0.800000 -9.120000 -1.865759 -21.093510 448.417206
1.040000 -0.800000 -9.080000 14.827316 -10.422987 328.487976
1.040000 -0.800000 -9.040000 15.580750 9.276308 328.809631
1.040000 -0.800000 -9.000000 0.228674 19.645622 386.002747
1.040000 -0.800000 -8.960000 -14.906734 11.208733 347.846436
1.040000 -0.800000 -8.920000 -13.086426 -6.350971 211.589386
1.040000 -0.800000 -8.880000 5.781593 -13.271461 209.558502
1.040000 -0.800000 -8.840000 24.586510 0.937451 605.375305
1.040000 -0.800000 -8.800000 25.279490 27.423613 1391.107178
1.080000 -1.200000 -9.200000 -31.031210 4.409625 982.380737
1.080000 -1.200000 -9.160000 -35.118744 -27.799398 2006.132812
1.080000 -1.200000 -9.120000 -9.957434 -56.426205 3283.066895
1.080000 -1.200000 -9.080000 31.423756 -56.508915 4180.709961
1.080000 -1.200000 -9.040000 58.795639 -24.868958 4075.392334
1.080000 -1.200000 -9.000000 52.011761 14.124422 2904.722412
1.080000 -1.200000 -8.960000 20.506718 30.098682 1326.456177
1.080000 -1.200000 -8.920000 -5.705261 14.925829 255.330368
1.080000 -1.200000 -8.880000 -5.062040 -10.908627 144.622375
1.080000 -1.200000 -8.840000 15.865267 -20.132154 657.010376
1.080000 -1.200000 -8.800000 31.649555 -5.933957 1036.906128
1.080000 -1.160000 -9.200000 -12.757793 -15.647797 407.614838
1.080000 -1.160000 -9.160000 -7.369959 -29.764257 940.227295
1.080000 -1.160000 -9.120000 9.919222 -39.343094 1646.270020
1.080000 -1.160000 -9.080000 31.306698 -34.312119 2157.430908
1.080000 -1.160000 -9.040000 42.837246 -16.481050 2106.654785
1.080000 -1.160000 -9.000000 38.676178 0.715514 1496.358765
1.080000 -1.160000 -8.960000 27.483162 5.580864 786.470276
1.080000 -1.160000 -8.920000 23.132601 0.171928 535.146790
1.080000 -1.160000 -8.880000 29.616777 -2.688549 884.381775
1.080000 -1.160000 -8.840000 37.018955 5.607267 1401.844482
1.080000 -1.160000 -8.800000 33.382030 19.204121 1483.158203
1.080000 -1.120000 -9.200000 13.090219 -8.641851 246.035446
1.080000 -1.120000 -9.160000 5.635912 -7.675968 90.683990
1.080000 -1.120000 -9.120000 2.794205 -18.194735 338.855957
1.080000 -1.120000 -9.080000 12.949450 -30.933987 1124.599854
1.080000 -1.120000 -9.040000 33.477001 -34.064095 2281.072266
1.080000 -1.120000 -9.000000 53.944874 -22.537378 3417.982666
1.080000 -1.120000 -8.960000 64.385391 -0.492363 4145.720703
1.080000 -1.120000 -8.920000 61.037415 23.057266 4257.203613
1.080000 -1.120000 -8.880000 46.613407 39.845703 3760.489746
1.080000 -1.120000 -8.840000 27.607674 45.352280 2819.012939
1.080000 -1.120000 -8.800000 11.674759 39.633179 1707.088867
1.080000 -1.080000 -9.200000 19.164804 18.470821 708.460938
1.080000 -1.080000 -9.160000 -9.251978 12.942532 253.108215
1.080000 -1.080000 -9.120000 -19.702490 -19.519081 769.182617
1.080000 -1.080000 -9.080000 5.218338 -53.044270 2840.925537
1.080000 -1.080000 -9.040000 54.433445 -56.887917 6199.235352
1.080000 -1.080000 -9.000000 95.795708 -20.958397 9616.072266
1.080000 -1.080000 -8.960000 101.288101 35.534546 11521.983398
1.080000 -1.080000 -8.920000 68.360306 79.341141 10968.148438
1.080000 -1.080000 -8.880000 20.035187 88.555084 8243.412109
1.080000 -1.080000 -8.840000 -14.554703 66.797363 4673.727051
1.080000 -1.080000 -8.800000 -21.409845 36.350021 1779.705566
1.080000 -1.040000 -9.200000 -2.044326 38.752434 1505.930420
1.080000 -1.040000 -9.160000 -36.088741 8.425884 1373.392700
1.080000 -1.040000 -9.120000 -28.307585 -45.252586 2849.115967
1.080000 -1.040000 -9.080000 28.079304 -76.756775 6680.049805
1.080000 -1.040000 -9.040000 97.830872 -51.437607 12216.707031
1.080000 -1.040000 -9.000000 129.679016 22.823845 17337.574219
1.080000 -1.040000 -8.960000 98.295715 99.426666 19547.710938
1.080000 -1.040000 -8.920000 25.033869 130.235840 17588.068359
1.080000 -1.040000 -8.880000 -40.860863 103.272491 12334.817383
1.080000 -1.040000 -8.840000 -62.690239 48.273121 6260.360352
1.080000 -1.040000 -8.800000 -42.150551 7.858073 1838.418213
1.080000 -1.000000 -9.200000 -31.375355 32.721359 2055.100342
1.080000 -1.000000 -9.160000 -46.819099 -18.637606 2539.388428
1.080000 -1.000000 -9.120000 -7.402625 -70.015823 4957.014160
1.080000 -1.000000 -9.080000 69.298233 -71.594124 9927.963867
1.080000 -1.000000 -9.040000 127.978088 -6.987230 16427.212891
1.080000 -1.000000 -9.000000 119.664703 86.944916 21879.060547
1.080000 -1.000000 -8.960000 44.418694 146.934448 23562.751953
1.080000 -1.000000 -8.920000 -47.215904 134.850739 20414.064453
1.080000 -1.000000 -8.880000 -96.248779 67.590317 13832.277344
1.080000 -1.000000 -8.840000 -82.416885 -0.949506 6793.444336
1.080000 -1.000000 -8.800000 -34.623379 -27.167812 1936.868408
1.080000 -0.960000 -9.200000 -43.472736 7.092067 1940.176147
1.080000 -0.960000 -9.160000 -30.517130 -42.905006 2772.134766
1.080000 -0.960000 -9.120000 27.930281 -67.627892 5353.632324
1.080000 -0.960000 -9.080000 94.843460 -32.863205 10075.272461
1.080000 -0.960000 -9.040000 115.372528 50.284313 15839.332031
1.080000 -0.960000 -9.000000 64.117928 127.194389 20289.521484
1.080000 -0.960000 -8.960000 -29.090666 142.567688 21171.812500
1.080000 -0.960000 -8.920000 -101.503357 87.037949 17878.535156
1.080000 -0.960000 -8.880000 -109.136688 4.302396 11929.327148
1.080000 -0.960000 -8.840000 -60.695175 -47.676971 5956.998047
1.080000 -0.960000 -8.800000 -3.971500 -44.563007 2001.634399
1.080000 -0.920000 -9.200000 -32.305912 -14.164490 1244.304810
1.080000 -0.920000 -9.160000 -3.818214 -43.369274 1895.472656
1.080000 -0.920000 -9.120000 47.319546 -38.555058 3725.631836
1.080000 -0.920000 -9.080000 82.684540 11.980226 6980.258789
1.080000 -0.920000 -9.040000 66.164970 80.459770 10851.578125
1.080000 -0.920000 -9.000000 -0.964478 117.008446 13691.907227
1.080000 -0.920000 -8.960000 -75.445854 91.347031 14036.357422
1.080000 -0.920000 -8.920000 -106.020554 20.551910 11662.738281
1.080000 -0.920000 -8.880000 -76.119255 -44.556683 7779.438965
1.080000 -0.920000 -8.840000 -15.677756 -62.529877 4155.777832
1.080000 -0.920000 -8.800000 28.029385 -33.681767 1920.107910
1.080000 -0.880000 -9.200000 -15.018219 -15.762827 474.013611
1.080000 -0.880000 -9.160000 7.860401 -24.818531 677.745361
1.080000 -0.880000 -9.120000 36.389572 -9.290100 1410.506836
1.080000 -0.880000 -9.080000 44.668556 29.872440 2887.642578
1.080000 -0.880000 -9.040000 16.584473 66.954361 4757.931152
1.080000 -0.880000 -9.000000 -34.605522 70.510071 6169.211914
1.080000 -0.880000 -8.960000 -72.826920 32.382496 6352.386230
1.080000 -0.880000 -8.920000 -69.048515 -21.865158 5245.782227
1.080000 -0.880000 -8.880000 -26.951113 -53.295189 3566.739746
1.080000 -0.880000 -8.840000 20.515045 -42.579742 2233.901367
1.080000 -0.880000 -8.800000 40.478867 -4.483682 1658.642090
1.080000 -0.840000 -9.200000 -11.331851 -5.931737 163.596344
1.080000 -0.840000 -9.160000 -2.469131 -11.237276 132.372986
1.080000 -0.840000 -9.120000 10.865702 -4.801455 141.117447
1.080000 -0.840000 -9.080000 14.116936 13.814236 390.120972
1.080000 -0.840000 -9.040000 -1.385681 29.913015 896.708618
1.080000 -0.840000 -9.000000 -26.295876 26.452698 1391.218262
1.080000 -0.840000 -8.960000 -39.135479 2.179764 1536.337036
1.080000 -0.840000 -8.920000 -26.191652 -24.256290 1274.370239
1.080000 -0.840000 -8.880000 4.275585 -30.123821 925.725220
1.080000 -0.840000 -8.840000 28.500109 -9.388780 900.405396
1.080000 -0.840000 -8.800000 28.407621 22.110952 1295.887207
1.080000 -0.800000 -9.200000 -21.703796 -5.039681 496.453156
1.080000 -0.800000 -9.160000 -16.827248 -19.139904 649.492188
1.080000 -0.800000 -9.120000 -0.690617 -23.496716 552.572571
1.080000 -0.800000 -9.080000 12.928619 -12.671928 327.726990
1.080000 -0.800000 -9.040000 12.372272 3.864183 168.005020
1.080000 -0.800000 -9.000000 0.274411 11.358734 129.096146
1.080000 -0.800000 -8.960000 -9.251760 5.197203 112.605988
1.080000 -0.800000 -8.920000 -5.635017 -4.305976 50.294853
1.080000 -0.800000 -8.880000 6.857515 -2.891279 55.385010
1.080000 -0.800000 -8.840000 13.389015 12.586685 337.690369
1.080000 -0.800000 -8.800000 3.609505 30.698412 955.421021
1.120000 -1.200000 -9.200000 -16.762581 -13.118924 453.090302
1.120000 -1.200000 -9.160000 -0.131461 -31.756838 1008.514038
1.120000 -1.200000 -9.120000 28.673759 -33.078403 1916.365234
1.120000 -1.200000 -9.080000 51.644516 -11.527681 2800.043457
1.120000 -1.200000 -9.040000 52.079472 20.888039 3148.581299
1.120000 -1.200000 -9.000000 29.606182 42.672577 2697.474854
1.120000 -1.200000 -8.960000 1.479515 40.851887 1671.065674
1.120000 -1.200000 -8.920000 -12.439071 21.942682 636.211792
1.120000 -1.200000 -8.880000 -7.024535 4.861153 72.974899
1.120000 -1.200000 -8.840000 5.339668 2.615545 35.353134
1.120000 -1.200000 -8.800000 8.870080 10.986570 199.383057
1.120000 -1.160000 -9.200000 5.324075 -14.753760 246.019226
1.120000 -1.160000 -9.160000 16.699635 -15.342112 514.258179
1.120000 -1.160000 -9.120000 29.151714 -8.850256 928.149475
1.120000 -1.160000 -9.080000 36.297955 5.466824 1347.427612
1.120000 -1.160000 -9.040000 32.698875 21.573189 1534.618896
1.120000 -1.160000 -9.000000 20.355844 30.523878 1346.067627
1.120000 -1.160000 -8.960000 8.123095 28.796867 895.244263
1.120000 -1.160000 -8.920000 3.528688 21.850456 489.894073
1.120000 -1.160000 -8.880000 5.553461 18.309950 366.095215
1.120000 -1.160000 -8.840000 6.585861 20.678749 470.984222
1.120000 -1.160000 -8.800000 1.780182 22.984900 531.474670
1.120000 -1.120000 -9.200000 16.868626 5.300446 312.645264
1.120000 -1.120000 -9.160000 9.651495 8.143784 159.472565
1.120000 -1.120000 -9.120000 7.833630 3.143080 71.244705
1.120000 -1.120000 -9.080000 15.032784 -0.400406 226.144897
1.120000 -1.120000 -9.040000 25.535320 4.983202 676.884888
1.120000 -1.120000 -9.000000 30.430298 18.671963 1274.645264
1.120000 -1.120000 -8.960000 25.218311 33.599884 1764.915283
1.120000 -1.120000 -8.920000 12.225384 42.485043 1954.438843
1.120000 -1.120000 -8.880000 -2.503258 42.365990 1801.143433
1.120000 -1.120000 -8.840000 -13.372168 34.760906 1387.135376
1.120000 -1.120000 -8.800000 -17.114399 23.654175 852.422607
1.120000 -1.080000 -9.200000 3.730756 26.473488 714.764099
1.120000 -1.080000 -9.160000 -15.899026 13.417116 432.798035
1.120000 -1.080000 -9.120000 -13.397907 -11.126274 303.297913
1.120000 -1.080000 -9.080000 11.973438 -23.390373 690.472778
1.120000 -1.080000 -9.040000 41.005054 -8.725407 1757.547241
1.120000 -1.080000 -9.000000 50.362392 26.039257 3214.413574
1.120000 -1.080000 -8.960000 31.435860 58.421555 4401.291504
1.120000 -1.080000 -8.920000 -3.754810 68.397209 4692.276855
1.120000 -1.080000 -8.880000 -33.322060 53.005310 3919.922607
1.120000 -1.080000 -8.840000 -42.426502 26.152460 2483.959229
1.120000 -1.080000 -8.800000 -32.246124 6.035444 1076.239136
1.120000 -1.040000 -9.200000 -22.774261 26.438461 1217.659180
1.120000 -1.040000 -9.160000 -34.566429 -7.121119 1245.548340
1.120000 -1.040000 -9.120000 -10.733179 -38.720364 1614.467773
1.120000 -1.040000 -9.080000 34.199192 -38.216244 2630.065918
1.120000 -1.040000 -9.040000 65.716751 0.904869 4319.510254
1.120000 -1.040000 -9.000000 57.088467 54.217079 6198.584961
1.120000 -1.040000 -8.960000 11.556660 85.303864 7410.305176
1.120000 -1.040000 -8.920000 -40.501987 74.809227 7236.831543
1.120000 -1.040000 -8.880000 -66.591850 34.459785 5621.951172
1.120000 -1.040000 -8.840000 -56.951042 -5.045287 3268.875977
1.120000 -1.040000 -8.800000 -28.454145 -19.868486 1204.395142
1.120000 -1.000000 -9.200000 -37.890903 4.324821 1454.424683
1.120000 -1.000000 -9.160000 -27.223476 -34.710842 1945.960205
1.120000 -1.000000 -9.120000 16.108219 -51.742336 2936.744141
1.120000 -1.000000 -9.080000 62.261177 -25.386003 4520.903320
1.120000 -1.000000 -9.040000 73.580505 32.505009 6470.666504
1.120000 -1.000000 -9.000000 36.055367 82.879395 8168.983398
1.120000 -1.000000 -8.960000 -27.242601 90.018463 8845.483398
1.120000 -1.000000 -8.920000 -74.036514 50.529106 8034.595703
1.120000 -1.000000 -8.880000 -76.879227 -4.970221 5935.118652
1.120000 -1.000000 -8.840000 -43.321953 -38.501526 3359.159180
1.120000 -1.000000 -8.800000 -5.494285 -35.122593 1263.783691
1.120000 -0.960000 -9.200000 -29.259886 -19.177029 1223.899414
1.120000 -0.960000 -9.160000 -1.045445 -43.643963 1905.888428
1.120000 -0.960000 -9.120000 42.484924 -36.101055 3108.254883
1.120000 -0.960000 -9.080000 68.587646 7.671499 4763.117188
1.120000 -0.960000 -9.040000 51.647850 61.750290 6480.598633
1.120000 -0.960000 -9.000000 -2.972425 87.402115 7647.965332
1.120000 -0.960000 -8.960000 -59.822845 64.467697 7734.856934
1.120000 -0.960000 -8.920000 -80.894379 9.058329 6625.953613
1.120000 -0.960000 -8.880000 -56.264397 -39.508224 4726.582031
1.120000 -0.960000 -8.840000 -10.361816 -51.290215 2738.053223
1.120000 -0.960000 -8.800000 21.142679 -28.386253 1252.792236
1.120000 -0.920000 -9.200000 -8.742368 -24.259594 664.956909
1.120000 -0.920000 -9.160000 18.351177 -28.063843 1124.344971
1.120000 -0.920000 -9.120000 43.947563 -6.537245 1974.123901
1.120000 -0.920000 -9.080000 45.539669 32.742985 3145.964600
1.120000 -0.920000 -9.040000 14.253645 64.017685 4301.430664
1.120000 -0.920000 -9.000000 -33.287815 62.096802 4964.091309
1.120000 -0.920000 -8.960000 -64.862549 24.697430 4817.113281
1.120000 -0.920000 -8.920000 -58.361755 -23.055725 3937.660889
1.120000 -0.920000 -8.880000 -20.568430 -48.299332 2755.885742
1.120000 -0.920000 -8.840000 18.938854 -37.358402 1754.330444
1.120000 -0.920000 -8.800000 33.492035 -5.290531 1149.706177
1.120000 -0.880000 -9.200000 1.817217 -12.394205 156.918594
1.120000 -0.880000 -9.160000 14.234874 -7.461498 258.305603
1.120000 -0.880000 -9.120000 21.551300 8.514980 536.963440
1.120000 -0.880000 -9.080000 13.739773 28.806696 1018.607117
1.120000 -0.880000 -9.040000 -9.838840 38.311241 1564.553955
1.120000 -0.880000 -9.000000 -35.248749 25.862972 1911.367554
1.120000 -0.880000 -8.960000 -43.033543 -3.343800 1863.066772
1.120000 -0.880000 -8.920000 -25.256138 -28.986553 1478.092773
1.120000 -0.880000 -8.880000 5.852018 -31.879595 1050.554688
1.120000 -0.880000 -8.840000 27.435566 -10.650678 866.147217
1.120000 -0.880000 -8.800000 25.543392 17.420603 955.942322
1.120000 -0.840000 -9.200000 -5.319578 -2.949411 36.996941
1.120000 -0.840000 -9.160000 -3.835901 -5.111576 40.842346
1.120000 -0.840000 -9.120000 0.531532 -3.532097 12.758235
1.120000 -0.840000 -9.080000 1.527088 2.964583 11.120750
1.120000 -0.840000 -9.040000 -4.731785 8.058100 87.322754
1.120000 -0.840000 -9.000000 -13.371964 4.578392 199.771103
1.120000 -0.840000 -8.960000 -14.467786 -6.188307 247.611969
1.120000 -0.840000 -8.920000 -3.864172 -13.709824 202.891083
1.120000 -0.840000 -8.880000 10.772267 -8.124047 182.041885
1.120000 -0.840000 -8.840000 16.160818 9.222631 346.228943
1.120000 -0.840000 -8.800000 5.984304 26.118259 717.975342
1.120000 -0.800000 -9.200000 -16.132832 -10.623721 373.131714
1.120000 -0.800000 -9.160000 -10.997074 -22.874363 644.172119
1.120000 -0.800000 -9.120000 3.720016 -26.645452 723.818665
1.120000 -0.800000 -9.080000 16.798405 -17.293854 581.263794
1.120000 -0.800000 -9.040000 18.509186 -1.933636 346.328918
1.120000 -0.800000 -9.000000 9.919045 7.974436 161.979080
1.120000 -0.800000 -8.960000 0.732981 8.109762 66.305504
1.120000 -0.800000 -8.920000 -1.565670 4.550751 23.160654
1.120000 -0.800000 -8.880000 0.716190 5.883545 35.129028
1.120000 -0.800000 -8.840000 -0.939721 13.289170 177.485123
1.120000 -0.800000 -8.800000 -11.225249 19.397480 502.268463
1.160000 -1.200000 -9.200000 0.905570 -10.877461 119.139221
1.160000 -1.200000 -9.160000 18.790737 -8.490963 425.188232
1.160000 -1.200000 -9.120000 30.987553 6.532331 1002.899780
1.160000 -1.200000 -9.080000 30.021446 26.930302 1626.528320
1.160000 -1.200000 -9.040000 15.768282 42.118813 2022.633057
1.160000 -1.200000 -9.000000 -4.294121 44.721241 2018.428833
1.160000 -1.200000 -8.960000 -20.088940 35.182133 1641.347900
1.160000 -1.200000 -8.920000 -25.759235 20.754242 1094.276733
1.160000 -1.200000 -8.880000 -22.985294 9.478308 618.162048
1.160000 -1.200000 -8.840000 -18.050144 4.148907 343.021149
1.160000 -1.200000 -8.800000 -15.396538 1.474011 239.226089
1.160000 -1.160000 -9.200000 12.253952 -0.777277 150.763504
1.160000 -1.160000 -9.160000 16.512409 9.437119 361.718872
1.160000 -1.160000 -9.120000 15.044902 19.993801 626.101135
1.160000 -1.160000 -9.080000 8.764404 28.480742 887.967407
1.160000 -1.160000 -9.040000 -0.876577 32.926178 1084.901611
1.160000 -1.160000 -9.000000 -11.316356 31.978148 1150.661865
1.160000 -1.160000 -8.960000 -19.279253 26.185001 1057.343872
1.160000 -1.160000 -8.920000 -22.735298 18.333914 853.026184
1.160000 -1.160000 -8.880000 -22.419647 11.471170 634.228333
1.160000 -1.160000 -8.840000 -20.634148 6.415462 466.926208
1.160000 -1.160000 -8.800000 -18.284088 1.789773 337.511169
1.160000 -1.120000 -9.200000 7.133637 15.756590 299.158905
1.160000 -1.120000 -9.160000 -2.579212 18.415794 345.793823
1.160000 -1.120000 -9.120000 -7.711749 14.774810 277.766083
1.160000 -1.120000 -9.080000 -6.742826 12.094048 191.731705
1.160000 -1.120000 -9.040000 -4.637989 14.658676 236.387726
1.160000 -1.120000 -9.000000 -7.017390 20.347012 463.244659
1.160000 -1.120000 -8.960000 -14.842346 23.545692 774.694885
1.160000 -1.120000 -8.920000 -24.165762 20.497913 1004.148560
1.160000 -1.120000 -8.880000 -29.907967 11.934281 1036.913574
1.160000 -1.120000 -8.840000 -29.388462 1.721897 866.646606
1.160000 -1.120000 -8.800000 -23.098083 -5.927688 568.658936
1.160000 -1.080000 -9.200000 -12.024750 19.740644 534.287659
1.160000 -1.080000 -9.160000 -22.540543 6.340839 548.282288
1.160000 -1.080000 -9.120000 -17.289562 -8.073469 364.109863
1.160000 -1.080000 -9.080000 -2.632925 -10.390713 114.899208
1.160000 -1.080000 -9.040000 7.417750 1.692089 57.886189
1.160000 -1.080000 -9.000000 3.069634 18.398697 347.934692
1.160000 -1.080000 -8.960000 -13.676291 26.444042 886.328247
1.160000 -1.080000 -8.920000 -31.494545 19.603260 1376.194214
1.160000 -1.080000 -8.880000 -39.054604 2.624169 1532.148315
1.160000 -1.080000 -8.840000 -33.060974 -13.485064 1274.874878
1.160000 -1.080000 -8.800000 -19.235409 -19.821369 762.887634
1.160000 -1.040000 -9.200000 -26.757296 4.495382 736.161316
1.160000 -1.040000 -9.160000 -23.866074 -18.149776 899.003906
1.160000 -1.040000 -9.120000 -3.665121 -29.322115 873.219543
1.160000 -1.040000 -9.080000 18.116264 -19.342815 702.343506
1.160000 -1.040000 -9.040000 23.929100 5.224268 599.894775
1.160000 -1.040000 -9.000000 8.091797 26.405260 762.714905
1.160000 -1.040000 -8.960000 -18.853283 28.697563 1178.996338
1.160000 -1.040000 -8.920000 -38.560093 10.749214 1602.426392
1.160000 -1.040000 -8.880000 -38.975880 -14.392545 1726.264526
1.160000 -1.040000 -8.840000 -22.672255 -30.072651 1418.395508
1.160000 -1.040000 -8.800000 -3.315451 -28.540474 825.550842
1.160000 -1.000000 -9.200000 -22.311800 -16.636963 774.604980
1.160000 -1.000000 -9.160000 -4.416644 -32.993050 1108.048096
1.160000 -1.000000 -9.120000 21.140041 -29.653942 1326.257568
1.160000 -1.000000 -9.080000 36.192673 -6.685781 1354.609253
1.160000 -1.000000 -9.040000 28.536743 21.291786 1267.685791
1.160000 -1.000000 -9.000000 1.722031 34.857937 1218.041138
1.160000 -1.000000 -8.960000 -26.618469 24.205643 1294.456055
1.160000 -1.000000 -8.920000 -37.686596 -3.130491 1430.079468
1.160000 -1.000000 -8.880000 -25.714819 -28.050388 1448.076172
1.160000 -1.000000 -8.840000 -1.797550 -34.808159 1214.839111
1.160000 -1.000000 -8.800000 15.855316 -22.734211 768.235413
1.160000 -0.960000 -9.200000 -3.421232 -24.439180 608.978394
1.160000 -0.960000 -9.160000 17.357014 -25.309813 941.852539
1.160000 -0.960000 -9.120000 33.818810 -9.795161 1239.657104
1.160000 -0.960000 -9.080000 34.315712 14.645527 1392.059570
1.160000 -0.960000 -9.040000 16.104048 33.176846 1360.043457
1.160000 -0.960000 -9.000000 -10.856068 32.897022 1200.068359
1.160000 -0.960000 -8.960000 -29.284462 12.879469 1023.460449
1.160000 -0.960000 -8.920000 -26.970535 -13.679096 914.527466
1.160000 -0.960000 -8.880000 -6.592847 -28.724977 868.589966
1.160000 -0.960000 -8.840000 16.077450 -23.410570 806.539185
1.160000 -0.960000 -8.800000 25.095093 -4.866240 653.443970
1.160000 -0.920000 -9.200000 11.145014 -14.185337 325.435120
1.160000 -0.920000 -9.160000 21.322033 -5.006334 479.692474
1.160000 -0.920000 -9.120000 23.467682 9.436125 639.772583
1.160000 -0.920000 -9.080000 15.200412 22.860613 753.660156
1.160000 -0.920000 -9.040000 -1.050344 27.698662 768.319092
1.160000 -0.920000 -9.000000 -16.958416 19.429726 665.102112
1.160000 -0.920000 -8.960000 -22.126762 1.610139 492.186188
1.160000 -0.920000 -8.920000 -12.086462 -14.318104 351.090668
1.160000 -0.920000 -8.880000 6.513413 -16.908535 328.323120
1.160000 -0.920000 -8.840000 20.027012 -4.486890 421.213379
1.160000 -0.920000 -8.800000 19.058777 12.848217 528.313660
1.160000 -0.880000 -9.200000 9.048753 0.080191 81.886360
1.160000 -0.880000 -9.160000 6.747985 5.762197 78.738220
1.160000 -0.880000 -9.120000 3.128704 8.467270 81.483444
1.160000 -0.880000 -9.080000 -0.514956 9.648766 93.363861
1.160000 -0.880000 -9.040000 -4.867444 9.229607 108.877647
1.160000 -0.880000 -9.000000 -8.741466 5.427468 105.870636
1.160000 -0.880000 -8.960000 -8.296525 -1.159557 70.176903
1.160000 -0.880000 -8.920000 -1.518414 -5.425060 31.736856
1.160000 -0.880000 -8.880000 7.500017 -1.846630 59.660294
1.160000 -0.880000 -8.840000 10.829782 9.040354 199.012161
1.160000 -0.880000 -8.800000 4.284142 19.694431 406.224518
1.160000 -0.840000 -9.200000 -2.764507 1.672406 10.439441
1.160000 -0.840000 -9.160000 -7.233749 -3.692552 65.962067
1.160000 -0.840000 -9.120000 -3.751438 -10.392571 122.078827
1.160000 -0.840000 -9.080000 4.569244 -10.676369 134.862839
1.160000 -0.840000 -9.040000 9.839234 -3.849661 111.630417
1.160000 -0.840000 -9.000000 8.187136 3.909735 82.315216
1.160000 -0.840000 -8.960000 3.055559 7.116090 59.975174
1.160000 -0.840000 -8.920000 -0.035455 6.657858 44.328331
1.160000 -0.840000 -8.880000 -0.259970 7.375680 54.468239
1.160000 -0.840000 -8.840000 -1.831611 11.301965 131.089203
1.160000 -0.840000 -8.800000 -8.146452 14.952647 289.946350
1.160000 -0.800000 -9.200000 -6.595088 -10.224310 148.031708
1.160000 -0.800000 -9.160000 -2.467661 -21.152376 453.512360
1.160000 -0.800000 -9.120000 11.795944 -25.167950 772.570007
1.160000 -0.800000 -9.080000 26.144138 -15.652936 928.530396
1.160000 -0.800000 -9.040000 29.317732 2.365976 865.127258
1.160000 -0.800000 -9.000000 19.308428 16.978022 661.068604
1.160000 -0.800000 -8.960000 4.284884 20.438091 436.075806
1.160000 -0.800000 -8.920000 -6.080561 15.024055 262.695465
1.160000 -0.800000 -8.880000 -9.178435 8.652191 159.104095
1.160000 -0.800000 -8.840000 -9.642621 6.176257 131.126282
1.160000 -0.800000 -8.800000 -12.569086 5.758843 191.146194
1.200000 -1.200000 -9.200000 5.399683 2.195683 33.977600
1.200000 -1.200000 -9.160000 9.675183 15.100080 321.621613
1.200000 -1.200000 -9.120000 3.275754 26.457354 710.722168
1.200000 -1.200000 -9.080000 -8.019936 30.443970 991.154663
1.200000 -1.200000 -9.040000 -18.050911 28.008522 1110.312744
1.200000 -1.200000 -9.000000 -25.095253 22.906088 1154.460571
1.200000 -1.200000 -8.960000 -30.607347 16.676102 1214.902100
1.200000 -1.200000 -8.920000 -34.931812 8.107118 1285.956909
1.200000 -1.200000 -8.880000 -35.666042 -3.327646 1283.139771
1.200000 -1.200000 -8.840000 -30.293610 -14.940227 1140.913086
1.200000 -1.200000 -8.800000 -19.500488 -22.382927 881.264465
1.200000 -1.160000 -9.200000 4.254945 10.215981 122.470810
1.200000 -1.160000 -9.160000 -2.799391 20.217093 416.567413
1.200000 -1.160000 -9.120000 -13.684049 22.302563 684.657471
1.200000 -1.160000 -9.080000 -21.778349 18.118893 802.590759
1.200000 -1.160000 -9.040000 -25.470016 12.674995 809.377258
1.200000 -1.160000 -9.000000 -27.521284 8.580402 831.044373
1.200000 -1.160000 -8.960000 -30.310852 4.281063 937.075256
1.200000 -1.160000 -8.920000 -32.632172 -2.744205 1072.389282
1.200000 -1.160000 -8.880000 -31.146948 -12.165679 1118.136108
1.200000 -1.160000 -8.840000 -24.155901 -20.473995 1002.692017
1.200000 -1.160000 -8.800000 -13.433409 -23.981678 755.577393
1.200000 -1.120000 -9.200000 -6.180043 13.481173 219.934952
1.200000 -1.120000 -9.160000 -17.639267 12.938784 478.555847
1.200000 -1.120000 -9.120000 -24.595741 5.684736 637.266724
1.200000 -1.120000 -9.080000 -24.880074 -2.033741 623.154175
1.200000 -1.120000 -9.040000 -21.997597 -5.706144 516.454346
1.200000 -1.120000 -9.000000 -20.809734 -5.989246 468.916107
1.200000 -1.120000 -8.960000 -22.798582 -6.988639 568.616394
1.200000 -1.120000 -8.920000 -25.128138 -11.752874 769.553345
1.200000 -1.120000 -8.880000 -23.677582 -19.355684 935.270386
1.200000 -1.120000 -8.840000 -16.772995 -25.759504 944.885437
1.200000 -1.120000 -8.800000 -6.477179 -26.970076 769.338806
1.200000 -1.080000 -9.200000 -16.215334 4.612927 284.216125
1.200000 -1.080000 -9.160000 -21.941864 -4.877752 505.237854
1.200000 -1.080000 -9.120000 -19.955120 -14.681195 613.744324
1.200000 -1.080000 -9.080000 -13.092585 -19.425428 548.763062
1.200000 -1.080000 -9.040000 -6.954849 -17.911703 369.199036
1.200000 -1.080000 -9.000000 -5.748898 -13.602926 218.089417
1.200000 -1.080000 -8.960000 -9.293930 -11.758484 224.639084
1.200000 -1.080000 -8.920000 -13.271389 -15.360943 412.088318
1.200000 -1.080000 -8.880000 -12.583981 -22.680912 672.780334
1.200000 -1.080000 -8.840000 -5.436894 -28.343706 832.925476
1.200000 -1.080000 -8.800000 4.861680 -27.321987 770.126892
1.200000 -1.040000 -9.200000 -14.155932 -10.401080 308.572876
1.200000 -1.040000 -9.160000 -10.205536 -19.662468 490.765594
1.200000 -1.040000 -9.120000 -2.025663 -24.297394 594.466675
1.200000 -1.040000 -9.080000 6.561653 -22.888393 566.933838
1.200000 -1.040000 -9.040000 11.455738 -16.639860 408.118896
1.200000 -1.040000 -9.000000 10.154060 -9.596167 195.191345
1.200000 -1.040000 -8.960000 4.029942 -6.911364 64.007378
1.200000 -1.040000 -8.920000 -1.504429 -11.060404 124.595840
1.200000 -1.040000 -8.880000 -0.684043 -18.928928 358.772247
1.200000 -1.040000 -8.840000 7.357841 -23.423300 602.788818
1.200000 -1.040000 -8.800000 16.862251 -19.435421 662.071106
1.200000 -1.000000 -9.200000 0.100206 -17.683458 312.714752
1.200000 -1.000000 -9.160000 8.097364 -18.890200 422.406952
1.200000 -1.000000 -9.120000 14.799637 -16.724304 498.731628
1.200000 -1.000000 -9.080000 19.847605 -11.896194 535.446899
1.200000 -1.000000 -9.040000 21.616749 -4.635841 488.774872
1.200000 -1.000000 -9.000000 18.017630 2.337641 330.099548
1.200000 -1.000000 -8.960000 10.396722 4.245075 126.112488
1.200000 -1.000000 -8.920000 4.647859 -0.885633 22.386936
1.200000 -1.000000 -8.880000 6.372776 -8.539480 113.534996
1.200000 -1.000000 -8.840000 14.554948 -10.836560 329.277557
1.200000 -1.000000 -8.800000 21.357182 -4.390765 475.408020
1.200000 -0.960000 -9.200000 14.063841 -10.341891 304.746338
1.200000 -0.960000 -9.160000 16.853949 -4.392351 303.348328
1.200000 -0.960000 -9.120000 17.056362 -1.105183 292.140930
1.200000 -0.960000 -9.080000 18.507446 1.433558 344.580658
1.200000 -0.960000 -9.040000 19.562199 6.562386 425.744537
1.200000 -0.960000 -9.000000 16.150700 12.688837 421.851685
1.200000 -0.960000 -8.960000 8.687359 14.361657 281.727417
1.200000 -0.960000 -8.920000 3.298253 9.461191 100.392609
1.200000 -0.960000 -8.880000 5.094753 3.127439 35.737377
1.200000 -0.960000 -8.840000 11.577330 2.716701 141.415024
1.200000 -0.960000 -8.800000 14.684382 9.296431 302.054718
1.200000 -0.920000 -9.200000 15.731627 3.959522 263.161926
1.200000 -0.920000 -9.160000 9.584152 8.872555 170.578201
1.200000 -0.920000 -9.120000 5.881853 6.215573 73.229546
1.200000 -0.920000 -9.080000 8.955608 3.857549 95.083603
1.200000 -0.920000 -9.040000 13.356722 7.988022 242.210526
1.200000 -0.920000 -9.000000 11.717449 15.698873 383.753235
1.200000 -0.920000 -8.960000 4.095198 19.179672 384.630463
1.200000 -0.920000 -8.920000 -2.368763 15.521262 246.520615
1.200000 -0.920000 -8.880000 -2.324015 10.016500 105.731331
1.200000 -0.920000 -8.840000 1.532018 9.398068 90.670769
1.200000 -0.920000 -8.800000 2.236130 13.703434 192.784378
1.200000 -0.880000 -9.200000 6.222824 11.381198 168.255203
1.200000 -0.880000 -9.160000 -3.823714 8.157430 81.164452
1.200000 -0.880000 -9.120000 -3.863171 -1.588198 17.446459
1.200000 -0.880000 -9.080000 5.920843 -5.070405 60.765392
1.200000 -0.880000 -9.040000 14.445933 2.965061 217.476593
1.200000 -0.880000 -9.000000 12.431277 15.364063 390.591095
1.200000 -0.880000 -8.960000 1.776466 21.269154 455.532715
1.200000 -0.880000 -8.920000 -7.907451 17.562035 370.952820
1.200000 -0.880000 -8.880000 -10.244263 10.553152 216.313934
1.200000 -0.880000 -8.840000 -7.712640 7.562352 116.673981
1.200000 -0.880000 -8.800000 -6.813587 9.169701 130.508377
1.200000 -0.840000 -9.200000 -2.069830 6.893831 51.809109
1.200000 -0.840000 -9.160000 -7.708712 -3.749468 73.482742
1.200000 -0.840000 -9.120000 0.792149 -14.430137 208.856354
1.200000 -0.840000 -9.080000 16.433420 -12.082816 416.051758
1.200000 -0.840000 -9.040000 24.433325 3.587201 609.855347
1.200000 -0.840000 -9.000000 17.150530 20.283667 705.567810
1.200000 -0.840000 -8.960000 0.738198 25.700153 661.042786
1.200000 -0.840000 -8.920000 -12.249083 18.641378 497.541016
1.200000 -0.840000 -8.880000 -15.102325 7.956757 291.390198
1.200000 -0.840000 -8.840000 -11.337523 2.371183 134.161926
1.200000 -0.840000 -8.800000 -8.611567 2.878901 82.447151
1.200000 -0.800000 -9.200000 0.379273 -0.765702 0.730148
1.200000 -0.800000 -9.160000 2.496791 -11.708649 143.326416
1.200000 -0.800000 -9.120000 16.707426 -15.864092 530.807495
1.200000 -0.800000 -9.080000 31.285202 -4.474772 998.787415
1.200000 -0.800000 -9.040000 32.179893 16.673767 1313.560059
1.200000 -0.800000 -9.000000 16.664700 32.490471 1333.343018
1.200000 -0.800000 -8.960000 -4.528436 32.579666 1081.941406
1.200000 -0.800000 -8.920000 -17.684273 19.745295 702.610107
1.200000 -0.800000 -8.880000 -17.943497 5.597427 353.300293
1.200000 -0.800000 -8.840000 -11.354778 -0.791182 129.556946
1.200000 -0.800000 -8.800000 -7.107499 0.356209 50.643429
