#kx 	ky 	kz 	real 	imag 	intensity
2.800000 6.800000 4.800000 2.587179 -20.099676 410.690460
2.800000 6.800000 4.840000 3.319654 -7.902915 73.476173
2.800000 6.800000 4.880000 -6.123483 -4.059148 53.973724
2.800000 6.800000 4.920000 -12.645919 -13.113328 331.878632
2.800000 6.800000 4.960000 -5.609854 -25.755005 694.790710
2.800000 6.800000 5.000000 12.225302 -27.749521 919.493958
2.800000 6.800000 5.040000 27.021294 -13.981939 925.644958
2.800000 6.800000 5.080000 27.138954 6.619250 780.337280
2.800000 6.800000 5.120000 13.726553 20.042727 590.129150
2.800000 6.800000 5.160000 -1.863649 20.289074 415.119690
2.800000 6.800000 5.200000 -10.176059 13.043238 273.678223
2.800000 6.840000 4.800000 8.171846 -16.783560 348.466949
2.800000 6.840000 4.840000 2.109584 -6.306741 44.225323
2.800000 6.840000 4.880000 -8.404140 -9.338386 157.835007
2.800000 6.840000 4.920000 -8.460913 -22.304073 569.058716
2.800000 6.840000 4.960000 5.921355 -30.138826 943.411316
2.800000 6.840000 5.000000 23.252876 -21.858875 1018.506653
2.800000 6.840000 5.040000 28.115608 -2.013204 794.540405
2.800000 6.840000 5.080000 16.633106 13.963527 471.640289
2.800000 6.840000 5.120000 -0.340722 15.361988 236.106766
2.800000 6.840000 5.160000 -9.244676 5.990438 121.349365
2.800000 6.840000 5.200000 -7.501267 -1.853618 59.704910
2.800000 6.880000 4.800000 11.949888 -14.668767 357.972565
2.800000 6.880000 4.840000 3.212972 -9.652585 103.495590
2.800000 6.880000 4.880000 -2.606310 -17.422121 310.323151
2.800000 6.880000 4.920000 4.591397 -27.742302 790.716248
2.800000 6.880000 4.960000 20.296196 -26.957844 1138.660889
2.800000 6.880000 5.000000 30.280807 -12.693281 1078.046631
2.800000 6.880000 5.040000 25.737051 3.739333 676.378418
2.800000 6.880000 5.080000 12.229795 9.554060 240.847931
2.800000 6.880000 5.120000 2.945430 3.759975 22.812975
2.800000 6.880000 5.160000 4.098580 -3.027969 25.966959
2.800000 6.880000 5.200000 8.903795 -1.566887 81.732704
2.800000 6.920000 4.800000 18.053627 -11.947651 468.679810
2.800000 6.920000 4.840000 10.958611 -10.993651 240.951523
2.800000 6.920000 4.880000 10.672512 -17.938339 435.686523
2.800000 6.920000 4.920000 20.100552 -21.686348 874.329834
2.800000 6.920000 4.960000 30.919224 -15.075410 1183.266357
2.800000 6.920000 5.000000 33.445499 -2.221012 1123.534302
2.800000 6.920000 5.040000 27.142117 6.960515 785.143311
2.800000 6.920000 5.080000 20.136562 8.183075 472.443848
2.800000 6.920000 5.120000 18.846579 6.945087 403.427734
2.800000 6.920000 5.160000 20.167814 10.755136 522.413696
2.800000 6.920000 5.200000 15.547612 18.801567 595.227173
2.800000 6.960000 4.800000 24.968006 -3.342755 634.575317
2.800000 6.960000 4.840000 19.796217 -2.985861 400.805573
2.800000 6.960000 4.880000 20.856152 -6.256721 474.125610
2.800000 6.960000 4.920000 27.002798 -5.744453 762.149841
2.800000 6.960000 4.960000 32.197735 0.465159 1036.910522
2.800000 6.960000 5.000000 32.973789 8.596989 1161.178955
2.800000 6.960000 5.040000 31.077671 15.280218 1199.306763
2.800000 6.960000 5.080000 28.966042 21.602802 1305.712646
2.800000 6.960000 5.120000 24.806801 30.019070 1516.521973
2.800000 6.960000 5.160000 14.139662 38.316040 1668.048950
2.800000 6.960000 5.200000 -3.082733 39.110992 1539.172974
2.800000 7.000000 4.800000 25.419676 11.889318 787.515808
2.800000 7.000000 4.840000 19.359562 12.395181 528.433105
2.800000 7.000000 4.880000 17.852928 10.140752 421.561890
2.800000 7.000000 4.920000 20.375132 9.307145 501.768951
2.800000 7.000000 4.960000 24.726255 11.905766 753.134949
2.800000 7.000000 5.000000 28.705786 18.818386 1178.153809
2.800000 7.000000 5.040000 29.232599 30.368412 1776.785400
2.800000 7.000000 5.080000 22.060154 44.306870 2449.749023
2.800000 7.000000 5.120000 4.963485 54.108379 2952.353027
2.800000 7.000000 5.160000 -17.829643 51.790184 3000.119385
2.800000 7.000000 5.200000 -35.662590 34.698692 2475.819580
2.800000 7.040000 4.800000 14.032048 26.413082 894.549255
2.800000 7.040000 4.840000 5.730443 24.064835 611.954224
2.800000 7.040000 4.880000 2.793093 18.090321 335.061066
2.800000 7.040000 4.920000 6.602899 13.326717 221.199677
2.800000 7.040000 4.960000 14.839442 15.291407 454.036163
2.800000 7.040000 5.000000 20.644629 26.964539 1153.287109
2.800000 7.040000 5.040000 15.458172 44.660900 2233.551025
2.800000 7.040000 5.080000 -4.257645 57.637199 3340.174316
2.800000 7.040000 5.120000 -31.705126 54.554276 3981.384033
2.800000 7.040000 5.160000 -52.242001 32.940388 3814.295654
2.800000 7.040000 5.200000 -53.613224 3.092708 2883.942627
2.800000 7.080000 4.800000 -5.742205 30.425724 958.697571
2.800000 7.080000 4.840000 -13.440516 22.130672 670.414124
2.800000 7.080000 4.880000 -12.520008 11.367952 285.980957
2.800000 7.080000 4.920000 -2.747285 6.173786 45.663208
2.800000 7.080000 4.960000 8.606324 13.332902 251.835098
2.800000 7.080000 5.000000 9.613266 31.243242 1068.555054
2.800000 7.080000 5.040000 -6.986494 47.723927 2326.384277
2.800000 7.080000 5.080000 -35.395660 47.622574 3520.762207
2.800000 7.080000 5.120000 -58.444729 25.601715 4071.234131
2.800000 7.080000 5.160000 -60.246269 -7.457267 3685.223877
2.800000 7.080000 5.200000 -39.473297 -31.688366 2562.293701
2.800000 7.120000 4.800000 -23.385670 20.785252 978.916199
2.800000 7.120000 4.840000 -25.574390 7.387846 708.629700
2.800000 7.120000 4.880000 -16.811079 -3.746183 296.646240
2.800000 7.120000 4.920000 -1.891720 -3.150060 13.501480
2.800000 7.120000 4.960000 6.577947 11.535801 176.344086
2.800000 7.120000 5.000000 -2.453076 30.120680 913.272949
2.800000 7.120000 5.040000 -27.127733 35.581871 2001.983521
2.800000 7.120000 5.080000 -51.043644 18.351538 2942.232422
2.800000 7.120000 5.120000 -55.383030 -13.508767 3249.766846
2.800000 7.120000 5.160000 -35.167301 -39.148964 2769.380371
2.800000 7.120000 5.200000 -4.405270 -41.877411 1773.123901
2.800000 7.160000 4.800000 -30.308746 3.970772 934.387146
2.800000 7.160000 4.840000 -24.522709 -9.888451 699.144714
2.800000 7.160000 4.880000 -9.320963 -15.363487 322.917084
2.800000 7.160000 4.920000 4.839176 -6.156483 61.319901
2.800000 7.160000 4.960000 4.842019 11.993696 167.293900
2.800000 7.160000 5.000000 -12.506828 23.126987 691.278320
2.800000 7.160000 5.040000 -34.738056 14.221908 1408.995239
2.800000 7.160000 5.080000 -42.560532 -11.730594 1949.005615
2.800000 7.160000 5.120000 -26.853741 -36.188488 2030.730103
2.800000 7.160000 5.160000 2.104877 -40.413673 1637.695557
2.800000 7.160000 5.200000 22.842831 -22.039028 1007.513672
2.800000 7.200000 4.800000 -26.772051 -10.265467 822.122559
2.800000 7.200000 4.840000 -14.837146 -20.046665 622.009644
2.800000 7.200000 4.880000 1.420133 -17.461399 306.917236
2.800000 7.200000 4.920000 9.219790 -2.768079 92.666801
2.800000 7.200000 4.960000 0.864673 11.829550 140.685913
2.800000 7.200000 5.000000 -17.048681 11.895821 432.168091
2.800000 7.200000 5.040000 -27.603296 -5.102289 787.975342
2.800000 7.200000 5.080000 -18.746391 -25.600815 1006.828918
2.800000 7.200000 5.120000 4.547714 -31.294872 1000.050720
2.800000 7.200000 5.160000 23.713604 -16.087288 821.135864
2.800000 7.200000 5.200000 23.184580 7.747014 597.540955
2.840000 6.800000 4.800000 9.491446 -5.945892 125.441177
2.840000 6.800000 4.840000 2.994054 0.257186 9.030503
2.840000 6.800000 4.880000 -5.027655 -3.490000 37.457409
2.840000 6.800000 4.920000 -4.841592 -13.913870 217.036789
2.840000 6.800000 4.960000 6.121591 -20.781731 469.354218
2.840000 6.800000 5.000000 20.658497 -16.126842 686.848511
2.840000 6.800000 5.040000 28.184429 -1.267019 795.967407
2.840000 6.800000 5.080000 23.718069 14.878513 783.916992
2.840000 6.800000 5.120000 10.967846 23.807203 687.076599
2.840000 6.800000 5.160000 -2.511545 23.551773 560.993896
2.840000 6.800000 5.200000 -11.998888 17.571589 452.734009
2.840000 6.840000 4.800000 9.518407 -2.950556 99.305847
2.840000 6.840000 4.840000 4.027757 -0.754386 16.791924
2.840000 6.840000 4.880000 1.541516 -4.717804 24.633944
2.840000 6.840000 4.920000 5.723633 -8.542915 105.741371
2.840000 6.840000 4.960000 12.898201 -6.133199 203.979706
2.840000 6.840000 5.000000 16.095467 2.301842 264.362518
2.840000 6.840000 5.040000 12.096612 10.860289 264.273895
2.840000 6.840000 5.080000 4.058842 14.183616 217.649155
2.840000 6.840000 5.120000 -2.610697 12.311324 158.384430
2.840000 6.840000 5.160000 -6.011269 9.132753 119.542542
2.840000 6.840000 5.200000 -8.528103 6.802435 119.001663
2.840000 6.880000 4.800000 11.220987 -2.528264 132.302673
2.840000 6.880000 4.840000 9.755363 -0.002361 95.167122
2.840000 6.880000 4.880000 9.545928 2.013573 95.179214
2.840000 6.880000 4.920000 8.703876 5.477667 105.762306
2.840000 6.880000 4.960000 4.865047 8.550981 96.787956
2.840000 6.880000 5.000000 -0.603175 7.719200 59.949871
2.840000 6.880000 5.040000 -3.070265 2.778286 17.145399
2.840000 6.880000 5.080000 0.131708 -1.536360 2.377750
2.840000 6.880000 5.120000 5.665630 -0.023043 32.099899
2.840000 6.880000 5.160000 6.621508 6.791804 89.972969
2.840000 6.880000 5.200000 -0.199137 11.867379 140.874344
2.840000 6.920000 4.800000 16.131817 1.088730 261.420837
2.840000 6.920000 4.840000 15.167668 8.607845 304.153168
2.840000 6.920000 4.880000 9.224087 16.014141 341.536499
2.840000 6.920000 4.920000 -1.935287 17.996040 327.602814
2.840000 6.920000 4.960000 -12.140938 10.223292 251.918091
2.840000 6.920000 5.000000 -12.469229 -3.913092 170.793945
2.840000 6.920000 5.040000 -0.223988 -13.424883 180.277649
2.840000 6.920000 5.080000 16.101721 -8.763329 336.061340
2.840000 6.920000 5.120000 22.652645 8.380716 583.378723
2.840000 6.920000 5.160000 12.554405 24.834084 774.344788
2.840000 6.920000 5.200000 -6.955651 26.940468 774.169922
2.840000 6.960000 4.800000 18.085606 11.512805 459.633820
2.840000 6.960000 4.840000 10.981550 22.336226 619.501404
2.840000 6.960000 4.880000 -4.344225 26.617247 727.350159
2.840000 6.960000 4.920000 -20.167763 17.064617 697.939819
2.840000 6.960000 4.960000 -23.203449 -3.478078 550.497131
2.840000 6.960000 5.000000 -7.126001 -20.048958 452.740631
2.840000 6.960000 5.040000 18.262859 -16.914827 619.643433
2.840000 6.960000 5.080000 32.607323 7.106749 1113.743408
2.840000 6.960000 5.120000 22.334682 35.021751 1725.361084
2.840000 6.960000 5.160000 -6.309019 45.146832 2078.040283
2.840000 6.960000 5.200000 -31.776087 29.977226 1908.353760
2.840000 7.000000 4.800000 9.934916 23.637295 657.424194
2.840000 7.000000 4.840000 -5.208727 29.987690 926.392395
2.840000 7.000000 4.880000 -23.762653 22.679186 1079.009155
2.840000 7.000000 4.920000 -31.562046 1.027919 997.219421
2.840000 7.000000 4.960000 -17.877483 -20.969025 759.304382
2.840000 7.000000 5.000000 11.022955 -23.510712 674.259094
2.840000 7.000000 5.040000 32.751854 0.473851 1072.908447
2.840000 7.000000 5.080000 26.885155 35.463860 1980.496826
2.840000 7.000000 5.120000 -5.668065 54.286118 2979.109619
2.840000 7.000000 5.160000 -41.539574 41.496429 3447.489746
2.840000 7.000000 5.200000 -54.571735 7.246832 3030.590820
2.840000 7.040000 4.800000 -7.250076 27.227909 793.922607
2.840000 7.040000 4.840000 -24.137695 22.674475 1096.760132
2.840000 7.040000 4.880000 -34.570213 4.319852 1213.760742
2.840000 7.040000 4.920000 -26.350492 -18.562641 1038.920166
2.840000 7.040000 4.960000 -0.256195 -27.059744 732.295349
2.840000 7.040000 5.000000 24.971630 -9.178738 707.831543
2.840000 7.040000 5.040000 26.051231 25.540459 1330.981689
2.840000 7.040000 5.080000 -3.169912 50.274200 2537.543457
2.840000 7.040000 5.120000 -43.234505 43.248413 3739.647705
2.840000 7.040000 5.160000 -64.234528 7.844755 4187.614746
2.840000 7.040000 5.200000 -51.653194 -29.530472 3540.101318
2.840000 7.080000 4.800000 -23.336998 17.238153 841.769409
2.840000 7.080000 4.840000 -32.568901 3.442917 1072.586914
2.840000 7.080000 4.880000 -28.630619 -16.030779 1076.698242
2.840000 7.080000 4.920000 -8.761559 -27.147305 813.741028
2.840000 7.080000 4.960000 14.854408 -17.076550 512.261963
2.840000 7.080000 5.000000 21.563103 11.166787 589.664551
2.840000 7.080000 5.040000 0.646583 36.463142 1329.978882
2.840000 7.080000 5.080000 -35.769512 35.803795 2561.369629
2.840000 7.080000 5.120000 -60.209896 5.548995 3656.022949
2.840000 7.080000 5.160000 -53.159233 -33.276741 3933.245605
2.840000 7.080000 5.200000 -20.583466 -52.455349 3175.242676
2.840000 7.120000 4.800000 -28.228785 -0.504834 797.119141
2.840000 7.120000 4.840000 -25.713348 -15.010911 886.503723
2.840000 7.120000 4.880000 -11.688288 -25.030262 763.130127
2.840000 7.120000 4.920000 7.185501 -20.505287 472.098236
2.840000 7.120000 4.960000 16.009752 -0.752983 256.879150
2.840000 7.120000 5.000000 3.871679 20.426069 432.214203
2.840000 7.120000 5.040000 -23.670572 23.799292 1126.702393
2.840000 7.120000 5.080000 -45.798119 2.058231 2101.704102
2.840000 7.120000 5.120000 -43.222641 -31.176640 2840.179443
2.840000 7.120000 5.160000 -15.893536 -51.332680 2887.648438
2.840000 7.120000 5.200000 15.876506 -44.045208 2192.043701
2.840000 7.160000 4.800000 -21.270704 -14.756864 670.207886
2.840000 7.160000 4.840000 -11.165038 -22.373453 625.229492
2.840000 7.160000 4.880000 2.890361 -20.526854 429.705902
2.840000 7.160000 4.920000 11.259052 -7.702583 186.096039
2.840000 7.160000 4.960000 5.479171 7.823871 91.234268
2.840000 7.160000 5.000000 -12.460434 12.395082 308.900452
2.840000 7.160000 5.040000 -28.704376 -1.182339 825.339172
2.840000 7.160000 5.080000 -27.975197 -25.090763 1412.157959
2.840000 7.160000 5.120000 -7.614100 -41.129189 1749.584595
2.840000 7.160000 5.160000 18.438263 -36.045372 1639.238281
2.840000 7.160000 5.200000 30.944244 -13.706139 1145.404541
2.840000 7.200000 4.800000 -10.857677 -19.662603 504.507111
2.840000 7.200000 4.840000 -0.319872 -19.735569 389.595001
2.840000 7.200000 4.880000 7.414077 -11.870865 195.885971
2.840000 7.200000 4.920000 5.998162 -0.914218 36.813740
2.840000 7.200000 4.960000 -4.267845 3.830718 32.888905
2.840000 7.200000 5.000000 -14.543557 -3.396070 223.048355
2.840000 7.200000 5.040000 -13.986859 -18.152897 525.159912
2.840000 7.200000 5.080000 0.097315 -27.960175 781.780823
2.840000 7.200000 5.120000 18.334763 -22.864220 858.936035
2.840000 7.200000 5.160000 26.528450 -5.022243 728.981567
2.840000 7.200000 5.200000 18.156605 12.261986 480.018585
2.880000 6.800000 4.800000 2.560337 7.701350 65.866119
2.880000 6.800000 4.840000 -3.142630 4.257126 27.999241
2.880000 6.800000 4.880000 -3.780395 -3.029047 23.466509
2.880000 6.800000 4.920000 2.070196 -8.854006 82.679131
2.880000 6.800000 4.960000 11.340984 -8.806993 206.181061
2.880000 6.800000 5.000000 19.034966 -2.214336 367.233215
2.880000 6.800000 5.040000 21.516224 8.258495 531.150635
2.880000 6.800000 5.080000 17.753012 18.889847 671.995728
2.880000 6.800000 5.120000 8.586604 26.432814 772.423462
2.880000 6.800000 5.160000 -3.950737 28.191730 810.382019
2.880000 6.800000 5.200000 -16.178400 22.301510 759.097961
2.880000 6.840000 4.800000 0.464051 5.531906 30.817329
2.880000 6.840000 4.840000 2.888988 5.512753 38.736694
2.880000 6.840000 4.880000 4.313789 9.729385 113.269722
2.880000 6.840000 4.920000 0.555882 14.754106 217.992630
2.880000 6.840000 4.960000 -6.804375 14.793911 265.159302
2.880000 6.840000 5.000000 -11.235440 8.602993 200.246613
2.880000 6.840000 5.040000 -8.225626 1.926250 71.371361
2.880000 6.840000 5.080000 -0.993561 2.036027 5.132571
2.880000 6.840000 5.120000 1.847195 9.644245 96.423592
2.880000 6.840000 5.160000 -4.944359 16.944050 311.547516
2.880000 6.840000 5.200000 -16.896517 14.729944 502.463531
2.880000 6.880000 4.800000 3.492823 4.075495 28.809471
2.880000 6.880000 4.840000 7.008797 15.650051 294.047333
2.880000 6.880000 4.880000 -3.397469 29.740467 896.038147
2.880000 6.880000 4.920000 -25.698429 30.886869 1614.407959
2.880000 6.880000 4.960000 -43.468498 11.975636 2032.926270
2.880000 6.880000 5.000000 -40.259499 -15.843931 1871.857422
2.880000 6.880000 5.040000 -16.407087 -31.245321 1245.462646
2.880000 6.880000 5.080000 9.401302 -22.278294 584.706848
2.880000 6.880000 5.120000 16.650688 1.923925 280.946899
2.880000 6.880000 5.160000 1.882166 19.398413 379.840942
2.880000 6.880000 5.200000 -18.652191 15.851513 599.174683
2.880000 6.920000 4.800000 6.922339 9.105478 130.828522
2.880000 6.920000 4.840000 -1.024050 29.707357 883.575806
2.880000 6.920000 4.880000 -29.956100 38.486832 2378.604248
2.880000 6.920000 4.920000 -61.382927 17.843895 4086.268311
2.880000 6.920000 4.960000 -66.905098 -25.154491 5109.040527
2.880000 6.920000 5.000000 -35.626106 -60.058357 4876.225586
2.880000 6.920000 5.040000 12.186338 -58.945366 3623.062988
2.880000 6.920000 5.080000 40.943214 -22.688448 2191.112549
2.880000 6.920000 5.120000 31.235411 18.839695 1330.584961
2.880000 6.920000 5.160000 -3.413153 33.729916 1149.356812
2.880000 6.920000 5.200000 -30.605392 16.048565 1194.246460
2.880000 6.960000 4.800000 2.593554 17.805510 323.762695
2.880000 6.960000 4.840000 -21.910664 33.702797 1615.955688
2.880000 6.960000 4.880000 -59.026154 21.381157 3941.240723
2.880000 6.960000 4.920000 -76.811676 -23.333775 6444.498535
2.880000 6.960000 4.960000 -51.207325 -72.335434 7854.605469
2.880000 6.960000 5.000000 7.021221 -86.135071 7468.547852
2.880000 6.960000 5.040000 56.683678 -50.150787 5728.140625
2.880000 6.960000 5.080000 61.104408 9.398720 3822.084717
2.880000 6.960000 5.120000 20.851770 47.439358 2685.289062
2.880000 6.960000 5.160000 -27.667906 39.694908 2341.198730
2.880000 6.960000 5.200000 -46.253136 2.005273 2143.373779
2.880000 7.000000 4.800000 -10.497722 20.188213 517.766113
2.880000 7.000000 4.840000 -42.155708 18.439610 2117.123047
2.880000 7.000000 4.880000 -66.972610 -15.482996 4725.053711
2.880000 7.000000 4.920000 -54.982803 -65.560341 7321.266602
2.880000 7.000000 4.960000 -2.467799 -92.714294 8602.030273
2.880000 7.000000 5.000000 57.115330 -68.942299 8015.201172
2.880000 7.000000 5.040000 78.582863 -6.423156 6216.522949
2.880000 7.000000 5.080000 45.304474 49.276031 4480.622559
2.880000 7.000000 5.120000 -14.843380 58.225067 3610.484375
2.880000 7.000000 5.160000 -54.398495 20.642933 3385.326904
2.880000 7.000000 5.200000 -48.369762 -26.074017 3019.488281
2.880000 7.040000 4.800000 -22.915123 9.952654 624.158142
2.880000 7.040000 4.840000 -45.102020 -9.051704 2116.125488
2.880000 7.040000 4.880000 -44.910885 -47.657917 4288.264648
2.880000 7.040000 4.920000 -8.989097 -78.387260 6225.366211
2.880000 7.040000 4.960000 44.790840 -70.365082 6957.463867
2.880000 7.040000 5.000000 76.535439 -20.317966 6270.493164
2.880000 7.040000 5.040000 58.495304 38.529652 4906.234863
2.880000 7.040000 5.080000 2.251780 62.425392 3902.000244
2.880000 7.040000 5.120000 -49.221855 35.435474 3678.463867
2.880000 7.040000 5.160000 -58.960510 -16.710930 3755.596924
2.880000 7.040000 5.200000 -27.414951 -50.984001 3350.947998
2.880000 7.080000 4.800000 -23.657314 -7.450450 615.177734
2.880000 7.080000 4.840000 -27.260159 -30.026064 1644.680786
2.880000 7.080000 4.880000 -8.258424 -53.524670 2933.092041
2.880000 7.080000 4.920000 28.761536 -55.308464 3886.251953
2.880000 7.080000 4.960000 58.534714 -24.574274 4030.207764
2.880000 7.080000 5.000000 54.410896 22.232018 3454.808350
2.880000 7.080000 5.040000 14.127890 50.819847 2782.253906
2.880000 7.080000 5.080000 -34.113579 38.113396 2616.367188
2.880000 7.080000 5.120000 -54.247467 -5.974998 2978.488281
2.880000 7.080000 5.160000 -33.735817 -46.360420 3287.394043
2.880000 7.080000 5.200000 6.281614 -53.804276 2934.358887
2.880000 7.120000 4.800000 -11.785391 -19.340183 512.938110
2.880000 7.120000 4.840000 -2.526961 -31.214619 980.737976
2.880000 7.120000 4.880000 16.972651 -33.735416 1426.149170
2.880000 7.120000 4.920000 35.613884 -18.603432 1614.436401
2.880000 7.120000 4.960000 37.092724 9.167721 1459.917236
2.880000 7.120000 5.000000 14.886141 30.644434 1160.678589
2.880000 7.120000 5.040000 -18.106289 27.347973 1075.749268
2.880000 7.120000 5.080000 -37.430519 -1.182325 1402.441650
2.880000 7.120000 5.120000 -27.695889 -34.384621 1949.364380
2.880000 7.120000 5.160000 3.108898 -47.371780 2253.750977
2.880000 7.120000 5.200000 30.270172 -32.553520 1976.015015
2.880000 7.160000 4.800000 2.251346 -18.623695 351.910614
2.880000 7.160000 4.840000 11.066531 -17.176571 417.502686
2.880000 7.160000 4.880000 17.925957 -9.255816 407.010071
2.880000 7.160000 4.920000 17.428438 2.821062 311.708862
2.880000 7.160000 4.960000 7.066527 11.876245 190.981018
2.880000 7.160000 5.000000 -8.350761 9.859821 166.951294
2.880000 7.160000 5.040000 -17.880127 -4.720137 341.978638
2.880000 7.160000 5.080000 -12.580808 -23.093712 691.596252
2.880000 7.160000 5.120000 5.786621 -31.690611 1037.779785
2.880000 7.160000 5.160000 24.582853 -23.467590 1155.044434
2.880000 7.160000 5.200000 30.361626 -4.705202 943.967224
2.880000 7.200000 4.800000 7.676441 -10.922865 178.236725
2.880000 7.200000 4.840000 8.681812 -4.720861 97.660400
2.880000 7.200000 4.880000 4.983696 -0.150785 24.859957
2.880000 7.200000 4.920000 -0.767671 -0.146637 0.610821
2.880000 7.200000 4.960000 -4.649532 -4.963712 46.256584
2.880000 7.200000 5.000000 -3.510729 -12.032776 157.112900
2.880000 7.200000 5.040000 3.240604 -17.020199 300.188690
2.880000 7.200000 5.080000 12.744523 -16.064724 420.498230
2.880000 7.200000 5.120000 19.739441 -8.475321 461.476593
2.880000 7.200000 5.160000 19.812845 2.005972 396.572754
2.880000 7.200000 5.200000 12.923790 9.187370 251.432129
2.920000 6.800000 4.800000 -12.308207 11.101536 274.736023
2.920000 6.800000 4.840000 -10.070166 2.503544 107.675964
2.920000 6.800000 4.880000 -3.609200 -1.443365 15.109624
2.920000 6.800000 4.920000 2.390285 -0.582123 6.052332
2.920000 6.800000 4.960000 6.139946 2.144012 42.295727
2.920000 6.800000 5.000000 9.204656 5.206696 111.835365
2.920000 6.800000 5.040000 12.474991 10.448170 264.789642
2.920000 6.800000 5.080000 12.899967 19.719810 555.280029
2.920000 6.800000 5.120000 5.731558 30.049507 935.823669
2.920000 6.800000 5.160000 -9.193851 33.790550 1226.328125
2.920000 6.800000 5.200000 -24.228760 25.233526 1223.763672
2.920000 6.840000 4.800000 -11.285153 4.391159 146.636963
2.920000 6.840000 4.840000 -3.591110 11.165287 137.559708
2.920000 6.840000 4.880000 -9.093605 23.296665 625.428284
2.920000 6.840000 4.920000 -26.508049 24.613937 1308.522461
2.920000 6.840000 4.960000 -39.670460 8.186447 1640.763306
2.920000 6.840000 5.000000 -33.552620 -14.372723 1332.353516
2.920000 6.840000 5.040000 -10.781170 -22.969755 643.843323
2.920000 6.840000 5.080000 9.151169 -9.127474 167.054657
2.920000 6.840000 5.120000 8.366886 14.538857 281.383118
2.920000 6.840000 5.160000 -11.643534 25.923098 807.578918
2.920000 6.840000 5.200000 -31.218618 14.851401 1195.166260
2.920000 6.880000 4.800000 -6.102059 3.509873 49.554340
2.920000 6.880000 4.840000 -10.809328 26.523510 820.338135
2.920000 6.880000 4.880000 -41.961552 36.917988 3123.709717
2.920000 6.880000 4.920000 -76.367722 12.774078 5995.206055
2.920000 6.880000 4.960000 -80.012497 -36.300858 7719.751953
2.920000 6.880000 5.000000 -42.067616 -73.661629 7195.719727
2.920000 6.880000 5.040000 11.418434 -68.757355 4857.954590
2.920000 6.880000 5.080000 39.828823 -26.585571 2293.127930
2.920000 6.880000 5.120000 25.196667 16.529873 908.108704
2.920000 6.880000 5.160000 -12.439040 27.025558 885.110535
2.920000 6.880000 5.200000 -36.164368 4.151527 1325.096680
2.920000 6.920000 4.800000 -5.589117 8.618954 105.524590
2.920000 6.920000 4.840000 -34.503922 31.018372 2152.660156
2.920000 6.920000 4.880000 -82.389908 15.162701 7018.004395
2.920000 6.920000 4.920000 -104.301041 -44.444653 12854.034180
2.920000 6.920000 4.960000 -68.436142 -108.637970 16485.714844
2.920000 6.920000 5.000000 8.754051 -125.433136 15810.105469
2.920000 6.920000 5.040000 72.591377 -78.571571 11443.000000
2.920000 6.920000 5.080000 78.285782 -4.450697 6148.472168
2.920000 6.920000 5.120000 30.688400 40.612183 2591.127197
2.920000 6.920000 5.160000 -23.049204 30.857079 1483.425049
2.920000 6.920000 5.200000 -39.299858 -9.774657 1640.022827
2.920000 6.960000 4.800000 -13.477266 10.681454 295.730164
2.920000 6.960000 4.840000 -58.374527 11.293583 3535.130371
2.920000 6.960000 4.880000 -94.865677 -37.955109 10440.087891
2.920000 6.960000 4.920000 -76.371925 -112.260368 18435.062500
2.920000 6.960000 4.960000 2.063986 -152.769257 23342.705078
2.920000 6.960000 5.000000 90.626091 -119.371872 22462.730469
2.920000 6.960000 5.040000 125.155396 -31.061712 16628.703125
2.920000 6.960000 5.080000 84.332764 47.995422 9415.576172
2.920000 6.960000 5.120000 7.875335 65.021423 4289.806641
2.920000 6.960000 5.160000 -41.779144 23.192537 2283.390625
2.920000 6.960000 5.200000 -35.768322 -27.748001 2049.324219
2.920000 7.000000 4.800000 -22.067129 1.755733 490.040802
2.920000 7.000000 4.840000 -59.599613 -24.978516 4176.040039
2.920000 7.000000 4.880000 -61.232880 -87.618240 11426.421875
2.920000 7.000000 4.920000 -2.888821 -139.576752 19490.015625
2.920000 7.000000 4.960000 86.597656 -129.338303 24227.550781
2.920000 7.000000 5.000000 143.305145 -50.989433 23136.287109
2.920000 7.000000 5.040000 123.574997 44.143955 17219.468750
2.920000 7.000000 5.080000 44.325531 89.919739 10050.312500
2.920000 7.000000 5.120000 -31.922907 62.714821 4952.220703
2.920000 7.000000 5.160000 -53.198864 -1.281671 2831.761719
2.920000 7.000000 5.200000 -20.912601 -43.848469 2360.025146
2.920000 7.040000 4.800000 -19.474703 -14.267757 582.832947
2.920000 7.040000 4.840000 -31.537638 -52.226273 3722.206055
2.920000 7.040000 4.880000 -0.887172 -97.129547 9434.935547
2.920000 7.040000 4.920000 66.713692 -104.984329 15472.425781
2.920000 7.040000 4.960000 126.170052 -53.232647 18752.595703
2.920000 7.040000 5.000000 128.867020 31.827503 17619.699219
2.920000 7.040000 5.040000 67.548630 92.212051 13065.879883
2.920000 7.040000 5.080000 -14.052777 87.414398 7838.757324
2.920000 7.040000 5.120000 -58.432785 29.366501 4276.781738
2.920000 7.040000 5.160000 -43.567463 -30.469391 2826.507568
2.920000 7.040000 5.200000 2.482213 -48.642044 2372.209717
2.920000 7.080000 4.800000 -3.336061 -23.720293 573.781616
2.920000 7.080000 4.840000 7.198719 -49.682907 2520.212891
2.920000 7.080000 4.880000 44.239861 -61.443203 5732.432617
2.920000 7.080000 4.920000 86.827309 -36.657387 8882.745117
2.920000 7.080000 4.960000 99.871506 19.587294 10357.979492
2.920000 7.080000 5.000000 65.156288 72.250389 9465.460938
2.920000 7.080000 5.040000 1.488400 83.372070 6953.117676
2.920000 7.080000 5.080000 -47.971115 45.395622 4361.990234
2.920000 7.080000 5.120000 -51.754036 -11.285782 2805.849121
2.920000 7.080000 5.160000 -16.076607 -44.907764 2275.164551
2.920000 7.080000 5.200000 23.658932 -38.043068 2007.020020
2.920000 7.120000 4.800000 14.718596 -17.204493 512.631653
2.920000 7.120000 4.840000 28.562485 -21.517715 1278.827637
2.920000 7.120000 4.880000 46.863667 -11.725698 2333.695068
2.920000 7.120000 4.920000 54.975868 14.032665 3219.261963
2.920000 7.120000 4.960000 40.348328 42.979294 3475.207275
2.920000 7.120000 5.000000 5.876503 54.529377 3007.986084
2.920000 7.120000 5.040000 -28.332630 37.242325 2189.728516
2.920000 7.120000 5.080000 -39.470085 0.699841 1558.377319
2.920000 7.120000 5.120000 -21.161098 -30.438625 1374.302002
2.920000 7.120000 5.160000 10.759434 -36.454521 1444.697510
2.920000 7.120000 5.200000 32.081753 -18.541859 1373.039429
2.920000 7.160000 4.800000 20.133663 -0.528920 405.644135
2.920000 7.160000 4.840000 21.096439 6.790972 491.177063
2.920000 7.160000 4.880000 17.385616 14.110682 501.370972
2.920000 7.160000 4.920000 9.593279 18.871403 448.160858
2.920000 7.160000 4.960000 -0.818871 18.745075 352.048401
2.920000 7.160000 5.000000 -10.595745 11.797832 251.458649
2.920000 7.160000 5.040000 -14.527958 -1.222832 212.556870
2.920000 7.160000 5.080000 -8.553902 -14.891335 294.921082
2.920000 7.160000 5.120000 5.754513 -21.257860 485.011017
2.920000 7.160000 5.160000 20.451412 -15.920825 671.732910
2.920000 7.160000 5.200000 26.640697 -2.517696 716.065552
2.920000 7.200000 4.800000 10.945245 10.361895 227.167236
2.920000 7.200000 4.840000 -0.016835 13.097844 171.553818
2.920000 7.200000 4.880000 -9.378428 5.631876 119.672928
2.920000 7.200000 4.920000 -9.417454 -6.291825 128.275497
2.920000 7.200000 4.960000 -0.950928 -13.468672 182.309387
2.920000 7.200000 5.000000 8.404810 -12.110636 217.308319
2.920000 7.200000 5.040000 12.380096 -6.322659 193.242798
2.920000 7.200000 5.080000 11.570453 -2.420212 139.732803
2.920000 7.200000 5.120000 10.987941 -2.067886 125.010994
2.920000 7.200000 5.160000 13.401290 -1.640192 182.284805
2.920000 7.200000 5.200000 16.297602 2.398787 271.365997
2.960000 6.800000 4.800000 -24.936604 2.986704 630.754578
2.960000 6.800000 4.840000 -14.575531 -3.130266 222.244675
2.960000 6.800000 4.880000 -6.376762 -0.728781 41.194218
2.960000 6.800000 4.920000 -4.328762 3.401905 30.311138
2.960000 6.800000 4.960000 -4.335908 3.782440 33.106953
2.960000 6.800000 5.000000 -0.328236 2.685463 7.319450
2.960000 6.800000 5.040000 7.108105 7.275169 103.453247
2.960000 6.800000 5.080000 9.646347 20.118267 497.796661
2.960000 6.800000 5.120000 -0.152641 33.702972 1135.913696
2.960000 6.800000 5.160000 -19.247435 36.059063 1670.719727
2.960000 6.800000 5.200000 -34.532043 22.776842 1711.246582
2.960000 6.840000 4.800000 -19.293156 -4.078590 388.860748
2.960000 6.840000 4.840000 -15.744366 10.625053 360.776825
2.960000 6.840000 4.880000 -32.994370 19.741173 1478.342285
2.960000 6.840000 4.920000 -54.699944 5.005745 3017.141113
2.960000 6.840000 4.960000 -55.145916 -27.396019 3791.613770
2.960000 6.840000 5.000000 -26.369499 -50.119225 3207.287109
2.960000 6.840000 5.040000 11.121048 -40.950378 1800.611206
2.960000 6.840000 5.080000 26.463232 -5.802040 733.966370
2.960000 6.840000 5.120000 8.032498 25.637871 721.821411
2.960000 6.840000 5.160000 -25.407673 27.956875 1427.136719
2.960000 6.840000 5.200000 -43.273537 3.661690 1886.006958
2.960000 6.880000 4.800000 -13.964083 -3.599095 207.949097
2.960000 6.880000 4.840000 -36.071354 18.332924 1637.238647
2.960000 6.880000 4.880000 -78.015091 5.252747 6113.945801
2.960000 6.880000 4.920000 -96.275703 -48.718075 11642.461914
2.960000 6.880000 4.960000 -60.848114 -105.852623 14907.270508
2.960000 6.880000 5.000000 11.196289 -117.260933 13875.482422
2.960000 6.880000 5.040000 67.343460 -69.930916 9425.474609
2.960000 6.880000 5.080000 67.211319 -0.885307 4518.145020
2.960000 6.880000 5.120000 19.227440 36.741997 1719.668823
2.960000 6.880000 5.160000 -29.676834 22.129761 1370.440796
2.960000 6.880000 5.200000 -39.914360 -17.920307 1914.293579
2.960000 6.920000 4.800000 -15.439066 -1.806158 241.626968
2.960000 6.920000 4.840000 -61.903481 1.166948 3833.402832
2.960000 6.920000 4.880000 -100.278961 -51.419151 12699.798828
2.960000 6.920000 4.920000 -78.097260 -131.182831 23308.117188
2.960000 6.920000 4.960000 8.737843 -172.479767 29825.619141
2.960000 6.920000 5.000000 103.829453 -132.982330 28464.855469
2.960000 6.920000 5.040000 137.994141 -36.549561 20378.253906
2.960000 6.920000 5.080000 91.839417 46.022980 10552.593750
2.960000 6.920000 5.120000 11.639782 60.658463 3814.933594
2.960000 6.920000 5.160000 -36.253445 15.649442 1559.217285
2.960000 6.920000 5.200000 -25.878746 -33.671848 1803.502808
2.960000 6.960000 4.800000 -19.687943 -7.564268 444.833221
2.960000 6.960000 4.840000 -66.180283 -38.326160 5848.724121
2.960000 6.960000 4.880000 -67.643280 -115.549454 17927.289062
2.960000 6.960000 4.920000 6.277386 -178.882446 32038.335938
2.960000 6.960000 4.960000 117.627258 -163.989029 40728.574219
2.960000 6.960000 5.000000 186.491608 -66.054199 39142.277344
2.960000 6.960000 5.040000 161.702988 49.723949 28620.326172
2.960000 6.960000 5.080000 67.463158 104.170563 15402.783203
2.960000 6.960000 5.120000 -20.127867 73.138779 5754.411621
2.960000 6.960000 5.160000 -42.850594 3.020189 1845.294922
2.960000 6.960000 5.200000 -7.681772 -39.179066 1594.008789
2.960000 7.000000 4.800000 -15.543476 -20.204676 649.828552
2.960000 7.000000 4.840000 -34.954929 -72.629745 6496.927246
2.960000 7.000000 4.880000 8.060280 -136.743988 18763.886719
2.960000 7.000000 4.920000 104.553581 -147.671448 32738.308594
2.960000 7.000000 4.960000 188.969360 -74.064568 41194.976562
2.960000 7.000000 5.000000 193.681976 45.212624 39556.886719
2.960000 7.000000 5.040000 111.208046 129.735245 29198.464844
2.960000 7.000000 5.080000 2.695255 126.921265 16116.272461
2.960000 7.000000 5.120000 -56.599220 55.846336 6322.285156
2.960000 7.000000 5.160000 -41.862755 -15.735235 2000.087891
2.960000 7.000000 5.200000 7.998917 -35.816292 1346.789429
2.960000 7.040000 4.800000 1.745562 -27.453476 756.740356
2.960000 7.040000 4.840000 14.988050 -72.376785 5463.040527
2.960000 7.040000 4.880000 76.012268 -95.017387 14806.167969
2.960000 7.040000 4.920000 148.379074 -55.742310 25123.554688
2.960000 7.040000 4.960000 172.661682 36.589912 31150.878906
2.960000 7.040000 5.000000 119.726959 124.121376 29740.660156
2.960000 7.040000 5.040000 20.605198 147.091660 22060.531250
2.960000 7.040000 5.080000 -58.027924 95.457581 12479.389648
2.960000 7.040000 5.120000 -70.735489 15.754480 5251.712891
2.960000 7.040000 5.160000 -28.675089 -32.579857 1883.707764
2.960000 7.040000 5.200000 18.222729 -28.135258 1123.660522
2.960000 7.080000 4.800000 22.159542 -17.780418 807.188599
2.960000 7.080000 4.840000 47.960968 -34.988678 3524.461914
2.960000 7.080000 4.880000 89.976967 -21.167536 8543.918945
2.960000 7.080000 4.920000 113.528305 30.763176 13835.048828
2.960000 7.080000 4.960000 89.477127 93.446022 16738.316406
2.960000 7.080000 5.000000 23.060791 123.609322 15811.064453
2.960000 7.080000 5.040000 -46.065449 98.363083 11797.321289
2.960000 7.080000 5.080000 -75.250977 35.722122 6938.779297
2.960000 7.080000 5.120000 -53.578297 -20.628305 3296.160645
2.960000 7.080000 5.160000 -7.921720 -38.222240 1523.693359
2.960000 7.080000 5.200000 23.865170 -19.914789 966.145142
2.960000 7.120000 4.800000 28.847023 5.481610 862.198792
2.960000 7.120000 4.840000 41.448753 10.722031 1832.961060
2.960000 7.120000 4.880000 49.079628 30.233692 3322.885986
2.960000 7.120000 4.920000 39.030205 56.585861 4725.316406
2.960000 7.120000 4.960000 8.694023 72.763260 5370.078125
2.960000 7.120000 5.000000 -28.991009 64.202362 4962.421875
2.960000 7.120000 5.040000 -52.811069 31.485582 3780.351074
2.960000 7.120000 5.080000 -48.881248 -7.994526 2453.288818
2.960000 7.120000 5.120000 -21.634836 -32.267475 1509.256104
2.960000 7.120000 5.160000 9.835097 -31.103661 1064.166870
2.960000 7.120000 5.200000 27.035816 -12.335409 883.097656
2.960000 7.160000 4.800000 15.592453 24.768023 856.579529
2.960000 7.160000 4.840000 7.046318 30.449593 976.828247
2.960000 7.160000 4.880000 -4.021189 29.606262 892.700745
2.960000 7.160000 4.920000 -12.346725 23.284315 694.600952
2.960000 7.160000 4.960000 -16.643448 15.241463 509.306549
2.960000 7.160000 5.000000 -18.606291 6.894203 393.724091
2.960000 7.160000 5.040000 -18.248970 -3.084442 342.538696
2.960000 7.160000 5.080000 -12.393305 -14.273781 357.334839
2.960000 7.160000 5.120000 0.981920 -21.568363 466.158478
2.960000 7.160000 5.160000 17.755947 -18.637962 662.647278
2.960000 7.160000 5.200000 28.811804 -4.829952 853.448486
2.960000 7.200000 4.800000 -5.028357 25.013874 650.978271
2.960000 7.200000 4.840000 -21.262730 15.940856 706.214539
2.960000 7.200000 4.880000 -24.958466 -4.543849 643.571533
2.960000 7.200000 4.920000 -11.419712 -20.673996 557.823975
2.960000 7.200000 4.960000 7.920481 -20.302044 474.906982
2.960000 7.200000 5.000000 17.130936 -7.230701 345.752014
2.960000 7.200000 5.040000 12.067960 3.394009 157.154938
2.960000 7.200000 5.080000 3.766743 1.525554 16.515665
2.960000 7.200000 5.120000 5.547920 -7.426072 85.925964
2.960000 7.200000 5.160000 18.143135 -9.216489 414.117004
2.960000 7.200000 5.200000 28.848686 3.182675 842.376099
3.000000 6.800000 4.800000 -29.022663 -10.517540 952.933655
3.000000 6.800000 4.840000 -15.863365 -10.574688 363.470367
3.000000 6.800000 4.880000 -10.222124 -4.472073 124.491257
3.000000 6.800000 4.920000 -10.967836 -1.461929 122.430672
3.000000 6.800000 4.960000 -9.925121 -3.833588 113.204430
3.000000 6.800000 5.000000 -2.204086 -4.577576 25.812195
3.000000 6.800000 5.040000 6.839630 4.222281 64.608192
3.000000 6.800000 5.080000 6.187292 20.983330 478.582733
3.000000 6.800000 5.120000 -8.886397 33.833672 1223.685303
3.000000 6.800000 5.160000 -30.057579 31.332346 1885.173950
3.000000 6.800000 5.200000 -42.284462 14.185068 1989.191895
3.000000 6.840000 4.800000 -21.445284 -15.682951 705.855164
3.000000 6.840000 4.840000 -27.027271 -1.445829 732.563782
3.000000 6.840000 4.880000 -47.779861 -5.540543 2313.612549
3.000000 6.840000 4.920000 -56.864368 -34.272980 4408.193359
3.000000 6.840000 4.960000 -34.417404 -65.269806 5444.705078
3.000000 6.840000 5.000000 9.441635 -67.778000 4683.001953
3.000000 6.840000 5.040000 41.194698 -33.768105 2837.288086
3.000000 6.840000 5.080000 35.051746 11.975273 1372.031982
3.000000 6.840000 5.120000 -2.234621 34.017265 1162.167847
3.000000 6.840000 5.160000 -37.946125 19.015896 1801.512695
3.000000 6.840000 5.200000 -44.606758 -13.490979 2171.769287
3.000000 6.880000 4.800000 -16.817122 -16.244333 546.693970
3.000000 6.880000 4.840000 -49.046623 -11.352077 2534.440918
3.000000 6.880000 4.880000 -76.998940 -50.217026 8450.586914
3.000000 6.880000 4.920000 -57.682812 -110.644112 15569.425781
3.000000 6.880000 4.960000 12.132538 -139.618774 19640.601562
3.000000 6.880000 5.000000 86.175293 -103.722397 18184.517578
3.000000 6.880000 5.040000 108.742798 -24.076305 12404.664062
3.000000 6.880000 5.080000 66.200317 40.681122 6037.435547
3.000000 6.880000 5.120000 -1.224813 47.590191 2266.326416
3.000000 6.880000 5.160000 -38.608101 6.236855 1529.483765
3.000000 6.880000 5.200000 -26.482513 -35.795540 1982.644287
3.000000 6.920000 4.800000 -15.375689 -19.251715 607.040283
3.000000 6.920000 4.840000 -56.897018 -45.472397 5305.009766
3.000000 6.920000 4.880000 -56.638653 -115.956360 16653.814453
3.000000 6.920000 4.920000 14.339188 -172.557526 29981.710938
3.000000 6.920000 4.960000 118.633850 -154.476929 37937.109375
3.000000 6.920000 5.000000 179.962036 -59.390533 35913.570312
3.000000 6.920000 5.040000 152.035126 48.785809 25494.734375
3.000000 6.920000 5.080000 61.310875 95.863014 12948.741211
3.000000 6.920000 5.120000 -18.745253 62.730312 4286.476562
3.000000 6.920000 5.160000 -35.555202 -3.287260 1274.978394
3.000000 6.920000 5.200000 -0.103596 -39.093002 1528.273560
3.000000 6.960000 4.800000 -9.535987 -26.805977 809.495483
3.000000 6.960000 4.840000 -30.398308 -81.726776 7603.323242
3.000000 6.960000 4.880000 17.188000 -149.740799 22717.734375
3.000000 6.960000 4.920000 122.340485 -158.775238 40176.769531
3.000000 6.960000 4.960000 211.926498 -76.107330 50705.164062
3.000000 6.960000 5.000000 213.483383 53.164658 48401.636719
3.000000 6.960000 5.040000 122.669800 141.366364 35032.328125
3.000000 6.960000 5.080000 8.280521 135.218933 18352.726562
3.000000 6.960000 5.120000 -50.486122 59.916447 6138.829102
3.000000 6.960000 5.160000 -32.390461 -10.898211 1167.912964
3.000000 6.960000 5.200000 17.046013 -26.019264 967.568726
3.000000 7.000000 4.800000 6.254885 -30.701607 981.712280
3.000000 7.000000 4.840000 21.641489 -87.236320 8078.529785
3.000000 7.000000 4.880000 98.850677 -115.550446 23123.361328
3.000000 7.000000 4.920000 189.743408 -64.761139 40196.566406
3.000000 7.000000 4.960000 218.531281 51.690762 50427.855469
3.000000 7.000000 5.000000 151.233673 159.348663 48263.617188
3.000000 7.000000 5.040000 30.047991 185.682358 35380.820312
3.000000 7.000000 5.080000 -62.563065 123.112022 19070.707031
3.000000 7.000000 5.120000 -75.690842 31.553600 6724.733398
3.000000 7.000000 5.160000 -28.455446 -19.669508 1196.601929
3.000000 7.000000 5.200000 18.436899 -11.674751 476.219055
3.000000 7.040000 4.800000 25.602842 -20.059084 1057.872437
3.000000 7.040000 4.840000 63.808968 -49.949120 6566.499023
3.000000 7.040000 4.880000 129.612579 -31.226257 17774.500000
3.000000 7.040000 4.920000 167.224091 47.262363 30197.626953
3.000000 7.040000 4.960000 132.077240 141.619690 37500.531250
3.000000 7.040000 5.000000 34.860767 186.204269 35887.304688
3.000000 7.040000 5.040000 -63.626457 150.351974 26654.042969
3.000000 7.040000 5.080000 -103.654404 64.493073 14903.591797
3.000000 7.040000 5.120000 -75.368790 -8.759319 5757.180176
3.000000 7.040000 5.160000 -20.105902 -29.379654 1267.411377
3.000000 7.040000 5.200000 13.039976 -8.032285 234.558563
3.000000 7.080000 4.800000 33.115883 4.989070 1121.552612
3.000000 7.080000 4.840000 64.331352 6.370907 4179.111328
3.000000 7.080000 4.880000 90.006104 43.811718 10020.565430
3.000000 7.080000 4.920000 77.244598 101.306900 16229.816406
3.000000 7.080000 4.960000 19.405884 139.127930 19733.167969
3.000000 7.080000 5.000000 -53.797501 126.322052 18851.431641
3.000000 7.080000 5.040000 -98.631424 67.748222 14317.980469
3.000000 7.080000 5.080000 -92.432800 0.356380 8543.949219
3.000000 7.080000 5.120000 -49.653767 -37.598068 3879.111328
3.000000 7.080000 5.160000 -5.648832 -35.586529 1298.310303
3.000000 7.080000 5.200000 14.336302 -12.821931 369.931458
3.000000 7.120000 4.800000 19.465519 29.268007 1235.522705
3.000000 7.120000 4.840000 24.893944 41.146606 2312.751709
3.000000 7.120000 4.880000 17.079689 60.462379 3947.415039
3.000000 7.120000 4.920000 -7.777153 73.359116 5442.043945
3.000000 7.120000 4.960000 -40.783073 66.961197 6147.060547
3.000000 7.120000 5.000000 -65.405510 39.188786 5813.641602
3.000000 7.120000 5.040000 -68.412308 1.052624 4681.351562
3.000000 7.120000 5.080000 -48.504280 -30.263382 3268.537598
3.000000 7.120000 5.120000 -16.618456 -42.189720 2056.145508
3.000000 7.120000 5.160000 11.732015 -33.612103 1267.413574
3.000000 7.120000 5.200000 25.927715 -13.613476 857.573120
3.000000 7.160000 4.800000 -6.861895 35.114792 1280.134155
3.000000 7.160000 4.840000 -20.244553 33.289883 1518.058228
3.000000 7.160000 4.880000 -30.660831 21.669819 1409.667725
3.000000 7.160000 4.920000 -31.601727 6.768225 1044.478027
3.000000 7.160000 4.960000 -25.683525 -3.402374 671.219604
3.000000 7.160000 5.000000 -20.127064 -8.230129 472.833740
3.000000 7.160000 5.040000 -16.978786 -13.660812 474.896973
3.000000 7.160000 5.080000 -10.372852 -22.692968 622.566895
3.000000 7.160000 5.120000 5.359987 -29.098429 875.448059
3.000000 7.160000 5.160000 26.026926 -22.776564 1196.172729
3.000000 7.160000 5.200000 38.420937 -1.748837 1479.226807
3.000000 7.200000 4.800000 -25.286636 20.026680 1040.481934
3.000000 7.200000 4.840000 -36.025364 -0.610765 1298.199951
3.000000 7.200000 4.880000 -25.965176 -25.653955 1332.315796
3.000000 7.200000 4.920000 0.354698 -34.568790 1195.127075
3.000000 7.200000 4.960000 22.054520 -20.928215 924.391968
3.000000 7.200000 5.000000 23.192970 0.141411 537.933899
3.000000 7.200000 5.040000 9.434925 7.741756 148.952606
3.000000 7.200000 5.080000 1.569403 -2.452982 8.480145
3.000000 7.200000 5.120000 12.503994 -13.708252 344.266052
3.000000 7.200000 5.160000 32.637794 -6.723025 1110.424683
3.000000 7.200000 5.200000 39.587849 18.748329 1918.697632
3.040000 6.800000 4.800000 -25.196203 -22.379154 1135.675171
3.040000 6.800000 4.840000 -13.572998 -18.626425 531.169983
3.040000 6.800000 4.880000 -9.813602 -12.594387 254.925385
3.040000 6.800000 4.920000 -9.483143 -10.853432 207.726990
3.040000 6.800000 4.960000 -5.525436 -11.815239 170.130310
3.040000 6.800000 5.000000 2.870537 -8.025933 72.655586
3.040000 6.800000 5.040000 8.107857 4.704041 87.865341
3.040000 6.800000 5.080000 1.599086 20.854492 437.466919
3.040000 6.800000 5.120000 -16.566195 28.770691 1102.191528
3.040000 6.800000 5.160000 -35.874882 21.372530 1743.792114
3.040000 6.800000 5.200000 -44.049324 3.327534 1951.415405
3.040000 6.840000 4.800000 -17.829412 -27.660255 1082.977661
3.040000 6.840000 4.840000 -26.721813 -22.254951 1209.338135
3.040000 6.840000 4.880000 -37.051552 -37.088684 2748.387939
3.040000 6.840000 4.920000 -25.939590 -63.277603 4676.917480
3.040000 6.840000 4.960000 9.914886 -73.976028 5570.757812
3.040000 6.840000 5.000000 46.976242 -51.040230 4811.872070
3.040000 6.840000 5.040000 55.199532 -5.338394 3075.486816
3.040000 6.840000 5.080000 26.661566 30.794510 1659.140869
3.040000 6.840000 5.120000 -16.193050 32.478287 1317.053955
3.040000 6.840000 5.160000 -41.111443 4.236847 1708.101685
3.040000 6.840000 5.200000 -34.957802 -26.279827 1912.677246
3.040000 6.880000 4.800000 -10.697633 -31.306303 1094.523926
3.040000 6.880000 4.840000 -34.064304 -45.631004 3242.565430
3.040000 6.880000 4.880000 -31.254616 -89.382294 8966.044922
3.040000 6.880000 4.920000 18.132771 -123.486847 15577.798828
3.040000 6.880000 4.960000 88.521576 -106.436165 19164.726562
3.040000 6.880000 5.000000 127.198402 -37.341881 17573.849609
3.040000 6.880000 5.040000 102.677254 38.427822 12019.315430
3.040000 6.880000 5.080000 34.887577 68.717918 5939.295410
3.040000 6.880000 5.120000 -23.205837 40.917896 2212.785156
3.040000 6.880000 5.160000 -34.054634 -10.049190 1260.704346
3.040000 6.880000 5.200000 -6.107015 -38.133900 1491.489990
3.040000 6.920000 4.800000 -1.072291 -34.862648 1216.553955
3.040000 6.920000 4.840000 -15.212809 -75.950058 5999.840820
3.040000 6.920000 4.880000 25.168320 -127.316597 16842.960938
3.040000 6.920000 4.920000 110.789871 -129.996582 29173.507812
3.040000 6.920000 4.960000 181.087601 -58.306030 36192.312500
3.040000 6.920000 5.000000 177.369995 48.839489 33845.410156
3.040000 6.920000 5.040000 98.570541 118.666458 23797.878906
3.040000 6.920000 5.080000 3.668400 109.066574 11908.974609
3.040000 6.920000 5.120000 -42.058487 43.876160 3694.033691
3.040000 6.920000 5.160000 -23.577972 -14.361836 762.183105
3.040000 6.920000 5.200000 18.730953 -24.410873 946.739380
3.040000 6.960000 4.800000 13.901136 -34.049812 1352.631348
3.040000 6.960000 4.840000 29.449223 -84.688797 8039.449219
3.040000 6.960000 4.880000 103.017815 -108.111694 22300.808594
3.040000 6.960000 4.920000 187.588699 -56.176865 38345.359375
3.040000 6.960000 4.960000 210.851746 56.196529 47616.507812
3.040000 6.960000 5.000000 142.912155 156.475906 44908.593750
3.040000 6.960000 5.040000 27.257763 177.094498 32105.447266
3.040000 6.960000 5.080000 -57.012451 114.932205 16459.832031
3.040000 6.960000 5.120000 -64.857895 29.968962 5104.685059
3.040000 6.960000 5.160000 -19.077663 -13.216982 538.645874
3.040000 6.960000 5.200000 21.256023 -1.491650 454.043549
3.040000 7.000000 4.800000 30.033747 -21.888311 1381.124146
3.040000 7.000000 4.840000 72.375732 -54.221958 8178.267578
3.040000 7.000000 4.880000 145.508789 -31.789814 22183.400391
3.040000 7.000000 4.920000 185.657043 57.071854 37725.734375
3.040000 7.000000 4.960000 143.968292 161.140991 46693.289062
3.040000 7.000000 5.000000 35.652817 207.254791 44225.671875
3.040000 7.000000 5.040000 -69.669868 165.017670 32084.722656
3.040000 7.000000 5.080000 -108.369186 72.532761 17004.882812
3.040000 7.000000 5.120000 -75.404541 -0.868374 5686.598633
3.040000 7.000000 5.160000 -19.954960 -16.496368 670.330566
3.040000 7.000000 5.200000 6.794445 7.442873 101.560837
3.040000 7.040000 4.800000 36.056709 1.971702 1303.973877
3.040000 7.040000 4.840000 80.311592 1.464556 6452.096680
3.040000 7.040000 4.880000 118.187958 52.462898 16720.750000
3.040000 7.040000 4.920000 102.229942 131.956635 27863.513672
3.040000 7.040000 4.960000 24.328125 183.298859 34190.332031
3.040000 7.040000 5.000000 -71.970047 165.198517 32470.238281
3.040000 7.040000 5.040000 -127.145454 88.609375 24017.587891
3.040000 7.040000 5.080000 -115.640808 6.156687 13410.702148
3.040000 7.040000 5.120000 -62.932026 -34.420036 5145.178711
3.040000 7.040000 5.160000 -16.488028 -27.345661 1019.640198
3.040000 7.040000 5.200000 -2.345831 -3.499557 17.749823
3.040000 7.080000 4.800000 23.467751 26.276402 1241.184570
3.040000 7.080000 4.840000 45.049553 44.988075 4053.389160
3.040000 7.080000 4.880000 41.710114 86.975655 9304.498047
3.040000 7.080000 4.920000 -0.680737 121.314285 14717.620117
3.040000 7.080000 4.960000 -63.786575 116.507629 17642.753906
3.040000 7.080000 5.000000 -110.092079 68.263947 16780.232422
3.040000 7.080000 5.040000 -113.358223 3.468452 12862.117188
3.040000 7.080000 5.080000 -78.152733 -42.458683 7910.589355
3.040000 7.080000 5.120000 -32.113342 -52.830715 3822.351074
3.040000 7.080000 5.160000 -1.009818 -37.433403 1402.279419
3.040000 7.080000 5.200000 9.009346 -17.411583 384.331512
3.040000 7.120000 4.800000 -2.947753 35.387707 1260.979004
3.040000 7.120000 4.840000 -7.017094 47.480759 2303.661865
3.040000 7.120000 4.880000 -25.770584 55.740551 3771.132080
3.040000 7.120000 4.920000 -51.410713 48.163368 4962.771484
3.040000 7.120000 4.960000 -69.667740 23.484848 5405.131836
3.040000 7.120000 5.000000 -70.603333 -8.759010 5061.550781
3.040000 7.120000 5.040000 -54.094952 -35.987106 4221.335449
3.040000 7.120000 5.080000 -27.336800 -49.963539 3243.655762
3.040000 7.120000 5.120000 0.712070 -48.726250 2374.754395
3.040000 7.120000 5.160000 22.576204 -34.657215 1710.807617
3.040000 7.120000 5.200000 32.845200 -12.936926 1246.171143
3.040000 7.160000 4.800000 -26.259991 23.608128 1246.930786
3.040000 7.160000 4.840000 -37.663208 14.143941 1618.568237
3.040000 7.160000 4.880000 -40.349525 -4.197838 1645.706055
3.040000 7.160000 4.920000 -30.117834 -20.050877 1309.121582
3.040000 7.160000 4.960000 -15.128139 -24.726917 840.281006
3.040000 7.160000 5.000000 -5.990990 -21.783943 510.432159
3.040000 7.160000 5.040000 -3.017948 -21.622578 476.643860
3.040000 7.160000 5.080000 3.745392 -27.390413 764.262695
3.040000 7.160000 5.120000 20.997822 -29.290695 1298.853271
3.040000 7.160000 5.160000 40.907364 -15.240892 1905.697266
3.040000 7.160000 5.200000 46.315300 13.281283 2321.499512
3.040000 7.200000 4.800000 -31.540407 2.108183 999.241760
3.040000 7.200000 4.840000 -30.725245 -21.823498 1420.305664
3.040000 7.200000 4.880000 -8.302055 -40.077351 1675.118164
3.040000 7.200000 4.920000 21.752695 -34.944733 1694.314209
3.040000 7.200000 4.960000 35.971905 -10.292786 1399.919312
3.040000 7.200000 5.000000 26.270626 11.011086 811.389832
3.040000 7.200000 5.040000 9.082733 11.169875 207.262146
3.040000 7.200000 5.080000 7.545227 -3.070156 66.356308
3.040000 7.200000 5.120000 25.594830 -7.644404 713.532227
3.040000 7.200000 5.160000 42.527462 11.947431 1951.326172
3.040000 7.200000 5.200000 34.809856 43.208679 3078.716064
3.080000 6.800000 4.800000 -17.708731 -29.690903 1195.148804
3.080000 6.800000 4.840000 -7.067592 -25.468174 698.578735
3.080000 6.800000 4.880000 -2.116245 -19.361128 379.331757
3.080000 6.800000 4.920000 0.158768 -15.154985 229.698792
3.080000 6.800000 4.960000 3.519691 -11.553710 145.876450
3.080000 6.800000 5.000000 7.457924 -4.483963 75.726555
3.080000 6.800000 5.040000 6.872629 7.174271 98.703186
3.080000 6.800000 5.080000 -2.746693 18.436928 347.464630
3.080000 6.800000 5.120000 -19.614319 21.365835 841.220398
3.080000 6.800000 5.160000 -35.413116 12.063445 1399.615601
3.080000 6.800000 5.200000 -41.402256 -5.200513 1741.192139
3.080000 6.840000 4.800000 -8.311414 -37.764637 1495.247437
3.080000 6.840000 4.840000 -9.925896 -39.457142 1655.389526
3.080000 6.840000 4.880000 -4.753395 -50.992256 2622.804932
3.080000 6.840000 4.920000 16.277889 -58.938797 3738.751465
3.080000 6.840000 4.960000 44.331944 -46.831570 4158.517090
3.080000 6.840000 5.000000 58.136177 -13.492420 3561.860596
3.080000 6.840000 5.040000 43.514156 22.354942 2393.225342
3.080000 6.840000 5.080000 7.910465 37.044186 1434.847168
3.080000 6.840000 5.120000 -24.890505 22.567095 1128.811035
3.080000 6.840000 5.160000 -35.089294 -7.023307 1280.585327
3.080000 6.840000 5.200000 -22.666740 -29.238251 1368.656494
3.080000 6.880000 4.800000 5.995005 -41.689091 1773.920410
3.080000 6.880000 4.840000 3.969429 -59.507736 3556.927002
3.080000 6.880000 4.880000 29.316376 -81.754738 7543.287109
3.080000 6.880000 4.920000 77.187965 -76.746552 11848.015625
3.080000 6.880000 4.960000 114.012917 -30.780800 13946.403320
3.080000 6.880000 5.000000 106.961227 33.514278 12563.911133
3.080000 6.880000 5.040000 56.014458 73.943214 8605.218750
3.080000 6.880000 5.080000 -3.844070 65.765785 4339.915527
3.080000 6.880000 5.120000 -33.254059 22.912868 1630.832031
3.080000 6.880000 5.160000 -22.020870 -16.890095 770.194031
3.080000 6.880000 5.200000 6.481977 -27.278385 786.126282
3.080000 6.920000 4.800000 23.411839 -37.445904 1950.309814
3.080000 6.920000 4.840000 37.521507 -65.800125 5737.519531
3.080000 6.920000 4.880000 88.195755 -74.900604 13388.591797
3.080000 6.920000 4.920000 143.238953 -33.208328 21620.191406
3.080000 6.920000 4.960000 153.774002 47.505753 25903.240234
3.080000 6.920000 5.000000 100.984596 116.369850 23739.832031
3.080000 6.920000 5.040000 17.012770 127.227295 16476.218750
3.080000 6.920000 5.080000 -42.164589 79.750458 8137.988281
3.080000 6.920000 5.120000 -45.730042 17.629185 2402.024902
3.080000 6.920000 5.160000 -11.180834 -13.264034 300.945648
3.080000 6.920000 5.200000 18.783056 -4.336294 371.606628
3.080000 6.960000 4.800000 37.980942 -22.099697 1930.948486
3.080000 6.960000 4.840000 72.672447 -42.326523 7072.819336
3.080000 6.960000 4.880000 129.478043 -18.689522 17113.863281
3.080000 6.960000 4.920000 157.056458 56.588955 27869.041016
3.080000 6.960000 4.960000 117.626709 140.528549 33584.316406
3.080000 6.960000 5.000000 26.372013 174.158112 31026.529297
3.080000 6.960000 5.040000 -58.471432 135.536667 21789.095703
3.080000 6.960000 5.080000 -86.388519 58.860847 10927.575195
3.080000 6.960000 5.120000 -56.701157 1.453190 3217.133057
3.080000 6.960000 5.160000 -12.154474 -7.532843 204.474960
3.080000 6.960000 5.200000 6.055392 13.512466 219.254517
3.080000 7.000000 4.800000 41.185600 1.608103 1698.839600
3.080000 7.000000 4.840000 82.379181 4.472904 6806.336426
3.080000 7.000000 4.880000 116.006447 55.884754 16580.601562
3.080000 7.000000 4.920000 96.929001 132.427704 26932.328125
3.080000 7.000000 4.960000 19.563704 179.016022 32429.474609
3.080000 7.000000 5.000000 -71.813362 157.925385 30097.585938
3.080000 7.000000 5.040000 -120.343521 83.501579 21455.078125
3.080000 7.000000 5.080000 -105.391151 8.460205 11178.870117
3.080000 7.000000 5.120000 -55.906349 -23.688940 3686.685547
3.080000 7.000000 5.160000 -18.066933 -12.907757 493.024231
3.080000 7.000000 5.200000 -12.353416 7.328313 206.311081
3.080000 7.040000 4.800000 28.207895 23.715382 1358.104736
3.080000 7.040000 4.840000 54.863495 46.336441 5157.068848
3.080000 7.040000 4.880000 51.753769 97.733086 12230.208984
3.080000 7.040000 4.920000 1.116833 139.732941 19526.542969
3.080000 7.040000 4.960000 -73.589508 133.770370 23309.927734
3.080000 7.040000 5.000000 -125.792152 76.681290 21703.685547
3.080000 7.040000 5.040000 -125.831543 3.945854 15849.146484
3.080000 7.040000 5.080000 -84.191193 -41.995537 8851.782227
3.080000 7.040000 5.120000 -37.347401 -46.503510 3557.404785
3.080000 7.040000 5.160000 -13.154461 -28.165897 966.357605
3.080000 7.040000 5.200000 -10.727558 -14.002785 311.158508
3.080000 7.080000 4.800000 3.870746 32.414207 1065.663452
3.080000 7.080000 4.840000 6.756149 55.590622 3135.962646
3.080000 7.080000 4.880000 -18.538622 79.784882 6709.308105
3.080000 7.080000 4.920000 -63.403984 78.217789 10138.087891
3.080000 7.080000 4.960000 -99.759979 42.521481 11760.129883
3.080000 7.080000 5.000000 -104.215256 -9.515141 10951.357422
3.080000 7.080000 5.040000 -76.745651 -49.827774 8372.702148
3.080000 7.080000 5.080000 -37.283821 -62.807396 5334.852539
3.080000 7.080000 5.120000 -6.515686 -53.550682 2910.129639
3.080000 7.080000 5.160000 8.951289 -37.073189 1454.546997
3.080000 7.080000 5.200000 14.777274 -22.925375 743.940674
3.080000 7.120000 4.800000 -18.645716 23.373877 894.000854
3.080000 7.120000 4.840000 -29.409103 29.287109 1722.630127
3.080000 7.120000 4.880000 -47.660843 22.494495 2777.558105
3.080000 7.120000 4.920000 -59.133381 0.940552 3497.641357
3.080000 7.120000 4.960000 -54.678879 -25.007935 3615.176514
3.080000 7.120000 5.000000 -37.105877 -43.311012 3252.689941
3.080000 7.120000 5.040000 -15.483738 -49.950317 2734.780273
3.080000 7.120000 5.080000 4.374989 -47.997826 2322.931885
3.080000 7.120000 5.120000 21.944637 -39.994987 2081.166016
3.080000 7.120000 5.160000 36.069817 -24.728622 1912.536377
3.080000 7.120000 5.200000 40.959015 -2.507578 1683.928833
3.080000 7.160000 4.800000 -27.332367 4.414383 766.545044
3.080000 7.160000 4.840000 -32.896088 -8.447571 1153.514038
3.080000 7.160000 4.880000 -26.028683 -26.178673 1362.815186
3.080000 7.160000 4.920000 -7.370803 -34.957611 1276.363281
3.080000 7.160000 4.960000 10.135992 -29.214859 956.246338
3.080000 7.160000 5.000000 16.172192 -18.058750 587.658264
3.080000 7.160000 5.040000 15.015892 -13.970082 420.640198
3.080000 7.160000 5.080000 19.737724 -16.979698 677.887939
3.080000 7.160000 5.120000 34.783611 -13.708126 1397.812378
3.080000 7.160000 5.160000 47.632591 6.282358 2308.331787
3.080000 7.160000 5.200000 40.878265 35.171486 2908.065918
3.080000 7.200000 4.800000 -21.315979 -10.249148 559.416016
3.080000 7.200000 4.840000 -11.506897 -28.682781 955.110657
3.080000 7.200000 4.880000 14.413336 -34.422508 1392.653320
3.080000 7.200000 4.920000 37.704830 -17.278069 1720.185791
3.080000 7.200000 4.960000 39.465530 10.222423 1662.026001
3.080000 7.200000 5.000000 21.968246 24.856693 1100.459106
3.080000 7.200000 5.040000 7.056051 18.036106 375.088989
3.080000 7.200000 5.080000 12.007284 5.795076 177.757782
3.080000 7.200000 5.120000 29.338451 11.032466 982.460083
3.080000 7.200000 5.160000 33.931030 36.808094 2506.150635
3.080000 7.200000 5.200000 10.922460 60.552692 3785.928711
3.120000 6.800000 4.800000 -9.666903 -33.316689 1203.450684
3.120000 6.800000 4.840000 2.687178 -28.110788 797.437378
3.120000 6.800000 4.880000 8.843189 -18.493404 420.208008
3.120000 6.800000 4.920000 9.106197 -9.748569 177.957428
3.120000 6.800000 4.960000 7.230545 -3.992706 68.222488
3.120000 6.800000 5.000000 5.805089 0.907463 34.522549
3.120000 6.800000 5.040000 3.077774 7.625961 67.627975
3.120000 6.800000 5.080000 -4.961685 14.660807 239.557571
3.120000 6.800000 5.120000 -18.983410 16.072617 618.698853
3.120000 6.800000 5.160000 -33.164330 6.833843 1146.574219
3.120000 6.800000 5.200000 -38.557262 -11.213707 1612.409668
3.120000 6.840000 4.800000 6.316317 -42.427784 1840.012695
3.120000 6.840000 4.840000 15.367371 -40.429688 1870.715698
3.120000 6.840000 4.880000 26.263966 -36.871201 2049.281250
3.120000 6.840000 4.920000 38.541412 -26.905050 2209.322266
3.120000 6.840000 4.960000 45.545113 -7.902054 2136.799561
3.120000 6.840000 5.000000 39.335186 14.982964 1771.746094
3.120000 6.840000 5.040000 18.755857 30.385950 1275.088135
3.120000 6.840000 5.080000 -7.319736 29.098680 900.311768
3.120000 6.840000 5.120000 -25.474268 11.841037 789.148499
3.120000 6.840000 5.160000 -27.496840 -10.882334 874.501343
3.120000 6.840000 5.200000 -15.799784 -26.793056 967.501038
3.120000 6.880000 4.800000 28.061123 -39.534653 2350.415527
3.120000 6.880000 4.840000 40.568722 -41.632637 3379.097656
3.120000 6.880000 4.880000 62.206108 -34.608482 5067.346680
3.120000 6.880000 4.920000 80.965675 -8.655121 6630.351562
3.120000 6.880000 4.960000 78.871254 30.241253 7135.208008
3.120000 6.880000 5.000000 49.520439 61.181480 6195.447266
3.120000 6.880000 5.040000 6.878555 64.888077 4257.776855
3.120000 6.880000 5.080000 -24.529747 40.614330 2251.232422
3.120000 6.880000 5.120000 -29.477806 6.904765 916.616821
3.120000 6.880000 5.160000 -13.200329 -14.560025 386.243042
3.120000 6.880000 5.200000 6.069793 -16.358818 304.453308
3.120000 6.920000 4.800000 45.332169 -21.926147 2535.761475
3.120000 6.920000 4.840000 65.404510 -21.396292 4735.551270
3.120000 6.920000 4.880000 91.143593 0.975365 8308.105469
3.120000 6.920000 4.920000 97.760498 46.414692 11711.439453
3.120000 6.920000 4.960000 68.411316 91.598709 13070.431641
3.120000 6.920000 5.000000 13.439991 106.482079 11519.066406
3.120000 6.920000 5.040000 -35.320435 81.190590 7839.445312
3.120000 6.920000 5.080000 -51.042801 35.391819 3857.948242
3.120000 6.920000 5.120000 -33.831020 0.684746 1145.006836
3.120000 6.920000 5.160000 -7.208155 -6.604342 95.574821
3.120000 6.920000 5.200000 5.853736 4.081175 50.922211
3.120000 6.960000 4.800000 47.984680 4.188376 2320.072021
3.120000 6.960000 4.840000 70.885971 15.382543 5261.443359
3.120000 6.960000 4.880000 84.640335 53.936005 10073.079102
3.120000 6.960000 4.920000 63.659744 103.175400 14697.726562
3.120000 6.960000 4.960000 7.871245 128.778870 16645.955078
3.120000 6.960000 5.000000 -52.563103 109.546906 14763.404297
3.120000 6.960000 5.040000 -81.992317 57.811649 10064.926758
3.120000 6.960000 5.080000 -69.798904 8.749002 4948.432129
3.120000 6.960000 5.120000 -36.979523 -10.765610 1483.383423
3.120000 6.960000 5.160000 -13.663326 -3.031273 195.875092
3.120000 6.960000 5.200000 -11.413864 8.961039 210.576508
3.120000 7.000000 4.800000 33.403969 26.252628 1805.025635
3.120000 7.000000 4.840000 48.301292 48.378132 4673.458496
3.120000 7.000000 4.880000 38.885269 88.628967 9367.158203
3.120000 7.000000 4.920000 -5.577720 117.507668 13839.163086
3.120000 7.000000 4.960000 -64.549950 107.484550 15719.625000
3.120000 7.000000 5.000000 -102.046677 59.724724 13980.567383
3.120000 7.000000 5.040000 -98.089989 4.133493 9638.731445
3.120000 7.000000 5.080000 -64.750793 -27.340588 4940.172852
3.120000 7.000000 5.120000 -31.932306 -27.259644 1762.760376
3.120000 7.000000 5.160000 -18.885485 -13.762267 546.061523
3.120000 7.000000 5.200000 -20.363892 -7.997696 478.651215
3.120000 7.040000 4.800000 9.331720 33.473412 1207.550293
3.120000 7.040000 4.840000 9.110319 56.793972 3308.552979
3.120000 7.040000 4.880000 -17.978191 79.675751 6671.440430
3.120000 7.040000 4.920000 -62.740284 76.331787 9762.884766
3.120000 7.040000 4.960000 -96.906662 39.940170 10986.118164
3.120000 7.040000 5.000000 -98.368927 -9.817080 9772.820312
3.120000 7.040000 5.040000 -70.213829 -44.466537 6907.254883
3.120000 7.040000 5.080000 -35.302994 -51.236366 3871.466797
3.120000 7.040000 5.120000 -13.769064 -40.171013 1803.297485
3.120000 7.040000 5.160000 -7.242002 -29.317783 911.979004
3.120000 7.040000 5.200000 -3.984486 -25.883945 685.854736
3.120000 7.080000 4.800000 -11.097215 24.510456 723.910645
3.120000 7.080000 4.840000 -22.614941 36.848194 1869.224976
3.120000 7.080000 4.880000 -48.247478 35.040302 3555.641846
3.120000 7.080000 4.920000 -69.524254 10.953657 4953.604492
3.120000 7.080000 4.960000 -69.368515 -23.987749 5387.402832
3.120000 7.080000 5.000000 -47.688992 -49.855530 4759.813477
3.120000 7.080000 5.040000 -19.360109 -56.237213 3537.437988
3.120000 7.080000 5.080000 1.340837 -48.537582 2357.694824
3.120000 7.080000 5.120000 12.170433 -38.120197 1601.268799
3.120000 7.080000 5.160000 19.362751 -29.476921 1243.804932
3.120000 7.080000 5.200000 26.011463 -18.846146 1031.773438
3.120000 7.120000 4.800000 -18.837263 8.140210 421.105499
3.120000 7.120000 4.840000 -29.646740 5.143566 905.385498
3.120000 7.120000 4.880000 -36.741020 -10.734270 1465.127197
3.120000 7.120000 4.920000 -29.555912 -30.474514 1802.247925
3.120000 7.120000 4.960000 -10.911836 -40.807186 1784.294556
3.120000 7.120000 5.000000 7.251453 -38.065575 1501.571533
3.120000 7.120000 5.040000 17.505808 -29.868841 1198.600952
3.120000 7.120000 5.080000 23.385736 -23.875977 1116.954956
3.120000 7.120000 5.120000 31.566059 -18.159954 1326.199951
3.120000 7.120000 5.160000 40.367634 -5.277843 1657.401489
3.120000 7.120000 5.200000 39.701378 15.176460 1806.524414
3.120000 7.160000 4.800000 -15.171771 -4.108527 247.062622
3.120000 7.160000 4.840000 -15.121283 -15.986581 484.223938
3.120000 7.160000 4.880000 -2.046013 -27.238987 746.148560
3.120000 7.160000 4.920000 17.611265 -25.191629 944.774780
3.120000 7.160000 4.960000 29.093927 -10.279448 952.123657
3.120000 7.160000 5.000000 26.467537 3.942272 716.072021
3.120000 7.160000 5.040000 19.551498 6.814939 428.704468
3.120000 7.160000 5.080000 21.698751 3.605928 483.838531
3.120000 7.160000 5.120000 32.436230 9.294231 1138.491699
3.120000 7.160000 5.160000 36.097317 29.386707 2166.594727
3.120000 7.160000 5.200000 19.607489 50.233669 2907.875244
3.120000 7.200000 4.800000 -9.259062 -7.306615 139.116852
3.120000 7.200000 4.840000 2.540350 -17.534283 313.904449
3.120000 7.200000 4.880000 23.229748 -13.329211 717.289062
3.120000 7.200000 4.920000 34.643330 7.757037 1260.331909
3.120000 7.200000 4.960000 25.853338 29.589146 1543.912598
3.120000 7.200000 5.000000 6.667303 34.609737 1242.286743
3.120000 7.200000 5.040000 -2.637120 23.987270 582.343567
3.120000 7.200000 5.080000 5.386798 16.824375 312.077179
3.120000 7.200000 5.120000 15.788404 28.051712 1036.172241
3.120000 7.200000 5.160000 7.639808 49.627789 2521.284180
3.120000 7.200000 5.200000 -20.963854 57.406643 3735.005859
3.160000 6.800000 4.800000 -1.717632 -34.541985 1196.098999
3.160000 6.800000 4.840000 11.812076 -24.909178 759.992310
3.160000 6.800000 4.880000 14.848188 -10.543550 331.635162
3.160000 6.800000 4.920000 9.005757 -0.753941 81.672096
3.160000 6.800000 4.960000 2.294230 1.323969 7.016384
3.160000 6.800000 5.000000 0.360210 0.885284 0.913480
3.160000 6.800000 5.040000 0.432020 4.558912 20.970324
3.160000 6.800000 5.080000 -5.125658 11.699678 163.154846
3.160000 6.800000 5.120000 -19.017813 13.648308 547.953491
3.160000 6.800000 5.160000 -33.572178 2.617364 1133.941772
3.160000 6.800000 5.200000 -36.308167 -18.684660 1667.399414
3.160000 6.840000 4.800000 21.810732 -38.433758 1952.861694
3.160000 6.840000 4.840000 33.244865 -24.362247 1698.740234
3.160000 6.840000 4.880000 34.771404 -8.169586 1275.792725
3.160000 6.840000 4.920000 29.213020 4.206535 871.095520
3.160000 6.840000 4.960000 21.263470 11.797307 591.311584
3.160000 6.840000 5.000000 12.623735 16.732533 439.336334
3.160000 6.840000 5.040000 1.827122 19.386312 379.167480
3.160000 6.840000 5.080000 -11.352795 16.560108 403.123108
3.160000 6.840000 5.120000 -22.374714 5.205425 527.724243
3.160000 6.840000 5.160000 -24.141457 -12.280861 733.629517
3.160000 6.840000 5.200000 -13.416447 -27.415741 931.623901
3.160000 6.880000 4.800000 44.400105 -23.485573 2522.941406
3.160000 6.880000 4.840000 51.818695 -5.611277 2716.663574
3.160000 6.880000 4.880000 49.898506 13.707808 2677.764893
3.160000 6.880000 4.920000 39.449242 29.871569 2448.553223
3.160000 6.880000 4.960000 22.974251 39.424908 2082.139648
3.160000 6.880000 5.000000 4.163549 40.165462 1630.599609
3.160000 6.880000 5.040000 -12.229721 31.732317 1156.505981
3.160000 6.880000 5.080000 -21.432133 16.595320 734.740967
3.160000 6.880000 5.120000 -20.791048 0.032394 432.268707
3.160000 6.880000 5.160000 -11.592797 -11.902775 276.068970
3.160000 6.880000 5.200000 1.309586 -15.472492 241.113022
3.160000 6.920000 4.800000 51.382782 4.551320 2660.904785
3.160000 6.920000 4.840000 52.622513 24.597206 3374.151367
3.160000 6.920000 4.880000 43.234982 45.401756 3930.583252
3.160000 6.920000 4.920000 22.920624 59.895802 4112.862305
3.160000 6.920000 4.960000 -2.925892 61.426567 3781.783936
3.160000 6.920000 5.000000 -24.794735 48.726673 2989.067383
3.160000 6.920000 5.040000 -34.683952 27.856115 1978.939697
3.160000 6.920000 5.080000 -31.386126 8.546518 1058.131836
3.160000 6.920000 5.120000 -20.661272 -2.332476 432.328583
3.160000 6.920000 5.160000 -10.080237 -4.585760 122.640381
3.160000 6.920000 5.200000 -3.391104 -2.646562 18.503872
3.160000 6.960000 4.800000 37.594330 29.963455 2311.142334
3.160000 6.960000 4.840000 31.229200 48.763481 3353.140137
3.160000 6.960000 4.880000 12.472266 64.973053 4377.055176
3.160000 6.960000 4.920000 -15.583574 68.462181 4929.917969
3.160000 6.960000 4.960000 -41.502975 54.426125 4684.700195
3.160000 6.960000 5.000000 -53.369850 28.982273 3688.312988
3.160000 6.960000 5.040000 -48.288879 5.277820 2359.671387
3.160000 6.960000 5.080000 -34.226906 -6.865592 1218.617432
3.160000 6.960000 5.120000 -22.267925 -7.949746 559.058960
3.160000 6.960000 5.160000 -17.017239 -5.837799 323.666290
3.160000 6.960000 5.200000 -14.560194 -6.533244 254.682526
3.160000 7.000000 4.800000 12.029039 38.714195 1643.486694
3.160000 7.000000 4.840000 -0.807634 51.725956 2676.226807
3.160000 7.000000 4.880000 -24.697065 56.341187 3784.274414
3.160000 7.000000 4.920000 -50.032913 43.971931 4436.823242
3.160000 7.000000 4.960000 -62.767181 17.790154 4256.208496
3.160000 7.000000 5.000000 -56.893425 -8.462964 3308.483643
3.160000 7.000000 5.040000 -39.780235 -22.189941 2074.860596
3.160000 7.000000 5.080000 -24.710514 -22.391697 1111.997559
3.160000 7.000000 5.120000 -18.424576 -18.352829 676.291321
3.160000 7.000000 5.160000 -16.541622 -18.537439 617.261963
3.160000 7.000000 5.200000 -10.948965 -21.922342 600.468933
3.160000 7.040000 4.800000 -9.241076 29.197048 937.865112
3.160000 7.040000 4.840000 -24.199219 33.221703 1689.283691
3.160000 7.040000 4.880000 -43.847546 24.416849 2518.789795
3.160000 7.040000 4.920000 -54.751465 1.874053 3001.234863
3.160000 7.040000 4.960000 -48.397034 -22.735868 2859.192627
3.160000 7.040000 5.000000 -29.924810 -35.781322 2175.797363
3.160000 7.040000 5.040000 -12.827662 -34.391949 1347.355103
3.160000 7.040000 5.080000 -5.451891 -27.632229 793.263245
3.160000 7.040000 5.120000 -4.034545 -25.399292 661.401550
3.160000 7.040000 5.160000 0.647710 -27.698929 767.650208
3.160000 7.040000 5.200000 11.193747 -26.100452 806.533630
3.160000 7.080000 4.800000 -16.045664 12.490439 413.474396
3.160000 7.080000 4.840000 -27.415503 7.988146 815.420288
3.160000 7.080000 4.880000 -34.516830 -8.109939 1257.182739
3.160000 7.080000 4.920000 -27.649019 -27.388020 1514.571899
3.160000 7.080000 4.960000 -9.583549 -36.751808 1442.539795
3.160000 7.080000 5.000000 7.054495 -32.152969 1083.579346
3.160000 7.080000 5.040000 13.254845 -22.169550 667.179871
3.160000 7.080000 5.080000 12.438923 -17.483139 460.386963
3.160000 7.080000 5.120000 14.739341 -18.723597 567.821228
3.160000 7.080000 5.160000 23.721039 -16.746498 843.132874
3.160000 7.080000 5.200000 31.380527 -4.873480 1008.488281
3.160000 7.120000 4.800000 -11.405353 1.769194 133.212112
3.160000 7.120000 4.840000 -15.303305 -7.240891 286.621643
3.160000 7.120000 4.880000 -8.748442 -20.280704 487.842224
3.160000 7.120000 4.920000 7.707856 -25.043194 686.572632
3.160000 7.120000 4.960000 22.279547 -16.452576 767.065430
3.160000 7.120000 5.000000 25.147476 -2.816760 640.329712
3.160000 7.120000 5.040000 19.516850 3.836688 395.627594
3.160000 7.120000 5.080000 17.193657 1.874704 299.136353
3.160000 7.120000 5.120000 23.707355 1.690895 564.897827
3.160000 7.120000 5.160000 30.750217 12.413597 1099.673218
3.160000 7.120000 5.200000 25.602650 29.333918 1515.974365
3.160000 7.160000 4.800000 -6.634925 0.770564 44.616005
3.160000 7.160000 4.840000 -2.801958 -7.780783 68.391548
3.160000 7.160000 4.880000 10.912536 -10.442391 228.126984
3.160000 7.160000 4.920000 23.751091 0.147556 564.136108
3.160000 7.160000 4.960000 23.913542 16.894279 857.274170
3.160000 7.160000 5.000000 12.833208 25.729134 826.679565
3.160000 7.160000 5.040000 3.949464 22.121803 504.972443
3.160000 7.160000 5.080000 6.683987 16.721630 324.288605
3.160000 7.160000 5.120000 14.416429 22.578022 717.600525
3.160000 7.160000 5.160000 11.559805 38.345959 1604.041748
3.160000 7.160000 5.200000 -7.439720 47.798313 2340.028076
3.160000 7.200000 4.800000 -9.330354 1.999218 91.052376
3.160000 7.200000 4.840000 -0.117102 -2.910194 8.482942
3.160000 7.200000 4.880000 12.228706 4.806406 172.642807
3.160000 7.200000 4.920000 13.453066 21.979328 664.075867
3.160000 7.200000 4.960000 0.349008 33.620888 1130.485962
3.160000 7.200000 5.000000 -14.512289 30.229898 1124.453247
3.160000 7.200000 5.040000 -17.127705 19.434063 671.041077
3.160000 7.200000 5.080000 -9.016726 17.354166 382.468445
3.160000 7.200000 5.120000 -6.261670 28.928394 876.060486
3.160000 7.200000 5.160000 -20.438183 40.372395 2047.649658
3.160000 7.200000 5.200000 -43.130375 33.977600 3014.706543
3.200000 6.800000 4.800000 5.931727 -33.440056 1153.422729
3.200000 6.800000 4.840000 16.015846 -18.502205 598.838867
3.200000 6.800000 4.880000 12.265826 -3.646123 163.744720
3.200000 6.800000 4.920000 1.925472 1.118628 4.958771
3.200000 6.800000 4.960000 -3.581954 -2.804170 20.693764
3.200000 6.800000 5.000000 -0.876302 -5.164923 27.444332
3.200000 6.800000 5.040000 1.926338 0.948187 4.609838
3.200000 6.800000 5.080000 -5.249542 10.281529 133.267532
3.200000 6.800000 5.120000 -21.808989 10.032437 576.281799
3.200000 6.800000 5.160000 -34.587135 -6.162240 1234.243042
3.200000 6.800000 5.200000 -29.780546 -29.441105 1753.659668
3.200000 6.840000 4.800000 31.638577 -27.074614 1734.034180
3.200000 6.840000 4.840000 33.906731 -4.263461 1167.843506
3.200000 6.840000 4.880000 20.886944 10.627003 549.197632
3.200000 6.840000 4.920000 5.870583 10.833527 151.829041
3.200000 6.840000 4.960000 0.120275 3.660872 13.416450
3.200000 6.840000 5.000000 2.262326 0.969322 6.057703
3.200000 6.840000 5.040000 1.721065 5.706660 35.528034
3.200000 6.840000 5.080000 -7.911175 8.962507 142.913239
3.200000 6.840000 5.120000 -20.276548 0.637248 411.544525
3.200000 6.840000 5.160000 -22.027517 -17.871689 804.608765
3.200000 6.840000 5.200000 -7.084393 -32.886200 1131.690796
3.200000 6.880000 4.800000 46.201313 -2.263810 2139.686035
3.200000 6.880000 4.840000 35.366699 21.536446 1714.621948
3.200000 6.880000 4.880000 13.663929 29.306793 1045.591064
3.200000 6.880000 4.920000 -2.512815 21.124475 452.557709
3.200000 6.880000 4.960000 -5.463604 9.474552 119.618103
3.200000 6.880000 5.000000 -1.461200 5.503386 32.422367
3.200000 6.880000 5.040000 -1.651578 8.335672 72.211143
3.200000 6.880000 5.080000 -9.028009 8.086068 146.889450
3.200000 6.880000 5.120000 -15.346315 -1.608440 238.096481
3.200000 6.880000 5.160000 -10.766467 -15.433123 354.098083
3.200000 6.880000 5.200000 4.618913 -21.200790 470.807861
3.200000 6.920000 4.800000 38.676655 26.278629 2186.449951
3.200000 6.920000 4.840000 16.153687 41.522030 1985.020508
3.200000 6.920000 4.880000 -8.072241 36.816517 1420.616943
3.200000 6.920000 4.920000 -19.129072 19.839392 759.522888
3.200000 6.920000 4.960000 -15.254223 5.760400 265.873535
3.200000 6.920000 5.000000 -7.031430 3.010336 58.503136
3.200000 6.920000 5.040000 -5.380966 7.084099 79.139252
3.200000 6.920000 5.080000 -10.945053 7.542393 176.681885
3.200000 6.920000 5.120000 -15.081415 -0.113633 227.461990
3.200000 6.920000 5.160000 -10.227713 -9.934343 203.297272
3.200000 6.920000 5.200000 1.682209 -12.268661 153.349869
3.200000 6.960000 4.800000 14.129266 40.539574 1843.093140
3.200000 6.960000 4.840000 -11.809992 41.273750 1842.998413
3.200000 6.960000 4.880000 -29.738890 24.598772 1489.501221
3.200000 6.960000 4.920000 -30.165237 3.457187 921.893677
3.200000 6.960000 4.960000 -17.910538 -7.636367 379.101471
3.200000 6.960000 5.000000 -6.622378 -4.856466 67.441162
3.200000 6.960000 5.040000 -5.888429 3.129463 44.467133
3.200000 6.960000 5.080000 -13.289766 4.796673 199.625961
3.200000 6.960000 5.120000 -18.378813 -3.035847 346.997131
3.200000 6.960000 5.160000 -13.757316 -13.042891 359.380737
3.200000 6.960000 5.200000 -2.155956 -15.447441 243.271591
3.200000 7.000000 4.800000 -10.265173 33.888340 1253.793335
3.200000 7.000000 4.840000 -29.627502 21.931431 1358.776611
3.200000 7.000000 4.880000 -35.131397 -0.039965 1234.216675
3.200000 7.000000 4.920000 -24.065243 -17.608418 889.192261
3.200000 7.000000 4.960000 -6.671217 -20.054768 446.698822
3.200000 7.000000 5.000000 2.674090 -9.678057 100.815536
3.200000 7.000000 5.040000 -1.793040 0.698927 3.703490
3.200000 7.000000 5.080000 -12.549725 -0.108061 157.507263
3.200000 7.000000 5.120000 -16.625061 -11.388048 406.080322
3.200000 7.000000 5.160000 -8.241029 -21.917601 548.295776
3.200000 7.000000 5.200000 6.035836 -21.220240 486.729889
3.200000 7.040000 4.800000 -19.918236 15.953306 651.244080
3.200000 7.040000 4.840000 -27.523106 -0.742846 758.073181
3.200000 7.040000 4.880000 -20.861023 -19.235048 805.169373
3.200000 7.040000 4.920000 -3.105142 -26.873505 731.827148
3.200000 7.040000 4.960000 12.593504 -18.815142 512.605896
3.200000 7.040000 5.000000 14.513021 -3.635051 223.841385
3.200000 7.040000 5.040000 3.587903 4.007515 28.933228
3.200000 7.040000 5.080000 -7.241164 -2.704792 59.750351
3.200000 7.040000 5.120000 -5.625107 -16.171577 293.161743
3.200000 7.040000 5.160000 8.066118 -22.016451 549.786377
3.200000 7.040000 5.200000 21.354637 -13.402290 635.641907
3.200000 7.080000 4.800000 -14.854871 2.826442 228.655960
3.200000 7.080000 4.840000 -12.767813 -10.661737 276.689697
3.200000 7.080000 4.880000 0.321095 -20.152294 406.218048
3.200000 7.080000 4.920000 17.151367 -16.559759 568.395020
3.200000 7.080000 4.960000 24.783321 -1.554447 616.629333
3.200000 7.080000 5.000000 17.534140 12.069452 453.117737
3.200000 7.080000 5.040000 3.786425 12.451623 169.379913
3.200000 7.080000 5.080000 -1.752817 0.958215 3.990545
3.200000 7.080000 5.120000 6.924339 -8.818467 125.711838
3.200000 7.080000 5.160000 20.753716 -5.059552 456.315765
3.200000 7.080000 5.200000 25.046654 9.945959 726.256958
3.200000 7.120000 4.800000 -7.645885 1.841353 61.850140
3.200000 7.120000 4.840000 -1.692891 -5.663972 34.946461
3.200000 7.120000 4.880000 11.136466 -6.251808 163.105988
3.200000 7.120000 4.920000 21.136532 4.664949 468.514740
3.200000 7.120000 4.960000 18.668566 19.760866 739.007202
3.200000 7.120000 5.000000 5.727047 26.097481 713.877563
3.200000 7.120000 5.040000 -4.791018 19.079845 386.994354
3.200000 7.120000 5.080000 -2.584088 8.215955 74.179428
3.200000 7.120000 5.120000 8.479504 7.194241 123.659088
3.200000 7.120000 5.160000 14.206676 18.686518 551.015625
3.200000 7.120000 5.200000 5.754974 30.978512 992.787964
3.200000 7.160000 4.800000 -9.491434 5.768948 123.368073
3.200000 7.160000 4.840000 -3.505095 2.026044 16.390543
3.200000 7.160000 4.880000 5.570962 6.678225 75.634300
3.200000 7.160000 4.920000 7.342358 18.975979 413.997986
3.200000 7.160000 4.960000 -2.116521 28.248951 802.482910
3.200000 7.160000 5.000000 -14.374716 25.859623 875.352539
3.200000 7.160000 5.040000 -17.557343 15.845745 559.347900
3.200000 7.160000 5.080000 -10.309546 11.015538 227.628830
3.200000 7.160000 5.120000 -4.085072 18.052437 342.578278
3.200000 7.160000 5.160000 -10.110327 28.897722 937.297058
3.200000 7.160000 5.200000 -25.584707 29.289076 1512.427246
3.200000 7.200000 4.800000 -18.488796 1.912824 345.494476
3.200000 7.200000 4.840000 -11.894152 -0.648416 141.891281
3.200000 7.200000 4.880000 -6.350821 5.992521 76.243225
3.200000 7.200000 4.920000 -10.326906 15.433240 344.829895
3.200000 7.200000 4.960000 -21.076458 17.094490 736.438660
3.200000 7.200000 5.000000 -27.519213 9.366652 845.041260
3.200000 7.200000 5.040000 -23.810909 2.110786 571.414856
3.200000 7.200000 5.080000 -17.170670 4.744728 317.344330
3.200000 7.200000 5.120000 -19.684898 13.891197 580.460571
3.200000 7.200000 5.160000 -33.038124 16.094631 1350.554810
3.200000 7.200000 5.200000 -44.584923 3.685932 2001.401367
