#kx 	ky 	kz 	real 	imag 	intensity
3.800000 7.800000 -4.200000 6.856310 -46.787560 2236.084717
3.800000 7.800000 -4.160000 22.329004 -36.789921 1852.082764
3.800000 7.800000 -4.120000 25.365366 -22.755737 1161.225342
3.800000 7.800000 -4.080000 19.941414 -15.465660 636.846619
3.800000 7.800000 -4.040000 16.034706 -16.765263 538.185791
3.800000 7.800000 -4.000000 19.302818 -19.773006 763.570557
3.800000 7.800000 -3.960000 26.746103 -17.214277 1011.685425
3.800000 7.800000 -3.920000 31.417740 -8.346289 1056.734985
3.800000 7.800000 -3.880000 29.751060 1.916036 888.796814
3.800000 7.800000 -3.840000 23.668839 8.998888 641.193909
3.800000 7.800000 -3.800000 16.717299 12.364805 432.356506
3.800000 7.840000 -4.200000 25.680546 -34.021858 1816.977295
3.800000 7.840000 -4.160000 33.497375 -24.276291 1711.412598
3.800000 7.840000 -4.120000 33.985458 -16.109591 1414.530273
3.800000 7.840000 -4.080000 33.431232 -12.808867 1281.714478
3.800000 7.840000 -4.040000 36.301304 -10.381397 1425.558105
3.800000 7.840000 -4.000000 40.330364 -3.871085 1641.523682
3.800000 7.840000 -3.960000 40.135590 6.197223 1649.271118
3.800000 7.840000 -3.920000 34.082054 14.613938 1375.153564
3.800000 7.840000 -3.880000 26.003166 17.798197 992.940491
3.800000 7.840000 -3.840000 20.237682 17.500984 715.848267
3.800000 7.840000 -3.800000 16.632225 17.628448 587.393127
3.800000 7.880000 -4.200000 29.132362 -15.525103 1089.723389
3.800000 7.880000 -4.160000 34.548248 -10.747604 1309.092407
3.800000 7.880000 -4.120000 38.791553 -5.854754 1539.062866
3.800000 7.880000 -4.080000 43.244026 0.775724 1870.647583
3.800000 7.880000 -4.040000 45.455544 10.995029 2187.097168
3.800000 7.880000 -4.000000 41.693245 22.461990 2242.867676
3.800000 7.880000 -3.960000 32.277527 29.745487 1926.632812
3.800000 7.880000 -3.920000 22.538889 30.121189 1415.287598
3.800000 7.880000 -3.880000 17.493322 26.945492 1032.075806
3.800000 7.880000 -3.840000 16.352526 25.917091 939.100708
3.800000 7.880000 -3.800000 13.794319 28.318350 992.212158
3.800000 7.920000 -4.200000 21.531460 -4.739918 486.070587
3.800000 7.920000 -4.160000 30.432827 -2.154138 930.797302
3.800000 7.920000 -4.120000 38.331558 6.229175 1508.110962
3.800000 7.920000 -4.080000 40.836376 19.394585 2043.759521
3.800000 7.920000 -4.040000 35.144150 32.363945 2282.536133
3.800000 7.920000 -4.000000 23.701937 39.047127 2086.459961
3.800000 7.920000 -3.960000 13.293365 37.738846 1600.934082
3.800000 7.920000 -3.920000 9.057639 33.245457 1187.301147
3.800000 7.920000 -3.880000 9.364698 32.221848 1125.945068
3.800000 7.920000 -3.840000 7.656169 36.049454 1358.180054
3.800000 7.920000 -3.800000 0.006584 39.152016 1532.880371
3.800000 7.960000 -4.200000 15.105123 -3.853868 243.017029
3.800000 7.960000 -4.160000 26.733374 3.148591 724.586914
3.800000 7.960000 -4.120000 31.290482 17.564034 1287.589478
3.800000 7.960000 -4.080000 25.334129 31.700285 1646.726196
3.800000 7.960000 -4.040000 13.037539 37.917381 1607.705200
3.800000 7.960000 -4.000000 3.023407 35.282425 1253.990479
3.800000 7.960000 -3.960000 0.495548 30.426786 926.034851
3.800000 7.960000 -3.920000 2.258978 30.889317 959.252869
3.800000 7.960000 -3.880000 0.160348 37.170551 1381.675659
3.800000 7.960000 -3.840000 -9.954824 41.893604 1854.172607
3.800000 7.960000 -3.800000 -23.088825 37.539093 1942.277344
3.800000 8.000000 -4.200000 15.790941 -3.740336 263.343933
3.800000 8.000000 -4.160000 22.706429 9.585850 607.470459
3.800000 8.000000 -4.120000 17.715073 23.779964 879.310486
3.800000 8.000000 -4.080000 5.468756 29.189293 881.922119
3.800000 8.000000 -4.040000 -3.446798 24.768135 625.340942
3.800000 8.000000 -4.000000 -3.041883 19.151093 376.017395
3.800000 8.000000 -3.960000 1.708529 21.644527 471.404633
3.800000 8.000000 -3.920000 -0.127446 31.953033 1021.012573
3.800000 8.000000 -3.880000 -13.635732 39.616058 1755.365356
3.800000 8.000000 -3.840000 -31.707794 34.421612 2190.231689
3.800000 8.000000 -3.800000 -41.234863 17.324770 2000.461670
3.800000 8.040000 -4.200000 17.191856 3.560578 308.237640
3.800000 8.040000 -4.160000 13.291067 16.245899 440.581696
3.800000 8.040000 -4.120000 1.577865 20.098358 406.433655
3.800000 8.040000 -4.080000 -6.064514 13.092607 208.194702
3.800000 8.040000 -4.040000 -2.000875 5.276983 31.850056
3.800000 8.040000 -4.000000 7.925559 8.728617 139.003235
3.800000 8.040000 -3.960000 9.205398 23.899776 655.938660
3.800000 8.040000 -3.920000 -6.251185 37.213402 1423.914551
3.800000 8.040000 -3.880000 -30.277361 33.723358 2053.983398
3.800000 8.040000 -3.840000 -44.948288 12.438362 2175.061523
3.800000 8.040000 -3.800000 -39.561844 -11.721514 1702.533447
3.800000 8.080000 -4.200000 9.274720 14.253237 289.175171
3.800000 8.080000 -4.160000 -2.243166 15.848284 256.199890
3.800000 8.080000 -4.120000 -9.097605 5.670423 114.920105
3.800000 8.080000 -4.080000 -1.778786 -5.892519 37.885857
3.800000 8.080000 -4.040000 14.597299 -3.826662 227.724472
3.800000 8.080000 -4.000000 22.571365 15.177971 739.837341
3.800000 8.080000 -3.960000 9.102975 36.383602 1406.630615
3.800000 8.080000 -3.920000 -19.670952 39.314117 1932.546143
3.800000 8.080000 -3.880000 -42.000015 17.733532 2078.479492
3.800000 8.080000 -3.840000 -40.313095 -13.147725 1798.008301
3.800000 8.080000 -3.800000 -17.696083 -30.408794 1237.846191
3.800000 8.120000 -4.200000 -8.334612 16.279711 334.494751
3.800000 8.120000 -4.160000 -15.763699 3.031082 257.681641
3.800000 8.120000 -4.120000 -6.955744 -13.118441 220.475861
3.800000 8.120000 -4.080000 15.040039 -15.063011 453.097076
3.800000 8.120000 -4.040000 31.799953 4.744410 1033.746460
3.800000 8.120000 -4.000000 25.053314 33.543182 1752.813721
3.800000 8.120000 -3.960000 -4.522483 47.027695 2232.056885
3.800000 8.120000 -3.920000 -35.036880 31.488594 2219.114502
3.800000 8.120000 -3.880000 -42.156219 -2.200701 1781.989990
3.800000 8.120000 -3.840000 -21.372854 -27.714045 1224.867188
3.800000 8.120000 -3.800000 8.412336 -27.284815 815.228516
3.800000 8.160000 -4.200000 -23.825705 3.109941 577.335938
3.800000 8.160000 -4.160000 -16.491793 -17.345388 572.841675
3.800000 8.160000 -4.120000 8.046038 -25.211969 700.382080
3.800000 8.160000 -4.080000 32.750957 -8.746466 1149.125854
3.800000 8.160000 -4.040000 35.874683 24.038750 1864.854492
3.800000 8.160000 -4.000000 10.940901 48.711769 2492.539795
3.800000 8.160000 -3.960000 -24.733559 44.757591 2614.990723
3.800000 8.160000 -3.920000 -43.530540 14.764192 2112.889404
3.800000 8.160000 -3.880000 -31.826385 -16.929317 1299.520630
3.800000 8.160000 -3.840000 -1.798838 -25.920784 675.122864
3.800000 8.160000 -3.800000 20.836533 -8.961164 514.463562
3.800000 8.200000 -4.200000 -24.725142 -17.783596 927.588928
3.800000 8.200000 -4.160000 -2.179566 -32.195393 1041.293823
3.800000 8.200000 -4.120000 26.789120 -22.925045 1243.214600
3.800000 8.200000 -4.080000 39.839005 7.994270 1651.054565
3.800000 8.200000 -4.040000 24.210726 39.939041 2181.286133
3.800000 8.200000 -4.000000 -10.609846 49.123291 2525.666504
3.800000 8.200000 -3.960000 -39.089947 28.999832 2369.014160
3.800000 8.200000 -3.920000 -40.931259 -3.437553 1687.184692
3.800000 8.200000 -3.880000 -18.279350 -22.368717 834.494141
3.800000 8.200000 -3.840000 7.458618 -15.470478 294.966675
3.800000 8.200000 -3.800000 15.678850 7.230748 298.110046
3.840000 7.800000 -4.200000 46.900848 -24.408554 2795.467285
3.840000 7.800000 -4.160000 46.617821 -4.502403 2193.492920
3.840000 7.800000 -4.120000 34.689796 5.640914 1235.201904
3.840000 7.800000 -4.080000 24.947733 2.758579 629.999146
3.840000 7.800000 -4.040000 26.109776 -3.279125 692.473083
3.840000 7.800000 -4.000000 33.590904 -1.169517 1129.716675
3.840000 7.800000 -3.960000 35.962044 9.742534 1388.185547
3.840000 7.800000 -3.920000 28.039330 19.905378 1182.428101
3.840000 7.800000 -3.880000 15.865042 20.955206 690.820190
3.840000 7.800000 -3.840000 8.935021 14.626417 293.766693
3.840000 7.800000 -3.800000 9.373123 9.466925 177.478104
3.840000 7.840000 -4.200000 45.383446 4.364442 2078.705566
3.840000 7.840000 -4.160000 40.377518 13.376224 1809.267334
3.840000 7.840000 -4.120000 35.750923 15.890846 1530.647583
3.840000 7.840000 -4.080000 36.034672 17.951025 1620.736816
3.840000 7.840000 -4.040000 36.764267 25.631405 2008.580322
3.840000 7.840000 -4.000000 30.078953 36.365662 2227.204590
3.840000 7.840000 -3.960000 15.221072 40.738274 1891.287964
3.840000 7.840000 -3.920000 1.270561 33.282925 1109.367432
3.840000 7.840000 -3.880000 -1.942898 19.786058 395.262939
3.840000 7.840000 -3.840000 5.255872 12.008327 171.824127
3.840000 7.840000 -3.800000 12.359566 15.187223 383.410614
3.840000 7.880000 -4.200000 24.740400 19.816813 1004.793457
3.840000 7.880000 -4.160000 26.698059 20.704693 1141.470703
3.840000 7.880000 -4.120000 31.445913 27.042248 1720.128662
3.840000 7.880000 -4.080000 30.901432 40.964775 2633.011230
3.840000 7.880000 -4.040000 17.810322 54.768276 3316.771484
3.840000 7.880000 -4.000000 -4.393051 56.159622 3173.201904
3.840000 7.880000 -3.960000 -21.714146 40.853848 2140.541016
3.840000 7.880000 -3.920000 -21.856853 19.117456 843.199219
3.840000 7.880000 -3.880000 -6.849962 7.625372 105.068283
3.840000 7.880000 -3.840000 7.924535 13.623910 248.409180
3.840000 7.880000 -3.800000 8.546342 27.801090 845.940613
3.840000 7.920000 -4.200000 4.602846 13.770172 210.803833
3.840000 7.920000 -4.160000 16.587727 18.295395 609.874146
3.840000 7.920000 -4.120000 21.050695 35.949509 1735.499023
3.840000 7.920000 -4.080000 7.463700 55.088154 3090.411377
3.840000 7.920000 -4.040000 -19.677086 58.390656 3796.656494
3.840000 7.920000 -4.000000 -41.667309 39.334267 3283.349121
3.840000 7.920000 -3.960000 -41.503613 10.681131 1836.636353
3.840000 7.920000 -3.920000 -20.383698 -5.459547 445.301758
3.840000 7.920000 -3.880000 2.297648 2.197083 10.106359
3.840000 7.920000 -3.840000 6.830126 23.502411 599.013977
3.840000 7.920000 -3.800000 -8.421202 37.059612 1444.331543
3.840000 7.960000 -4.200000 1.166929 -1.481837 3.557566
3.840000 7.960000 -4.160000 13.711565 15.184655 418.580750
3.840000 7.960000 -4.120000 5.703901 38.769623 1535.618164
3.840000 7.960000 -4.080000 -21.469477 47.801537 2745.925293
3.840000 7.960000 -4.040000 -47.450546 30.782623 3199.124268
3.840000 7.960000 -4.000000 -50.153229 -0.869056 2516.101807
3.840000 7.960000 -3.960000 -26.938553 -21.387106 1183.093872
3.840000 7.960000 -3.920000 1.622483 -14.200710 204.292618
3.840000 7.960000 -3.880000 10.494720 12.330127 262.171173
3.840000 7.960000 -3.840000 -6.467968 33.089096 1136.722900
3.840000 7.960000 -3.800000 -31.766136 30.394241 1932.897339
3.840000 8.000000 -4.200000 11.440839 -6.977057 179.572113
3.840000 8.000000 -4.160000 11.609512 17.242289 432.077271
3.840000 8.000000 -4.120000 -10.591994 32.120140 1143.893677
3.840000 8.000000 -4.080000 -37.500935 21.389317 1863.822998
3.840000 8.000000 -4.040000 -44.388374 -8.272272 2038.758301
3.840000 8.000000 -4.000000 -23.350407 -31.152803 1515.738647
3.840000 8.000000 -3.960000 7.447701 -26.182154 740.973450
3.840000 8.000000 -3.920000 20.010475 2.406933 406.212463
3.840000 8.000000 -3.880000 3.031180 28.621744 828.392273
3.840000 8.000000 -3.840000 -27.689766 29.518520 1638.066162
3.840000 8.000000 -3.800000 -45.337727 6.506142 2097.839355
3.840000 8.040000 -4.200000 17.991581 2.739630 331.202576
3.840000 8.040000 -4.160000 2.904547 19.897009 404.327362
3.840000 8.040000 -4.120000 -21.069363 15.761604 692.346191
3.840000 8.040000 -4.080000 -30.639990 -8.433191 1009.927673
3.840000 8.040000 -4.040000 -13.974209 -30.688801 1137.081055
3.840000 8.040000 -4.000000 15.565931 -28.198154 1037.434082
3.840000 8.040000 -3.960000 30.349958 -0.392738 921.274231
3.840000 8.040000 -3.920000 14.860739 28.857836 1053.616211
3.840000 8.040000 -3.880000 -18.782591 33.412704 1469.194580
3.840000 8.040000 -3.840000 -42.255188 9.641787 1878.464844
3.840000 8.040000 -3.800000 -38.076416 -21.067181 1893.639648
3.840000 8.080000 -4.200000 8.755615 14.577741 289.171326
3.840000 8.080000 -4.160000 -10.134945 13.628673 288.457825
3.840000 8.080000 -4.120000 -19.302330 -4.932226 396.906799
3.840000 8.080000 -4.080000 -6.251122 -24.328453 630.950195
3.840000 8.080000 -4.040000 20.381590 -23.259541 956.415405
3.840000 8.080000 -4.000000 36.027092 2.395055 1303.687744
3.840000 8.080000 -3.960000 23.031193 32.757198 1603.469971
3.840000 8.080000 -3.920000 -11.019993 41.067646 1807.991699
3.840000 8.080000 -3.880000 -38.971958 18.956263 1878.153320
3.840000 8.080000 -3.840000 -39.108063 -15.467475 1768.683350
3.840000 8.080000 -3.800000 -14.749942 -35.088387 1448.755615
3.840000 8.120000 -4.200000 -9.665319 11.992769 237.244904
3.840000 8.120000 -4.160000 -16.199467 -3.712505 276.205414
3.840000 8.120000 -4.120000 -4.349186 -20.148808 424.889862
3.840000 8.120000 -4.080000 19.939098 -19.390259 773.549805
3.840000 8.120000 -4.040000 36.034691 4.066185 1315.032715
3.840000 8.120000 -4.000000 26.265898 34.600510 1887.092773
3.840000 8.120000 -3.960000 -6.044352 47.002998 2245.815918
3.840000 8.120000 -3.920000 -37.077614 29.259544 2230.870361
3.840000 8.120000 -3.880000 -43.014709 -5.524566 1880.786133
3.840000 8.120000 -3.840000 -21.275866 -30.617056 1390.066528
3.840000 8.120000 -3.800000 8.316898 -29.696823 951.072083
3.840000 8.160000 -4.200000 -19.298855 -6.591305 415.891113
3.840000 8.160000 -4.160000 -6.906518 -21.955370 529.738281
3.840000 8.160000 -4.120000 16.536545 -21.600258 740.028442
3.840000 8.160000 -4.080000 33.608250 -0.273952 1129.589478
3.840000 8.160000 -4.040000 27.870955 29.899292 1670.757812
3.840000 8.160000 -4.000000 -0.724495 46.583096 2170.509766
3.840000 8.160000 -3.960000 -33.088833 35.627144 2364.164062
3.840000 8.160000 -3.920000 -45.775959 4.289389 2113.837402
3.840000 8.160000 -3.880000 -30.837250 -24.180517 1535.633301
3.840000 8.160000 -3.840000 -2.061274 -30.351562 925.466187
3.840000 8.160000 -3.800000 18.232872 -14.258430 535.740417
3.840000 8.200000 -4.200000 -10.229619 -25.994473 780.357666
3.840000 8.200000 -4.160000 12.992222 -27.500427 925.071289
3.840000 8.200000 -4.120000 31.591846 -9.189743 1082.496094
3.840000 8.200000 -4.080000 30.666868 19.475876 1319.766602
3.840000 8.200000 -4.040000 7.772743 39.630188 1630.967285
3.840000 8.200000 -4.000000 -23.291012 36.689285 1888.574951
3.840000 8.200000 -3.960000 -41.919472 12.355295 1909.895386
3.840000 8.200000 -3.920000 -36.646530 -16.119944 1602.820679
3.840000 8.200000 -3.880000 -13.865564 -29.604536 1068.682373
3.840000 8.200000 -3.840000 8.442448 -21.886417 550.290161
3.840000 8.200000 -3.800000 15.887210 -2.589512 259.109009
3.880000 7.800000 -4.200000 56.220329 28.255642 3959.106689
3.880000 7.800000 -4.160000 35.062851 41.908558 2985.730957
3.880000 7.800000 -4.120000 14.657414 35.743942 1492.469238
3.880000 7.800000 -4.080000 10.052496 20.651941 527.555359
3.880000 7.800000 -4.040000 19.058250 14.320234 568.286011
3.880000 7.800000 -4.000000 25.758945 22.568726 1172.870605
3.880000 7.800000 -3.960000 18.506876 34.084599 1504.264404
3.880000 7.800000 -3.920000 2.461695 33.942009 1158.119873
3.880000 7.800000 -3.880000 -6.932367 20.470762 467.109802
3.880000 7.800000 -3.840000 -1.628607 6.683031 47.315262
3.880000 7.800000 -3.800000 10.305033 5.155039 132.768127
3.880000 7.840000 -4.200000 23.495907 49.433117 2995.690674
3.880000 7.840000 -4.160000 10.357651 46.155697 2237.629395
3.880000 7.840000 -4.120000 7.097430 40.059822 1655.162842
3.880000 7.840000 -4.080000 8.583372 41.591301 1803.510620
3.880000 7.840000 -4.040000 2.782410 49.828526 2490.623535
3.880000 7.840000 -4.000000 -14.406403 52.144295 2926.572021
3.880000 7.840000 -3.960000 -32.014847 38.250511 2488.052002
3.880000 7.840000 -3.920000 -34.036232 13.572587 1342.680176
3.880000 7.840000 -3.880000 -16.861855 -3.794615 298.721252
3.880000 7.840000 -3.840000 5.094599 -0.837181 26.655809
3.880000 7.840000 -3.800000 12.958556 16.593964 443.283813
3.880000 7.880000 -4.200000 -12.272575 38.295204 1617.138794
3.880000 7.880000 -4.160000 -7.284488 33.587990 1181.216797
3.880000 7.880000 -4.120000 -3.087521 42.724697 1834.932617
3.880000 7.880000 -4.080000 -14.913944 57.618164 3542.278564
3.880000 7.880000 -4.040000 -42.855244 58.421844 5249.683594
3.880000 7.880000 -4.000000 -67.361359 33.581291 5665.255859
3.880000 7.880000 -3.960000 -65.861458 -5.244534 4365.236816
3.880000 7.880000 -3.920000 -35.533005 -30.653957 2202.259521
3.880000 7.880000 -3.880000 1.372558 -24.285217 591.655701
3.880000 7.880000 -3.840000 16.916710 5.346794 314.763275
3.880000 7.880000 -3.800000 3.221083 30.661587 950.508240
3.880000 7.920000 -4.200000 -24.108501 6.485603 623.282898
3.880000 7.920000 -4.160000 -9.189570 17.374243 386.312531
3.880000 7.920000 -4.120000 -16.222572 41.066559 1949.634155
3.880000 7.920000 -4.080000 -48.973587 49.800694 4878.521484
3.880000 7.920000 -4.040000 -83.070328 23.959179 7474.721680
3.880000 7.920000 -4.000000 -85.951431 -25.308529 8028.169922
3.880000 7.920000 -3.960000 -48.450428 -62.145859 6209.551758
3.880000 7.920000 -3.920000 3.616203 -57.707890 3343.277344
3.880000 7.920000 -3.880000 31.296728 -17.352217 1280.584595
3.880000 7.920000 -3.840000 17.651775 24.054333 890.196045
3.880000 7.920000 -3.800000 -18.167877 34.656147 1531.120361
3.880000 7.960000 -4.200000 -7.294999 -17.501492 359.519226
3.880000 7.960000 -4.160000 -1.756339 10.791098 119.532516
3.880000 7.960000 -4.120000 -29.585701 31.840984 1889.161987
3.880000 7.960000 -4.080000 -69.962456 16.320230 5161.095215
3.880000 7.960000 -4.040000 -83.559387 -33.296452 8090.825195
3.880000 7.960000 -4.000000 -49.798168 -79.849960 8855.874023
3.880000 7.960000 -3.960000 10.434656 -83.691055 7113.074707
3.880000 7.960000 -3.920000 51.262505 -40.091381 4235.163086
3.880000 7.960000 -3.880000 43.222801 15.383440 2104.860840
3.880000 7.960000 -3.840000 -0.655615 39.691219 1575.822754
3.880000 7.960000 -3.800000 -39.403976 21.049036 1995.735229
3.880000 8.000000 -4.200000 17.274296 -15.419596 536.165222
3.880000 8.000000 -4.160000 1.435241 14.345936 207.865799
3.880000 8.000000 -4.120000 -37.366013 14.513352 1606.856201
3.880000 8.000000 -4.080000 -61.599785 -24.401779 4389.980469
3.880000 8.000000 -4.040000 -40.925404 -73.237305 7038.591309
3.880000 8.000000 -4.000000 15.830744 -87.874474 7972.535645
3.880000 8.000000 -3.960000 64.898422 -50.854885 6798.024414
3.880000 8.000000 -3.920000 66.701706 10.294358 4555.091309
3.880000 8.000000 -3.880000 22.329508 47.524857 2757.218994
3.880000 8.000000 -3.840000 -28.689320 36.121239 2127.821045
3.880000 8.000000 -3.800000 -46.563148 -5.158888 2194.740723
3.880000 8.040000 -4.200000 24.701820 4.490285 630.342590
3.880000 8.040000 -4.160000 -5.427050 16.658039 306.943146
3.880000 8.040000 -4.120000 -33.855431 -6.256522 1185.334229
3.880000 8.040000 -4.080000 -28.300024 -48.201729 3124.298096
3.880000 8.040000 -4.040000 15.088554 -70.101639 5141.904297
3.880000 8.040000 -4.000000 63.274567 -45.996902 6119.385742
3.880000 8.040000 -3.960000 74.538712 9.890017 5653.832031
3.880000 8.040000 -3.920000 37.560349 53.819260 4307.292480
3.880000 8.040000 -3.880000 -17.476242 52.256283 3036.137939
3.880000 8.040000 -3.840000 -47.234764 11.786721 2370.049805
3.880000 8.040000 -3.800000 -34.754700 -29.868591 2100.021973
3.880000 8.080000 -4.200000 10.259845 18.038334 430.645905
3.880000 8.080000 -4.160000 -14.322632 7.961133 268.517426
3.880000 8.080000 -4.120000 -18.135471 -21.808744 804.516663
3.880000 8.080000 -4.080000 9.217765 -43.797791 2003.213623
3.880000 8.080000 -4.040000 48.306171 -32.048466 3360.590332
3.880000 8.080000 -4.000000 64.109451 11.022884 4231.525879
3.880000 8.080000 -3.960000 38.380280 53.019886 4284.154297
3.880000 8.080000 -3.920000 -11.488277 59.658985 3691.175049
3.880000 8.080000 -3.880000 -47.132908 26.219324 2908.963867
3.880000 8.080000 -3.840000 -43.864185 -18.750797 2275.659180
3.880000 8.080000 -3.800000 -11.366138 -40.911037 1802.902100
3.880000 8.120000 -4.200000 -8.167095 10.476707 176.462845
3.880000 8.120000 -4.160000 -12.610030 -8.412274 229.779221
3.880000 8.120000 -4.120000 3.621713 -24.622669 619.392639
3.880000 8.120000 -4.080000 30.839188 -19.357363 1325.762939
3.880000 8.120000 -4.040000 45.200005 10.211964 2147.324707
3.880000 8.120000 -4.000000 29.247976 44.047928 2795.664062
3.880000 8.120000 -3.960000 -9.947210 54.398216 3058.113037
3.880000 8.120000 -3.920000 -44.331348 30.663395 2905.512207
3.880000 8.120000 -3.880000 -48.714905 -10.063009 2474.406006
3.880000 8.120000 -3.840000 -22.606173 -37.906868 1947.969727
3.880000 8.120000 -3.800000 11.021935 -36.359531 1443.498535
3.880000 8.160000 -4.200000 -10.375330 -9.804646 203.778534
3.880000 8.160000 -4.160000 2.626999 -19.034325 369.206635
3.880000 8.160000 -4.120000 21.093405 -13.917744 638.635315
3.880000 8.160000 -4.080000 30.836420 6.894631 998.420776
3.880000 8.160000 -4.040000 20.303476 31.539997 1407.002563
3.880000 8.160000 -4.000000 -8.034687 41.508816 1787.537964
3.880000 8.160000 -3.960000 -36.571781 26.508413 2040.191162
3.880000 8.160000 -3.920000 -45.290829 -5.444121 2080.897705
3.880000 8.160000 -3.880000 -28.140978 -33.163280 1891.717773
3.880000 8.160000 -3.840000 1.989969 -39.179169 1538.967163
3.880000 8.160000 -3.800000 24.555868 -23.134600 1138.200439
3.880000 8.200000 -4.200000 5.516822 -22.248390 525.426208
3.880000 8.200000 -4.160000 20.709766 -14.503357 639.241760
3.880000 8.200000 -4.120000 26.594597 3.123122 717.026489
3.880000 8.200000 -4.080000 17.934282 21.532089 785.269348
3.880000 8.200000 -4.040000 -2.615860 29.633627 884.994568
3.880000 8.200000 -4.000000 -24.496147 20.878017 1035.952881
3.880000 8.200000 -3.960000 -34.733406 -1.469656 1208.569458
3.880000 8.200000 -3.920000 -26.473722 -25.069542 1329.339844
3.880000 8.200000 -3.880000 -4.277789 -36.163441 1326.093872
3.880000 8.200000 -3.840000 18.631897 -28.876909 1181.023438
3.880000 8.200000 -3.800000 29.485929 -8.856912 947.864929
3.920000 7.800000 -4.200000 19.424168 74.554115 5935.614258
3.920000 7.800000 -4.160000 -12.981302 66.430267 4581.494629
3.920000 7.800000 -4.120000 -27.076408 40.150837 2345.221680
3.920000 7.800000 -4.080000 -17.649395 18.534367 655.023865
3.920000 7.800000 -4.040000 -1.152245 17.019949 291.006317
3.920000 7.800000 -4.000000 2.156378 28.822803 835.403992
3.920000 7.800000 -3.960000 -10.454371 33.890205 1257.839844
3.920000 7.800000 -3.920000 -22.541216 21.703796 979.161194
3.920000 7.800000 -3.880000 -17.913727 2.732903 328.370361
3.920000 7.800000 -3.840000 0.778209 -3.879826 15.658655
3.920000 7.800000 -3.800000 15.072221 7.788252 287.828705
3.920000 7.840000 -4.200000 -30.675900 62.800636 4884.930664
3.920000 7.840000 -4.160000 -39.497406 43.514751 3453.578613
3.920000 7.840000 -4.120000 -34.613449 31.551891 2193.612793
3.920000 7.840000 -4.080000 -31.216497 32.549595 2033.945801
3.920000 7.840000 -4.040000 -40.587597 34.837021 2860.971191
3.920000 7.840000 -4.000000 -55.943733 22.550133 3638.209717
3.920000 7.840000 -3.960000 -58.098503 -4.869244 3399.145508
3.920000 7.840000 -3.920000 -36.467167 -28.651886 2150.784668
3.920000 7.840000 -3.880000 -3.097992 -28.383320 815.210388
3.920000 7.840000 -3.840000 16.791254 -3.746101 295.979462
3.920000 7.840000 -3.800000 9.347296 23.332779 631.790527
3.920000 7.880000 -4.200000 -54.419655 17.726133 3275.714600
3.920000 7.880000 -4.160000 -41.498734 12.170649 1870.269531
3.920000 7.880000 -4.120000 -39.995411 23.344004 2144.575439
3.920000 7.880000 -4.080000 -60.738453 28.988712 4529.504883
3.920000 7.880000 -4.040000 -87.232208 7.141331 7660.456543
3.920000 7.880000 -4.000000 -88.900780 -38.063995 9352.216797
3.920000 7.880000 -3.960000 -52.041077 -75.229568 8367.761719
3.920000 7.880000 -3.920000 2.825573 -73.466354 5405.289062
3.920000 7.880000 -3.880000 36.830845 -32.752266 2429.222168
3.920000 7.880000 -3.840000 28.044016 14.209370 988.372986
3.920000 7.880000 -3.800000 -8.597691 31.755833 1082.353149
3.920000 7.920000 -4.200000 -36.201996 -26.538170 2014.858887
3.920000 7.920000 -4.160000 -23.729130 -6.274939 602.446472
3.920000 7.920000 -4.120000 -45.264790 13.316796 2226.238281
3.920000 7.920000 -4.080000 -83.915253 -2.443102 7047.738281
3.920000 7.920000 -4.040000 -97.116486 -56.446556 12617.825195
3.920000 7.920000 -4.000000 -57.830761 -110.476135 15549.373047
3.920000 7.920000 -3.960000 15.067947 -117.811852 14106.675781
3.920000 7.920000 -3.920000 69.862686 -67.802742 9478.006836
3.920000 7.920000 -3.880000 68.143326 2.071543 4647.804199
3.920000 7.920000 -3.840000 19.363903 39.806137 1959.489258
3.920000 7.920000 -3.800000 -30.025969 25.536812 1553.687500
3.920000 7.960000 -4.200000 5.049400 -38.276703 1490.602417
3.920000 7.960000 -4.160000 -5.182499 -4.362671 45.891193
3.920000 7.960000 -4.120000 -47.713203 -1.408304 2278.533203
3.920000 7.960000 -4.080000 -77.692673 -47.863773 8327.091797
3.920000 7.960000 -4.040000 -52.430336 -111.964478 15284.984375
3.920000 7.960000 -4.000000 23.532700 -136.298737 19131.132812
3.920000 7.960000 -3.960000 96.620605 -91.683655 17741.433594
3.920000 7.960000 -3.920000 111.079926 -7.327814 12392.447266
3.920000 7.960000 -3.880000 59.905758 54.111256 6516.728027
3.920000 7.960000 -3.840000 -10.168403 53.067474 2919.553223
3.920000 7.960000 -3.800000 -43.785786 5.885278 1951.831543
3.920000 8.000000 -4.200000 34.083950 -15.573626 1404.253540
3.920000 8.000000 -4.160000 -0.766884 6.866182 47.732571
3.920000 8.000000 -4.120000 -41.844475 -19.017250 2112.615967
3.920000 8.000000 -4.080000 -39.685936 -78.927773 7804.566895
3.920000 8.000000 -4.040000 20.740284 -118.602158 14496.630859
3.920000 8.000000 -4.000000 98.921539 -93.031029 18440.242188
3.920000 8.000000 -3.960000 131.880829 -11.847680 17532.919922
3.920000 8.000000 -3.920000 91.899857 65.833908 12779.687500
3.920000 8.000000 -3.880000 12.317762 84.245026 7248.951172
3.920000 8.000000 -3.840000 -44.238045 40.143951 3568.541504
3.920000 8.000000 -3.800000 -43.118553 -19.099541 2224.001953
3.920000 8.040000 -4.200000 31.508272 15.007739 1218.003418
3.920000 8.040000 -4.160000 -8.524831 10.866334 190.749954
3.920000 8.040000 -4.120000 -25.482868 -32.263046 1690.280762
3.920000 8.040000 -4.080000 8.594843 -76.435730 5916.291992
3.920000 8.040000 -4.040000 74.769577 -73.564545 11002.232422
3.920000 8.040000 -4.000000 118.522308 -12.687275 14208.503906
3.920000 8.040000 -3.960000 98.585693 64.752800 13912.064453
3.920000 8.040000 -3.920000 26.547098 99.969475 10698.643555
3.920000 8.040000 -3.880000 -42.722797 69.691101 6682.086914
3.920000 8.040000 -3.840000 -61.056114 5.229412 3755.195801
3.920000 8.040000 -3.800000 -28.088737 -39.796448 2372.734375
3.920000 8.080000 -4.200000 8.577448 25.614813 729.691284
3.920000 8.080000 -4.160000 -14.331934 2.268463 210.550247
3.920000 8.080000 -4.120000 -3.684193 -33.799160 1155.956421
3.920000 8.080000 -4.080000 39.735176 -45.596550 3657.929688
3.920000 8.080000 -4.040000 80.939392 -11.667250 6687.309570
3.920000 8.080000 -4.000000 79.568130 49.069962 8738.948242
3.920000 8.080000 -3.960000 28.390003 89.922684 8892.081055
3.920000 8.080000 -3.920000 -37.070866 77.545959 7387.625000
3.920000 8.080000 -3.880000 -69.145447 22.251060 5276.202637
3.920000 8.080000 -3.840000 -49.919388 -32.262432 3532.809814
3.920000 8.080000 -3.800000 -3.837173 -49.238644 2439.167969
3.920000 8.120000 -4.200000 -7.941227 12.232563 212.698700
3.920000 8.120000 -4.160000 -7.896647 -9.384296 150.422058
3.920000 8.120000 -4.120000 13.936668 -22.668932 708.111206
3.920000 8.120000 -4.080000 42.144138 -9.370001 1863.925293
3.920000 8.120000 -4.040000 49.519043 27.539562 3210.562988
3.920000 8.120000 -4.000000 21.662495 61.156387 4209.367188
3.920000 8.120000 -3.960000 -26.467113 61.999123 4544.399414
3.920000 8.120000 -3.920000 -60.471897 24.944412 4279.074219
3.920000 8.120000 -3.880000 -55.701077 -24.618629 3708.686768
3.920000 8.120000 -3.840000 -18.236170 -52.453087 3083.884277
3.920000 8.120000 -3.800000 22.260706 -44.428459 2469.427002
3.920000 8.160000 -4.200000 -3.238987 -5.998041 46.467533
3.920000 8.160000 -4.160000 7.004512 -11.265440 175.973328
3.920000 8.160000 -4.120000 20.338799 -5.602386 445.053467
3.920000 8.160000 -4.080000 25.736101 12.067628 807.974548
3.920000 8.160000 -4.040000 13.538946 31.650496 1185.056885
3.920000 8.160000 -4.000000 -13.725737 36.571205 1525.848877
3.920000 8.160000 -3.960000 -39.169636 17.520975 1841.244873
3.920000 8.160000 -3.920000 -43.222370 -17.041004 2158.569092
3.920000 8.160000 -3.880000 -20.166481 -45.162994 2446.383057
3.920000 8.160000 -3.840000 15.961081 -48.373001 2594.703369
3.920000 8.160000 -3.800000 42.410110 -26.272064 2488.838867
3.920000 8.200000 -4.200000 13.819641 -9.407069 279.475433
3.920000 8.200000 -4.160000 17.778061 -0.923568 316.912415
3.920000 8.200000 -4.120000 16.078714 8.211330 325.950989
3.920000 8.200000 -4.080000 8.829821 15.584408 320.839478
3.920000 8.200000 -4.040000 -3.540619 17.597721 322.215759
3.920000 8.200000 -4.000000 -17.017494 9.730230 384.272522
3.920000 8.200000 -3.960000 -22.882809 -8.518438 596.186707
3.920000 8.200000 -3.920000 -13.106681 -29.134802 1020.621765
3.920000 8.200000 -3.880000 11.298793 -38.473385 1607.864014
3.920000 8.200000 -3.840000 37.753113 -27.353157 2173.492676
3.920000 8.200000 -3.800000 49.891754 0.252656 2489.250732
3.960000 7.800000 -4.200000 -42.076786 79.472961 8086.407715
3.960000 7.800000 -4.160000 -66.913452 46.213581 6613.105469
3.960000 7.800000 -4.120000 -61.009129 8.482170 3794.061035
3.960000 7.800000 -4.080000 -34.799904 -8.613813 1285.231079
3.960000 7.800000 -4.040000 -13.941788 -0.942478 195.261703
3.960000 7.800000 -4.000000 -13.509303 12.655525 342.663574
3.960000 7.800000 -3.960000 -24.271053 11.964294 732.228394
3.960000 7.800000 -3.920000 -25.395390 -2.921528 653.461121
3.960000 7.800000 -3.880000 -9.015800 -13.319172 258.684998
3.960000 7.800000 -3.840000 10.789378 -4.462074 136.320786
3.960000 7.800000 -3.800000 14.293357 16.923634 490.709412
3.960000 7.840000 -4.200000 -79.278725 29.696274 7166.984863
3.960000 7.840000 -4.160000 -72.664871 1.536583 5282.544922
3.960000 7.840000 -4.120000 -56.592129 -9.415853 3291.327148
3.960000 7.840000 -4.080000 -49.495346 -7.784122 2510.381836
3.960000 7.840000 -4.040000 -54.514183 -11.428658 3102.410400
3.960000 7.840000 -4.000000 -55.904629 -30.035027 4027.430420
3.960000 7.840000 -3.960000 -37.185299 -51.823639 4068.436035
3.960000 7.840000 -3.920000 -2.064060 -54.223423 2944.439941
3.960000 7.840000 -3.880000 25.476570 -28.531498 1463.102051
3.960000 7.840000 -3.840000 23.997204 7.927935 638.717957
3.960000 7.840000 -3.800000 -2.926149 26.634172 717.941528
3.960000 7.880000 -4.200000 -67.034607 -31.136086 5463.094727
3.960000 7.880000 -4.160000 -47.307480 -30.793264 3186.222656
3.960000 7.880000 -4.120000 -48.765392 -20.202909 2786.220947
3.960000 7.880000 -4.080000 -67.586281 -27.828886 5342.352051
3.960000 7.880000 -4.040000 -74.085045 -63.426929 9511.569336
3.960000 7.880000 -4.000000 -43.162056 -102.838150 12438.648438
3.960000 7.880000 -3.960000 16.095978 -108.435135 12017.258789
3.960000 7.880000 -3.920000 63.837502 -66.763611 8532.606445
3.960000 7.880000 -3.880000 65.169479 -5.082306 4272.890625
3.960000 7.880000 -3.840000 23.446568 31.685394 1553.705811
3.960000 7.880000 -3.800000 -22.598850 21.876192 989.275818
3.960000 7.920000 -4.200000 -16.037605 -60.476021 3914.553955
3.960000 7.920000 -4.160000 -12.852623 -33.983673 1320.079956
3.960000 7.920000 -4.120000 -42.156113 -28.258820 2575.698730
3.960000 7.920000 -4.080000 -65.677277 -66.235359 8700.627930
3.960000 7.920000 -4.040000 -40.981956 -123.258408 16872.156250
3.960000 7.920000 -4.000000 32.384983 -145.497742 22218.380859
3.960000 7.920000 -3.960000 105.566826 -101.599655 21466.843750
3.960000 7.920000 -3.920000 122.860611 -16.348984 15362.018555
3.960000 7.920000 -3.880000 73.594101 49.100639 7826.964844
3.960000 7.920000 -3.840000 1.926279 52.374184 2746.765625
3.960000 7.920000 -3.800000 -35.061756 6.372150 1269.931030
3.960000 7.960000 -4.200000 33.955055 -42.629448 2970.215576
3.960000 7.960000 -4.160000 6.419367 -15.591533 284.304169
3.960000 7.960000 -4.120000 -33.893471 -37.600101 2562.534912
3.960000 7.960000 -4.080000 -31.856146 -99.060905 10827.877930
3.960000 7.960000 -4.040000 34.029976 -142.472137 21456.349609
3.960000 7.960000 -4.000000 123.010788 -115.248215 28413.804688
3.960000 7.960000 -3.960000 164.721466 -23.416645 27681.501953
3.960000 7.960000 -3.920000 124.057251 69.082413 20162.582031
3.960000 7.960000 -3.880000 34.439465 97.265717 10646.695312
3.960000 7.960000 -3.840000 -33.705513 52.892368 3933.664062
3.960000 7.960000 -3.800000 -37.509914 -12.927078 1574.103027
3.960000 8.000000 -4.200000 49.214947 0.309279 2422.206787
3.960000 8.000000 -4.160000 4.004306 2.793219 23.836536
3.960000 8.000000 -4.120000 -19.247707 -45.326515 2424.967285
3.960000 8.000000 -4.080000 19.768154 -100.772827 10545.943359
3.960000 8.000000 -4.040000 103.446060 -101.175797 20937.628906
3.960000 8.000000 -4.000000 164.843903 -26.577049 27879.851562
3.960000 8.000000 -3.960000 147.664948 75.613785 27522.382812
3.960000 8.000000 -3.920000 60.048637 130.390045 20607.402344
3.960000 8.000000 -3.880000 -31.778027 102.597260 11536.040039
3.960000 8.000000 -3.840000 -64.137215 26.166824 4798.285156
3.960000 8.000000 -3.800000 -30.808928 -31.956671 1970.418823
3.960000 8.040000 -4.200000 28.952106 31.465775 1828.319458
3.960000 8.040000 -4.160000 -7.368154 6.498272 96.517227
3.960000 8.040000 -4.120000 0.307926 -44.298912 1962.488403
3.960000 8.040000 -4.080000 59.065216 -67.729660 8076.006348
3.960000 8.040000 -4.040000 123.405365 -26.222990 15916.529297
3.960000 8.040000 -4.000000 132.664368 61.035484 21325.164062
3.960000 8.040000 -3.960000 68.214577 129.681366 21470.484375
3.960000 8.040000 -3.920000 -26.171852 126.886940 16785.261719
3.960000 8.040000 -3.880000 -82.694473 58.801956 10296.045898
3.960000 8.040000 -3.840000 -69.556122 -17.487209 5143.856445
3.960000 8.040000 -3.800000 -14.406269 -48.070549 2518.318115
3.960000 8.080000 -4.200000 0.181269 32.217098 1037.974243
3.960000 8.080000 -4.160000 -11.531420 -1.356321 134.813263
3.960000 8.080000 -4.120000 16.355860 -31.725689 1274.033447
3.960000 8.080000 -4.080000 65.476830 -21.855265 4764.868164
3.960000 8.080000 -4.040000 90.116722 33.278938 9228.511719
3.960000 8.080000 -4.000000 58.268131 95.166039 12451.750000
3.960000 8.080000 -3.960000 -15.336521 112.739983 12945.512695
3.960000 8.080000 -3.920000 -78.736252 68.474380 10888.138672
3.960000 8.080000 -3.880000 -87.807617 -5.174334 7736.951660
3.960000 8.080000 -3.840000 -43.768436 -55.365353 4980.998047
3.960000 8.080000 -3.800000 12.321115 -55.149433 3193.269775
3.960000 8.120000 -4.200000 -10.970013 13.956243 315.117889
3.960000 8.120000 -4.160000 -4.461750 -7.427058 75.068405
3.960000 8.120000 -4.120000 21.173542 -13.580500 632.748840
3.960000 8.120000 -4.080000 44.323662 9.088720 2047.191895
3.960000 8.120000 -4.040000 38.222908 48.399593 3803.511475
3.960000 8.120000 -4.000000 -2.665104 71.837326 5167.704102
3.960000 8.120000 -3.960000 -52.700928 54.178745 5712.724121
3.960000 8.120000 -3.920000 -74.404808 1.990868 5540.039062
3.960000 8.120000 -3.880000 -50.677711 -49.742596 5042.556641
3.960000 8.120000 -3.840000 0.627840 -67.018372 4491.855957
3.960000 8.120000 -3.800000 43.532166 -44.437317 3869.724609
3.960000 8.160000 -4.200000 -1.733553 0.851288 3.729897
3.960000 8.160000 -4.160000 5.060767 -3.607863 38.628040
3.960000 8.160000 -4.120000 15.254189 0.339806 232.805725
3.960000 8.160000 -4.080000 18.647913 14.784098 566.314209
3.960000 8.160000 -4.040000 5.737411 29.914738 927.809448
3.960000 8.160000 -4.000000 -19.936951 29.165874 1248.130249
3.960000 8.160000 -3.960000 -39.889408 4.707436 1613.324829
3.960000 8.160000 -3.920000 -34.540447 -31.674683 2196.328125
3.960000 8.160000 -3.880000 -1.382845 -55.103394 3038.296387
3.960000 8.160000 -3.840000 40.448170 -47.594910 3901.329834
3.960000 8.160000 -3.800000 64.828178 -13.224997 4377.593262
3.960000 8.200000 -4.200000 10.955580 4.606409 141.243729
3.960000 8.200000 -4.160000 7.393910 6.184224 92.914536
3.960000 8.200000 -4.120000 6.374356 5.346861 69.221344
3.960000 8.200000 -4.080000 6.436333 6.904928 89.104416
3.960000 8.200000 -4.040000 2.028614 9.524775 94.836601
3.960000 8.200000 -4.000000 -6.848238 5.422428 76.301094
3.960000 8.200000 -3.960000 -10.418615 -9.677052 202.192871
3.960000 8.200000 -3.920000 2.423166 -27.459366 759.888550
3.960000 8.200000 -3.880000 30.547338 -30.948454 1890.946777
3.960000 8.200000 -3.840000 57.063850 -9.840523 3353.118896
3.960000 8.200000 -3.800000 61.695305 27.648861 4570.770020
4.000000 7.800000 -4.200000 -87.444023 39.487961 9205.755859
4.000000 7.800000 -4.160000 -89.262794 -7.258402 8020.531250
4.000000 7.800000 -4.120000 -59.928062 -40.124729 5201.366211
4.000000 7.800000 -4.080000 -22.732445 -42.150642 2293.440674
4.000000 7.800000 -4.040000 -3.124560 -22.936226 535.833313
4.000000 7.800000 -4.000000 -5.544399 -6.732918 76.072540
4.000000 7.800000 -3.960000 -12.859474 -7.022926 214.687561
4.000000 7.800000 -3.920000 -7.880985 -14.744915 279.522461
4.000000 7.800000 -3.880000 7.257327 -11.866673 193.486710
4.000000 7.800000 -3.840000 15.001038 6.005157 261.093048
4.000000 7.800000 -3.800000 4.107245 23.806335 583.611023
4.000000 7.840000 -4.200000 -88.378922 -27.743460 8580.533203
4.000000 7.840000 -4.160000 -64.145386 -51.916367 6809.939453
4.000000 7.840000 -4.120000 -39.320675 -54.524185 4519.001953
4.000000 7.840000 -4.080000 -28.026520 -48.528225 3140.474365
4.000000 7.840000 -4.040000 -24.895161 -50.221893 3142.007568
4.000000 7.840000 -4.000000 -13.537643 -59.928200 3774.656982
4.000000 7.840000 -3.960000 12.094246 -61.149754 3885.563232
4.000000 7.840000 -3.920000 37.325756 -40.012562 2994.217285
4.000000 7.840000 -3.880000 40.222130 -4.021126 1633.989136
4.000000 7.840000 -3.840000 15.586763 21.640154 711.243469
4.000000 7.840000 -3.800000 -16.666088 18.135759 606.664246
4.000000 7.880000 -4.200000 -39.370140 -73.650513 6974.405762
4.000000 7.880000 -4.160000 -18.605850 -64.321480 4483.430664
4.000000 7.880000 -4.120000 -20.664572 -55.722286 3531.997559
4.000000 7.880000 -4.080000 -27.799143 -69.518181 5605.569824
4.000000 7.880000 -4.040000 -11.083378 -97.827774 9693.114258
4.000000 7.880000 -4.000000 35.852341 -107.866325 12920.535156
4.000000 7.880000 -3.960000 84.410576 -75.534821 12830.654297
4.000000 7.880000 -3.920000 95.641212 -13.799809 9337.675781
4.000000 7.880000 -3.880000 58.639526 35.099541 4670.571777
4.000000 7.880000 -3.840000 3.396246 37.915558 1449.124023
4.000000 7.880000 -3.800000 -26.118252 1.380518 684.068909
4.000000 7.920000 -4.200000 24.013750 -68.472298 5265.115723
4.000000 7.920000 -4.160000 16.079481 -43.841682 2180.642822
4.000000 7.920000 -4.120000 -8.595693 -52.839821 2865.932617
4.000000 7.920000 -4.080000 -5.660725 -94.350616 8934.083008
4.000000 7.920000 -4.040000 46.617741 -124.795860 17747.220703
4.000000 7.920000 -4.000000 118.593323 -99.624725 23989.460938
4.000000 7.920000 -3.960000 152.369751 -20.865345 23651.904297
4.000000 7.920000 -3.920000 116.571815 59.047024 17075.539062
4.000000 7.920000 -3.880000 38.127090 83.758148 8469.102539
4.000000 7.920000 -3.840000 -21.778191 44.536770 2457.813477
4.000000 7.920000 -3.800000 -23.937450 -14.074291 771.087219
4.000000 7.960000 -4.200000 58.524826 -22.936773 3951.250977
4.000000 7.960000 -4.160000 22.978199 -13.009127 697.234985
4.000000 7.960000 -4.120000 1.878887 -51.035797 2608.182861
4.000000 7.960000 -4.080000 37.107388 -99.592934 11295.709961
4.000000 7.960000 -4.040000 115.885506 -98.389206 23109.886719
4.000000 7.960000 -4.000000 175.057175 -25.278631 31284.023438
4.000000 7.960000 -3.960000 158.607910 75.825409 30905.960938
4.000000 7.960000 -3.920000 72.519119 131.511810 22554.378906
4.000000 7.960000 -3.880000 -18.714550 105.788261 11541.390625
4.000000 7.960000 -3.840000 -51.242172 31.337816 3607.818848
4.000000 7.960000 -3.800000 -17.981688 -24.643816 930.658813
4.000000 8.000000 -4.200000 48.713951 24.613373 2978.867188
4.000000 8.000000 -4.160000 9.691368 5.053112 119.456558
4.000000 8.000000 -4.120000 15.106464 -46.495564 2390.042725
4.000000 8.000000 -4.080000 77.320251 -71.910690 11149.568359
4.000000 8.000000 -4.040000 148.588562 -26.789698 22796.248047
4.000000 8.000000 -4.000000 160.897766 70.726250 30890.294922
4.000000 8.000000 -3.960000 90.999443 150.106522 30812.867188
4.000000 8.000000 -3.920000 -14.314959 151.275299 23089.134766
4.000000 8.000000 -3.880000 -79.573311 79.227798 12608.955078
4.000000 8.000000 -3.840000 -68.254837 -3.181116 4668.842285
4.000000 8.000000 -3.800000 -10.589503 -35.457253 1369.354370
4.000000 8.040000 -4.200000 14.670784 43.069790 2070.238770
4.000000 8.040000 -4.160000 -4.337955 5.084797 44.673019
4.000000 8.040000 -4.120000 27.043596 -33.776718 1872.222778
4.000000 8.040000 -4.080000 88.873505 -23.767990 8463.416992
4.000000 8.040000 -4.040000 122.985138 45.231876 17171.265625
4.000000 8.040000 -4.000000 86.157745 126.312355 23377.968750
4.000000 8.040000 -3.960000 -5.746656 154.133041 23790.017578
4.000000 8.040000 -3.920000 -88.306618 104.382973 18693.863281
4.000000 8.040000 -3.880000 -105.435150 15.957987 11371.228516
4.000000 8.040000 -3.840000 -57.452732 -45.791611 5397.687988
4.000000 8.040000 -3.800000 5.339582 -47.486572 2283.485840
4.000000 8.080000 -4.200000 -11.574835 31.732956 1140.957275
4.000000 8.080000 -4.160000 -7.550348 -1.826408 60.343525
4.000000 8.080000 -4.120000 29.433157 -15.338903 1101.592651
4.000000 8.080000 -4.080000 66.853172 15.606995 4712.924805
4.000000 8.080000 -4.040000 62.302589 74.931641 9496.363281
4.000000 8.080000 -4.000000 4.992447 114.311646 13092.077148
4.000000 8.080000 -3.960000 -69.017227 95.302315 13845.908203
4.000000 8.080000 -3.920000 -105.821396 25.737181 11860.570312
4.000000 8.080000 -3.880000 -80.659821 -45.895439 8612.398438
4.000000 8.080000 -3.840000 -17.815701 -73.072906 5657.049316
4.000000 8.080000 -3.800000 34.510139 -49.473801 3638.606689
4.000000 8.120000 -4.200000 -15.128649 12.906389 395.450897
4.000000 8.120000 -4.160000 -3.355976 -3.802289 25.719975
4.000000 8.120000 -4.120000 20.322075 -1.026898 414.041260
4.000000 8.120000 -4.080000 31.913338 26.086533 1698.968262
4.000000 8.120000 -4.040000 11.796410 57.168839 3407.431396
4.000000 8.120000 -4.000000 -33.107857 61.056591 4824.037109
4.000000 8.120000 -3.960000 -70.301971 24.564259 5545.770020
4.000000 8.120000 -3.920000 -68.205254 -32.256599 5692.444824
4.000000 8.120000 -3.880000 -24.285355 -70.916809 5618.972168
4.000000 8.120000 -3.840000 32.298149 -66.571556 5474.942383
4.000000 8.120000 -3.800000 65.951431 -27.275787 5093.560059
4.000000 8.160000 -4.200000 -5.556694 6.220388 69.570084
4.000000 8.160000 -4.160000 -1.080008 0.423608 1.345860
4.000000 8.160000 -4.120000 7.739786 2.150719 64.529877
4.000000 8.160000 -4.080000 10.170862 13.342356 281.464905
4.000000 8.160000 -4.040000 -2.129078 23.155031 540.688416
4.000000 8.160000 -4.000000 -22.769253 16.089752 777.318970
4.000000 8.160000 -3.960000 -32.061577 -11.257435 1154.674561
4.000000 8.160000 -3.920000 -14.039568 -42.258862 1982.920898
4.000000 8.160000 -3.880000 26.571602 -51.719307 3380.936768
4.000000 8.160000 -3.840000 65.136345 -27.581783 5003.498535
4.000000 8.160000 -3.800000 76.470535 17.669062 6159.938477
4.000000 8.200000 -4.200000 -0.330061 12.108052 146.713882
4.000000 8.200000 -4.160000 -4.050930 4.369596 35.503410
4.000000 8.200000 -4.120000 1.580837 -2.254150 7.580240
4.000000 8.200000 -4.080000 9.387769 -0.135448 88.148552
4.000000 8.200000 -4.040000 9.501947 6.480738 132.286957
4.000000 8.200000 -4.000000 2.679369 5.925655 42.292412
4.000000 8.200000 -3.960000 1.811628 -5.951710 38.704845
4.000000 8.200000 -3.920000 17.978045 -17.376026 625.136353
4.000000 8.200000 -3.880000 45.404148 -10.031057 2162.158691
4.000000 8.200000 -3.840000 62.686138 21.775043 4403.704590
4.000000 8.200000 -3.800000 51.150726 62.135967 6477.275391
4.040000 7.800000 -4.200000 -90.451195 -15.864683 8433.106445
4.040000 7.800000 -4.160000 -67.121750 -57.293999 7787.931641
4.040000 7.800000 -4.120000 -23.492701 -71.429352 5654.059570
4.040000 7.800000 -4.080000 12.922871 -54.373260 3123.451904
4.040000 7.800000 -4.040000 24.302830 -25.082764 1219.772583
4.040000 7.800000 -4.000000 16.004524 -6.028396 292.486359
4.040000 7.800000 -3.960000 6.743935 -2.886065 53.810024
4.040000 7.800000 -3.920000 7.386131 -3.725761 68.436234
4.040000 7.800000 -3.880000 11.452045 3.550911 143.758301
4.040000 7.800000 -3.840000 6.276381 16.207863 302.087769
4.040000 7.800000 -3.800000 -9.500655 20.711155 519.214355
4.040000 7.840000 -4.200000 -56.127716 -70.501816 8120.826172
4.040000 7.840000 -4.160000 -21.702721 -80.700264 6983.541016
4.040000 7.840000 -4.120000 5.029273 -70.957306 5060.232910
4.040000 7.840000 -4.080000 16.819027 -56.656971 3492.892090
4.040000 7.840000 -4.040000 22.320133 -48.706680 2870.529297
4.040000 7.840000 -4.000000 32.403233 -42.888634 2889.404297
4.040000 7.840000 -3.960000 45.008434 -27.712040 2793.716309
4.040000 7.840000 -3.920000 46.260513 -1.624840 2142.675293
4.040000 7.840000 -3.880000 27.282778 20.743950 1174.661377
4.040000 7.840000 -3.840000 -2.202114 21.890514 484.043915
4.040000 7.840000 -3.800000 -20.021160 0.755111 401.417053
4.040000 7.880000 -4.200000 6.964828 -82.177467 6801.645020
4.040000 7.880000 -4.160000 23.312634 -66.006889 4900.388672
4.040000 7.880000 -4.120000 22.874607 -57.699749 3852.508545
4.040000 7.880000 -4.080000 26.778198 -65.624435 5023.638184
4.040000 7.880000 -4.040000 51.301224 -72.342972 7865.321289
4.040000 7.880000 -4.000000 85.863571 -53.317356 10215.292969
4.040000 7.880000 -3.960000 100.050621 -6.391632 10050.979492
4.040000 7.880000 -3.920000 74.511581 40.283234 7174.714355
4.040000 7.880000 -3.880000 23.832478 52.717964 3347.170898
4.040000 7.880000 -3.840000 -13.981644 24.307112 786.322021
4.040000 7.880000 -3.800000 -12.401067 -16.508587 426.319885
4.040000 7.920000 -4.200000 55.379524 -46.161224 5197.750000
4.040000 7.920000 -4.160000 41.704063 -29.810677 2627.905273
4.040000 7.920000 -4.120000 29.782888 -44.399670 2858.351074
4.040000 7.920000 -4.080000 51.272942 -69.571121 7469.055664
4.040000 7.920000 -4.040000 101.856064 -64.216080 14498.363281
4.040000 7.920000 -4.000000 139.434845 -10.556526 19553.515625
4.040000 7.920000 -3.960000 123.764709 61.950275 19155.539062
4.040000 7.920000 -3.920000 58.414791 100.406265 13493.706055
4.040000 7.920000 -3.880000 -8.966080 78.120422 6183.190918
4.040000 7.920000 -3.840000 -30.036140 20.245136 1312.035278
4.040000 7.920000 -3.800000 0.144304 -20.655033 426.651215
4.040000 7.960000 -4.200000 61.230904 7.115072 3799.847900
4.040000 7.960000 -4.160000 31.868914 0.558250 1015.939331
4.040000 7.960000 -4.120000 33.875549 -34.764359 2356.113525
4.040000 7.960000 -4.080000 81.534561 -52.357758 9389.219727
4.040000 7.960000 -4.040000 137.810333 -13.571062 19175.861328
4.040000 7.960000 -4.000000 145.839645 68.476654 25958.255859
4.040000 7.960000 -3.960000 85.141479 134.924484 25453.687500
4.040000 7.960000 -3.920000 -4.692940 134.562958 18129.212891
4.040000 7.960000 -3.880000 -58.681011 72.167816 8651.655273
4.040000 7.960000 -3.840000 -45.848255 3.214064 2112.392822
4.040000 7.960000 -3.800000 5.513115 -19.206577 399.287048
4.040000 8.000000 -4.200000 31.937731 40.892960 2692.252930
4.040000 8.000000 -4.160000 11.792694 10.893774 257.741943
4.040000 8.000000 -4.120000 38.393158 -23.521688 2027.304443
4.040000 8.000000 -4.080000 95.396988 -13.282504 9277.009766
4.040000 8.000000 -4.040000 127.111359 53.498749 19019.414062
4.040000 8.000000 -4.000000 90.769302 132.352814 25756.333984
4.040000 8.000000 -3.960000 1.242207 159.711853 25509.419922
4.040000 8.000000 -3.920000 -78.645241 112.078552 18746.675781
4.040000 8.000000 -3.880000 -94.583511 28.238880 9743.475586
4.040000 8.000000 -3.840000 -48.573299 -27.604977 3121.400146
4.040000 8.000000 -3.800000 8.219656 -24.387636 662.319519
4.040000 8.040000 -4.200000 -2.624504 41.856155 1758.825806
4.040000 8.040000 -4.160000 -1.349646 6.864328 48.940544
4.040000 8.040000 -4.120000 37.733829 -7.833982 1485.213257
4.040000 8.040000 -4.080000 78.573357 26.893675 6897.041992
4.040000 8.040000 -4.040000 72.934937 93.714554 14101.922852
4.040000 8.040000 -4.000000 8.501612 138.405441 19228.343750
4.040000 8.040000 -3.960000 -74.144569 118.391327 19513.921875
4.040000 8.040000 -3.920000 -115.427628 43.465714 15212.805664
4.040000 8.040000 -3.880000 -89.780334 -32.174644 9095.715820
4.040000 8.040000 -3.840000 -26.123842 -58.956841 4158.364258
4.040000 8.040000 -3.800000 22.648830 -33.556633 1639.017090
4.040000 8.080000 -4.200000 -19.219273 24.353218 962.459656
4.040000 8.080000 -4.160000 -4.725167 1.482677 24.525537
4.040000 8.080000 -4.120000 26.694725 5.740479 745.561462
4.040000 8.080000 -4.080000 41.097195 43.090279 3545.751465
4.040000 8.080000 -4.040000 12.787384 84.689171 7335.772949
4.040000 8.080000 -4.000000 -47.039215 89.601410 10241.100586
4.040000 8.080000 -3.960000 -95.356613 43.158775 10955.563477
4.040000 8.080000 -3.920000 -94.058731 -26.726908 9561.372070
4.040000 8.080000 -3.880000 -43.741592 -72.643196 7190.361328
4.040000 8.080000 -3.840000 18.031208 -68.339409 4995.399414
4.040000 8.080000 -3.800000 51.256741 -28.094362 3416.546631
4.040000 8.120000 -4.200000 -17.619738 10.202157 414.539154
4.040000 8.120000 -4.160000 -5.579546 0.272289 31.205473
4.040000 8.120000 -4.120000 10.170815 7.908504 165.989914
4.040000 8.120000 -4.080000 9.842678 29.736652 981.146790
4.040000 8.120000 -4.040000 -15.005024 44.053280 2165.842285
4.040000 8.120000 -4.000000 -48.666550 29.442799 3235.311523
4.040000 8.120000 -3.960000 -61.587761 -12.902462 3959.525879
4.040000 8.120000 -3.920000 -36.374020 -56.145302 4475.364258
4.040000 8.120000 -3.880000 15.114227 -69.019356 4992.111328
4.040000 8.120000 -3.840000 60.585159 -42.140297 5446.366211
4.040000 8.120000 -3.800000 73.977554 5.293265 5500.697266
4.040000 8.160000 -4.200000 -12.311964 7.688896 210.703583
4.040000 8.160000 -4.160000 -8.623093 -0.482538 74.590569
4.040000 8.160000 -4.120000 0.129432 -1.338554 1.808480
4.040000 8.160000 -4.080000 3.400566 5.927837 46.703106
4.040000 8.160000 -4.040000 -4.589354 10.564903 132.679352
4.040000 8.160000 -4.000000 -15.422669 0.879452 238.632172
4.040000 8.160000 -3.960000 -12.108521 -21.088142 591.326050
4.040000 8.160000 -3.920000 13.760723 -37.164356 1570.546875
4.040000 8.160000 -3.880000 50.441006 -27.864037 3320.699707
4.040000 8.160000 -3.840000 73.142311 8.933670 5429.608398
4.040000 8.160000 -3.800000 64.362457 53.928253 7050.782227
4.040000 8.200000 -4.200000 -13.372077 9.554104 270.093323
4.040000 8.200000 -4.160000 -11.028506 -4.409967 141.075760
4.040000 8.200000 -4.120000 2.572777 -10.815553 123.595367
4.040000 8.200000 -4.080000 15.250305 -4.206446 250.265991
4.040000 8.200000 -4.040000 16.949348 6.932089 335.334290
4.040000 8.200000 -4.000000 11.497053 10.046509 233.114578
4.040000 8.200000 -3.960000 12.593349 4.015617 174.717636
4.040000 8.200000 -3.920000 27.331160 2.484186 753.163513
4.040000 8.200000 -3.880000 45.152710 19.856230 2433.037109
4.040000 8.200000 -3.840000 45.521133 53.981400 4986.165039
4.040000 8.200000 -3.800000 17.771019 84.318108 7425.352539
4.080000 7.800000 -4.200000 -58.550674 -50.679855 5996.628906
4.080000 7.800000 -4.160000 -21.526993 -73.032166 5797.108887
4.080000 7.800000 -4.120000 20.713297 -65.211998 4681.645020
4.080000 7.800000 -4.080000 44.892868 -34.119682 3179.522461
4.080000 7.800000 -4.040000 42.772751 -1.081622 1830.678101
4.080000 7.800000 -4.000000 25.146328 16.714272 911.704712
4.080000 7.800000 -3.960000 8.886467 18.446274 419.234314
4.080000 7.800000 -3.920000 1.366618 14.927744 224.705185
4.080000 7.800000 -3.880000 -2.302846 14.329717 210.643875
4.080000 7.800000 -3.840000 -8.865273 14.498773 288.807465
4.080000 7.800000 -3.800000 -16.884882 8.926818 364.787323
4.080000 7.840000 -4.200000 -10.950936 -75.975037 5892.128906
4.080000 7.840000 -4.160000 22.257849 -70.558380 5473.896484
4.080000 7.840000 -4.120000 42.943279 -50.032085 4347.334961
4.080000 7.840000 -4.080000 48.360191 -27.973076 3121.200928
4.080000 7.840000 -4.040000 45.916576 -11.847584 2248.697266
4.080000 7.840000 -4.000000 42.050377 0.648224 1768.654419
4.080000 7.840000 -3.960000 35.183960 13.540550 1421.257568
4.080000 7.840000 -3.920000 20.617151 23.676113 985.625244
4.080000 7.840000 -3.880000 0.734018 22.493164 506.481232
4.080000 7.840000 -3.840000 -12.864479 7.019393 214.766708
4.080000 7.840000 -3.800000 -9.524361 -13.002785 259.785858
4.080000 7.880000 -4.200000 39.246391 -58.639328 4978.850098
4.080000 7.880000 -4.160000 49.393372 -40.132160 4050.295410
4.080000 7.880000 -4.120000 49.629654 -29.301216 3321.663818
4.080000 7.880000 -4.080000 54.402946 -25.806820 3625.672607
4.080000 7.880000 -4.040000 67.454727 -15.686523 4796.207031
4.080000 7.880000 -4.000000 75.036072 10.070766 5731.832520
4.080000 7.880000 -3.960000 60.589272 40.871933 5341.574707
4.080000 7.880000 -3.920000 25.628077 53.703892 3540.906250
4.080000 7.880000 -3.880000 -6.906517 36.488079 1379.079834
4.080000 7.880000 -3.840000 -12.718804 2.978223 170.637802
4.080000 7.880000 -3.800000 9.959203 -17.923025 420.420563
4.080000 7.920000 -4.200000 59.769627 -13.857633 3764.442139
4.080000 7.920000 -4.160000 48.166084 -5.242544 2347.456055
4.080000 7.920000 -4.120000 46.619377 -14.295321 2377.722412
4.080000 7.920000 -4.080000 67.443100 -18.188721 4879.401367
4.080000 7.920000 -4.040000 93.452293 5.999811 8769.329102
4.080000 7.920000 -4.000000 92.940689 52.962730 11443.022461
4.080000 7.920000 -3.960000 53.533756 89.245476 10830.618164
4.080000 7.920000 -3.920000 -0.948381 84.530113 7146.239258
4.080000 7.920000 -3.880000 -30.347940 42.851849 2757.278320
4.080000 7.920000 -3.840000 -16.127504 0.708202 260.597961
4.080000 7.920000 -3.800000 21.073122 -7.164677 495.409058
4.080000 7.960000 -4.200000 44.332855 26.132975 2648.334473
4.080000 7.960000 -4.160000 29.174290 14.315608 1056.075806
4.080000 7.960000 -4.120000 42.712173 -4.430653 1843.960449
4.080000 7.960000 -4.080000 77.577057 3.972033 6033.976562
4.080000 7.960000 -4.040000 96.541161 50.156296 11835.849609
4.080000 7.960000 -4.000000 68.950211 104.484024 15671.042969
4.080000 7.960000 -3.960000 4.710274 122.052994 14919.120117
4.080000 7.960000 -3.920000 -50.927174 86.270866 10036.239258
4.080000 7.960000 -3.880000 -58.804554 26.522514 4161.419434
4.080000 7.960000 -3.840000 -22.330910 -9.074609 581.018066
4.080000 7.960000 -3.800000 17.697344 1.318081 314.933319
4.080000 8.000000 -4.200000 12.613289 40.178707 1773.423584
4.080000 8.000000 -4.160000 10.229403 16.560949 378.905731
4.080000 8.000000 -4.120000 38.150299 6.091063 1492.546387
4.080000 8.000000 -4.080000 68.972763 34.244518 5929.929199
4.080000 8.000000 -4.040000 62.990257 88.589539 11815.878906
4.080000 8.000000 -4.000000 9.244545 124.950882 15698.184570
4.080000 8.000000 -3.960000 -58.842430 108.101868 15148.445312
4.080000 8.000000 -3.920000 -91.793854 46.901344 10625.847656
4.080000 8.000000 -3.880000 -69.576965 -12.469625 4996.445801
4.080000 8.000000 -3.840000 -18.887718 -29.174812 1207.915527
4.080000 8.000000 -3.800000 14.385459 -3.676624 220.458984
4.080000 8.040000 -4.200000 -11.455429 31.463459 1121.176147
4.080000 8.040000 -4.160000 -0.498156 11.660696 136.219986
4.080000 8.040000 -4.120000 27.119005 16.413588 1004.846313
4.080000 8.040000 -4.080000 38.945858 52.324757 4254.660156
4.080000 8.040000 -4.040000 10.217394 91.836174 8538.278320
4.080000 8.040000 -4.000000 -47.831448 95.871460 11479.184570
4.080000 8.040000 -3.960000 -93.687210 51.565304 11436.273438
4.080000 8.040000 -3.920000 -92.232613 -12.939142 8674.276367
4.080000 8.040000 -3.880000 -46.811485 -52.773689 4976.377441
4.080000 8.040000 -3.840000 5.041003 -46.191010 2159.020996
4.080000 8.040000 -3.800000 27.164204 -10.998451 858.859924
4.080000 8.080000 -4.200000 -19.512623 17.025969 670.626099
4.080000 8.080000 -4.160000 -6.416060 7.204598 93.072067
4.080000 8.080000 -4.120000 9.526077 18.075077 417.454559
4.080000 8.080000 -4.080000 5.401966 43.617393 1931.658325
4.080000 8.080000 -4.040000 -26.003235 57.891869 4027.636719
4.080000 8.080000 -4.000000 -64.406975 38.677753 5644.227051
4.080000 8.080000 -3.960000 -77.433739 -9.006519 6077.101074
4.080000 8.080000 -3.920000 -49.962753 -54.080654 5420.993652
4.080000 8.080000 -3.880000 1.199556 -65.666534 4313.532715
4.080000 8.080000 -3.840000 41.982948 -39.405994 3315.400391
4.080000 8.080000 -3.800000 50.484734 1.206982 2550.165039
4.080000 8.120000 -4.200000 -19.148155 8.475496 438.485901
4.080000 8.120000 -4.160000 -11.941957 2.064758 146.873581
4.080000 8.120000 -4.120000 -4.380659 6.441278 60.680229
4.080000 8.120000 -4.080000 -8.278133 16.020420 325.181366
4.080000 8.120000 -4.040000 -24.107159 15.652294 826.149414
4.080000 8.120000 -4.000000 -36.812256 -3.859783 1370.040161
4.080000 8.120000 -3.960000 -28.268627 -33.512093 1922.175537
4.080000 8.120000 -3.920000 4.629698 -50.929710 2615.269531
4.080000 8.120000 -3.880000 44.361637 -39.265854 3509.762207
4.080000 8.120000 -3.840000 66.161087 -2.419832 4383.145020
4.080000 8.120000 -3.800000 58.073250 38.035671 4819.214844
4.080000 8.160000 -4.200000 -19.623182 4.340077 403.905548
4.080000 8.160000 -4.160000 -14.846628 -6.775266 266.326599
4.080000 8.160000 -4.120000 -3.919230 -10.350592 122.495117
4.080000 8.160000 -4.080000 3.608918 -5.927525 48.159836
4.080000 8.160000 -4.040000 3.579401 -2.084522 17.157349
4.080000 8.160000 -4.000000 2.891253 -6.221313 47.064083
4.080000 8.160000 -3.960000 12.403728 -14.272299 357.550995
4.080000 8.160000 -3.920000 33.635880 -12.484581 1287.237183
4.080000 8.160000 -3.880000 53.612720 9.121964 2957.533936
4.080000 8.160000 -3.840000 54.556171 44.859314 4988.733887
4.080000 8.160000 -3.800000 29.799812 75.589691 6601.830078
4.080000 8.200000 -4.200000 -21.182878 -1.621313 451.343018
4.080000 8.200000 -4.160000 -10.504389 -16.040831 367.650452
4.080000 8.200000 -4.120000 8.855412 -17.584932 387.648163
4.080000 8.200000 -4.080000 23.079308 -5.041826 558.074402
4.080000 8.200000 -4.040000 24.504751 10.808912 717.315430
4.080000 8.200000 -4.000000 18.750952 19.114485 716.961731
4.080000 8.200000 -3.960000 17.189400 20.805548 728.346313
4.080000 8.200000 -3.920000 22.765415 27.061913 1250.611206
4.080000 8.200000 -3.880000 24.940578 45.551010 2696.927002
4.080000 8.200000 -3.840000 10.034681 69.241669 4895.103516
4.080000 8.200000 -3.800000 -23.379620 80.382874 7008.012695
4.120000 7.800000 -4.200000 -21.513634 -51.309334 3095.484131
4.120000 7.800000 -4.160000 12.818039 -53.437057 3019.821289
4.120000 7.800000 -4.120000 41.185493 -31.946012 2716.792480
4.120000 7.800000 -4.080000 48.337498 1.883780 2340.062256
4.120000 7.800000 -4.040000 32.980042 29.510729 1958.566162
4.120000 7.800000 -4.000000 7.482826 38.823318 1563.242676
4.120000 7.800000 -3.960000 -12.946317 31.294704 1146.965576
4.120000 7.800000 -3.920000 -21.247074 17.467283 756.544189
4.120000 7.800000 -3.880000 -20.482533 6.636304 463.574677
4.120000 7.800000 -3.840000 -17.206303 0.792574 296.685028
4.120000 7.800000 -3.800000 -14.373320 -3.019312 215.708557
4.120000 7.840000 -4.200000 15.918305 -53.208458 3084.532227
4.120000 7.840000 -4.160000 39.508472 -38.335281 3030.513184
4.120000 7.840000 -4.120000 49.268112 -13.665138 2614.083008
4.120000 7.840000 -4.080000 43.868523 9.407665 2012.951416
4.120000 7.840000 -4.040000 29.402233 23.466442 1415.165283
4.120000 7.840000 -4.000000 13.054167 27.578604 930.990662
4.120000 7.840000 -3.960000 -1.008581 24.044701 579.164856
4.120000 7.840000 -3.920000 -10.665918 14.844786 334.129486
4.120000 7.840000 -3.880000 -13.422446 2.094507 184.549026
4.120000 7.840000 -3.840000 -7.272544 -9.586900 144.798553
4.120000 7.840000 -3.800000 5.647217 -13.735242 220.547928
4.120000 7.880000 -4.200000 42.379833 -28.422609 2603.895020
4.120000 7.880000 -4.160000 47.639709 -10.988796 2390.295654
4.120000 7.880000 -4.120000 45.182320 2.406449 2047.233032
4.120000 7.880000 -4.080000 41.631767 11.645904 1868.831177
4.120000 7.880000 -4.040000 37.737404 21.440735 1883.816772
4.120000 7.880000 -4.000000 28.319744 32.098755 1832.338013
4.120000 7.880000 -3.960000 11.288661 36.253975 1441.784546
4.120000 7.880000 -3.920000 -5.506372 26.822147 749.747742
4.120000 7.880000 -3.880000 -9.371693 7.578874 145.267944
4.120000 7.880000 -3.840000 4.095431 -6.675666 61.337082
4.120000 7.880000 -3.800000 24.004005 -2.847945 584.303040
4.120000 7.920000 -4.200000 43.797539 4.372113 1937.339722
4.120000 7.920000 -4.160000 37.619347 11.199215 1540.637573
4.120000 7.920000 -4.120000 37.127823 11.409637 1508.655029
4.120000 7.920000 -4.080000 44.184166 17.259430 2250.128418
4.120000 7.920000 -4.040000 46.606407 35.267998 3415.988770
4.120000 7.920000 -4.000000 31.767231 55.423889 4080.964355
4.120000 7.920000 -3.960000 3.266973 59.364422 3534.807617
4.120000 7.920000 -3.920000 -18.914326 40.315514 1983.092407
4.120000 7.920000 -3.880000 -17.195646 13.090200 467.043579
4.120000 7.920000 -3.840000 4.821026 1.698191 26.126143
4.120000 7.920000 -3.800000 24.139477 15.937737 836.725830
4.120000 7.960000 -4.200000 26.013397 25.575241 1330.789795
4.120000 7.960000 -4.160000 21.015293 20.561134 864.402832
4.120000 7.960000 -4.120000 29.865515 17.491772 1197.911011
4.120000 7.960000 -4.080000 42.265022 31.314230 2766.913086
4.120000 7.960000 -4.040000 37.780640 58.756592 4879.713867
4.120000 7.960000 -4.000000 8.714913 77.653542 6106.022461
4.120000 7.960000 -3.960000 -28.012833 68.262733 5444.519531
4.120000 7.960000 -3.920000 -44.840408 35.025169 3237.424805
4.120000 7.960000 -3.880000 -30.538439 4.741105 955.074341
4.120000 7.960000 -3.840000 -2.206234 1.343764 6.673170
4.120000 7.960000 -3.800000 11.093928 22.621170 634.792603
4.120000 8.000000 -4.200000 4.808436 29.558611 896.832520
4.120000 8.000000 -4.160000 6.845209 20.875134 482.628082
4.120000 8.000000 -4.120000 20.076992 23.626722 961.307617
4.120000 8.000000 -4.080000 26.050720 44.972816 2701.194336
4.120000 8.000000 -4.040000 7.734735 69.918221 4948.383789
4.120000 8.000000 -4.000000 -29.763670 73.404739 6274.131836
4.120000 8.000000 -3.960000 -60.140678 45.848198 5718.958496
4.120000 8.000000 -3.920000 -59.885307 5.293530 3614.271484
4.120000 8.000000 -3.880000 -31.505194 -18.047817 1318.300903
4.120000 8.000000 -3.840000 -1.612504 -10.194249 106.522881
4.120000 8.000000 -3.800000 4.812621 14.070415 221.137878
4.120000 8.040000 -4.200000 -9.568922 23.522617 644.877808
4.120000 8.040000 -4.160000 -4.327489 17.571625 327.489166
4.120000 8.040000 -4.120000 4.526561 24.685852 629.881042
4.120000 8.040000 -4.080000 0.188791 42.644684 1818.604736
4.120000 8.040000 -4.040000 -24.003059 52.981106 3383.144531
4.120000 8.040000 -4.000000 -53.658844 38.614216 4370.329102
4.120000 8.040000 -3.960000 -64.349716 3.017298 4149.989746
4.120000 8.040000 -3.920000 -44.908283 -30.004330 2917.013672
4.120000 8.040000 -3.880000 -9.274073 -37.335449 1479.944214
4.120000 8.040000 -3.840000 15.919059 -17.753826 568.614746
4.120000 8.040000 -3.800000 15.836737 8.109440 316.565247
4.120000 8.080000 -4.200000 -17.490175 15.575872 548.514038
4.120000 8.080000 -4.160000 -14.383999 10.478711 316.702820
4.120000 8.080000 -4.120000 -10.744415 13.658516 301.997498
4.120000 8.080000 -4.080000 -16.638584 20.278627 688.065186
4.120000 8.080000 -4.040000 -31.733501 17.338303 1307.631836
4.120000 8.080000 -4.000000 -42.384636 -1.951578 1800.266113
4.120000 8.080000 -3.960000 -33.844307 -28.219814 1941.795044
4.120000 8.080000 -3.920000 -5.810163 -42.132637 1808.916992
4.120000 8.080000 -3.880000 25.069626 -31.742954 1636.101318
4.120000 8.080000 -3.840000 39.143200 -3.748432 1546.240845
4.120000 8.080000 -3.800000 30.641788 22.669415 1452.821533
4.120000 8.120000 -4.200000 -22.759823 6.979156 566.718140
4.120000 8.120000 -4.160000 -20.253937 -2.558619 416.768494
4.120000 8.120000 -4.120000 -13.701252 -6.605044 231.350922
4.120000 8.120000 -4.080000 -9.916884 -6.426954 139.650330
4.120000 8.120000 -4.040000 -9.718204 -8.741043 170.849319
4.120000 8.120000 -4.000000 -6.185656 -16.650475 315.500641
4.120000 8.120000 -3.960000 7.457077 -23.848677 624.367371
4.120000 8.120000 -3.920000 28.550999 -19.357244 1189.862427
4.120000 8.120000 -3.880000 44.710358 1.374179 2000.904541
4.120000 8.120000 -3.840000 43.780338 30.329987 2836.625977
4.120000 8.120000 -3.800000 24.539156 52.455669 3353.767334
4.120000 8.160000 -4.200000 -24.625204 -4.312566 624.998901
4.120000 8.160000 -4.160000 -15.990442 -17.792879 572.280762
4.120000 8.160000 -4.120000 0.063453 -21.899508 479.592468
4.120000 8.160000 -4.080000 13.962149 -15.481909 434.631104
4.120000 8.160000 -4.040000 20.450689 -5.160557 444.862030
4.120000 8.160000 -4.000000 22.532618 2.754169 515.304321
4.120000 8.160000 -3.960000 26.094353 9.191414 765.397339
4.120000 8.160000 -3.920000 31.377991 20.450819 1402.814331
4.120000 8.160000 -3.880000 30.951101 39.505711 2518.671875
4.120000 8.160000 -3.840000 16.866121 60.031792 3888.281982
4.120000 8.160000 -3.800000 -10.235592 70.014786 5006.837891
4.120000 8.200000 -4.200000 -19.116535 -16.024721 622.233643
4.120000 8.200000 -4.160000 -1.786716 -25.523457 654.639160
4.120000 8.200000 -4.120000 19.540907 -19.749229 771.879150
4.120000 8.200000 -4.080000 32.108803 -0.931940 1031.843750
4.120000 8.200000 -4.040000 30.545118 19.926369 1330.064453
4.120000 8.200000 -4.000000 20.196272 33.445892 1526.517090
4.120000 8.200000 -3.960000 9.925880 39.569046 1664.232422
4.120000 8.200000 -3.920000 2.380957 44.871834 2019.150391
4.120000 8.200000 -3.880000 -7.915742 52.974941 2869.003418
4.120000 8.200000 -3.840000 -26.812637 58.706551 4165.376465
4.120000 8.200000 -3.800000 -51.754646 52.498455 5434.631348
4.160000 7.800000 -4.200000 -3.747566 -31.634216 1014.767883
4.160000 7.800000 -4.160000 17.030155 -23.480957 841.381531
4.160000 7.800000 -4.120000 28.980907 -1.753817 842.968872
4.160000 7.800000 -4.080000 23.382717 23.880695 1117.039062
4.160000 7.800000 -4.040000 1.774462 39.319427 1549.166016
4.160000 7.800000 -4.000000 -23.750999 36.047791 1863.553223
4.160000 7.800000 -3.960000 -38.839539 17.652716 1820.128174
4.160000 7.800000 -3.920000 -37.285770 -3.102725 1399.855591
4.160000 7.800000 -3.880000 -24.657406 -14.423293 816.019043
4.160000 7.800000 -3.840000 -12.200097 -13.946222 343.339478
4.160000 7.800000 -3.800000 -6.940401 -8.389779 118.557556
4.160000 7.840000 -4.200000 15.637432 -28.779190 1072.770996
4.160000 7.840000 -4.160000 28.021770 -13.622002 970.778564
4.160000 7.840000 -4.120000 28.049936 6.942711 835.000183
4.160000 7.840000 -4.080000 14.846998 22.662796 734.035645
4.160000 7.840000 -4.040000 -4.604480 25.719128 682.674744
4.160000 7.840000 -4.000000 -20.002388 15.729182 647.502686
4.160000 7.840000 -3.960000 -24.204105 -0.544270 586.134949
4.160000 7.840000 -3.920000 -16.990831 -13.992504 484.478516
4.160000 7.840000 -3.880000 -3.992771 -18.638048 363.319061
4.160000 7.840000 -3.840000 7.595299 -14.173430 258.574677
4.160000 7.840000 -3.800000 13.155043 -4.649178 194.669998
4.160000 7.880000 -4.200000 27.697170 -14.545601 978.707764
4.160000 7.880000 -4.160000 30.166063 0.303361 910.083435
4.160000 7.880000 -4.120000 23.509121 12.607608 711.630554
4.160000 7.880000 -4.080000 12.474556 17.675039 468.021545
4.160000 7.880000 -4.040000 2.588789 15.657825 251.869324
4.160000 7.880000 -4.000000 -3.051113 9.413424 97.921829
4.160000 7.880000 -3.960000 -3.508501 1.891585 15.887675
4.160000 7.880000 -3.920000 1.308056 -4.096211 18.489958
4.160000 7.880000 -3.880000 10.126035 -5.123371 128.785522
4.160000 7.880000 -3.840000 18.739819 1.495493 353.417297
4.160000 7.880000 -3.800000 20.932121 14.428168 646.325745
4.160000 7.920000 -4.200000 28.652946 2.448769 826.987793
4.160000 7.920000 -4.160000 24.993286 12.255132 774.852600
4.160000 7.920000 -4.120000 18.914392 16.531208 631.035095
4.160000 7.920000 -4.080000 14.838432 17.739832 534.880737
4.160000 7.920000 -4.040000 11.977634 19.442505 521.474731
4.160000 7.920000 -4.000000 7.486381 21.010418 497.483551
4.160000 7.920000 -3.960000 2.259262 19.092499 369.627777
4.160000 7.920000 -3.920000 1.139749 13.848245 193.072906
4.160000 7.920000 -3.880000 6.439405 11.353327 170.363953
4.160000 7.920000 -3.840000 12.632880 17.717094 473.485107
4.160000 7.920000 -3.800000 10.007794 30.779110 1047.509521
4.160000 7.960000 -4.200000 21.198307 15.908176 702.438293
4.160000 7.960000 -4.160000 15.419308 20.519173 658.791504
4.160000 7.960000 -4.120000 12.438906 21.178989 603.276001
4.160000 7.960000 -4.080000 12.233212 24.108274 730.860413
4.160000 7.960000 -4.040000 8.781984 30.538078 1009.697449
4.160000 7.960000 -4.000000 -0.971128 34.280392 1176.088379
4.160000 7.960000 -3.960000 -11.472197 29.481968 1000.797729
4.160000 7.960000 -3.920000 -13.968079 19.253756 565.814331
4.160000 7.960000 -3.880000 -7.349062 13.981892 249.502014
4.160000 7.960000 -3.840000 -1.360661 19.890293 397.475159
4.160000 7.960000 -3.800000 -6.990973 30.560135 982.795532
4.160000 8.000000 -4.200000 8.933144 23.800468 646.263306
4.160000 8.000000 -4.160000 2.148604 24.238424 592.117737
4.160000 8.000000 -4.120000 0.395915 23.212658 538.984253
4.160000 8.000000 -4.080000 -0.405094 26.574020 706.342712
4.160000 8.000000 -4.040000 -7.072364 31.656059 1052.124390
4.160000 8.000000 -4.000000 -19.044262 30.152889 1271.880615
4.160000 8.000000 -3.960000 -27.189939 18.968544 1099.098389
4.160000 8.000000 -3.920000 -23.842312 5.835696 602.511169
4.160000 8.000000 -3.880000 -12.649063 2.102250 164.418243
4.160000 8.000000 -3.840000 -6.139100 9.962597 136.941879
4.160000 8.000000 -3.800000 -12.476060 18.807764 509.384064
4.160000 8.040000 -4.200000 -6.070307 24.990475 661.372437
4.160000 8.040000 -4.160000 -13.405360 20.109522 584.096558
4.160000 8.040000 -4.120000 -14.227765 15.250832 435.017151
4.160000 8.040000 -4.080000 -14.210525 14.825586 421.737000
4.160000 8.040000 -4.040000 -18.575531 14.764088 563.028625
4.160000 8.040000 -4.000000 -24.462801 8.651625 673.279236
4.160000 8.040000 -3.960000 -23.772141 -2.809666 573.008911
4.160000 8.040000 -3.920000 -13.371072 -10.721823 293.743042
4.160000 8.040000 -3.880000 -0.485883 -7.338312 54.086906
4.160000 8.040000 -3.840000 3.784801 4.574986 35.255207
4.160000 8.040000 -3.800000 -3.715231 13.508739 196.288986
4.160000 8.080000 -4.200000 -20.596697 17.388573 726.586365
4.160000 8.080000 -4.160000 -24.964991 5.537171 653.911011
4.160000 8.080000 -4.120000 -20.444721 -4.032605 434.248535
4.160000 8.080000 -4.080000 -13.617732 -7.204422 237.346329
4.160000 8.080000 -4.040000 -9.544823 -7.394813 145.786896
4.160000 8.080000 -4.000000 -6.591089 -9.199245 128.068573
4.160000 8.080000 -3.960000 -0.108662 -11.585915 134.245224
4.160000 8.080000 -3.920000 9.994921 -8.795224 177.254410
4.160000 8.080000 -3.880000 17.224070 2.146971 301.278076
4.160000 8.080000 -3.840000 14.828277 16.333561 486.663025
4.160000 8.080000 -3.800000 3.476566 24.712391 622.788757
4.160000 8.120000 -4.200000 -28.233416 1.261966 798.718262
4.160000 8.120000 -4.160000 -23.920364 -14.943203 795.483154
4.160000 8.120000 -4.120000 -9.523230 -23.833431 658.724365
4.160000 8.120000 -4.080000 6.086811 -21.722811 508.929749
4.160000 8.120000 -4.040000 16.075268 -12.773050 421.565063
4.160000 8.120000 -4.000000 20.175083 -2.996922 416.015503
4.160000 8.120000 -3.960000 21.825108 5.719447 509.047394
4.160000 8.120000 -3.920000 22.271336 15.493369 736.056885
4.160000 8.120000 -3.880000 18.692303 27.380348 1099.085693
4.160000 8.120000 -3.840000 8.128639 37.917629 1503.821411
4.160000 8.120000 -3.800000 -7.742988 41.486938 1781.119873
4.160000 8.160000 -4.200000 -23.122583 -16.773748 816.012512
4.160000 8.160000 -4.160000 -8.125061 -29.345989 927.203674
4.160000 8.160000 -4.120000 13.566423 -28.733908 1009.685303
4.160000 8.160000 -4.080000 30.584667 -14.250519 1138.499146
4.160000 8.160000 -4.040000 35.655254 6.484539 1313.346313
4.160000 8.160000 -4.000000 29.741631 24.435413 1481.654053
4.160000 8.160000 -3.960000 18.791048 35.707874 1628.155762
4.160000 8.160000 -3.920000 7.313938 42.029350 1819.959961
4.160000 8.160000 -3.880000 -4.659372 46.048103 2142.137451
4.160000 8.160000 -3.840000 -18.989124 47.122265 2581.094727
4.160000 8.160000 -3.800000 -34.906647 41.947628 2978.077637
4.160000 8.200000 -4.200000 -6.821887 -26.055790 725.442322
4.160000 8.200000 -4.160000 12.853708 -27.440517 918.199829
4.160000 8.200000 -4.120000 31.622030 -13.950449 1194.567871
4.160000 8.200000 -4.080000 38.715248 10.135447 1601.597778
4.160000 8.200000 -4.040000 30.215759 34.016792 2070.134277
4.160000 8.200000 -4.000000 11.170732 48.240910 2451.970459
4.160000 8.200000 -3.960000 -9.380032 50.609253 2649.281494
4.160000 8.200000 -3.920000 -25.460491 45.448883 2713.837646
4.160000 8.200000 -3.880000 -37.042950 37.903984 2808.892090
4.160000 8.200000 -3.840000 -46.939522 29.158340 3053.527344
4.160000 8.200000 -3.800000 -55.705391 16.895473 3388.547607
4.200000 7.800000 -4.200000 -7.366199 -14.631349 268.337219
4.200000 7.800000 -4.160000 -0.269759 -9.224612 85.166237
4.200000 7.800000 -4.120000 2.454582 2.775750 13.729761
4.200000 7.800000 -4.080000 -5.732717 15.961377 287.629608
4.200000 7.800000 -4.040000 -23.696579 19.662306 948.134094
4.200000 7.800000 -4.000000 -40.377060 7.768893 1690.662720
4.200000 7.800000 -3.960000 -43.130020 -13.629192 2045.953491
4.200000 7.800000 -3.920000 -29.512884 -29.928101 1766.701538
4.200000 7.800000 -3.880000 -10.253902 -30.737755 1049.952148
4.200000 7.800000 -3.840000 0.494596 -19.218729 369.604187
4.200000 7.800000 -3.800000 -1.655826 -8.287322 71.421471
4.200000 7.840000 -4.200000 2.560181 -20.880938 442.568085
4.200000 7.840000 -4.160000 8.419561 -12.423231 225.225677
4.200000 7.840000 -4.120000 5.635932 -0.772220 32.360058
4.200000 7.840000 -4.080000 -6.273420 5.087409 65.237534
4.200000 7.840000 -4.040000 -19.346983 -1.102726 375.521759
4.200000 7.840000 -4.000000 -22.991295 -16.319761 794.934204
4.200000 7.840000 -3.960000 -13.167562 -29.729969 1057.255737
4.200000 7.840000 -3.920000 3.733987 -31.491034 1005.627808
4.200000 7.840000 -3.880000 16.245798 -20.918034 701.490112
4.200000 7.840000 -3.840000 17.497103 -6.385629 346.924835
4.200000 7.840000 -3.800000 10.181824 2.638267 110.629982
4.200000 7.880000 -4.200000 16.604662 -18.968801 635.530273
4.200000 7.880000 -4.160000 18.350048 -7.371699 391.066223
4.200000 7.880000 -4.120000 10.755621 0.415996 115.856430
4.200000 7.880000 -4.080000 1.107561 -1.670966 4.018819
4.200000 7.880000 -4.040000 -1.543018 -10.960455 122.512474
4.200000 7.880000 -4.000000 5.687420 -18.668957 380.876678
4.200000 7.880000 -3.960000 17.582878 -17.628952 619.937500
4.200000 7.880000 -3.920000 25.865814 -7.687092 728.131714
4.200000 7.880000 -3.880000 25.792824 5.430969 694.765198
4.200000 7.880000 -3.840000 18.468992 15.483887 580.854431
4.200000 7.880000 -3.800000 8.166877 19.761555 457.216919
4.200000 7.920000 -4.200000 27.814947 -6.333362 813.782715
4.200000 7.920000 -4.160000 22.357267 5.743261 532.832458
4.200000 7.920000 -4.120000 12.371296 7.346704 207.023041
4.200000 7.920000 -4.080000 8.684439 0.800701 76.060600
4.200000 7.920000 -4.040000 14.434354 -4.079745 224.994888
4.200000 7.920000 -4.000000 23.225508 -0.248082 539.485718
4.200000 7.920000 -3.960000 26.623646 10.609756 821.385498
4.200000 7.920000 -3.920000 21.989494 21.550470 947.960632
4.200000 7.920000 -3.880000 12.804026 27.825104 938.179443
4.200000 7.920000 -3.840000 3.019218 29.690517 890.642517
4.200000 7.920000 -3.800000 -6.721632 28.804863 874.900513
4.200000 7.960000 -4.200000 27.764473 13.245474 946.308533
4.200000 7.960000 -4.160000 14.438523 20.385780 624.051025
4.200000 7.960000 -4.120000 5.225655 14.726934 244.190063
4.200000 7.960000 -4.080000 7.697646 7.285124 112.326797
4.200000 7.960000 -4.040000 16.154427 8.926620 340.650024
4.200000 7.960000 -4.000000 19.341774 19.619902 759.044800
4.200000 7.960000 -3.960000 12.544451 30.345634 1078.220825
4.200000 7.960000 -3.920000 0.780333 33.802799 1143.238159
4.200000 7.960000 -3.880000 -8.825680 30.997215 1038.719971
4.200000 7.960000 -3.840000 -15.125658 27.108448 963.653503
4.200000 7.960000 -3.800000 -21.810535 23.277615 1017.546814
4.200000 8.000000 -4.200000 12.811918 29.274242 1021.126526
4.200000 8.000000 -4.160000 -4.347222 25.876421 688.487488
4.200000 8.000000 -4.120000 -8.774849 13.224548 251.886642
4.200000 8.000000 -4.080000 -0.731852 6.592929 44.002319
4.200000 8.000000 -4.040000 7.462484 12.402193 209.503067
4.200000 8.000000 -4.000000 5.512579 23.513393 583.268250
4.200000 8.000000 -3.960000 -5.124484 28.887154 860.727966
4.200000 8.000000 -3.920000 -15.377440 25.422911 882.790039
4.200000 8.000000 -3.880000 -19.887289 18.881018 751.997070
4.200000 8.000000 -3.840000 -21.669163 14.650922 684.202148
4.200000 8.000000 -3.800000 -25.502766 10.773489 766.459106
4.200000 8.040000 -4.200000 -10.818966 30.495337 1047.015625
4.200000 8.040000 -4.160000 -23.636631 15.052673 785.273315
4.200000 8.040000 -4.120000 -18.845707 -1.592129 357.695557
4.200000 8.040000 -4.080000 -4.729056 -5.535232 53.002769
4.200000 8.040000 -4.040000 4.167812 3.281847 28.141182
4.200000 8.040000 -4.000000 1.432386 13.877533 194.637650
4.200000 8.040000 -3.960000 -7.412480 16.993746 343.732239
4.200000 8.040000 -3.920000 -13.615326 13.265182 361.342163
4.200000 8.040000 -3.880000 -15.015478 9.143034 309.059662
4.200000 8.040000 -3.840000 -15.950387 7.444414 309.834137
4.200000 8.040000 -3.800000 -19.091076 4.579332 385.439453
4.200000 8.080000 -4.200000 -29.030853 13.931697 1036.882690
4.200000 8.080000 -4.160000 -29.653320 -8.177558 946.191833
4.200000 8.080000 -4.120000 -13.485857 -22.163956 673.109253
4.200000 8.080000 -4.080000 6.118327 -19.252306 408.085205
4.200000 8.080000 -4.040000 15.800226 -4.778663 272.482788
4.200000 8.080000 -4.000000 12.819140 9.192909 248.839951
4.200000 8.080000 -3.960000 4.077471 15.368195 252.807175
4.200000 8.080000 -3.920000 -3.026869 15.268227 242.280685
4.200000 8.080000 -3.880000 -7.129232 13.801788 241.315323
4.200000 8.080000 -3.840000 -10.845533 12.459590 272.866974
4.200000 8.080000 -3.800000 -14.774408 9.128051 301.604462
4.200000 8.120000 -4.200000 -29.564241 -10.793903 990.552734
4.200000 8.120000 -4.160000 -16.248110 -29.268948 1120.672363
4.200000 8.120000 -4.120000 7.718357 -32.810360 1136.092773
4.200000 8.120000 -4.080000 27.738773 -18.848553 1124.707520
4.200000 8.120000 -4.040000 33.371353 3.614504 1126.711914
4.200000 8.120000 -4.000000 24.806210 22.360508 1115.340332
4.200000 8.120000 -3.960000 9.941290 30.891150 1053.092407
4.200000 8.120000 -3.920000 -3.418768 30.575531 946.551086
4.200000 8.120000 -3.880000 -12.421818 26.178730 839.627502
4.200000 8.120000 -3.840000 -18.095968 20.819576 760.918823
4.200000 8.120000 -3.800000 -21.644037 15.052664 695.047058
4.200000 8.160000 -4.200000 -12.103013 -27.319651 892.846191
4.200000 8.160000 -4.160000 8.418439 -33.461605 1190.549072
4.200000 8.160000 -4.120000 30.900513 -23.239223 1494.903198
4.200000 8.160000 -4.080000 42.773605 0.668804 1830.028564
4.200000 8.160000 -4.040000 37.524284 27.298363 2153.272461
4.200000 8.160000 -4.000000 18.445822 44.933407 2359.259521
4.200000 8.160000 -3.960000 -4.667758 48.295990 2354.290527
4.200000 8.160000 -3.920000 -22.586458 40.295212 2133.852295
4.200000 8.160000 -3.880000 -31.772873 28.080097 1798.007324
4.200000 8.160000 -3.840000 -34.429951 17.381542 1487.539551
4.200000 8.160000 -3.800000 -34.694729 9.606046 1296.000366
4.200000 8.200000 -4.200000 10.459046 -25.003757 734.579529
4.200000 8.200000 -4.160000 27.031307 -18.130924 1059.421997
4.200000 8.200000 -4.120000 38.587200 0.778925 1489.578735
4.200000 8.200000 -4.080000 36.715927 26.184364 2033.680176
4.200000 8.200000 -4.040000 19.248217 47.367683 2614.191406
4.200000 8.200000 -4.000000 -7.518714 54.815449 3061.264404
4.200000 8.200000 -3.960000 -32.395706 46.305656 3193.695801
4.200000 8.200000 -3.920000 -46.437389 28.044834 2942.943848
4.200000 8.200000 -3.880000 -48.305603 9.809294 2429.653564
4.200000 8.200000 -3.840000 -43.643837 -2.130278 1909.322632
4.200000 8.200000 -3.800000 -39.217667 -8.453270 1609.483154
