#kx 	ky 	kz 	real 	imag 	intensity
1.800000 -6.200000 5.800000 -44.910488 -5.327957 2045.338989
1.800000 -6.200000 5.840000 -37.716892 -17.877441 1742.166870
1.800000 -6.200000 5.880000 -26.263723 -25.535004 1341.819580
1.800000 -6.200000 5.920000 -13.993936 -27.192680 935.272095
1.800000 -6.200000 5.960000 -3.881948 -24.393826 610.128235
1.800000 -6.200000 6.000000 3.548391 -19.707911 400.992828
1.800000 -6.200000 6.040000 9.642172 -14.085715 291.378845
1.800000 -6.200000 6.080000 14.841932 -6.242584 259.252808
1.800000 -6.200000 6.120000 16.870953 4.869584 308.341888
1.800000 -6.200000 6.160000 12.423952 17.029198 444.348145
1.800000 -6.200000 6.200000 1.152657 24.952627 623.962219
1.800000 -6.160000 5.800000 -33.148228 -23.809322 1665.688965
1.800000 -6.160000 5.840000 -21.627457 -26.863894 1189.415649
1.800000 -6.160000 5.880000 -11.754162 -25.549385 790.931396
1.800000 -6.160000 5.920000 -4.336012 -21.512058 481.569641
1.800000 -6.160000 5.960000 0.397356 -15.999912 256.155090
1.800000 -6.160000 6.000000 2.516367 -10.135503 109.060516
1.800000 -6.160000 6.040000 2.559933 -4.809504 29.684582
1.800000 -6.160000 6.080000 1.242177 -0.283514 1.623383
1.800000 -6.160000 6.120000 -1.225964 3.605483 14.502495
1.800000 -6.160000 6.160000 -5.173140 6.547722 69.634033
1.800000 -6.160000 6.200000 -10.427220 7.362969 162.940247
1.800000 -6.120000 5.800000 -15.400309 -27.150299 974.308228
1.800000 -6.120000 5.840000 -7.890199 -22.040327 548.031250
1.800000 -6.120000 5.880000 -4.824261 -16.413464 292.675293
1.800000 -6.120000 5.920000 -4.510760 -11.765924 158.783936
1.800000 -6.120000 5.960000 -6.082461 -8.373884 107.118271
1.800000 -6.120000 6.000000 -9.067533 -7.000430 131.226166
1.800000 -6.120000 6.040000 -11.897372 -8.482347 213.497681
1.800000 -6.120000 6.080000 -12.247368 -11.959073 293.017456
1.800000 -6.120000 6.120000 -9.294060 -14.596260 299.430359
1.800000 -6.120000 6.160000 -5.079149 -13.920270 219.571671
1.800000 -6.120000 6.200000 -2.850071 -10.318005 114.584122
1.800000 -6.080000 5.800000 -5.888649 -18.649683 382.486847
1.800000 -6.080000 5.840000 -5.579860 -12.609515 190.134705
1.800000 -6.080000 5.880000 -8.545344 -9.232906 158.269470
1.800000 -6.080000 5.920000 -12.676878 -8.794281 238.042603
1.800000 -6.080000 5.960000 -16.926041 -11.392151 416.271942
1.800000 -6.080000 6.000000 -19.555830 -17.557148 690.683960
1.800000 -6.080000 6.040000 -17.530293 -26.178696 992.635254
1.800000 -6.080000 6.080000 -9.078727 -33.033394 1173.628418
1.800000 -6.080000 6.120000 3.199037 -33.040161 1101.886108
1.800000 -6.080000 6.160000 12.935950 -24.852425 784.981812
1.800000 -6.080000 6.200000 14.822091 -12.866958 385.252991
1.800000 -6.040000 5.800000 -8.687213 -11.658379 211.385452
1.800000 -6.040000 5.840000 -11.166817 -10.490871 234.756165
1.800000 -6.040000 5.880000 -14.628113 -11.840729 354.184540
1.800000 -6.040000 5.920000 -18.044743 -16.045349 583.065918
1.800000 -6.040000 5.960000 -19.691273 -23.828377 955.537781
1.800000 -6.040000 6.000000 -16.222862 -34.403881 1446.808350
1.800000 -6.040000 6.040000 -4.984818 -43.363064 1905.203735
1.800000 -6.040000 6.080000 12.019136 -44.226768 2100.466797
1.800000 -6.040000 6.120000 27.309668 -33.711353 1882.273193
1.800000 -6.040000 6.160000 32.661594 -15.814790 1316.887329
1.800000 -6.040000 6.200000 25.746319 0.163512 662.899658
1.800000 -6.000000 5.800000 -14.218492 -15.503546 442.525421
1.800000 -6.000000 5.840000 -12.720477 -17.749992 476.872742
1.800000 -6.000000 5.880000 -12.325831 -20.226566 561.040100
1.800000 -6.000000 5.920000 -12.345606 -25.114132 783.133606
1.800000 -6.000000 5.960000 -9.374609 -33.373867 1201.698242
1.800000 -6.000000 6.000000 0.562640 -41.856346 1752.270264
1.800000 -6.000000 6.040000 17.399349 -43.839493 2224.638428
1.800000 -6.000000 6.080000 34.646294 -34.145275 2366.265625
1.800000 -6.000000 6.120000 42.881020 -14.711750 2055.217529
1.800000 -6.000000 6.160000 37.104340 5.236179 1404.149658
1.800000 -6.000000 6.200000 21.306185 15.628233 698.195190
1.800000 -5.960000 5.800000 -10.117912 -25.593130 757.380432
1.800000 -5.960000 5.840000 -3.267666 -24.354916 603.839539
1.800000 -5.960000 5.880000 -0.562933 -22.559223 509.235443
1.800000 -5.960000 5.920000 0.468510 -24.218931 586.776123
1.800000 -5.960000 5.960000 5.073431 -29.185760 877.548279
1.800000 -5.960000 6.000000 16.280510 -32.098885 1295.393311
1.800000 -5.960000 6.040000 30.777477 -26.462048 1647.493164
1.800000 -5.960000 6.080000 40.219559 -10.939805 1737.292236
1.800000 -5.960000 6.120000 37.734352 8.034930 1488.441406
1.800000 -5.960000 6.160000 24.107206 20.446459 999.215088
1.800000 -5.960000 6.200000 7.778572 20.552229 482.900299
1.800000 -5.920000 5.800000 4.771977 -28.404572 829.591492
1.800000 -5.920000 5.840000 10.852207 -19.160191 484.883301
1.800000 -5.920000 5.880000 9.921339 -12.218035 247.713348
1.800000 -5.920000 5.920000 7.388487 -11.267323 181.542297
1.800000 -5.920000 5.960000 9.164140 -13.962462 278.931824
1.800000 -5.920000 6.000000 16.410667 -14.037714 466.367432
1.800000 -5.920000 6.040000 24.247717 -7.010302 637.096130
1.800000 -5.920000 6.080000 25.874739 5.395386 698.612244
1.800000 -5.920000 6.120000 18.690119 16.265114 613.874451
1.800000 -5.920000 6.160000 6.914433 19.250206 418.379822
1.800000 -5.920000 6.200000 -1.847617 14.033309 200.347458
1.800000 -5.880000 5.800000 18.209332 -16.395067 600.377930
1.800000 -5.880000 5.840000 15.921349 -2.729893 260.941650
1.800000 -5.880000 5.880000 7.472005 3.975030 71.631721
1.800000 -5.880000 5.920000 -0.115179 2.742419 7.534130
1.800000 -5.880000 5.960000 -2.059382 -2.130799 8.781362
1.800000 -5.880000 6.000000 1.268088 -4.923584 25.849726
1.800000 -5.880000 6.040000 5.572478 -2.892904 39.421410
1.800000 -5.880000 6.080000 6.685054 2.175974 49.424809
1.800000 -5.880000 6.120000 3.965549 6.270758 55.047985
1.800000 -5.880000 6.160000 0.258419 7.077943 50.164055
1.800000 -5.880000 6.200000 -1.353409 5.919750 36.875156
1.800000 -5.840000 5.800000 16.893692 2.893245 293.767700
1.800000 -5.840000 5.840000 5.304499 11.860100 168.799683
1.800000 -5.840000 5.880000 -7.690536 11.664255 195.199188
1.800000 -5.840000 5.920000 -16.437847 4.394440 289.513916
1.800000 -5.840000 5.960000 -18.368496 -5.369880 366.237244
1.800000 -5.840000 6.000000 -14.243723 -13.185163 376.732178
1.800000 -5.840000 6.040000 -6.877974 -16.445309 317.754700
1.800000 -5.840000 6.080000 0.516762 -14.745182 217.687439
1.800000 -5.840000 6.120000 5.482857 -9.275108 116.089355
1.800000 -5.840000 6.160000 6.703732 -1.961657 48.788124
1.800000 -5.840000 6.200000 3.855673 5.139592 41.281616
1.800000 -5.800000 5.800000 0.535215 13.429938 180.649704
1.800000 -5.800000 5.840000 -12.748917 11.604906 297.208740
1.800000 -5.800000 5.880000 -22.533655 3.449696 519.666016
1.800000 -5.800000 5.920000 -26.775944 -8.225094 784.603333
1.800000 -5.800000 5.960000 -24.562584 -20.627457 1028.812500
1.800000 -5.800000 6.000000 -15.779003 -30.463787 1177.019287
1.800000 -5.800000 6.040000 -2.230955 -33.893082 1153.718140
1.800000 -5.800000 6.080000 11.417957 -28.330757 933.001526
1.800000 -5.800000 6.120000 19.002388 -15.004944 586.239136
1.800000 -5.800000 6.160000 16.358162 0.452971 267.794617
1.800000 -5.800000 6.200000 4.334641 10.656692 132.354187
1.840000 -6.200000 5.800000 -52.530640 -23.582747 3315.614014
1.840000 -6.200000 5.840000 -36.779648 -35.620262 2621.545654
1.840000 -6.200000 5.880000 -19.148443 -37.875019 1801.179932
1.840000 -6.200000 5.920000 -5.407930 -32.481598 1084.299927
1.840000 -6.200000 5.960000 2.539775 -24.308208 597.339417
1.840000 -6.200000 6.000000 6.740730 -16.608017 321.263672
1.840000 -6.200000 6.040000 9.495046 -8.971718 170.647614
1.840000 -6.200000 6.080000 10.079411 0.253183 101.658623
1.840000 -6.200000 6.120000 5.708174 10.001663 132.616516
1.840000 -6.200000 6.160000 -4.156562 15.840025 268.183380
1.840000 -6.200000 6.200000 -15.246107 14.011148 428.756073
1.840000 -6.160000 5.800000 -27.577017 -47.106964 2979.558105
1.840000 -6.160000 5.840000 -7.801883 -44.459270 2037.496094
1.840000 -6.160000 5.880000 5.989419 -33.261040 1142.169922
1.840000 -6.160000 5.920000 10.604307 -18.912846 470.147064
1.840000 -6.160000 5.960000 7.087090 -7.467392 105.988785
1.840000 -6.160000 6.000000 0.070736 -2.361506 5.581712
1.840000 -6.160000 6.040000 -5.379619 -2.673906 36.090073
1.840000 -6.160000 6.080000 -7.147721 -4.591061 72.167755
1.840000 -6.160000 6.120000 -6.781761 -4.960649 70.600319
1.840000 -6.160000 6.160000 -7.026148 -3.644784 62.651207
1.840000 -6.160000 6.200000 -8.798536 -2.601224 84.180603
1.840000 -6.120000 5.800000 2.846796 -46.152477 2138.155518
1.840000 -6.120000 5.840000 17.037596 -30.993786 1250.894409
1.840000 -6.120000 5.880000 19.522217 -11.121628 504.807556
1.840000 -6.120000 5.920000 9.165144 4.930910 108.313736
1.840000 -6.120000 5.960000 -8.428791 9.066771 153.250854
1.840000 -6.120000 6.000000 -22.584383 -0.517530 510.322205
1.840000 -6.120000 6.040000 -24.392975 -16.700521 873.924622
1.840000 -6.120000 6.080000 -13.580728 -27.893766 962.498352
1.840000 -6.120000 6.120000 1.112389 -26.780394 718.426880
1.840000 -6.120000 6.160000 9.086051 -15.723433 329.782654
1.840000 -6.120000 6.200000 6.261385 -3.864033 54.135700
1.840000 -6.080000 5.800000 19.174761 -27.938625 1148.238281
1.840000 -6.080000 5.840000 23.351391 -7.210256 597.275269
1.840000 -6.080000 5.880000 11.876208 12.949530 308.734650
1.840000 -6.080000 5.920000 -12.455184 19.932625 552.441162
1.840000 -6.080000 5.960000 -36.124210 6.159454 1342.897461
1.840000 -6.080000 6.000000 -42.617161 -22.258165 2311.648438
1.840000 -6.080000 6.040000 -25.655834 -47.240986 2889.932617
1.840000 -6.080000 6.080000 4.129303 -51.846306 2705.090576
1.840000 -6.080000 6.120000 26.674416 -33.933964 1863.038330
1.840000 -6.080000 6.160000 28.397650 -7.728788 866.160645
1.840000 -6.080000 6.200000 12.287544 8.523854 223.639832
1.840000 -6.040000 5.800000 17.078033 -10.928233 411.085510
1.840000 -6.040000 5.840000 12.414297 9.320629 240.988907
1.840000 -6.040000 5.880000 -9.839832 22.025812 581.958740
1.840000 -6.040000 5.920000 -39.086277 12.502018 1684.037476
1.840000 -6.040000 5.960000 -53.954216 -19.876154 3306.118896
1.840000 -6.040000 6.000000 -39.157753 -56.473785 4722.618164
1.840000 -6.040000 6.040000 -0.544406 -71.842491 5161.640137
1.840000 -6.040000 6.080000 37.122482 -54.579865 4357.040527
1.840000 -6.040000 6.120000 49.530388 -17.502567 2759.599121
1.840000 -6.040000 6.160000 32.327137 12.972824 1213.338013
1.840000 -6.040000 6.200000 3.012140 18.724045 359.662842
1.840000 -6.000000 5.800000 8.511129 -6.651736 116.684921
1.840000 -6.000000 5.840000 -2.007317 10.696136 118.436653
1.840000 -6.000000 5.880000 -28.316063 12.375652 954.956177
1.840000 -6.000000 5.920000 -50.665249 -12.241931 2716.832520
1.840000 -6.000000 5.960000 -46.211876 -51.719597 4810.454102
1.840000 -6.000000 6.000000 -10.400368 -78.243248 6230.173340
1.840000 -6.000000 6.040000 35.748337 -70.266441 6215.316406
1.840000 -6.000000 6.080000 61.410034 -31.904549 4789.092773
1.840000 -6.000000 6.120000 51.448498 9.673820 2740.530762
1.840000 -6.000000 6.160000 18.293116 27.047058 1066.181396
1.840000 -6.000000 6.200000 -10.422998 14.517332 319.391815
1.840000 -5.960000 5.800000 6.965486 -10.440882 157.529999
1.840000 -5.960000 5.840000 -7.835320 3.487559 73.555298
1.840000 -5.960000 5.880000 -31.714378 -4.571558 1026.700928
1.840000 -5.960000 5.920000 -40.481621 -35.123825 2872.444824
1.840000 -5.960000 5.960000 -18.913101 -66.545517 4786.011230
1.840000 -5.960000 6.000000 23.274382 -72.252357 5762.100098
1.840000 -5.960000 6.040000 57.583740 -44.422649 5289.258789
1.840000 -5.960000 6.080000 60.647820 -1.880154 3681.692871
1.840000 -5.960000 6.120000 33.989117 25.817715 1821.814453
1.840000 -5.960000 6.160000 1.476372 23.344202 547.131470
1.840000 -5.960000 6.200000 -12.416141 0.646276 154.578232
1.840000 -5.920000 5.800000 13.193224 -9.811047 270.317810
1.840000 -5.920000 5.840000 -5.169118 -0.688141 27.193317
1.840000 -5.920000 5.880000 -23.050880 -14.374722 737.975708
1.840000 -5.920000 5.920000 -20.330593 -40.927292 2088.376221
1.840000 -5.920000 5.960000 6.074927 -57.204521 3309.261963
1.840000 -5.920000 6.000000 38.336052 -47.209270 3698.368164
1.840000 -5.920000 6.040000 52.994560 -16.516375 3081.213867
1.840000 -5.920000 6.080000 41.298233 12.790466 1869.140137
1.840000 -5.920000 6.120000 15.870407 21.661045 721.070679
1.840000 -5.920000 6.160000 -1.814068 9.746756 98.290085
1.840000 -5.920000 6.200000 -0.500425 -6.674347 44.797329
1.840000 -5.880000 5.800000 16.370041 -0.153764 268.001892
1.840000 -5.880000 5.840000 -3.075602 1.996903 13.446953
1.840000 -5.880000 5.880000 -14.542413 -13.052334 381.845184
1.840000 -5.880000 5.920000 -7.776039 -31.517481 1053.818359
1.840000 -5.880000 5.960000 12.085756 -37.564186 1557.133667
1.840000 -5.880000 6.000000 29.878849 -26.473625 1593.598389
1.840000 -5.880000 6.040000 33.862389 -7.344557 1200.603882
1.840000 -5.880000 6.080000 24.832232 6.263401 655.869873
1.840000 -5.880000 6.120000 13.325703 8.254656 245.713699
1.840000 -5.880000 6.160000 8.812931 3.703918 91.386765
1.840000 -5.880000 6.200000 11.568824 2.120584 138.334549
1.840000 -5.840000 5.800000 8.256666 9.753134 163.296158
1.840000 -5.840000 5.840000 -7.465013 4.985186 80.578491
1.840000 -5.840000 5.880000 -13.923192 -8.438501 265.063568
1.840000 -5.840000 5.920000 -9.181650 -21.324394 539.032471
1.840000 -5.840000 5.960000 2.209633 -27.214375 745.504700
1.840000 -5.840000 6.000000 14.034324 -25.045864 824.257507
1.840000 -5.840000 6.040000 22.309963 -17.304518 797.180786
1.840000 -5.840000 6.080000 25.786816 -6.968375 713.518066
1.840000 -5.840000 6.120000 24.416256 3.799624 610.590698
1.840000 -5.840000 6.160000 18.391327 13.136296 510.803192
1.840000 -5.840000 6.200000 8.553715 18.951141 432.311798
1.840000 -5.800000 5.800000 -6.002392 8.092171 101.511948
1.840000 -5.800000 5.840000 -13.979525 0.695860 195.911331
1.840000 -5.800000 5.880000 -17.501120 -9.374522 394.170837
1.840000 -5.800000 5.920000 -15.871501 -21.127266 698.265869
1.840000 -5.800000 5.960000 -6.900340 -32.242252 1087.177612
1.840000 -5.800000 6.000000 9.752422 -36.922775 1458.401123
1.840000 -5.800000 6.040000 28.450499 -29.119781 1657.392578
1.840000 -5.800000 6.080000 38.849468 -9.001825 1590.313965
1.840000 -5.800000 6.120000 33.222153 14.389805 1310.777954
1.840000 -5.800000 6.160000 13.422256 28.418926 987.792297
1.840000 -5.800000 6.200000 -9.674945 26.092339 774.414673
1.880000 -6.200000 5.800000 -48.837646 -50.063038 4891.423828
1.880000 -6.200000 5.840000 -24.185471 -55.429123 3657.324707
1.880000 -6.200000 5.880000 -3.797585 -47.494858 2270.183105
1.880000 -6.200000 5.920000 6.324259 -33.554726 1165.915771
1.880000 -6.200000 5.960000 7.721378 -21.514240 522.482239
1.880000 -6.200000 6.000000 5.947046 -13.948714 229.933990
1.880000 -6.200000 6.040000 4.218193 -8.413565 88.581223
1.880000 -6.200000 6.080000 1.199715 -2.796598 9.260279
1.880000 -6.200000 6.120000 -5.044325 0.964190 26.374874
1.880000 -6.200000 6.160000 -12.358377 -0.629669 153.125961
1.880000 -6.200000 6.200000 -15.301054 -7.058657 283.946899
1.880000 -6.160000 5.800000 -5.448070 -66.595085 4464.586914
1.880000 -6.160000 5.840000 18.129595 -51.559517 2987.065918
1.880000 -6.160000 5.880000 27.335457 -27.301117 1492.578125
1.880000 -6.160000 5.920000 20.039671 -5.762139 434.790649
1.880000 -6.160000 5.960000 3.516134 3.231083 22.803097
1.880000 -6.160000 6.000000 -10.552607 -1.408669 113.341850
1.880000 -6.160000 6.040000 -14.469231 -12.132370 356.553040
1.880000 -6.160000 6.080000 -9.169413 -19.508331 464.653107
1.880000 -6.160000 6.120000 -1.436592 -19.298920 374.512085
1.880000 -6.160000 6.160000 2.741363 -13.858519 199.573608
1.880000 -6.160000 6.200000 2.152541 -7.833846 66.002579
1.880000 -6.120000 5.800000 34.099636 -49.101265 3573.719482
1.880000 -6.120000 5.840000 45.352272 -17.937378 2378.578125
1.880000 -6.120000 5.880000 33.228065 14.427167 1312.247559
1.880000 -6.120000 5.920000 1.866707 29.659950 883.197266
1.880000 -6.120000 5.960000 -30.276392 17.807289 1233.759521
1.880000 -6.120000 6.000000 -42.477306 -12.894970 1970.601807
1.880000 -6.120000 6.040000 -27.909834 -40.722351 2437.268799
1.880000 -6.120000 6.080000 0.810795 -47.080116 2217.194824
1.880000 -6.120000 6.120000 22.239634 -30.625715 1432.535767
1.880000 -6.120000 6.160000 23.380970 -6.437121 588.106262
1.880000 -6.120000 6.200000 8.096663 8.085224 130.926819
1.880000 -6.080000 5.800000 47.653214 -13.970853 2466.013672
1.880000 -6.080000 5.840000 39.932392 24.000153 2170.603271
1.880000 -6.080000 5.880000 3.092506 49.453136 2455.176270
1.880000 -6.080000 5.920000 -45.528584 39.966881 3670.203369
1.880000 -6.080000 5.960000 -73.615814 -4.647533 5440.887695
1.880000 -6.080000 6.000000 -59.393234 -56.781094 6751.648926
1.880000 -6.080000 6.040000 -11.785149 -80.763458 6661.625977
1.880000 -6.080000 6.080000 35.120003 -61.896568 5064.599609
1.880000 -6.080000 6.120000 49.813049 -18.164997 2811.306885
1.880000 -6.080000 6.160000 28.244724 16.312450 1063.860474
1.880000 -6.080000 6.200000 -6.406118 20.144218 446.827911
1.880000 -6.040000 5.800000 35.137375 13.660281 1421.238403
1.880000 -6.040000 5.840000 7.791755 47.265182 2294.708984
1.880000 -6.040000 5.880000 -45.568680 50.433628 4620.055664
1.880000 -6.040000 5.920000 -90.311485 7.236383 8208.530273
1.880000 -6.040000 5.960000 -88.816299 -61.293644 11645.246094
1.880000 -6.040000 6.000000 -35.130791 -108.747681 13060.230469
1.880000 -6.040000 6.040000 35.526268 -101.134285 11490.259766
1.880000 -6.040000 6.080000 74.329132 -46.581284 7694.635742
1.880000 -6.040000 6.120000 59.396133 11.665155 3663.976562
1.880000 -6.040000 6.160000 11.863478 32.700607 1210.071777
1.880000 -6.040000 6.200000 -26.177540 10.702727 799.812012
1.880000 -6.000000 5.800000 14.269073 21.083191 648.107422
1.880000 -6.000000 5.840000 -27.163193 40.425610 2372.068848
1.880000 -6.000000 5.880000 -79.302391 15.054561 6515.508789
1.880000 -6.000000 5.920000 -97.263855 -51.573311 12120.064453
1.880000 -6.000000 5.960000 -55.628998 -116.409103 16645.664062
1.880000 -6.000000 6.000000 23.952785 -130.389130 17575.060547
1.880000 -6.000000 6.040000 87.068069 -81.831703 14277.276367
1.880000 -6.000000 6.080000 92.145752 -8.088668 8556.266602
1.880000 -6.000000 6.120000 45.107639 36.701801 3381.721191
1.880000 -6.000000 6.160000 -8.932035 27.591305 841.061340
1.880000 -6.000000 6.200000 -27.457296 -14.175007 954.833984
1.880000 -5.960000 5.800000 1.797083 14.698349 219.270966
1.880000 -5.960000 5.840000 -43.182182 14.607134 2078.069336
1.880000 -5.960000 5.880000 -76.474190 -31.291487 6827.458984
1.880000 -5.960000 5.920000 -59.669960 -96.773575 12925.628906
1.880000 -5.960000 5.960000 7.315116 -131.379333 17314.041016
1.880000 -5.960000 6.000000 81.020874 -104.463020 17476.904297
1.880000 -5.960000 6.040000 110.149277 -34.075127 13293.977539
1.880000 -5.960000 6.080000 79.802750 27.932434 7148.699707
1.880000 -5.960000 6.120000 22.608370 41.073425 2198.164551
1.880000 -5.960000 6.160000 -12.761864 9.053135 244.824402
1.880000 -5.960000 6.200000 -4.359097 -29.091518 865.318176
1.880000 -5.920000 5.800000 -0.103860 8.253946 68.138420
1.880000 -5.920000 5.840000 -36.742130 -8.878788 1428.817017
1.880000 -5.920000 5.880000 -44.520237 -57.494263 5287.641602
1.880000 -5.920000 5.920000 -5.751925 -100.192108 10071.543945
1.880000 -5.920000 5.960000 57.581013 -99.346756 13185.351562
1.880000 -5.920000 6.000000 100.883881 -51.366985 12816.125000
1.880000 -5.920000 6.040000 95.612755 9.398983 9230.139648
1.880000 -5.920000 6.080000 53.191681 41.152115 4522.851562
1.880000 -5.920000 6.120000 12.278282 30.449711 1077.941040
1.880000 -5.920000 6.160000 2.942041 0.135374 8.673933
1.880000 -5.920000 6.200000 22.385176 -15.639862 745.701416
1.880000 -5.880000 5.800000 -0.133675 7.328671 53.727280
1.880000 -5.880000 5.840000 -20.830997 -17.225727 730.656128
1.880000 -5.880000 5.880000 -10.824829 -52.507126 2874.175293
1.880000 -5.880000 5.920000 27.048054 -68.486542 5422.003418
1.880000 -5.880000 5.960000 66.471313 -50.137211 6932.175781
1.880000 -5.880000 6.000000 80.530518 -9.970093 6584.566895
1.880000 -5.880000 6.040000 64.158081 24.272650 4705.420898
1.880000 -5.880000 6.080000 35.724831 34.175293 2444.214355
1.880000 -5.880000 6.120000 18.068367 24.336290 918.720886
1.880000 -5.880000 6.160000 18.346117 13.940451 530.916199
1.880000 -5.880000 6.200000 25.051867 16.775557 909.015320
1.880000 -5.840000 5.800000 -4.029763 6.461022 57.983803
1.880000 -5.840000 5.840000 -9.754821 -13.549046 278.733154
1.880000 -5.840000 5.880000 2.791563 -30.880596 961.404053
1.880000 -5.840000 5.920000 24.509535 -33.546295 1726.071167
1.880000 -5.840000 5.960000 42.070408 -21.219841 2220.200928
1.880000 -5.840000 6.000000 48.188263 -2.383133 2327.788086
1.880000 -5.840000 6.040000 44.294159 14.425591 2170.070312
1.880000 -5.840000 6.080000 35.485207 26.196358 1945.448975
1.880000 -5.840000 6.120000 24.717054 34.040005 1769.654785
1.880000 -5.840000 6.160000 11.951420 38.621510 1634.457397
1.880000 -5.840000 6.200000 -2.635045 38.314194 1474.920898
1.880000 -5.800000 5.800000 -7.367192 -0.325506 54.381470
1.880000 -5.800000 5.840000 -6.781821 -8.442891 117.275513
1.880000 -5.800000 5.880000 -3.240685 -15.029039 236.374054
1.880000 -5.800000 5.920000 3.564624 -21.254761 464.471405
1.880000 -5.800000 5.960000 16.446716 -24.555664 873.475098
1.880000 -5.800000 6.000000 33.773376 -17.847994 1459.191895
1.880000 -5.800000 6.040000 45.705643 2.928235 2097.580322
1.880000 -5.800000 6.080000 40.491753 30.940994 2596.927246
1.880000 -5.800000 6.120000 15.904020 50.435577 2796.685547
1.880000 -5.800000 6.160000 -16.137482 48.820000 2643.810547
1.880000 -5.800000 6.200000 -37.938427 27.586346 2200.330566
1.920000 -6.200000 5.800000 -26.100176 -75.161560 6330.479492
1.920000 -6.200000 5.840000 2.904087 -67.534370 4569.324707
1.920000 -6.200000 5.880000 18.811813 -47.422943 2602.819824
1.920000 -6.200000 5.920000 19.132532 -27.739832 1135.552002
1.920000 -6.200000 5.960000 11.342323 -17.103832 421.189392
1.920000 -6.200000 6.000000 4.483923 -14.709644 236.479202
1.920000 -6.200000 6.040000 1.458833 -14.783953 220.693451
1.920000 -6.200000 6.080000 -0.358622 -14.322851 205.272690
1.920000 -6.200000 6.120000 -2.637922 -15.064660 233.902618
1.920000 -6.200000 6.160000 -2.683888 -18.332573 343.286469
1.920000 -6.200000 6.200000 2.419217 -20.416882 422.701660
1.920000 -6.160000 5.800000 29.045185 -69.778503 5712.662109
1.920000 -6.160000 5.840000 47.075565 -40.100952 3824.195312
1.920000 -6.160000 5.880000 41.830482 -7.366478 1804.054321
1.920000 -6.160000 5.920000 18.103493 10.883425 446.185394
1.920000 -6.160000 5.960000 -7.464569 6.834747 102.433563
1.920000 -6.160000 6.000000 -18.809965 -11.957626 496.799622
1.920000 -6.160000 6.040000 -12.023794 -29.538305 1017.083130
1.920000 -6.160000 6.080000 3.963989 -34.355366 1196.004395
1.920000 -6.160000 6.120000 16.696909 -26.251755 967.941406
1.920000 -6.160000 6.160000 19.753483 -13.004740 559.323364
1.920000 -6.160000 6.200000 14.441123 -2.078221 212.865036
1.920000 -6.120000 5.800000 63.203854 -28.758556 4821.781738
1.920000 -6.120000 5.840000 58.495583 14.540703 3633.165283
1.920000 -6.120000 5.880000 22.760864 45.187943 2560.007080
1.920000 -6.120000 5.920000 -25.745436 41.104748 2352.427734
1.920000 -6.120000 5.960000 -55.702698 2.817738 3110.730225
1.920000 -6.120000 6.000000 -47.210304 -43.645294 4133.724609
1.920000 -6.120000 6.040000 -8.571003 -66.349152 4475.671875
1.920000 -6.120000 6.080000 30.674152 -52.680618 3716.151123
1.920000 -6.120000 6.120000 44.169006 -17.568462 2259.552002
1.920000 -6.120000 6.160000 28.283991 11.570629 933.863586
1.920000 -6.120000 6.200000 0.465684 17.688875 313.113159
1.920000 -6.080000 5.800000 58.972507 19.914322 3874.336914
1.920000 -6.080000 5.840000 25.359859 61.997505 4486.812988
1.920000 -6.080000 5.880000 -37.756794 68.464615 6112.978516
1.920000 -6.080000 5.920000 -91.360077 22.550541 8855.191406
1.920000 -6.080000 5.960000 -94.453766 -52.068520 11632.644531
1.920000 -6.080000 6.000000 -40.902447 -105.203758 12740.840820
1.920000 -6.080000 6.040000 31.844627 -100.760368 11166.731445
1.920000 -6.080000 6.080000 72.745811 -47.080627 7508.538574
1.920000 -6.080000 6.120000 59.068836 11.515882 3621.742920
1.920000 -6.080000 6.160000 11.843293 33.486771 1261.627319
1.920000 -6.080000 6.200000 -27.152815 12.539705 894.519531
1.920000 -6.040000 5.800000 26.585106 47.258480 2940.131836
1.920000 -6.040000 5.840000 -31.958338 70.325989 5967.080078
1.920000 -6.040000 5.880000 -101.675552 35.878777 11625.205078
1.920000 -6.040000 5.920000 -126.985474 -50.144302 18639.761719
1.920000 -6.040000 5.960000 -77.323730 -133.659271 23843.759766
1.920000 -6.040000 6.000000 19.819611 -154.224884 24178.130859
1.920000 -6.040000 6.040000 97.434616 -97.853798 19068.871094
1.920000 -6.040000 6.080000 104.861763 -10.298020 11102.038086
1.920000 -6.040000 6.120000 49.357750 42.863335 4273.453125
1.920000 -6.040000 6.160000 -14.846182 31.661577 1222.864502
1.920000 -6.040000 6.200000 -37.051018 -18.583323 1718.117798
1.920000 -6.000000 5.800000 -7.998703 44.409420 2036.175781
1.920000 -6.000000 5.840000 -75.583206 35.633465 6982.564941
1.920000 -6.000000 5.880000 -122.082275 -36.600624 16243.687500
1.920000 -6.000000 5.920000 -95.476982 -133.583282 26960.347656
1.920000 -6.000000 5.960000 2.063053 -184.080963 33890.058594
1.920000 -6.000000 6.000000 107.691879 -146.059143 32930.812500
1.920000 -6.000000 6.040000 148.782425 -46.621815 24309.804688
1.920000 -6.000000 6.080000 105.197655 39.969193 12664.083008
1.920000 -6.000000 6.120000 24.138737 56.606319 3786.954102
1.920000 -6.000000 6.160000 -25.212383 9.297503 722.107788
1.920000 -6.000000 6.200000 -12.223042 -46.260246 2289.413330
1.920000 -5.960000 5.800000 -25.338818 24.227253 1229.015381
1.920000 -5.960000 5.840000 -79.872513 -15.476265 6619.132812
1.920000 -5.960000 5.880000 -83.543320 -100.407013 17061.054688
1.920000 -5.960000 5.920000 -11.524102 -169.316849 28801.000000
1.920000 -5.960000 5.960000 96.918549 -162.451248 35783.613281
1.920000 -5.960000 6.000000 166.911926 -77.294250 33833.992188
1.920000 -5.960000 6.040000 152.356583 25.775837 23876.921875
1.920000 -5.960000 6.080000 75.524368 75.520355 11407.253906
1.920000 -5.960000 6.120000 4.371305 50.622681 2581.764160
1.920000 -5.960000 6.160000 -9.320017 -7.577587 144.282547
1.920000 -5.960000 6.200000 28.546370 -38.962303 2332.956299
1.920000 -5.920000 5.800000 -24.398029 5.351358 623.900879
1.920000 -5.920000 5.840000 -49.892105 -48.794834 4870.158203
1.920000 -5.920000 5.880000 -15.804016 -114.717316 13409.829102
1.920000 -5.920000 5.920000 67.966293 -135.001770 22844.894531
1.920000 -5.920000 5.960000 145.429993 -83.655098 28148.058594
1.920000 -5.920000 6.000000 161.616455 7.693413 26179.068359
1.920000 -5.920000 6.040000 110.585670 76.204712 18036.347656
1.920000 -5.920000 6.080000 38.708775 82.421875 8291.734375
1.920000 -5.920000 6.120000 1.024044 41.420223 1716.683594
1.920000 -5.920000 6.160000 13.581791 2.927874 193.037491
1.920000 -5.920000 6.200000 45.965988 2.944397 2121.541504
1.920000 -5.880000 5.800000 -16.084045 -3.662476 272.110229
1.920000 -5.880000 5.840000 -13.044621 -49.403133 2610.831787
1.920000 -5.880000 5.880000 32.880997 -79.691757 7431.936523
1.920000 -5.880000 5.920000 93.064674 -63.292374 12666.958008
1.920000 -5.880000 5.960000 124.518784 -5.684608 15537.242188
1.920000 -5.880000 6.000000 106.864136 55.307423 14478.854492
1.920000 -5.880000 6.040000 58.265022 82.748985 10242.207031
1.920000 -5.880000 6.080000 16.379839 70.885193 5293.009766
1.920000 -5.880000 6.120000 4.217402 44.986477 2041.569580
1.920000 -5.880000 6.160000 13.541737 33.887466 1331.739014
1.920000 -5.880000 6.200000 18.878906 43.749645 2270.444580
1.920000 -5.840000 5.800000 -9.002523 -6.043184 117.565506
1.920000 -5.840000 5.840000 6.262903 -28.915209 875.313232
1.920000 -5.840000 5.880000 37.032051 -31.759029 2380.008789
1.920000 -5.840000 5.920000 62.215141 -10.245972 3975.703857
1.920000 -5.840000 5.960000 66.765793 22.422710 4960.448730
1.920000 -5.840000 6.000000 51.830853 48.614986 5049.854492
1.920000 -5.840000 6.040000 29.560387 60.227463 4501.163574
1.920000 -5.840000 6.080000 10.302832 61.078377 3836.716553
1.920000 -5.840000 6.120000 -4.481371 58.359390 3425.901123
1.920000 -5.840000 6.160000 -18.512941 54.128548 3272.628662
1.920000 -5.840000 6.200000 -32.871723 45.220112 3125.408691
1.920000 -5.800000 5.800000 -3.191004 -6.891089 57.669621
1.920000 -5.800000 5.840000 4.466133 -9.451445 109.276146
1.920000 -5.800000 5.880000 10.824010 -7.778934 177.671005
1.920000 -5.800000 5.920000 16.886093 -5.260677 312.814850
1.920000 -5.800000 5.960000 25.658642 0.641731 658.777710
1.920000 -5.800000 6.000000 33.508453 16.052639 1380.503662
1.920000 -5.800000 6.040000 29.511560 40.464760 2508.328857
1.920000 -5.800000 6.080000 6.113569 61.381989 3805.124268
1.920000 -5.800000 6.120000 -29.849745 62.505016 4797.884277
1.920000 -5.800000 6.160000 -59.198582 38.930878 5020.085449
1.920000 -5.800000 6.200000 -65.634872 3.514408 4320.287598
1.960000 -6.200000 5.800000 13.059787 -82.695938 7009.176270
1.960000 -6.200000 5.840000 37.270454 -59.926414 4980.261719
1.960000 -6.200000 5.880000 40.588165 -31.684612 2651.313965
1.960000 -6.200000 5.920000 28.008121 -13.746429 973.419189
1.960000 -6.200000 5.960000 13.293753 -10.995312 297.620728
1.960000 -6.200000 6.000000 6.290908 -16.605316 315.312042
1.960000 -6.200000 6.040000 6.842535 -21.590775 512.981873
1.960000 -6.200000 6.080000 9.788073 -23.101894 629.503906
1.960000 -6.200000 6.120000 12.957421 -23.150696 703.849487
1.960000 -6.200000 6.160000 17.995977 -21.790354 798.674683
1.960000 -6.200000 6.200000 24.156372 -15.150593 813.070801
1.960000 -6.160000 5.800000 61.726810 -49.321831 6242.842285
1.960000 -6.160000 5.840000 64.710564 -10.491786 4297.534668
1.960000 -6.160000 5.880000 40.928055 19.135452 2041.271240
1.960000 -6.160000 5.920000 5.963608 22.493713 541.531738
1.960000 -6.160000 5.960000 -16.985256 1.136135 289.789734
1.960000 -6.160000 6.000000 -15.242407 -26.493530 934.238159
1.960000 -6.160000 6.040000 5.041553 -40.634777 1676.602295
1.960000 -6.160000 6.080000 26.694237 -34.717621 1917.895508
1.960000 -6.160000 6.120000 36.222069 -16.639412 1588.908203
1.960000 -6.160000 6.160000 31.534277 1.187326 995.820374
1.960000 -6.160000 6.200000 18.378325 11.317169 465.841125
1.960000 -6.120000 5.800000 72.820717 7.899662 5365.261719
1.960000 -6.120000 5.840000 45.583084 49.484100 4526.494141
1.960000 -6.120000 5.880000 -8.148022 60.483330 3724.623535
1.960000 -6.120000 5.920000 -55.204586 27.431965 3800.059082
1.960000 -6.120000 5.960000 -62.435150 -30.011009 4798.808594
1.960000 -6.120000 6.000000 -25.182510 -72.294037 5860.586426
1.960000 -6.120000 6.040000 28.054623 -71.823502 5945.677246
1.960000 -6.120000 6.080000 59.497822 -34.351250 4719.999023
1.960000 -6.120000 6.120000 52.162933 8.781404 2798.084717
1.960000 -6.120000 6.160000 19.425440 28.312759 1178.960083
1.960000 -6.120000 6.200000 -11.340734 18.267731 462.322266
1.960000 -6.080000 5.800000 42.214775 53.737835 4669.842285
1.960000 -6.080000 5.840000 -15.543600 78.392639 6387.009277
1.960000 -6.080000 5.880000 -84.079849 48.370682 9409.143555
1.960000 -6.080000 5.920000 -111.774399 -30.455353 13421.044922
1.960000 -6.080000 5.960000 -70.536926 -108.391106 16724.089844
1.960000 -6.080000 6.000000 15.015427 -130.440338 17240.144531
1.960000 -6.080000 6.040000 84.976883 -83.403908 14177.283203
1.960000 -6.080000 6.080000 93.870361 -7.032394 8861.098633
1.960000 -6.080000 6.120000 46.759422 41.264801 3889.227539
1.960000 -6.080000 6.160000 -10.431492 34.276314 1283.681763
1.960000 -6.080000 6.200000 -33.890919 -8.281153 1217.171875
1.960000 -6.040000 5.800000 -6.694088 63.645359 4095.542480
1.960000 -6.040000 5.840000 -80.594437 52.524723 9254.309570
1.960000 -6.040000 5.880000 -131.409119 -24.970036 17891.859375
1.960000 -6.040000 5.920000 -105.445122 -128.339996 27589.828125
1.960000 -6.040000 5.960000 -5.032280 -183.629669 33745.179688
1.960000 -6.040000 6.000000 104.852249 -147.019318 32608.673828
1.960000 -6.040000 6.040000 148.916718 -45.936638 24286.363281
1.960000 -6.040000 6.080000 105.523346 43.396595 13018.441406
1.960000 -6.040000 6.120000 22.146896 61.640968 4290.093750
1.960000 -6.040000 6.160000 -30.495590 13.472317 1111.484375
1.960000 -6.040000 6.200000 -19.841816 -45.490166 2463.052979
1.960000 -6.000000 5.800000 -42.745472 39.837578 3414.208008
1.960000 -6.000000 5.840000 -106.005447 -12.261740 11387.505859
1.960000 -6.000000 5.880000 -108.022743 -115.554428 25021.738281
1.960000 -6.000000 5.920000 -20.655319 -198.201965 39710.660156
1.960000 -6.000000 5.960000 109.228127 -190.096436 48067.437500
1.960000 -6.000000 6.000000 192.705627 -88.615822 44988.218750
1.960000 -6.000000 6.040000 174.809128 34.176872 31726.289062
1.960000 -6.000000 6.080000 81.933365 92.902603 15343.969727
1.960000 -6.000000 6.120000 -4.536209 61.382668 3788.408936
1.960000 -6.000000 6.160000 -21.732662 -11.448887 603.385620
1.960000 -6.000000 6.200000 24.568548 -53.223045 3436.306152
1.960000 -5.960000 5.800000 -49.988659 4.921015 2523.082275
1.960000 -5.960000 5.840000 -77.610275 -71.927246 11196.883789
1.960000 -5.960000 5.880000 -25.164076 -160.684097 26452.609375
1.960000 -5.960000 5.920000 92.647903 -184.593140 42658.261719
1.960000 -5.960000 5.960000 198.547729 -109.440163 51398.347656
1.960000 -5.960000 6.000000 216.692780 19.531050 47337.222656
1.960000 -5.960000 6.040000 139.863861 113.414902 32424.839844
1.960000 -5.960000 6.080000 35.003654 116.314957 14754.424805
1.960000 -5.960000 6.120000 -18.134024 50.402458 2869.250488
1.960000 -5.960000 6.160000 4.314711 -11.521133 151.353241
1.960000 -5.960000 6.200000 58.283379 -15.586603 3639.894287
1.960000 -5.920000 5.800000 -34.861275 -18.583286 1560.646973
1.960000 -5.920000 5.840000 -20.802505 -89.822327 8500.794922
1.960000 -5.920000 5.880000 59.439861 -132.324219 21042.796875
1.960000 -5.920000 5.920000 158.268097 -96.297119 34321.925781
1.960000 -5.920000 5.960000 203.275177 6.986404 41369.605469
1.960000 -5.920000 6.000000 160.802277 110.041557 37966.515625
1.960000 -5.920000 6.040000 66.130173 146.710770 25897.250000
1.960000 -5.920000 6.080000 -9.132870 108.249641 11801.394531
1.960000 -5.920000 6.120000 -20.657166 45.355583 2483.847412
1.960000 -5.920000 6.160000 14.786497 17.099989 511.050110
1.960000 -5.920000 6.200000 44.056728 38.407856 3416.158691
1.960000 -5.880000 5.800000 -14.766193 -23.530577 771.728516
1.960000 -5.880000 5.840000 22.947462 -64.392197 4672.940918
1.960000 -5.880000 5.880000 90.913239 -60.059074 11872.309570
1.960000 -5.880000 5.920000 139.742493 0.241814 19528.023438
1.960000 -5.880000 5.960000 130.780670 81.299164 23713.138672
1.960000 -5.880000 6.000000 70.024887 131.214981 22120.855469
1.960000 -5.880000 6.040000 1.452812 125.564148 15768.465820
1.960000 -5.880000 6.080000 -32.979759 84.792831 8277.488281
1.960000 -5.880000 6.120000 -27.658560 50.420372 3307.209717
1.960000 -5.880000 6.160000 -10.981291 45.753708 2213.990723
1.960000 -5.880000 6.200000 -12.790083 59.165756 3664.172852
1.960000 -5.840000 5.800000 -1.873549 -17.018524 293.140350
1.960000 -5.840000 5.840000 30.621861 -24.923393 1558.873901
1.960000 -5.840000 5.880000 62.347691 -1.911484 3890.888428
1.960000 -5.840000 5.920000 69.135620 40.399704 6411.870117
1.960000 -5.840000 5.960000 46.093891 76.780502 8019.892578
1.960000 -5.840000 6.000000 8.914429 89.808731 8145.075195
1.960000 -5.840000 6.040000 -22.376400 81.354538 7119.264160
1.960000 -5.840000 6.080000 -39.792374 65.294067 5846.748535
1.960000 -5.840000 6.120000 -48.957317 51.829853 5083.152344
1.960000 -5.840000 6.160000 -57.680664 39.985836 4925.926270
1.960000 -5.840000 6.200000 -65.885292 23.701323 4902.624023
1.960000 -5.800000 5.800000 2.848555 -8.507393 80.489998
1.960000 -5.800000 5.840000 11.632618 -2.215088 140.224411
1.960000 -5.800000 5.880000 13.705172 7.483448 243.833725
1.960000 -5.800000 5.920000 12.134384 15.489399 387.164764
1.960000 -5.800000 5.960000 10.590385 24.192570 697.436707
1.960000 -5.800000 6.000000 5.121246 37.890018 1461.880615
1.960000 -5.800000 6.040000 -12.773005 52.455635 2914.743408
1.960000 -5.800000 6.080000 -43.925423 54.401581 4888.974609
1.960000 -5.800000 6.120000 -74.700729 33.229744 6684.414551
1.960000 -5.800000 6.160000 -85.887131 -5.401979 7405.780273
1.960000 -5.800000 6.200000 -69.997589 -41.176094 6595.133301
2.000000 -6.200000 5.800000 51.534145 -62.043495 6505.163086
2.000000 -6.200000 5.840000 61.626263 -29.432072 4664.042969
2.000000 -6.200000 5.880000 48.838993 -2.719998 2392.645752
2.000000 -6.200000 5.920000 26.748810 5.095909 741.467102
2.000000 -6.200000 5.960000 11.846060 -3.095737 149.912720
2.000000 -6.200000 6.000000 10.176342 -14.707237 319.860779
2.000000 -6.200000 6.040000 16.412302 -20.408573 685.873535
2.000000 -6.200000 6.080000 23.276598 -19.758278 932.189575
2.000000 -6.200000 6.120000 28.710119 -15.872036 1076.192505
2.000000 -6.200000 6.160000 33.283581 -8.686144 1183.245850
2.000000 -6.200000 6.200000 33.852356 3.586146 1158.842529
2.000000 -6.160000 5.800000 75.053421 -11.091625 5756.040039
2.000000 -6.160000 5.840000 59.775806 25.488918 4222.832031
2.000000 -6.160000 5.880000 23.281609 40.289238 2165.255859
2.000000 -6.160000 5.920000 -10.303120 24.519440 707.357239
2.000000 -6.160000 5.960000 -19.446325 -7.987598 441.961304
2.000000 -6.160000 6.000000 -2.149029 -32.869957 1085.052368
2.000000 -6.160000 6.040000 25.002609 -35.024628 1851.854980
2.000000 -6.160000 6.080000 42.542404 -17.783104 2126.094971
2.000000 -6.160000 6.120000 42.392204 4.366782 1816.167725
2.000000 -6.160000 6.160000 29.110907 19.105194 1212.453369
2.000000 -6.160000 6.200000 11.467524 22.500338 637.769287
2.000000 -6.120000 5.800000 56.097466 42.037117 4914.044922
2.000000 -6.120000 5.840000 12.611416 66.947083 4640.959473
2.000000 -6.120000 5.880000 -41.001488 50.490147 4230.376953
2.000000 -6.120000 5.920000 -66.440598 -3.103935 4423.987305
2.000000 -6.120000 5.960000 -43.294163 -58.386703 5283.391602
2.000000 -6.120000 6.000000 11.843468 -77.017464 6071.957520
2.000000 -6.120000 6.040000 58.906296 -49.420734 5912.360352
2.000000 -6.120000 6.080000 67.661491 -0.667709 4578.523438
2.000000 -6.120000 6.120000 39.875999 33.046692 2682.179199
2.000000 -6.120000 6.160000 2.327432 33.616550 1135.489502
2.000000 -6.120000 6.200000 -18.713947 10.125721 452.742065
2.000000 -6.080000 5.800000 7.058478 65.680626 4363.767090
2.000000 -6.080000 5.840000 -55.978943 60.029930 6737.234375
2.000000 -6.080000 5.880000 -101.783997 -0.778236 10360.587891
2.000000 -6.080000 5.920000 -86.233643 -84.695724 14609.607422
2.000000 -6.080000 5.960000 -9.989250 -132.471298 17648.429688
2.000000 -6.080000 6.000000 76.350006 -108.288139 17555.644531
2.000000 -6.080000 6.040000 113.424210 -32.053043 13892.449219
2.000000 -6.080000 6.080000 82.767281 37.910503 8287.628906
2.000000 -6.080000 6.120000 18.905273 55.080208 3391.238770
2.000000 -6.080000 6.160000 -24.884048 20.538517 1041.046631
2.000000 -6.080000 6.200000 -22.182444 -26.060877 1171.230103
2.000000 -6.040000 5.800000 -40.627476 49.133957 4064.737549
2.000000 -6.040000 5.840000 -99.846817 2.054260 9973.606445
2.000000 -6.040000 5.880000 -104.487289 -92.236488 19425.164062
2.000000 -6.040000 5.920000 -28.024570 -169.541595 29529.730469
2.000000 -6.040000 5.960000 88.570755 -165.981369 35394.593750
2.000000 -6.040000 6.000000 165.477310 -77.579391 33401.300781
2.000000 -6.040000 6.040000 151.986298 32.180214 24135.400391
2.000000 -6.040000 6.080000 69.764374 86.357727 12324.724609
2.000000 -6.040000 6.120000 -9.300673 59.482948 3624.723633
2.000000 -6.040000 6.160000 -27.857109 -6.957529 824.425781
2.000000 -6.040000 6.200000 11.762892 -48.861832 2525.844238
2.000000 -6.000000 5.800000 -60.125252 8.679272 3690.375732
2.000000 -6.000000 5.840000 -87.107285 -70.265877 12524.972656
2.000000 -6.000000 5.880000 -33.477688 -161.358368 27157.279297
2.000000 -6.000000 5.920000 86.963074 -186.881134 42487.132812
2.000000 -6.000000 5.960000 196.003693 -110.979080 50733.804688
2.000000 -6.000000 6.000000 215.314682 21.062141 46804.027344
2.000000 -6.000000 6.040000 136.062012 117.784142 32385.974609
2.000000 -6.000000 6.080000 26.515005 120.119652 15131.776367
2.000000 -6.000000 6.120000 -29.947241 49.316490 3328.953369
2.000000 -6.000000 6.160000 -6.351570 -19.407539 416.995026
2.000000 -6.000000 6.200000 53.316185 -28.218821 3638.917236
2.000000 -5.960000 5.800000 -47.293598 -27.326149 2983.402832
2.000000 -5.960000 5.840000 -27.695368 -108.600487 12561.098633
2.000000 -5.960000 5.880000 67.238327 -156.150604 28904.003906
2.000000 -5.960000 5.920000 182.979187 -111.893105 46001.449219
2.000000 -5.960000 5.960000 234.259064 11.468967 55008.847656
2.000000 -5.960000 6.000000 180.413147 133.575180 50391.234375
2.000000 -5.960000 6.040000 63.685699 173.995300 34330.234375
2.000000 -5.960000 6.080000 -28.052382 121.221954 15481.699219
2.000000 -5.960000 6.120000 -38.711056 37.636372 2915.042480
2.000000 -5.960000 6.160000 12.255045 -1.810177 153.462860
2.000000 -5.960000 6.200000 57.963379 24.244753 3947.561279
2.000000 -5.920000 5.800000 -19.216797 -40.357788 1998.036377
2.000000 -5.920000 5.840000 34.719723 -92.226715 9711.225586
2.000000 -5.920000 5.880000 128.570862 -82.023834 23258.375000
2.000000 -5.920000 5.920000 193.747681 6.151436 37576.003906
2.000000 -5.920000 5.960000 174.353897 121.949120 45270.867188
2.000000 -5.920000 6.000000 79.274780 188.291245 41738.085938
2.000000 -5.920000 6.040000 -23.923328 167.847366 28745.064453
2.000000 -5.920000 6.080000 -68.547394 93.171906 13379.749023
2.000000 -5.920000 6.120000 -44.796528 32.715256 3077.016846
2.000000 -5.920000 6.160000 -0.139587 27.745232 769.817322
2.000000 -5.920000 6.200000 11.684891 61.065971 3865.589600
2.000000 -5.880000 5.800000 2.918839 -32.061184 1036.439209
2.000000 -5.880000 5.840000 59.838482 -42.772324 5410.115234
2.000000 -5.880000 5.880000 115.511024 2.771347 13350.477539
2.000000 -5.880000 5.920000 121.329773 85.016563 21948.730469
2.000000 -5.880000 5.960000 64.542236 150.819489 26912.218750
2.000000 -5.880000 6.000000 -19.057407 158.534363 25496.330078
2.000000 -5.880000 6.040000 -76.584251 112.727875 18572.722656
2.000000 -5.880000 6.080000 -83.285049 56.092674 10082.787109
2.000000 -5.880000 6.120000 -58.717556 28.373779 4252.822754
2.000000 -5.880000 6.160000 -41.478134 33.248444 2825.894531
2.000000 -5.880000 6.200000 -50.689384 42.951969 4414.285645
2.000000 -5.840000 5.800000 9.881308 -16.773279 378.983154
2.000000 -5.840000 5.840000 42.349663 -1.705303 1796.401978
2.000000 -5.840000 5.880000 54.334770 39.519382 4514.048828
2.000000 -5.840000 5.920000 31.706532 81.368690 7626.167969
2.000000 -5.840000 5.960000 -13.616783 97.915298 9772.822266
2.000000 -5.840000 6.000000 -55.678696 83.625175 10093.287109
2.000000 -5.840000 6.040000 -77.080215 53.940487 8850.935547
2.000000 -5.840000 6.080000 -80.043221 27.726547 7175.678223
2.000000 -5.840000 6.120000 -77.609848 10.935280 6142.869141
2.000000 -5.840000 6.160000 -77.329811 -3.285583 5990.694824
2.000000 -5.840000 6.200000 -75.107338 -21.707020 6112.307129
2.000000 -5.800000 5.800000 6.404860 -6.456364 82.706856
2.000000 -5.800000 5.840000 9.844055 6.446426 138.461838
2.000000 -5.800000 5.880000 3.039715 18.177259 339.652618
2.000000 -5.800000 5.920000 -7.740059 23.571722 615.534607
2.000000 -5.800000 5.960000 -17.736271 25.857224 983.171326
2.000000 -5.800000 6.000000 -30.118656 28.568047 1723.266724
2.000000 -5.800000 6.040000 -49.999271 26.779629 3217.075684
2.000000 -5.800000 6.080000 -73.220085 10.223923 5465.709473
2.000000 -5.800000 6.120000 -84.850838 -23.518078 7752.764648
2.000000 -5.800000 6.160000 -72.048172 -61.126396 8927.375000
2.000000 -5.800000 6.200000 -38.476669 -82.160965 8230.878906
2.040000 -6.200000 5.800000 67.190239 -20.324089 4927.596680
2.040000 -6.200000 5.840000 59.964291 11.018681 3717.127441
2.040000 -6.200000 5.880000 35.688667 26.245609 1962.513062
2.040000 -6.200000 5.920000 12.798915 20.345407 577.747803
2.040000 -6.200000 5.960000 4.546069 4.029968 36.907387
2.040000 -6.200000 6.000000 10.071592 -8.464067 173.077408
2.040000 -6.200000 6.040000 20.015835 -11.358391 529.646667
2.040000 -6.200000 6.080000 27.562157 -7.615598 817.669800
2.040000 -6.200000 6.120000 31.965071 -0.886280 1022.551270
2.040000 -6.200000 6.160000 33.114738 8.818778 1174.356812
2.040000 -6.200000 6.200000 27.259029 20.640099 1169.068359
2.040000 -6.160000 5.800000 60.559025 26.193905 4353.516113
2.040000 -6.160000 5.840000 32.948181 49.960793 3581.663574
2.040000 -6.160000 5.880000 -3.702460 46.024567 2131.968994
2.040000 -6.160000 5.920000 -24.445032 17.460636 902.433350
2.040000 -6.160000 5.960000 -17.185108 -14.179119 496.375366
2.040000 -6.160000 6.000000 8.607975 -27.594126 835.533020
2.040000 -6.160000 6.040000 32.414421 -17.967995 1373.543579
2.040000 -6.160000 6.080000 40.070648 3.214127 1615.987427
2.040000 -6.160000 6.120000 31.625120 21.009914 1441.564697
2.040000 -6.160000 6.160000 15.713827 27.904497 1025.585327
2.040000 -6.160000 6.200000 0.364159 24.236362 587.533875
2.040000 -6.120000 5.800000 23.003353 55.489433 3608.231445
2.040000 -6.120000 5.840000 -21.438950 58.542835 3886.892334
2.040000 -6.120000 5.880000 -57.448196 23.197666 3838.426758
2.040000 -6.120000 5.920000 -54.913422 -30.468042 3943.785645
2.040000 -6.120000 5.960000 -12.726646 -64.622925 4338.089844
2.040000 -6.120000 6.000000 38.885796 -55.935265 4640.858887
2.040000 -6.120000 6.040000 64.168770 -14.666145 4332.726562
2.040000 -6.120000 6.080000 50.870110 26.354252 3282.314697
2.040000 -6.120000 6.120000 16.367912 40.362194 1897.015259
2.040000 -6.120000 6.160000 -11.323411 25.612364 784.212769
2.040000 -6.120000 6.200000 -16.853737 0.249071 284.110504
2.040000 -6.080000 5.800000 -23.033480 50.338696 3064.525635
2.040000 -6.080000 5.840000 -69.652802 21.021542 5293.417969
2.040000 -6.080000 5.880000 -79.742859 -45.194981 8401.509766
2.040000 -6.080000 5.920000 -31.804283 -103.529922 11729.958008
2.040000 -6.080000 5.960000 47.722198 -107.579865 13850.835938
2.040000 -6.080000 6.000000 103.689392 -51.805958 13435.347656
2.040000 -6.080000 6.040000 99.291901 22.133617 10348.779297
2.040000 -6.080000 6.080000 46.495022 61.638443 5961.084961
2.040000 -6.080000 6.120000 -7.875048 47.146412 2284.800537
2.040000 -6.080000 6.160000 -24.602940 3.433825 617.095764
2.040000 -6.080000 6.200000 -2.146015 -28.277767 804.237549
2.040000 -6.040000 5.800000 -50.107079 16.620041 2786.945068
2.040000 -6.040000 5.840000 -75.234779 -43.607800 7561.912109
2.040000 -6.040000 5.880000 -37.978188 -117.064850 15146.521484
2.040000 -6.040000 5.920000 54.106838 -142.171509 23140.289062
2.040000 -6.040000 5.960000 141.157211 -87.901749 27652.074219
2.040000 -6.040000 6.000000 160.407227 13.145863 25903.292969
2.040000 -6.040000 6.040000 101.880066 90.003662 18480.207031
2.040000 -6.040000 6.080000 16.661997 94.425873 9193.867188
2.040000 -6.040000 6.120000 -29.799440 39.942368 2483.399414
2.040000 -6.040000 6.160000 -13.724106 -16.321413 454.739594
2.040000 -6.040000 6.200000 33.589874 -27.942215 1909.047119
2.040000 -6.000000 5.800000 -45.615891 -21.807224 2556.364502
2.040000 -6.000000 5.840000 -30.818069 -92.176010 9446.169922
2.040000 -6.000000 5.880000 50.305046 -136.001831 21027.095703
2.040000 -6.000000 5.920000 152.379547 -100.326111 33284.855469
2.040000 -6.000000 5.960000 199.900192 6.654865 40004.375000
2.040000 -6.000000 6.000000 154.281387 115.066986 37043.156250
2.040000 -6.000000 6.040000 50.692234 151.951904 25659.083984
2.040000 -6.000000 6.080000 -32.459808 104.274872 11926.888672
2.040000 -6.000000 6.120000 -42.531242 26.403374 2506.044678
2.040000 -6.000000 6.160000 5.712521 -13.022003 202.205460
2.040000 -6.000000 6.200000 52.487133 8.433910 2826.030029
2.040000 -5.960000 5.800000 -19.345581 -41.815334 2122.773682
2.040000 -5.960000 5.840000 32.738850 -92.038910 9542.993164
2.040000 -5.960000 5.880000 125.332779 -82.488281 22512.621094
2.040000 -5.960000 5.920000 190.764954 5.295267 36419.304688
2.040000 -5.960000 5.960000 170.912689 122.203903 44144.941406
2.040000 -5.960000 6.000000 72.705254 188.909805 40972.968750
2.040000 -5.960000 6.040000 -34.493217 164.742935 28330.015625
2.040000 -5.960000 6.080000 -79.292923 82.270454 13055.794922
2.040000 -5.960000 6.120000 -48.963783 14.648712 2612.036865
2.040000 -5.960000 6.160000 6.550129 8.780918 120.008713
2.040000 -5.960000 6.200000 27.174501 48.832542 3123.070801
2.040000 -5.920000 5.800000 6.942141 -37.436329 1449.672119
2.040000 -5.920000 5.840000 71.324226 -48.585754 7447.720703
2.040000 -5.920000 5.880000 135.362854 5.173843 18349.871094
2.040000 -5.920000 5.920000 140.372559 103.042854 30322.285156
2.040000 -5.920000 5.960000 68.669518 180.545670 37312.242188
2.040000 -5.920000 6.000000 -35.976357 184.085770 35181.867188
2.040000 -5.920000 6.040000 -104.698013 118.158554 24923.117188
2.040000 -5.920000 6.080000 -102.961357 39.478157 12159.566406
2.040000 -5.920000 6.120000 -56.428944 4.339190 3203.054199
2.040000 -5.920000 6.160000 -20.730965 20.811962 862.910645
2.040000 -5.920000 6.200000 -27.781971 49.945210 3266.361816
2.040000 -5.880000 5.800000 17.791834 -20.610317 741.334534
2.040000 -5.880000 5.840000 64.498924 0.954933 4161.023438
2.040000 -5.880000 5.880000 81.938950 63.468735 10742.271484
2.040000 -5.880000 5.920000 43.439003 128.077469 18290.785156
2.040000 -5.880000 5.960000 -33.910069 148.300842 23143.033203
2.040000 -5.880000 6.000000 -101.939911 110.655075 22636.291016
2.040000 -5.880000 6.040000 -122.743355 45.393387 17126.490234
2.040000 -5.880000 6.080000 -99.069534 -2.427656 9820.666016
2.040000 -5.880000 6.120000 -65.886337 -12.425740 4495.408203
2.040000 -5.880000 6.160000 -54.323368 -1.265369 2952.629395
2.040000 -5.880000 6.200000 -64.782005 0.513704 4196.971680
2.040000 -5.840000 5.800000 13.906815 -7.559572 250.546631
2.040000 -5.840000 5.840000 29.777372 21.436731 1346.225342
2.040000 -5.840000 5.880000 15.788914 59.319305 3768.069824
2.040000 -5.840000 5.920000 -25.359390 78.515625 6807.801758
2.040000 -5.840000 5.960000 -69.996880 65.123085 9140.579102
2.040000 -5.840000 6.000000 -94.387138 29.300491 9767.450195
2.040000 -5.840000 6.040000 -93.428177 -6.677044 8773.407227
2.040000 -5.840000 6.080000 -79.854965 -28.913616 7212.812500
2.040000 -5.840000 6.120000 -67.739975 -40.285637 6211.636719
2.040000 -5.840000 6.160000 -59.165993 -50.891918 6090.602051
2.040000 -5.840000 6.200000 -46.756031 -63.855698 6263.676758
2.040000 -5.800000 5.800000 6.461076 -4.790897 64.698196
2.040000 -5.800000 5.840000 2.069828 8.590025 78.072716
2.040000 -5.800000 5.880000 -11.782249 14.854336 359.472687
2.040000 -5.800000 5.920000 -25.911396 11.316170 799.456177
2.040000 -5.800000 5.960000 -35.506866 3.462776 1272.728394
2.040000 -5.800000 6.000000 -43.777367 -4.824577 1939.734375
2.040000 -5.800000 6.040000 -53.887520 -17.642334 3215.116699
2.040000 -5.800000 6.080000 -60.014656 -41.007389 5283.365234
2.040000 -5.800000 6.120000 -50.362068 -71.180786 7603.041992
2.040000 -5.800000 6.160000 -20.732563 -92.701935 9023.487305
2.040000 -5.800000 6.200000 16.840752 -91.185677 8598.438477
2.080000 -6.200000 5.800000 50.577240 18.767582 2910.279297
2.080000 -6.200000 5.840000 31.903708 38.615974 2509.040039
2.080000 -6.200000 5.880000 6.582403 38.804893 1549.147705
2.080000 -6.200000 5.920000 -8.712778 22.953335 602.768066
2.080000 -6.200000 5.960000 -7.973022 4.933823 87.911697
2.080000 -6.200000 6.000000 2.401653 -4.523937 26.233946
2.080000 -6.200000 6.040000 13.047731 -4.578923 191.209839
2.080000 -6.200000 6.080000 19.962727 0.262289 398.579254
2.080000 -6.200000 6.120000 23.475674 7.492796 607.249207
2.080000 -6.200000 6.160000 22.468884 16.928005 791.408081
2.080000 -6.200000 6.200000 13.860236 25.344862 834.468140
2.080000 -6.160000 5.800000 27.164768 42.480942 2542.554932
2.080000 -6.160000 5.840000 -1.414201 50.497795 2552.027344
2.080000 -6.160000 5.880000 -27.406191 34.021252 1908.544922
2.080000 -6.160000 5.920000 -32.588573 4.432484 1081.662109
2.080000 -6.160000 5.960000 -15.625404 -17.586765 553.447571
2.080000 -6.160000 6.000000 8.822756 -19.721407 466.774902
2.080000 -6.160000 6.040000 24.301849 -5.775457 623.935791
2.080000 -6.160000 6.080000 24.900660 11.420441 750.469299
2.080000 -6.160000 6.120000 15.489771 21.937277 721.177124
2.080000 -6.160000 6.160000 3.681653 23.532093 567.313965
2.080000 -6.160000 6.200000 -5.777716 18.149174 362.774506
2.080000 -6.120000 5.800000 -6.199821 44.006866 1975.041992
2.080000 -6.120000 5.840000 -38.613052 32.941990 2576.142578
2.080000 -6.120000 5.880000 -52.723541 -3.751388 2793.844727
2.080000 -6.120000 5.920000 -33.081757 -41.024536 2777.415039
2.080000 -6.120000 5.960000 8.102501 -51.267899 2694.048096
2.080000 -6.120000 6.000000 41.472282 -28.568413 2536.104492
2.080000 -6.120000 6.040000 46.010338 7.539799 2173.799805
2.080000 -6.120000 6.080000 24.970264 30.699499 1565.973389
2.080000 -6.120000 6.120000 -0.887891 29.439583 867.477356
2.080000 -6.120000 6.160000 -13.076445 12.456527 326.158447
2.080000 -6.120000 6.200000 -8.443054 -3.645817 84.577141
2.080000 -6.080000 5.800000 -30.356850 23.060051 1453.304199
2.080000 -6.080000 5.840000 -53.083344 -10.101685 2919.885254
2.080000 -6.080000 5.880000 -38.758598 -57.612320 4821.408203
2.080000 -6.080000 5.920000 12.732109 -80.728569 6679.208496
2.080000 -6.080000 5.960000 67.247841 -56.513027 7715.994141
2.080000 -6.080000 6.000000 85.458862 -0.463383 7303.432129
2.080000 -6.080000 6.040000 57.534714 46.532585 5475.524414
2.080000 -6.080000 6.080000 10.266296 54.099979 3032.204590
2.080000 -6.080000 6.120000 -18.761261 26.579357 1058.447144
2.080000 -6.080000 6.160000 -13.558889 -5.605541 215.265564
2.080000 -6.080000 6.200000 11.276701 -15.754806 375.377869
2.080000 -6.040000 5.800000 -32.631165 -6.068684 1101.621826
2.080000 -6.040000 5.840000 -30.262396 -52.109051 3631.166016
2.080000 -6.040000 5.880000 17.999908 -86.741379 7848.063477
2.080000 -6.040000 5.920000 86.001434 -70.920296 12425.935547
2.080000 -6.040000 5.960000 122.941635 -4.907221 15138.726562
2.080000 -6.040000 6.000000 99.010162 67.332199 14336.637695
2.080000 -6.040000 6.040000 33.467667 95.647110 10268.455078
2.080000 -6.040000 6.080000 -22.594368 67.483109 5064.475098
2.080000 -6.040000 6.120000 -31.882080 16.143442 1277.077759
2.080000 -6.040000 6.160000 -0.878669 -12.520102 157.525009
2.080000 -6.040000 6.200000 32.283337 -0.929776 1043.078369
2.080000 -6.000000 5.800000 -15.826131 -25.108044 880.880310
2.080000 -6.000000 5.840000 16.418095 -63.419289 4291.560059
2.080000 -6.000000 5.880000 82.273148 -61.976570 10609.965820
2.080000 -6.000000 5.920000 133.294586 -2.114647 17771.919922
2.080000 -6.000000 5.960000 123.296570 83.519440 22177.541016
2.080000 -6.000000 6.000000 53.003773 135.378998 21136.873047
2.080000 -6.000000 6.040000 -27.495293 119.411179 15015.020508
2.080000 -6.000000 6.080000 -62.575417 56.956936 7159.775391
2.080000 -6.000000 6.120000 -39.155968 3.354864 1544.444946
2.080000 -6.000000 6.160000 6.481928 -2.880396 50.312069
2.080000 -6.000000 6.200000 26.903866 29.053759 1567.938965
2.080000 -5.960000 5.800000 4.984208 -25.495403 674.857910
2.080000 -5.960000 5.840000 54.030655 -37.032593 4290.724609
2.080000 -5.960000 5.880000 106.845047 3.645851 11429.156250
2.080000 -5.960000 5.920000 113.257072 83.423141 19786.583984
2.080000 -5.960000 5.960000 54.522942 148.986389 25169.695312
2.080000 -5.960000 6.000000 -34.580463 152.124725 24337.740234
2.080000 -5.960000 6.040000 -93.765068 93.583618 17549.781250
2.080000 -5.960000 6.080000 -89.837914 22.224546 8564.781250
2.080000 -5.960000 6.120000 -43.432407 -9.795860 1982.332886
2.080000 -5.960000 6.160000 -5.414006 7.933037 92.244537
2.080000 -5.960000 6.200000 -8.232677 41.070004 1754.522217
2.080000 -5.920000 5.800000 15.421737 -13.604695 422.917694
2.080000 -5.920000 5.840000 57.788345 4.457552 3359.362793
2.080000 -5.920000 5.880000 74.881935 62.631794 9530.045898
2.080000 -5.920000 5.920000 37.608406 124.977982 17033.888672
2.080000 -5.920000 5.960000 -39.814049 143.547760 22191.117188
2.080000 -5.920000 6.000000 -108.040764 101.666183 22008.820312
2.080000 -5.920000 6.040000 -124.816284 29.974049 16477.548828
2.080000 -5.920000 6.080000 -90.939476 -21.132795 8716.583008
2.080000 -5.920000 6.120000 -45.775780 -25.863060 2764.320068
2.080000 -5.920000 6.160000 -28.407600 -1.637812 809.674194
2.080000 -5.920000 6.200000 -43.472786 13.503048 2072.215576
2.080000 -5.880000 5.800000 13.002937 -3.056978 178.421509
2.080000 -5.880000 5.840000 31.978046 29.012629 1864.328125
2.080000 -5.880000 5.880000 15.694473 74.476013 5792.993164
2.080000 -5.880000 5.920000 -36.681648 97.514198 10854.561523
2.080000 -5.880000 5.960000 -94.634483 75.645584 14677.939453
2.080000 -5.880000 6.000000 -121.555840 20.735275 15205.773438
2.080000 -5.880000 6.040000 -106.034088 -31.588142 12241.038086
2.080000 -5.880000 6.080000 -69.075073 -53.549637 7638.929688
2.080000 -5.880000 6.120000 -41.754326 -46.939339 3946.725098
2.080000 -5.880000 6.160000 -36.852062 -35.484379 2617.215576
2.080000 -5.880000 6.200000 -41.822533 -38.532471 3233.875488
2.080000 -5.840000 5.800000 6.666455 -1.768316 47.568569
2.080000 -5.840000 5.840000 3.788759 23.434542 563.532410
2.080000 -5.840000 5.880000 -22.753284 40.807800 2182.988525
2.080000 -5.840000 5.920000 -58.408478 33.106926 4507.619141
2.080000 -5.840000 5.960000 -80.755463 2.194786 6526.261719
2.080000 -5.840000 6.000000 -78.817429 -33.751644 7351.360352
2.080000 -5.840000 6.040000 -60.026562 -57.486423 6907.876953
2.080000 -5.840000 6.080000 -39.496689 -66.151855 5936.056152
2.080000 -5.840000 6.120000 -24.757750 -68.475342 5301.818848
2.080000 -5.840000 6.160000 -11.990744 -71.552246 5263.501953
2.080000 -5.840000 6.200000 4.626914 -73.082115 5362.403809
2.080000 -5.800000 5.800000 5.972509 -6.090185 72.761223
2.080000 -5.800000 5.840000 -3.430286 2.330922 17.200062
2.080000 -5.800000 5.880000 -17.415102 -0.053600 303.288635
2.080000 -5.800000 5.920000 -26.215504 -11.483124 819.114746
2.080000 -5.800000 5.960000 -27.408894 -24.227905 1338.238770
2.080000 -5.800000 6.000000 -25.726452 -34.828217 1874.854980
2.080000 -5.800000 6.040000 -23.641552 -47.168537 2783.793945
2.080000 -5.800000 6.080000 -15.520761 -64.252838 4369.321289
2.080000 -5.800000 6.120000 5.889269 -79.387314 6337.029297
2.080000 -5.800000 6.160000 37.559250 -79.493698 7729.945312
2.080000 -5.800000 6.200000 64.146637 -58.944515 7589.247070
2.120000 -6.200000 5.800000 14.908027 31.920090 1241.141357
2.120000 -6.200000 5.840000 -4.060015 37.851303 1449.204956
2.120000 -6.200000 5.880000 -21.290619 28.114464 1243.713623
2.120000 -6.200000 5.920000 -26.435230 10.329016 805.510010
2.120000 -6.200000 5.960000 -19.477726 -4.337246 398.193512
2.120000 -6.200000 6.000000 -7.509409 -10.456964 165.739334
2.120000 -6.200000 6.040000 3.355294 -9.504966 101.602371
2.120000 -6.200000 6.080000 11.350622 -4.450728 148.645599
2.120000 -6.200000 6.120000 15.856539 3.726081 265.313507
2.120000 -6.200000 6.160000 14.505245 13.573895 394.652771
2.120000 -6.200000 6.200000 6.017167 19.982418 435.503326
2.120000 -6.160000 5.800000 -3.411359 31.309242 991.906067
2.120000 -6.160000 5.840000 -23.951950 29.524883 1445.414673
2.120000 -6.160000 5.880000 -37.013573 11.428396 1500.612793
2.120000 -6.160000 5.920000 -32.807621 -10.773447 1192.407104
2.120000 -6.160000 5.960000 -15.273432 -22.957405 760.320129
2.120000 -6.160000 6.000000 3.373202 -20.394184 427.301270
2.120000 -6.160000 6.040000 13.667936 -8.765812 263.651947
2.120000 -6.160000 6.080000 14.361731 3.360240 217.550522
2.120000 -6.160000 6.120000 9.362472 11.229182 213.750412
2.120000 -6.160000 6.160000 2.478822 14.110008 205.236893
2.120000 -6.160000 6.200000 -3.837917 12.288586 165.738953
2.120000 -6.120000 5.800000 -15.771996 20.011011 649.196411
2.120000 -6.120000 5.840000 -34.320770 8.036729 1242.504272
2.120000 -6.120000 5.880000 -36.201035 -17.573320 1619.336426
2.120000 -6.120000 5.920000 -16.429186 -37.134758 1648.908447
2.120000 -6.120000 5.960000 11.463020 -35.709206 1406.548218
2.120000 -6.120000 6.000000 28.261086 -15.897640 1051.423950
2.120000 -6.120000 6.040000 25.749760 6.304455 702.796265
2.120000 -6.120000 6.080000 11.391916 16.706974 408.898743
2.120000 -6.120000 6.120000 -1.183713 13.601620 186.405228
2.120000 -6.120000 6.160000 -4.521112 5.429497 49.919891
2.120000 -6.120000 6.200000 -0.873612 0.710232 1.267627
2.120000 -6.080000 5.800000 -17.136965 5.765427 326.915710
2.120000 -6.080000 5.840000 -26.333775 -15.700348 939.968628
2.120000 -6.080000 5.880000 -10.601259 -40.020393 1714.018555
2.120000 -6.080000 5.920000 22.521408 -43.276577 2380.075928
2.120000 -6.080000 5.960000 47.997658 -18.905905 2661.208496
2.120000 -6.080000 6.000000 46.535610 15.586538 2408.503174
2.120000 -6.080000 6.040000 21.964657 35.021252 1708.934204
2.120000 -6.080000 6.080000 -3.810118 29.203663 867.370911
2.120000 -6.080000 6.120000 -11.867868 9.877056 238.402527
2.120000 -6.080000 6.160000 -1.996419 -2.939469 12.626169
2.120000 -6.080000 6.200000 10.847424 0.112533 117.679260
2.120000 -6.040000 5.800000 -9.955318 -2.917101 107.617844
2.120000 -6.040000 5.840000 -3.532018 -26.049389 691.045837
2.120000 -6.040000 5.880000 26.750055 -35.220482 1956.047729
2.120000 -6.040000 5.920000 57.995796 -13.188311 3537.444092
2.120000 -6.040000 5.960000 61.858944 28.914289 4662.565430
2.120000 -6.040000 6.000000 32.168465 60.113335 4648.422852
2.120000 -6.040000 6.040000 -8.383696 58.066555 3442.011230
2.120000 -6.040000 6.080000 -29.313145 29.274914 1716.281006
2.120000 -6.040000 6.120000 -19.977200 1.462179 401.226471
2.120000 -6.040000 6.160000 3.110993 -3.198175 19.906603
2.120000 -6.040000 6.200000 14.731796 12.941628 384.511536
2.120000 -6.000000 5.800000 -1.983876 -2.859486 12.112427
2.120000 -6.000000 5.840000 18.165398 -15.879371 582.136108
2.120000 -6.000000 5.880000 48.369667 -2.027303 2343.734619
2.120000 -6.000000 5.920000 58.402809 38.377895 4883.750977
2.120000 -6.000000 5.960000 31.324562 77.240433 6947.312500
2.120000 -6.000000 6.000000 -17.680197 83.422470 7271.897949
2.120000 -6.000000 6.040000 -53.442009 52.237537 5584.808594
2.120000 -6.000000 6.080000 -52.731068 10.135144 2883.286621
2.120000 -6.000000 6.120000 -24.540985 -10.158220 705.449402
2.120000 -6.000000 6.160000 0.602720 0.798079 1.000203
2.120000 -6.000000 6.200000 0.474992 23.466042 550.880737
2.120000 -5.960000 5.800000 0.133647 1.686420 2.861874
2.120000 -5.960000 5.840000 23.041718 5.636527 562.691223
2.120000 -5.960000 5.880000 36.476093 35.915279 2620.412598
2.120000 -5.960000 5.920000 17.744797 73.841385 5767.428223
2.120000 -5.960000 5.960000 -29.113190 87.424858 8490.683594
2.120000 -5.960000 6.000000 -73.383362 61.461937 9162.687500
2.120000 -5.960000 6.040000 -84.443542 13.290768 7307.356445
2.120000 -5.960000 6.080000 -59.426132 -22.300293 4028.768066
2.120000 -5.960000 6.120000 -24.604626 -24.444544 1202.923340
2.120000 -5.960000 6.160000 -9.730958 -3.242899 105.207939
2.120000 -5.960000 6.200000 -21.211220 13.089264 621.244629
2.120000 -5.920000 5.800000 -3.438889 3.232427 22.274536
2.120000 -5.920000 5.840000 9.834028 20.177586 503.843079
2.120000 -5.920000 5.880000 0.923543 49.616356 2462.635742
2.120000 -5.920000 5.920000 -34.964382 65.793152 5551.247070
2.120000 -5.920000 5.960000 -77.113701 48.937294 8341.381836
2.120000 -5.920000 6.000000 -96.002388 5.330297 9244.871094
2.120000 -5.920000 6.040000 -79.749420 -36.819633 7715.655762
2.120000 -5.920000 6.080000 -44.330727 -52.295620 4700.044922
2.120000 -5.920000 6.120000 -17.829250 -40.238384 1937.009766
2.120000 -5.920000 6.160000 -14.805381 -21.768063 693.047852
2.120000 -5.920000 6.200000 -25.803371 -17.864603 984.958008
2.120000 -5.880000 5.800000 -6.146471 -1.582544 40.283543
2.120000 -5.880000 5.840000 -6.975684 16.969982 336.640442
2.120000 -5.880000 5.880000 -28.654757 31.163530 1792.260742
2.120000 -5.880000 5.920000 -60.284550 22.937590 4160.359863
2.120000 -5.880000 5.960000 -79.420471 -8.850031 6385.934570
2.120000 -5.880000 6.000000 -71.952187 -46.104084 7302.704102
2.120000 -5.880000 6.040000 -44.276497 -67.398872 6503.016113
2.120000 -5.880000 6.080000 -16.069405 -66.141403 4632.910645
2.120000 -5.880000 6.120000 -1.905319 -53.505775 2866.498047
2.120000 -5.880000 6.160000 -0.244345 -44.986511 2023.845825
2.120000 -5.880000 6.200000 0.785437 -45.614208 2081.272949
2.120000 -5.840000 5.800000 -1.797753 -8.299480 72.113297
2.120000 -5.840000 5.840000 -11.233627 2.565217 132.774719
2.120000 -5.840000 5.880000 -30.097630 0.569361 906.191467
2.120000 -5.840000 5.920000 -43.851135 -17.869894 2242.255127
2.120000 -5.840000 5.960000 -41.467445 -42.742058 3546.432617
2.120000 -5.840000 6.000000 -24.813429 -60.237972 4244.319336
2.120000 -5.840000 6.040000 -4.714096 -64.963829 4242.521973
2.120000 -5.840000 6.080000 10.677414 -61.885330 3943.801270
2.120000 -5.840000 6.120000 21.959267 -57.660561 3806.949707
2.120000 -5.840000 6.160000 33.491135 -52.683693 3897.227539
2.120000 -5.840000 6.200000 45.131126 -42.846668 3872.655762
2.120000 -5.800000 5.800000 8.460088 -8.808147 149.156540
2.120000 -5.800000 5.840000 -0.663654 -6.498246 42.667641
2.120000 -5.800000 5.880000 -8.327784 -14.213169 271.366150
2.120000 -5.800000 5.920000 -7.596773 -26.028576 735.197693
2.120000 -5.800000 5.960000 -0.280529 -34.312782 1177.445801
2.120000 -5.800000 6.000000 7.540871 -38.260963 1520.766113
2.120000 -5.800000 6.040000 14.768610 -42.577808 2030.981567
2.120000 -5.800000 6.080000 26.876015 -48.179398 3043.574707
2.120000 -5.800000 6.120000 47.002186 -47.526920 4468.013672
2.120000 -5.800000 6.160000 67.656815 -32.209000 5614.864258
2.120000 -5.800000 6.200000 75.051468 -4.883144 5656.567871
2.160000 -6.200000 5.800000 -12.933271 15.263523 400.244659
2.160000 -6.200000 5.840000 -23.883255 13.813995 761.236328
2.160000 -6.200000 5.880000 -31.338686 3.439095 993.940613
2.160000 -6.200000 5.920000 -30.213764 -10.232018 1017.565674
2.160000 -6.200000 5.960000 -21.341381 -20.786133 887.517883
2.160000 -6.200000 6.000000 -8.705643 -25.125957 707.101929
2.160000 -6.200000 6.040000 4.099309 -23.081924 549.579529
2.160000 -6.200000 6.080000 14.368030 -15.312958 440.926941
2.160000 -6.200000 6.120000 19.130905 -3.398992 377.544678
2.160000 -6.200000 6.160000 16.152767 8.549231 334.001221
2.160000 -6.200000 6.200000 7.146311 14.786005 269.695709
2.160000 -6.160000 5.800000 -12.341154 5.379063 181.238388
2.160000 -6.160000 5.840000 -23.817719 3.264862 577.942993
2.160000 -6.160000 5.880000 -29.901209 -9.076844 976.471375
2.160000 -6.160000 5.920000 -24.723919 -23.582001 1167.382935
2.160000 -6.160000 5.960000 -10.793744 -31.495358 1108.462402
2.160000 -6.160000 6.000000 4.682444 -29.519207 893.308899
2.160000 -6.160000 6.040000 15.625339 -20.048092 646.077209
2.160000 -6.160000 6.080000 19.654354 -7.605421 444.136047
2.160000 -6.160000 6.120000 17.124020 3.848222 308.040863
2.160000 -6.160000 6.160000 9.856215 11.272371 224.211319
2.160000 -6.160000 6.200000 1.166376 12.815666 165.601730
2.160000 -6.120000 5.800000 -5.450700 2.381766 35.382938
2.160000 -6.120000 5.840000 -18.205988 -2.729669 338.909088
2.160000 -6.120000 5.880000 -20.820560 -17.737869 748.127747
2.160000 -6.120000 5.920000 -9.743737 -30.223000 1008.370117
2.160000 -6.120000 5.960000 7.400616 -30.856485 1006.891785
2.160000 -6.120000 6.000000 19.773363 -20.293987 802.831787
2.160000 -6.120000 6.040000 22.247280 -6.362069 535.417419
2.160000 -6.120000 6.080000 17.351105 3.787592 315.406677
2.160000 -6.120000 6.120000 10.445236 8.372588 179.203186
2.160000 -6.120000 6.160000 4.632095 9.445569 110.675079
2.160000 -6.120000 6.200000 0.073644 8.950592 80.118523
2.160000 -6.080000 5.800000 -1.114561 7.937788 64.250725
2.160000 -6.080000 5.840000 -12.487275 -2.180990 160.688751
2.160000 -6.080000 5.880000 -9.051125 -17.338882 382.559692
2.160000 -6.080000 5.920000 6.144788 -23.053692 569.231140
2.160000 -6.080000 5.960000 20.032511 -14.517017 612.045288
2.160000 -6.080000 6.000000 22.463488 0.446659 504.807770
2.160000 -6.080000 6.040000 14.593861 10.424570 321.652435
2.160000 -6.080000 6.080000 5.403046 11.195486 154.531799
2.160000 -6.080000 6.120000 1.605699 7.612351 60.526157
2.160000 -6.080000 6.160000 1.996390 6.334303 44.108967
2.160000 -6.080000 6.200000 1.044864 8.401390 71.675102
2.160000 -6.040000 5.800000 -5.600481 15.718308 278.430603
2.160000 -6.040000 5.840000 -11.726753 2.077538 141.832901
2.160000 -6.040000 5.880000 -2.968359 -8.605852 82.871849
2.160000 -6.040000 5.920000 10.272253 -5.656508 137.515274
2.160000 -6.040000 5.960000 14.298079 7.353923 258.515228
2.160000 -6.040000 6.000000 5.748772 17.480927 338.631165
2.160000 -6.040000 6.040000 -6.250753 16.126621 299.139801
2.160000 -6.040000 6.080000 -10.635105 7.016772 162.340546
2.160000 -6.040000 6.120000 -5.814332 0.844044 34.518871
2.160000 -6.040000 6.160000 -0.086611 3.290547 10.835203
2.160000 -6.040000 6.200000 -1.636549 9.481719 92.581284
2.160000 -6.000000 5.800000 -17.288708 16.827036 582.048584
2.160000 -6.000000 5.840000 -16.885157 4.076084 301.722992
2.160000 -6.000000 5.880000 -7.459350 0.386406 55.791214
2.160000 -6.000000 5.920000 -2.065808 7.924444 67.064377
2.160000 -6.000000 5.960000 -8.317244 16.417219 338.701630
2.160000 -6.000000 6.000000 -20.614031 14.642945 639.354126
2.160000 -6.000000 6.040000 -26.522884 2.446697 709.449707
2.160000 -6.000000 6.080000 -20.145000 -9.334638 492.956512
2.160000 -6.000000 6.120000 -8.156425 -10.506285 176.909302
2.160000 -6.000000 6.160000 -2.460356 -2.110859 10.509075
2.160000 -6.000000 6.200000 -7.618151 5.106420 84.111748
2.160000 -5.960000 5.800000 -27.766476 7.151454 822.120483
2.160000 -5.960000 5.840000 -23.386034 -0.869082 547.661926
2.160000 -5.960000 5.880000 -18.241135 0.263392 332.808350
2.160000 -5.960000 5.920000 -21.065201 4.933006 468.077240
2.160000 -5.960000 5.960000 -30.445992 2.844368 935.048828
2.160000 -5.960000 6.000000 -36.172237 -9.348747 1395.829834
2.160000 -5.960000 6.040000 -30.175381 -23.856703 1479.695801
2.160000 -5.960000 6.080000 -15.329533 -29.453888 1102.526123
2.160000 -5.960000 6.120000 -2.875504 -22.858643 530.786072
2.160000 -5.960000 6.160000 -1.283643 -11.928430 143.935165
2.160000 -5.960000 6.200000 -8.151819 -7.587015 124.014946
2.160000 -5.920000 5.800000 -28.190775 -8.994411 875.619202
2.160000 -5.920000 5.840000 -24.050072 -11.654383 714.230591
2.160000 -5.920000 5.880000 -24.389748 -10.625602 707.763184
2.160000 -5.920000 5.920000 -29.807791 -13.466650 1069.855103
2.160000 -5.920000 5.960000 -33.272186 -24.072855 1686.540649
2.160000 -5.920000 6.000000 -27.530827 -37.695438 2178.892578
2.160000 -5.920000 6.040000 -12.957363 -45.143570 2205.835205
2.160000 -5.920000 6.080000 2.334962 -41.648621 1740.059570
2.160000 -5.920000 6.120000 10.062938 -31.219824 1075.940186
2.160000 -5.920000 6.160000 9.048989 -22.417648 584.435181
2.160000 -5.920000 6.200000 5.253440 -20.351124 441.766876
2.160000 -5.880000 5.800000 -16.217838 -21.511782 725.775024
2.160000 -5.880000 5.840000 -15.209124 -21.013605 672.889038
2.160000 -5.880000 5.880000 -18.221502 -23.478682 883.271606
2.160000 -5.880000 5.920000 -19.691986 -32.071213 1416.337036
2.160000 -5.880000 5.960000 -13.848948 -43.102280 2049.599854
2.160000 -5.880000 6.000000 -0.861278 -49.478630 2448.876465
2.160000 -5.880000 6.040000 13.401163 -47.512329 2437.012451
2.160000 -5.880000 6.080000 23.151920 -39.671967 2109.876465
2.160000 -5.880000 6.120000 27.345295 -31.064093 1712.742920
2.160000 -5.880000 6.160000 28.711596 -24.383715 1418.921265
2.160000 -5.880000 6.200000 29.547749 -18.906794 1230.536377
2.160000 -5.840000 5.800000 1.625925 -21.716694 474.258423
2.160000 -5.840000 5.840000 -1.027159 -20.924599 438.893890
2.160000 -5.840000 5.880000 -3.183842 -26.580177 716.642639
2.160000 -5.840000 5.920000 1.197134 -35.218407 1241.769287
2.160000 -5.840000 5.960000 11.946710 -39.983124 1741.374023
2.160000 -5.840000 6.000000 23.461664 -37.970467 1992.206055
2.160000 -5.840000 6.040000 31.432774 -32.264488 2029.016357
2.160000 -5.840000 6.080000 36.945198 -26.734947 2079.705078
2.160000 -5.840000 6.120000 43.067932 -20.703104 2283.465332
2.160000 -5.840000 6.160000 48.801888 -10.624308 2494.500244
2.160000 -5.840000 6.200000 48.906761 3.363150 2403.182129
2.160000 -5.800000 5.800000 14.079200 -8.967883 278.646790
2.160000 -5.800000 5.840000 8.780962 -9.915672 175.425842
2.160000 -5.800000 5.880000 8.659761 -16.422239 344.681396
2.160000 -5.800000 5.920000 15.528816 -21.146694 688.326782
2.160000 -5.800000 5.960000 24.026875 -19.859921 971.707153
2.160000 -5.800000 6.000000 29.179008 -15.664628 1096.795166
2.160000 -5.800000 6.040000 32.844376 -13.377552 1257.711914
2.160000 -5.800000 6.080000 40.358925 -11.442080 1759.763916
2.160000 -5.800000 6.120000 51.229614 -2.598228 2631.224121
2.160000 -5.800000 6.160000 56.290260 16.197830 3430.963135
2.160000 -5.800000 6.200000 46.852440 36.594650 3534.319580
2.200000 -6.200000 5.800000 -14.097775 -12.214962 347.952545
2.200000 -6.200000 5.840000 -17.332552 -11.523260 433.202881
2.200000 -6.200000 5.880000 -20.646389 -16.584995 701.335449
2.200000 -6.200000 5.920000 -19.035639 -25.808147 1028.416016
2.200000 -6.200000 5.960000 -10.186411 -34.355030 1284.031006
2.200000 -6.200000 6.000000 4.151401 -37.014664 1387.319458
2.200000 -6.200000 6.040000 19.033552 -30.982399 1322.185181
2.200000 -6.200000 6.080000 28.665892 -17.444023 1126.027344
2.200000 -6.200000 6.120000 29.361177 -1.296503 863.759644
2.200000 -6.200000 6.160000 21.752497 11.213474 598.913086
2.200000 -6.200000 6.200000 10.705717 16.160961 375.789062
2.200000 -6.160000 5.800000 2.050515 -13.130031 176.602310
2.200000 -6.160000 5.840000 -6.423349 -9.996503 141.189484
2.200000 -6.160000 5.880000 -13.280807 -16.955311 463.862427
2.200000 -6.160000 5.920000 -10.984762 -28.902412 956.014404
2.200000 -6.160000 5.960000 1.340549 -37.031094 1373.098999
2.200000 -6.160000 6.000000 17.936703 -35.083885 1552.604370
2.200000 -6.160000 6.040000 30.744410 -22.875341 1468.500000
2.200000 -6.160000 6.080000 34.215179 -5.527919 1201.236328
2.200000 -6.160000 6.120000 27.709965 9.975517 867.353088
2.200000 -6.160000 6.160000 15.035213 18.368679 563.465942
2.200000 -6.160000 6.200000 2.043628 18.284012 338.481506
2.200000 -6.120000 5.800000 11.306755 2.090527 132.213013
2.200000 -6.120000 5.840000 -4.566391 1.662977 23.617418
2.200000 -6.120000 5.880000 -13.042870 -11.650622 305.853455
2.200000 -6.120000 5.920000 -7.145640 -27.180569 789.843506
2.200000 -6.120000 5.960000 9.398046 -33.411896 1204.677979
2.200000 -6.120000 6.000000 26.169769 -26.124187 1367.329956
2.200000 -6.120000 6.040000 34.085579 -9.843781 1258.726685
2.200000 -6.120000 6.080000 30.554989 6.919589 981.488037
2.200000 -6.120000 6.120000 19.046661 17.446758 667.164673
2.200000 -6.120000 6.160000 5.402285 19.440763 407.127991
2.200000 -6.120000 6.200000 -5.412082 14.369132 235.762589
2.200000 -6.080000 5.800000 2.136940 20.797653 437.108887
2.200000 -6.080000 5.840000 -17.280537 10.446724 407.750977
2.200000 -6.080000 5.880000 -21.632835 -10.798391 584.584839
2.200000 -6.080000 5.920000 -8.647870 -27.625999 837.981506
2.200000 -6.080000 5.960000 11.777984 -29.397686 1002.944824
2.200000 -6.080000 6.000000 26.458307 -16.966925 987.918579
2.200000 -6.080000 6.040000 28.533930 0.321395 814.288452
2.200000 -6.080000 6.080000 20.128729 12.968929 573.358887
2.200000 -6.080000 6.120000 7.944937 17.065624 354.357544
2.200000 -6.080000 6.160000 -2.386301 14.000395 201.705490
2.200000 -6.080000 6.200000 -8.355970 6.957322 118.226578
2.200000 -6.040000 5.800000 -21.560087 25.666157 1123.588989
2.200000 -6.040000 5.840000 -36.292587 3.921209 1332.527710
2.200000 -6.040000 5.880000 -30.699223 -21.480839 1403.868652
2.200000 -6.040000 5.920000 -9.703637 -34.545887 1287.578857
2.200000 -6.040000 5.960000 12.169785 -29.489428 1017.729980
2.200000 -6.040000 6.000000 22.666979 -13.191116 687.797485
2.200000 -6.040000 6.040000 19.727936 2.415130 395.024292
2.200000 -6.040000 6.080000 9.845793 9.830676 193.581818
2.200000 -6.040000 6.120000 0.638140 9.221597 85.445068
2.200000 -6.040000 6.160000 -4.510660 4.701976 42.454632
2.200000 -6.040000 6.200000 -5.955904 -0.578272 35.807194
2.200000 -6.000000 5.800000 -43.028915 9.445762 1940.709961
2.200000 -6.000000 5.840000 -45.865524 -18.243757 2436.480957
2.200000 -6.000000 5.880000 -28.949883 -40.267334 2459.553711
2.200000 -6.000000 5.920000 -3.285238 -44.751480 2013.487793
2.200000 -6.000000 5.960000 16.041443 -32.583847 1319.034912
2.200000 -6.000000 6.000000 21.105886 -14.740605 662.743896
2.200000 -6.000000 6.040000 14.976181 -2.382541 229.962494
2.200000 -6.000000 6.080000 6.333908 0.870848 40.876770
2.200000 -6.000000 6.120000 1.343017 -1.345068 3.612900
2.200000 -6.000000 6.160000 0.398251 -4.035092 16.440575
2.200000 -6.000000 6.200000 1.010070 -5.410818 30.297195
2.200000 -5.960000 5.800000 -46.149471 -18.785358 2482.663330
2.200000 -5.960000 5.840000 -36.037693 -43.064320 3153.250977
2.200000 -5.960000 5.880000 -12.490177 -55.172272 3199.984131
2.200000 -5.960000 5.920000 11.704409 -49.928780 2629.876221
2.200000 -5.960000 5.960000 25.048454 -33.281685 1735.095581
2.200000 -5.960000 6.000000 24.955219 -16.608585 898.608032
2.200000 -5.960000 6.040000 17.626480 -7.821826 371.873779
2.200000 -5.960000 6.080000 11.332433 -6.835057 175.142029
2.200000 -5.960000 6.120000 9.731388 -8.286592 163.367523
2.200000 -5.960000 6.160000 10.762175 -7.738486 175.708572
2.200000 -5.960000 6.200000 10.798944 -5.184222 143.493362
2.200000 -5.920000 5.800000 -28.090038 -40.808651 2454.396240
2.200000 -5.920000 5.840000 -11.113382 -54.446671 3087.947266
2.200000 -5.920000 5.880000 11.070221 -55.467258 3199.166504
2.200000 -5.920000 5.920000 28.642900 -44.042320 2760.141602
2.200000 -5.920000 5.960000 35.262184 -27.172495 1981.766113
2.200000 -5.920000 6.000000 31.812630 -13.603391 1197.095581
2.200000 -5.920000 6.040000 24.804382 -7.793797 676.000671
2.200000 -5.920000 6.080000 20.756866 -7.595854 488.544495
2.200000 -5.920000 6.120000 21.186575 -7.369445 503.179688
2.200000 -5.920000 6.160000 22.445486 -3.641291 517.058838
2.200000 -5.920000 6.200000 20.254642 1.875039 413.766327
2.200000 -5.880000 5.800000 -0.923445 -43.270889 1873.222656
2.200000 -5.880000 5.840000 13.735762 -45.797764 2286.106201
2.200000 -5.880000 5.880000 28.474720 -40.558258 2455.781982
2.200000 -5.880000 5.920000 38.444584 -28.781132 2306.339600
2.200000 -5.880000 5.960000 40.583652 -14.989472 1871.717163
2.200000 -5.880000 6.000000 36.100327 -4.843952 1326.697388
2.200000 -5.880000 6.040000 30.219385 -1.053656 914.321411
2.200000 -5.880000 6.080000 28.035358 -0.900537 786.792297
2.200000 -5.880000 6.120000 29.705915 1.239681 883.978210
2.200000 -5.880000 6.160000 30.161045 7.960750 973.062195
2.200000 -5.880000 6.200000 24.625683 15.453763 845.243042
2.200000 -5.840000 5.800000 18.149189 -26.899242 1052.962280
2.200000 -5.840000 5.840000 24.365717 -24.481182 1193.016357
2.200000 -5.840000 5.880000 31.209879 -20.134905 1379.470947
2.200000 -5.840000 5.920000 36.819817 -12.165843 1503.706543
2.200000 -5.840000 5.960000 37.819729 -2.045001 1434.513916
2.200000 -5.840000 6.000000 33.872749 5.664290 1179.447388
2.200000 -5.840000 6.040000 29.392578 8.283676 932.542969
2.200000 -5.840000 6.080000 28.982536 8.948006 920.054199
2.200000 -5.840000 6.120000 31.350216 13.597733 1167.734375
2.200000 -5.840000 6.160000 29.666651 23.371674 1426.345215
2.200000 -5.840000 6.200000 19.476219 31.469248 1369.636719
2.200000 -5.800000 5.800000 19.256321 -4.441116 390.529419
2.200000 -5.800000 5.840000 17.705639 -5.070810 339.202759
2.200000 -5.800000 5.880000 21.258610 -6.026871 488.251678
2.200000 -5.800000 5.920000 26.930115 -2.058955 729.470398
2.200000 -5.800000 5.960000 28.854902 5.970018 868.246521
2.200000 -5.800000 6.000000 25.880949 12.407120 823.760132
2.200000 -5.800000 6.040000 22.994934 14.549713 740.461121
2.200000 -5.800000 6.080000 24.214401 16.751797 866.959900
2.200000 -5.800000 6.120000 25.885208 24.787548 1284.466553
2.200000 -5.800000 6.160000 19.853264 36.789070 1747.587769
2.200000 -5.800000 6.200000 4.111388 42.713623 1841.357178
