#kx 	ky 	kz 	real 	imag 	intensity
2.800000 -9.200000 -3.200000 -55.902603 -5.273360 3152.909424
2.800000 -9.200000 -3.160000 -34.494068 -27.045982 1921.325928
2.800000 -9.200000 -3.120000 -9.328751 -19.212738 456.154907
2.800000 -9.200000 -3.080000 -8.124554 4.838885 89.423180
2.800000 -9.200000 -3.040000 -31.716324 14.482236 1215.660278
2.800000 -9.200000 -3.000000 -53.237335 -5.057460 2859.791748
2.800000 -9.200000 -2.960000 -46.984467 -36.729691 3556.610352
2.800000 -9.200000 -2.920000 -15.783304 -49.658066 2715.036377
2.800000 -9.200000 -2.880000 12.100727 -31.323875 1127.612793
2.800000 -9.200000 -2.840000 12.264355 0.288530 150.497650
2.800000 -9.200000 -2.800000 -12.085938 16.288961 411.400146
2.800000 -9.160000 -3.200000 -43.617779 -39.954529 3498.875000
2.800000 -9.160000 -3.160000 -11.512723 -45.375927 2191.517578
2.800000 -9.160000 -3.120000 5.618310 -23.851181 600.444275
2.800000 -9.160000 -3.080000 -6.520505 -2.955092 51.249550
2.800000 -9.160000 -3.040000 -30.609985 -7.684410 996.021362
2.800000 -9.160000 -3.000000 -36.999908 -34.287800 2544.646484
2.800000 -9.160000 -2.960000 -15.399020 -55.076195 3270.517090
2.800000 -9.160000 -2.920000 14.807996 -48.139664 2536.704102
2.800000 -9.160000 -2.880000 25.539227 -19.804867 1044.484863
2.800000 -9.160000 -2.840000 8.767872 3.203971 87.141006
2.800000 -9.160000 -2.800000 -17.279968 1.719529 301.554077
2.800000 -9.120000 -3.200000 -7.153192 -54.165226 2985.040039
2.800000 -9.120000 -3.160000 19.981800 -39.943413 1994.748535
2.800000 -9.120000 -3.120000 21.496078 -14.532461 673.273804
2.800000 -9.120000 -3.080000 2.561536 -4.838965 29.977053
2.800000 -9.120000 -3.040000 -11.830282 -18.639807 487.397949
2.800000 -9.120000 -3.000000 -4.098530 -38.115891 1469.619141
2.800000 -9.120000 -2.960000 18.099831 -40.376629 1957.876099
2.800000 -9.120000 -2.920000 31.576269 -21.945007 1478.644165
2.800000 -9.120000 -2.880000 22.896967 -1.234019 525.793945
2.800000 -9.120000 -2.840000 1.562287 1.980528 6.363235
2.800000 -9.120000 -2.800000 -11.751966 -13.380189 317.138184
2.800000 -9.080000 -3.200000 26.998186 -35.996490 2024.649414
2.800000 -9.080000 -3.160000 37.016422 -12.391672 1523.769165
2.800000 -9.080000 -3.120000 25.610031 5.148388 682.379639
2.800000 -9.080000 -3.080000 9.450600 3.670278 102.784775
2.800000 -9.080000 -3.040000 6.201363 -8.810263 116.077621
2.800000 -9.080000 -3.000000 16.336523 -14.507386 477.346252
2.800000 -9.080000 -2.960000 24.927208 -6.164848 659.371094
2.800000 -9.080000 -2.920000 19.833895 5.942509 428.696808
2.800000 -9.080000 -2.880000 5.281283 6.828891 74.525703
2.800000 -9.080000 -2.840000 -3.653901 -6.158064 51.272743
2.800000 -9.080000 -2.800000 1.905618 -21.135698 450.349121
2.800000 -9.040000 -3.200000 34.612267 -1.258780 1199.593506
2.800000 -9.040000 -3.160000 28.129131 17.025221 1081.106201
2.800000 -9.040000 -3.120000 13.594097 21.925554 665.529419
2.800000 -9.040000 -3.080000 5.170381 15.798285 276.318665
2.800000 -9.040000 -3.040000 6.193597 10.641855 151.609726
2.800000 -9.040000 -3.000000 7.826896 12.914788 228.052048
2.800000 -9.040000 -2.960000 1.779591 16.451174 273.808044
2.800000 -9.040000 -2.920000 -8.527663 11.099894 195.928680
2.800000 -9.040000 -2.880000 -11.456451 -3.816801 145.818237
2.800000 -9.040000 -2.840000 -0.892958 -17.311272 300.477478
2.800000 -9.040000 -2.800000 16.061220 -18.449026 598.329346
2.800000 -9.000000 -3.200000 16.142513 22.561066 769.582397
2.800000 -9.000000 -3.160000 3.478361 28.399445 818.627441
2.800000 -9.000000 -3.120000 -6.191210 24.664829 646.684875
2.800000 -9.000000 -3.080000 -8.955730 19.909809 476.605621
2.800000 -9.000000 -3.040000 -10.857021 19.479027 497.307404
2.800000 -9.000000 -3.000000 -18.138199 18.606863 675.209595
2.800000 -9.000000 -2.960000 -27.201685 8.979103 820.555908
2.800000 -9.000000 -2.920000 -27.045568 -9.097383 814.225159
2.800000 -9.000000 -2.880000 -12.005367 -23.982025 719.266357
2.800000 -9.000000 -2.840000 9.962088 -23.730400 662.375061
2.800000 -9.000000 -2.800000 23.885752 -8.924075 650.168213
2.800000 -8.960000 -3.200000 -6.762231 22.999992 574.727417
2.800000 -8.960000 -3.160000 -16.672983 19.781521 669.296936
2.800000 -8.960000 -3.120000 -20.698719 13.753439 617.594055
2.800000 -8.960000 -3.080000 -22.250099 10.761135 610.868958
2.800000 -8.960000 -3.040000 -27.383232 8.520819 822.445801
2.800000 -8.960000 -3.000000 -34.801754 -0.472309 1211.385132
2.800000 -8.960000 -2.960000 -34.881496 -17.950502 1538.939331
2.800000 -8.960000 -2.920000 -20.211451 -34.249500 1581.531006
2.800000 -8.960000 -2.880000 3.982657 -36.140713 1322.012695
2.800000 -8.960000 -2.840000 22.436623 -20.627201 928.883423
2.800000 -8.960000 -2.800000 24.025826 0.770642 577.834167
2.800000 -8.920000 -3.200000 -15.519201 11.536969 373.947266
2.800000 -8.920000 -3.160000 -21.992710 5.376645 512.587585
2.800000 -8.920000 -3.120000 -23.694759 -1.277260 563.073059
2.800000 -8.920000 -3.080000 -24.518291 -5.927394 636.280640
2.800000 -8.920000 -3.040000 -26.967918 -12.187166 875.795654
2.800000 -8.920000 -3.000000 -26.726437 -23.847260 1282.994141
2.800000 -8.920000 -2.960000 -16.737917 -37.145947 1659.979126
2.800000 -8.920000 -2.920000 3.100427 -41.738853 1751.744507
2.800000 -8.920000 -2.880000 22.445938 -30.979826 1463.569824
2.800000 -8.920000 -2.840000 28.900967 -10.339854 942.178467
2.800000 -8.920000 -2.800000 20.132849 6.388819 446.148621
2.800000 -8.880000 -3.200000 -12.533195 6.757652 202.746857
2.800000 -8.880000 -3.160000 -19.095013 -1.990275 368.580688
2.800000 -8.880000 -3.120000 -18.734015 -12.088488 497.094818
2.800000 -8.880000 -3.080000 -14.446251 -19.185043 576.760071
2.800000 -8.880000 -3.040000 -9.571959 -24.170223 675.822083
2.800000 -8.880000 -3.000000 -3.162917 -29.135965 858.908508
2.800000 -8.880000 -2.960000 7.442673 -32.032017 1081.443481
2.800000 -8.880000 -2.920000 20.508369 -27.764015 1191.433716
2.800000 -8.880000 -2.880000 28.916592 -14.997790 1061.103027
2.800000 -8.880000 -2.840000 26.817606 0.011165 719.184082
2.800000 -8.880000 -2.800000 16.456039 8.330978 340.206451
2.800000 -8.840000 -3.200000 -14.003675 12.146211 343.633331
2.800000 -8.840000 -3.160000 -19.599947 -3.767361 398.350922
2.800000 -8.840000 -3.120000 -12.118793 -17.908421 467.576660
2.800000 -8.840000 -3.080000 0.858702 -22.049889 486.934967
2.800000 -8.840000 -3.040000 10.099937 -18.088610 429.206543
2.800000 -8.840000 -3.000000 13.451494 -13.140502 353.615479
2.800000 -8.840000 -2.960000 15.158581 -10.714527 344.583679
2.800000 -8.840000 -2.920000 18.485752 -8.270684 410.127258
2.800000 -8.840000 -2.880000 21.400318 -2.621601 464.846405
2.800000 -8.840000 -2.840000 19.986595 4.773349 422.248840
2.800000 -8.840000 -2.800000 14.204697 9.330519 288.831970
2.800000 -8.800000 -3.200000 -27.738407 13.648370 955.697266
2.800000 -8.800000 -3.160000 -24.570538 -10.282320 709.437378
2.800000 -8.800000 -3.120000 -5.356350 -22.083101 516.353882
2.800000 -8.800000 -3.080000 12.998746 -15.475256 408.450928
2.800000 -8.800000 -3.040000 17.487368 -0.634373 306.210449
2.800000 -8.800000 -3.000000 10.021530 7.849479 162.045395
2.800000 -8.800000 -2.960000 2.528809 5.261425 34.077469
2.800000 -8.800000 -2.920000 3.347357 -1.138809 12.501684
2.800000 -8.800000 -2.880000 9.976315 -2.126922 104.050652
2.800000 -8.800000 -2.840000 14.235565 3.767158 216.842804
2.800000 -8.800000 -2.800000 11.855770 10.688248 254.797913
2.840000 -9.200000 -3.200000 -43.520702 -28.624664 2713.422852
2.840000 -9.200000 -3.160000 -16.307732 -31.690701 1270.242554
2.840000 -9.200000 -3.120000 -5.410173 -12.275246 179.951630
2.840000 -9.200000 -3.080000 -21.080770 1.748685 447.456787
2.840000 -9.200000 -3.040000 -42.589046 -11.370844 1943.123047
2.840000 -9.200000 -3.000000 -40.496185 -42.500076 3446.197510
2.840000 -9.200000 -2.960000 -9.245334 -60.241234 3714.482422
2.840000 -9.200000 -2.920000 25.388659 -44.112309 2590.479736
2.840000 -9.200000 -2.880000 32.318829 -6.691346 1089.280884
2.840000 -9.200000 -2.840000 6.775385 18.904142 403.272461
2.840000 -9.200000 -2.800000 -25.833340 12.344435 819.746521
2.840000 -9.160000 -3.200000 -16.578650 -52.798302 3062.512207
2.840000 -9.160000 -3.160000 9.648703 -38.025009 1538.998779
2.840000 -9.160000 -3.120000 8.720462 -14.381665 282.878754
2.840000 -9.160000 -3.080000 -10.696540 -9.955009 213.518173
2.840000 -9.160000 -3.040000 -20.158386 -29.480587 1275.465576
2.840000 -9.160000 -3.000000 -2.952208 -49.605236 2469.395020
2.840000 -9.160000 -2.960000 27.381802 -44.673775 2745.509277
2.840000 -9.160000 -2.920000 41.358055 -14.815483 1929.987305
2.840000 -9.160000 -2.880000 24.817221 13.820707 806.906433
2.840000 -9.160000 -2.840000 -6.614828 16.284624 308.944946
2.840000 -9.160000 -2.800000 -24.532120 -6.351213 642.162781
2.840000 -9.120000 -3.200000 21.471428 -47.434738 2711.076660
2.840000 -9.120000 -3.160000 34.316872 -21.452232 1637.845947
2.840000 -9.120000 -3.120000 23.305769 -2.396987 548.904419
2.840000 -9.120000 -3.080000 8.059101 -4.434534 84.614204
2.840000 -9.120000 -3.040000 8.501320 -17.054989 363.145081
2.840000 -9.120000 -3.000000 23.430637 -18.941994 907.793884
2.840000 -9.120000 -2.960000 33.309341 -2.708281 1116.847046
2.840000 -9.120000 -2.920000 23.148643 16.912893 821.905640
2.840000 -9.120000 -2.880000 -0.392141 19.645279 386.090759
2.840000 -9.120000 -2.840000 -16.199314 1.891714 265.996368
2.840000 -9.120000 -2.800000 -11.269081 -19.897541 522.904297
2.840000 -9.080000 -3.200000 41.448280 -15.458900 1956.937500
2.840000 -9.080000 -3.160000 39.003273 8.738641 1597.619141
2.840000 -9.080000 -3.120000 24.836939 20.092537 1020.583618
2.840000 -9.080000 -3.080000 14.172112 19.119110 566.389099
2.840000 -9.080000 -3.040000 11.702482 17.456192 441.666718
2.840000 -9.080000 -3.000000 9.140308 21.818647 559.598633
2.840000 -9.080000 -2.960000 -1.695642 25.835571 670.351929
2.840000 -9.080000 -2.920000 -16.671947 18.751717 629.580688
2.840000 -9.080000 -2.880000 -22.643192 0.053275 512.717041
2.840000 -9.080000 -2.840000 -12.406239 -17.696381 467.076660
2.840000 -9.080000 -2.800000 6.305590 -21.501366 502.069183
2.840000 -9.040000 -3.200000 30.501905 16.867472 1214.877808
2.840000 -9.040000 -3.160000 21.045235 31.569368 1439.526855
2.840000 -9.040000 -3.120000 8.347256 38.662949 1564.500244
2.840000 -9.040000 -3.080000 -4.446915 41.497570 1741.823364
2.840000 -9.040000 -3.040000 -19.511816 40.789440 2044.489380
2.840000 -9.040000 -3.000000 -36.589218 31.597553 2337.176270
2.840000 -9.040000 -2.960000 -47.626022 10.504030 2378.572754
2.840000 -9.040000 -2.920000 -42.476803 -15.814402 2054.374023
2.840000 -9.040000 -2.880000 -20.589916 -32.642651 1489.487305
2.840000 -9.040000 -2.840000 5.148458 -30.011093 927.172302
2.840000 -9.040000 -2.800000 18.704681 -12.982746 518.416809
2.840000 -9.000000 -3.200000 3.841299 26.015638 691.568970
2.840000 -9.000000 -3.160000 -4.151722 33.810352 1160.376709
2.840000 -9.000000 -3.120000 -17.053112 40.490383 1930.279663
2.840000 -9.000000 -3.080000 -37.353233 41.088253 3083.508545
2.840000 -9.000000 -3.040000 -60.433720 27.135286 4388.558105
2.840000 -9.000000 -3.000000 -72.790382 -3.472692 5310.499512
2.840000 -9.000000 -2.960000 -61.786232 -39.007847 5339.150391
2.840000 -9.000000 -2.920000 -28.993462 -59.510784 4382.154297
2.840000 -9.000000 -2.880000 7.462850 -53.004875 2865.210938
2.840000 -9.000000 -2.840000 26.566433 -26.882910 1428.466187
2.840000 -9.000000 -2.800000 22.192165 -1.982593 496.422882
2.840000 -8.960000 -3.200000 -12.665986 13.498922 342.648102
2.840000 -8.960000 -3.160000 -18.958761 20.875805 795.233887
2.840000 -8.960000 -3.120000 -36.076088 25.239227 1938.502686
2.840000 -8.960000 -3.080000 -60.097969 14.543890 3823.290527
2.840000 -8.960000 -3.040000 -75.401215 -16.244076 5949.213379
2.840000 -8.960000 -3.000000 -65.608200 -55.761238 7413.751953
2.840000 -8.960000 -2.960000 -29.388905 -81.191833 7455.821289
2.840000 -8.960000 -2.920000 14.677667 -76.072411 6002.445801
2.840000 -8.960000 -2.880000 41.379578 -45.106575 3746.872559
2.840000 -8.960000 -2.840000 39.464592 -10.923369 1676.773926
2.840000 -8.960000 -2.800000 20.124006 5.422229 434.376190
2.840000 -8.920000 -3.200000 -9.579378 0.786572 92.383186
2.840000 -8.920000 -3.160000 -19.871187 8.215031 462.350800
2.840000 -8.920000 -3.120000 -40.005257 3.786497 1614.758057
2.840000 -8.920000 -3.080000 -56.098831 -20.065125 3549.687988
2.840000 -8.920000 -3.040000 -51.110279 -55.640255 5708.098633
2.840000 -8.920000 -3.000000 -19.985432 -82.277779 7169.050293
2.840000 -8.920000 -2.960000 23.095127 -81.616600 7194.654297
2.840000 -8.920000 -2.920000 53.882622 -53.290813 5743.248047
2.840000 -8.920000 -2.880000 57.121212 -16.153976 3523.783691
2.840000 -8.920000 -2.840000 38.417305 7.224285 1528.079590
2.840000 -8.920000 -2.800000 17.709530 9.019875 394.985596
2.840000 -8.880000 -3.200000 -1.247785 3.611429 14.599389
2.840000 -8.880000 -3.160000 -17.134020 3.849258 308.391449
2.840000 -8.880000 -3.120000 -31.583076 -12.427197 1151.925903
2.840000 -8.880000 -3.080000 -30.193695 -39.795334 2495.327881
2.840000 -8.880000 -3.040000 -7.623507 -62.226196 3930.217529
2.840000 -8.880000 -3.000000 26.597967 -64.365570 4850.378418
2.840000 -8.880000 -2.960000 53.943253 -43.557964 4807.170898
2.840000 -8.880000 -2.920000 60.501358 -12.341375 3812.723877
2.840000 -8.880000 -2.880000 47.208084 11.256989 2355.322998
2.840000 -8.880000 -2.840000 27.841681 17.703571 1088.575684
2.840000 -8.880000 -2.800000 16.517391 12.124951 419.838684
2.840000 -8.840000 -3.200000 -6.417958 14.712636 257.651855
2.840000 -8.840000 -3.160000 -19.702991 1.754623 391.286591
2.840000 -8.840000 -3.120000 -18.929417 -19.685457 745.840027
2.840000 -8.840000 -3.080000 -1.976341 -35.849144 1289.067017
2.840000 -8.840000 -3.040000 22.056110 -36.525143 1820.558105
2.840000 -8.840000 -3.000000 40.093407 -21.985844 2090.858398
2.840000 -8.840000 -2.960000 44.351856 -1.543568 1969.469727
2.840000 -8.840000 -2.920000 36.528374 13.997154 1530.242432
2.840000 -8.840000 -2.880000 24.794260 19.643456 1000.620667
2.840000 -8.840000 -2.840000 16.791912 18.208799 613.528687
2.840000 -8.840000 -2.800000 14.274384 16.320099 470.103668
2.840000 -8.800000 -3.200000 -24.931889 13.876274 814.150024
2.840000 -8.800000 -3.160000 -23.761936 -7.489075 620.715881
2.840000 -8.800000 -3.120000 -7.088179 -20.594473 474.374603
2.840000 -8.800000 -3.080000 12.247231 -17.472992 455.300110
2.840000 -8.800000 -3.040000 21.603952 -3.704383 480.453217
2.840000 -8.800000 -3.000000 18.857258 8.743380 432.042847
2.840000 -8.800000 -2.960000 11.565418 12.850157 298.885437
2.840000 -8.800000 -2.920000 7.898778 10.991455 183.202789
2.840000 -8.800000 -2.880000 9.343651 9.977077 186.845886
2.840000 -8.800000 -2.840000 11.340978 13.498217 310.819641
2.840000 -8.800000 -2.800000 9.137212 19.474033 462.726624
2.880000 -9.200000 -3.200000 -22.781792 -40.059486 2123.772461
2.880000 -9.200000 -3.160000 -3.118834 -27.697437 776.875122
2.880000 -9.200000 -3.120000 -7.597928 -10.318782 164.205765
2.880000 -9.200000 -3.080000 -25.850883 -13.179152 841.958252
2.880000 -9.200000 -3.040000 -29.729351 -37.846825 2316.216309
2.880000 -9.200000 -3.000000 -4.719803 -58.462795 3440.175049
2.880000 -9.200000 -2.960000 31.928555 -48.692924 3390.433594
2.880000 -9.200000 -2.920000 47.125614 -11.028224 2342.445312
2.880000 -9.200000 -2.880000 25.886639 23.588604 1226.540283
2.880000 -9.200000 -2.840000 -12.684670 26.134691 843.922974
2.880000 -9.200000 -2.800000 -34.441048 -2.003959 1190.201660
2.880000 -9.160000 -3.200000 9.447181 -48.136196 2406.342529
2.880000 -9.160000 -3.160000 20.175831 -24.257416 995.486389
2.880000 -9.160000 -3.120000 8.059469 -9.779868 160.600861
2.880000 -9.160000 -3.080000 -4.479537 -18.006264 344.291779
2.880000 -9.160000 -3.040000 3.891129 -34.496387 1205.141602
2.880000 -9.160000 -3.000000 28.999092 -33.411789 1957.294922
2.880000 -9.160000 -2.960000 44.751202 -6.932865 2050.734619
2.880000 -9.160000 -2.920000 31.282818 24.478657 1577.819336
2.880000 -9.160000 -2.880000 -2.855454 32.552109 1067.793335
2.880000 -9.160000 -2.840000 -28.541039 10.440183 923.588318
2.880000 -9.160000 -2.800000 -25.433397 -20.544548 1068.936157
2.880000 -9.120000 -3.200000 38.076218 -27.588188 2210.906494
2.880000 -9.120000 -3.160000 36.047203 -1.958259 1303.235596
2.880000 -9.120000 -3.120000 21.595829 8.433582 537.505127
2.880000 -9.120000 -3.080000 13.568811 4.918907 208.308289
2.880000 -9.120000 -3.040000 17.554176 3.560294 320.824799
2.880000 -9.120000 -3.000000 21.018494 14.570589 654.079102
2.880000 -9.120000 -2.960000 9.629078 29.401688 957.178345
2.880000 -9.120000 -2.920000 -14.182213 30.092485 1106.692871
2.880000 -9.120000 -2.880000 -31.773136 10.245924 1114.511108
2.880000 -9.120000 -2.840000 -27.648262 -16.198994 1026.833740
2.880000 -9.120000 -2.800000 -6.130955 -28.493324 849.458130
2.880000 -9.080000 -3.200000 40.767605 6.549435 1704.892700
2.880000 -9.080000 -3.160000 30.992790 26.722374 1674.638306
2.880000 -9.080000 -3.120000 15.800730 36.907032 1611.792114
2.880000 -9.080000 -3.080000 1.160645 40.725395 1659.904907
2.880000 -9.080000 -3.040000 -14.392187 41.320377 1914.508545
2.880000 -9.080000 -3.000000 -32.730637 35.107285 2303.815918
2.880000 -9.080000 -2.960000 -48.033546 16.847664 2591.065430
2.880000 -9.080000 -2.920000 -49.277428 -10.132305 2530.928467
2.880000 -9.080000 -2.880000 -32.013145 -32.117851 2056.397949
2.880000 -9.080000 -2.840000 -5.943009 -36.033825 1333.755859
2.880000 -9.080000 -2.800000 11.888786 -22.372929 641.891174
2.880000 -9.040000 -3.200000 18.802223 27.417698 1105.253784
2.880000 -9.040000 -3.160000 7.806419 43.098747 1918.442261
2.880000 -9.040000 -3.120000 -12.761787 55.012772 3189.268311
2.880000 -9.040000 -3.080000 -42.707565 55.353039 4887.895020
2.880000 -9.040000 -3.040000 -73.230804 35.601723 6630.233398
2.880000 -9.040000 -3.000000 -87.896881 -3.318962 7736.877441
2.880000 -9.040000 -2.960000 -74.270676 -45.677456 7602.563477
2.880000 -9.040000 -2.920000 -36.711281 -69.228241 6140.267578
2.880000 -9.040000 -2.880000 3.609883 -62.459641 3914.238037
2.880000 -9.040000 -2.840000 24.334572 -34.875927 1808.501709
2.880000 -9.040000 -2.800000 19.897919 -9.195406 480.482635
2.880000 -9.000000 -3.200000 -4.843142 23.042686 554.421387
2.880000 -9.000000 -3.160000 -17.011229 39.248474 1829.824707
2.880000 -9.000000 -3.120000 -48.137260 47.272095 4551.846680
2.880000 -9.000000 -3.080000 -87.717392 28.330072 8496.933594
2.880000 -9.000000 -3.040000 -109.398682 -20.933231 12406.271484
2.880000 -9.000000 -3.000000 -91.334885 -78.649025 14527.730469
2.880000 -9.000000 -2.960000 -37.524597 -110.948273 13717.615234
2.880000 -9.000000 -2.920000 21.510614 -99.082809 10280.109375
2.880000 -9.000000 -2.880000 52.150108 -55.673508 5819.173340
2.880000 -9.000000 -2.840000 44.684334 -13.825547 2187.835449
2.880000 -9.000000 -2.800000 18.842501 1.419706 357.055389
2.880000 -8.960000 -3.200000 -9.972723 7.013085 148.638580
2.880000 -8.960000 -3.160000 -29.182091 23.839483 1419.915405
2.880000 -8.960000 -3.120000 -68.211792 17.579573 4961.890137
2.880000 -8.960000 -3.080000 -98.669846 -25.966406 10409.992188
2.880000 -8.960000 -3.040000 -88.454941 -89.332993 15804.660156
2.880000 -8.960000 -3.000000 -32.167011 -132.440521 18575.208984
2.880000 -8.960000 -2.960000 39.628887 -125.144882 17231.689453
2.880000 -8.960000 -2.920000 83.695473 -73.752930 12444.426758
2.880000 -8.960000 -2.880000 79.714752 -15.792346 6603.839844
2.880000 -8.960000 -2.840000 45.112045 12.653459 2195.206787
2.880000 -8.960000 -2.800000 15.845861 6.250629 290.161682
2.880000 -8.920000 -3.200000 0.333597 1.798418 3.345595
2.880000 -8.920000 -3.160000 -28.852848 11.174860 957.364319
2.880000 -8.920000 -3.120000 -63.391052 -14.848907 4238.915527
2.880000 -8.920000 -3.080000 -67.363495 -70.350639 9487.052734
2.880000 -8.920000 -3.040000 -23.629683 -118.925613 14701.664062
2.880000 -8.920000 -3.000000 46.859337 -122.936462 17309.171875
2.880000 -8.920000 -2.960000 99.961998 -76.795441 15889.941406
2.880000 -8.920000 -2.920000 105.159050 -12.526506 11215.338867
2.880000 -8.920000 -2.880000 70.099106 28.231472 5710.900879
2.880000 -8.920000 -2.840000 30.332727 29.283997 1777.626709
2.880000 -8.920000 -2.800000 15.395525 9.350899 324.461487
2.880000 -8.880000 -3.200000 5.399835 13.322948 206.659180
2.880000 -8.880000 -3.160000 -26.518700 6.195271 741.622803
2.880000 -8.880000 -3.120000 -42.391251 -32.730064 2868.275391
2.880000 -8.880000 -3.080000 -18.503815 -77.782188 6392.459961
2.880000 -8.880000 -3.040000 37.056004 -92.517899 9932.708984
2.880000 -8.880000 -3.000000 88.658310 -61.752842 11673.708984
2.880000 -8.880000 -2.960000 102.915192 -5.468010 10621.436523
2.880000 -8.880000 -2.920000 76.516312 38.755882 7356.764648
2.880000 -8.880000 -2.880000 36.387680 48.065708 3634.375488
2.880000 -8.880000 -2.840000 13.328253 31.124840 1146.397949
2.880000 -8.880000 -2.800000 15.241982 15.126886 461.140686
2.880000 -8.840000 -3.200000 -8.038954 24.973627 688.306824
2.880000 -8.840000 -3.160000 -28.556639 1.994859 819.461121
2.880000 -8.840000 -3.120000 -21.221634 -33.349022 1562.515015
2.880000 -8.840000 -3.080000 14.441818 -52.501945 2965.020508
2.880000 -8.840000 -3.040000 54.773037 -38.207275 4459.881836
2.880000 -8.840000 -3.000000 72.031921 0.386131 5188.746582
2.880000 -8.840000 -2.960000 57.729847 36.329330 4652.555176
2.880000 -8.840000 -2.920000 27.879549 48.564812 3135.810303
2.880000 -8.840000 -2.880000 6.452030 38.356941 1512.883545
2.880000 -8.840000 -2.840000 3.897253 24.239477 602.740845
2.880000 -8.840000 -2.800000 10.699265 22.317684 612.553345
2.880000 -8.800000 -3.200000 -29.649069 17.400940 1181.859985
2.880000 -8.800000 -3.160000 -29.608364 -8.418705 947.529785
2.880000 -8.800000 -3.120000 -8.666025 -25.481569 724.410339
2.880000 -8.800000 -3.080000 17.773052 -20.771477 747.335632
2.880000 -8.800000 -3.040000 30.909046 0.669216 955.817017
2.880000 -8.800000 -3.000000 24.634266 21.669033 1076.394043
2.880000 -8.800000 -2.960000 8.798782 28.903175 912.812134
2.880000 -8.800000 -2.920000 -1.944153 23.365919 549.745911
2.880000 -8.800000 -2.880000 -1.801891 16.526093 276.358551
2.880000 -8.800000 -2.840000 2.759532 17.718441 321.558167
2.880000 -8.800000 -2.800000 1.428934 25.578096 656.280884
2.920000 -9.200000 -3.200000 -2.185536 -39.444660 1560.657837
2.920000 -9.200000 -3.160000 4.555514 -22.661446 534.293823
2.920000 -9.200000 -3.120000 -6.169868 -15.291382 271.893616
2.920000 -9.200000 -3.080000 -14.222650 -27.779396 973.978577
2.920000 -9.200000 -3.040000 -0.665487 -45.584579 2078.396729
2.920000 -9.200000 -3.000000 29.378075 -43.483990 2753.928711
2.920000 -9.200000 -2.960000 49.096191 -13.642521 2596.554443
2.920000 -9.200000 -2.920000 36.965912 23.012993 1896.076416
2.920000 -9.200000 -2.880000 0.320358 35.782318 1280.476929
2.920000 -9.200000 -2.840000 -30.120502 14.668592 1122.412354
2.920000 -9.200000 -2.800000 -29.868219 -19.519974 1273.139893
2.920000 -9.160000 -3.200000 25.716152 -33.361710 1774.324219
2.920000 -9.160000 -3.160000 23.273731 -12.772087 704.792786
2.920000 -9.160000 -3.120000 11.154363 -8.051313 189.243454
2.920000 -9.160000 -3.080000 9.291573 -16.246140 350.270355
2.920000 -9.160000 -3.040000 22.853619 -17.991091 845.967285
2.920000 -9.160000 -3.000000 35.372471 -0.352943 1251.336182
2.920000 -9.160000 -2.960000 26.638941 26.470295 1410.309692
2.920000 -9.160000 -2.920000 -3.684112 37.844864 1445.806396
2.920000 -9.160000 -2.880000 -32.879391 20.430645 1498.465576
2.920000 -9.160000 -2.840000 -36.919552 -12.626579 1522.483887
2.920000 -9.160000 -2.800000 -14.513477 -33.804100 1353.358154
2.920000 -9.120000 -3.200000 40.614029 -6.695151 1694.324463
2.920000 -9.120000 -3.160000 30.960447 12.416226 1112.712036
2.920000 -9.120000 -3.120000 17.690060 19.304399 685.598022
2.920000 -9.120000 -3.080000 9.641178 20.784307 524.939758
2.920000 -9.120000 -3.040000 3.394989 25.329880 653.128723
2.920000 -9.120000 -3.000000 -9.909094 30.768463 1044.888428
2.920000 -9.120000 -2.960000 -30.413551 25.876781 1594.592041
2.920000 -9.120000 -2.920000 -45.327812 4.641363 2076.152832
2.920000 -9.120000 -2.880000 -40.847832 -23.330769 2212.870117
2.920000 -9.120000 -2.840000 -17.760071 -39.330799 1862.331787
2.920000 -9.120000 -2.800000 7.037067 -33.305416 1158.770996
2.920000 -9.080000 -3.200000 30.828653 21.205059 1400.060425
2.920000 -9.080000 -3.160000 17.358746 38.717308 1800.355957
2.920000 -9.080000 -3.120000 -4.000853 49.307320 2447.218506
2.920000 -9.080000 -3.080000 -30.875225 49.189903 3372.926025
2.920000 -9.080000 -3.040000 -57.608276 33.956902 4471.784668
2.920000 -9.080000 -3.000000 -73.607430 3.403912 5429.640137
2.920000 -9.080000 -2.960000 -68.567795 -33.198402 5803.676270
2.920000 -9.080000 -2.920000 -41.921200 -59.316193 5275.797852
2.920000 -9.080000 -2.880000 -6.849764 -62.202240 3916.037842
2.920000 -9.080000 -2.840000 17.598148 -43.689796 2218.493164
2.920000 -9.080000 -2.800000 21.033897 -19.645367 828.365234
2.920000 -9.040000 -3.200000 6.892138 30.303080 965.778198
2.920000 -9.040000 -3.160000 -11.295520 48.627998 2492.270996
2.920000 -9.040000 -3.120000 -47.624245 54.841270 5275.633789
2.920000 -9.040000 -3.080000 -89.486717 32.450558 9060.911133
2.920000 -9.040000 -3.040000 -111.230499 -19.276001 12743.788086
2.920000 -9.040000 -3.000000 -93.210197 -77.989632 14770.523438
2.920000 -9.040000 -2.960000 -40.415955 -111.449142 14054.360352
2.920000 -9.040000 -2.920000 17.924797 -102.184753 10763.021484
2.920000 -9.040000 -2.880000 49.955616 -61.818604 6317.103516
2.920000 -9.040000 -2.840000 45.637596 -21.123241 2528.981689
2.920000 -9.040000 -2.800000 22.153572 -4.360057 509.790863
2.920000 -9.000000 -3.200000 -9.270731 19.756485 476.265137
2.920000 -9.000000 -3.160000 -37.055305 37.278061 2762.749512
2.920000 -9.000000 -3.120000 -85.120338 25.281141 7884.608398
2.920000 -9.000000 -3.080000 -119.433929 -29.913670 15159.291016
2.920000 -9.000000 -3.040000 -104.282104 -105.352303 21973.863281
2.920000 -9.000000 -3.000000 -36.437469 -154.153351 25090.945312
2.920000 -9.000000 -2.960000 46.701111 -143.522141 22779.599609
2.920000 -9.000000 -2.920000 95.696045 -83.375412 16109.193359
2.920000 -9.000000 -2.880000 89.345909 -17.897785 8303.022461
2.920000 -9.000000 -2.840000 49.350479 12.587238 2593.908203
2.920000 -9.000000 -2.800000 16.817442 3.568838 295.562958
2.920000 -8.960000 -3.200000 -7.196310 7.584897 109.317535
2.920000 -8.960000 -3.160000 -46.643036 16.083466 2434.250488
2.920000 -8.960000 -3.120000 -91.039864 -21.956417 8770.340820
2.920000 -8.960000 -3.080000 -93.016098 -97.458694 18150.191406
2.920000 -8.960000 -3.040000 -31.264809 -160.883331 26860.935547
2.920000 -8.960000 -3.000000 63.925972 -162.553467 30510.158203
2.920000 -8.960000 -2.960000 132.383606 -97.546783 27040.794922
2.920000 -8.960000 -2.920000 134.726471 -11.438789 18282.068359
2.920000 -8.960000 -2.880000 84.365784 39.554661 8682.156250
2.920000 -8.960000 -2.840000 31.128571 35.977715 2263.383789
2.920000 -8.960000 -2.800000 14.092764 5.736835 231.517258
2.920000 -8.920000 -3.200000 1.950294 10.194722 107.736008
2.920000 -8.920000 -3.160000 -42.302269 0.362215 1789.613159
2.920000 -8.920000 -3.120000 -64.925774 -56.725903 7433.184082
2.920000 -8.920000 -3.080000 -27.967226 -124.088089 16180.019531
2.920000 -8.920000 -3.040000 57.859497 -145.007355 24374.853516
2.920000 -8.920000 -3.000000 136.846710 -94.733368 27701.433594
2.920000 -8.920000 -2.960000 155.589447 -5.121452 24234.304688
2.920000 -8.920000 -2.920000 109.329941 62.847282 15902.817383
2.920000 -8.920000 -2.880000 43.026352 72.468536 7102.956055
2.920000 -8.920000 -2.840000 7.606571 39.422867 1612.022461
2.920000 -8.920000 -2.800000 15.276203 9.815547 329.707336
2.920000 -8.880000 -3.200000 -0.972930 24.060041 579.832214
2.920000 -8.880000 -3.160000 -36.103470 -5.400817 1332.629395
2.920000 -8.880000 -3.120000 -29.393093 -62.613831 4784.445801
2.920000 -8.880000 -3.080000 29.342861 -98.451187 10553.640625
2.920000 -8.880000 -3.040000 102.466415 -75.191231 16153.087891
2.920000 -8.880000 -3.000000 135.893005 -3.088692 18476.447266
2.920000 -8.880000 -2.960000 107.353714 67.458008 16075.403320
2.920000 -8.880000 -2.920000 44.870033 91.076103 10308.175781
2.920000 -8.880000 -2.880000 -1.619963 65.953079 4352.433105
2.920000 -8.880000 -2.840000 -6.304060 29.577536 914.571777
2.920000 -8.880000 -2.800000 13.731371 18.904202 545.919373
2.920000 -8.840000 -3.200000 -20.525854 29.806236 1309.722412
2.920000 -8.840000 -3.160000 -35.038914 -8.851323 1306.071411
2.920000 -8.840000 -3.120000 -7.464720 -47.903191 2350.437500
2.920000 -8.840000 -3.080000 45.951920 -49.931320 4604.715820
2.920000 -8.840000 -3.040000 83.774857 -7.711334 7077.691406
2.920000 -8.840000 -3.000000 76.818420 48.215714 8225.825195
2.920000 -8.840000 -2.960000 33.956055 77.604309 7175.442383
2.920000 -8.840000 -2.920000 -8.381390 66.492989 4491.564941
2.920000 -8.840000 -2.880000 -21.331711 36.322800 1774.387695
2.920000 -8.840000 -2.840000 -8.182925 19.433723 444.629883
2.920000 -8.840000 -2.800000 4.152421 27.310356 763.098145
2.920000 -8.800000 -3.200000 -40.271301 14.417501 1829.642090
2.920000 -8.800000 -3.160000 -34.084114 -17.352465 1462.834839
2.920000 -8.800000 -3.120000 -3.507296 -32.222000 1050.558472
2.920000 -8.800000 -3.080000 27.287447 -17.166927 1039.308105
2.920000 -8.800000 -3.040000 34.493416 14.954998 1413.447754
2.920000 -8.800000 -3.000000 15.957581 38.280888 1720.070801
2.920000 -8.800000 -2.960000 -9.007435 38.154560 1536.904419
2.920000 -8.800000 -2.920000 -19.806087 22.720341 908.494995
2.920000 -8.800000 -2.880000 -13.687233 11.796295 326.492920
2.920000 -8.800000 -2.840000 -5.456262 15.950219 284.180267
2.920000 -8.800000 -2.800000 -10.099441 27.199553 841.814392
2.960000 -9.200000 -3.200000 13.173687 -30.335011 1093.758911
2.960000 -9.200000 -3.160000 11.573920 -18.357599 470.957092
2.960000 -9.200000 -3.120000 4.526121 -18.249191 353.518768
2.960000 -9.200000 -3.080000 7.311525 -27.114040 788.629639
2.960000 -9.200000 -3.040000 23.854345 -28.699177 1392.672607
2.960000 -9.200000 -3.000000 39.795998 -11.232882 1709.899048
2.960000 -9.200000 -2.960000 35.972809 17.304342 1593.483154
2.960000 -9.200000 -2.920000 9.391493 34.233528 1260.134521
2.960000 -9.200000 -2.880000 -20.881199 24.084217 1016.073975
2.960000 -9.200000 -2.840000 -30.621189 -4.946932 962.129333
2.960000 -9.200000 -2.800000 -13.696870 -27.769611 958.755554
2.960000 -9.160000 -3.200000 31.768471 -16.672880 1287.220703
2.960000 -9.160000 -3.160000 25.308760 -3.613008 653.587158
2.960000 -9.160000 -3.120000 18.025034 -0.936685 325.779236
2.960000 -9.160000 -3.080000 18.322639 -0.689524 336.194550
2.960000 -9.160000 -3.040000 21.379570 7.596722 514.796204
2.960000 -9.160000 -3.000000 14.485366 22.717915 725.929443
2.960000 -9.160000 -2.960000 -7.034383 30.453300 976.886047
2.960000 -9.160000 -2.920000 -31.127401 18.177591 1299.339966
2.960000 -9.160000 -2.880000 -38.607998 -9.780987 1586.245239
2.960000 -9.160000 -2.840000 -22.287949 -33.440258 1615.003540
2.960000 -9.160000 -2.800000 4.527127 -35.279831 1265.161377
2.960000 -9.120000 -3.200000 35.018250 8.611353 1300.433228
2.960000 -9.120000 -3.160000 24.025084 23.177795 1114.414795
2.960000 -9.120000 -3.120000 8.850573 30.869160 1031.237671
2.960000 -9.120000 -3.080000 -7.847149 32.633095 1126.496582
2.960000 -9.120000 -3.040000 -25.772724 27.898117 1442.538330
2.960000 -9.120000 -3.000000 -42.208237 13.626701 1967.222290
2.960000 -9.120000 -2.960000 -49.559891 -10.407574 2564.500488
2.960000 -9.120000 -2.920000 -40.457253 -36.327175 2956.453125
2.960000 -9.120000 -2.880000 -16.424904 -50.843491 2854.837891
2.960000 -9.120000 -2.840000 9.796159 -45.731892 2187.370850
2.960000 -9.120000 -2.800000 22.980490 -26.186398 1213.830322
2.960000 -9.080000 -3.200000 19.215935 28.228600 1166.105957
2.960000 -9.080000 -3.160000 0.641211 44.654488 1994.434448
2.960000 -9.080000 -3.120000 -30.991327 48.985554 3360.046875
2.960000 -9.080000 -3.080000 -65.154213 31.059372 5209.755859
2.960000 -9.080000 -3.040000 -84.129585 -8.451954 7149.222656
2.960000 -9.080000 -3.000000 -74.475838 -54.352161 8500.807617
2.960000 -9.080000 -2.960000 -38.164146 -84.636841 8619.897461
2.960000 -9.080000 -2.920000 6.624084 -85.212570 7305.060547
2.960000 -9.080000 -2.880000 37.287132 -60.071117 4998.869141
2.960000 -9.080000 -2.840000 42.422287 -28.027727 2585.203857
2.960000 -9.080000 -2.800000 28.605389 -8.294020 887.059021
2.960000 -9.040000 -3.200000 -2.708437 29.759327 892.953186
2.960000 -9.040000 -3.160000 -33.322090 43.761620 3025.440918
2.960000 -9.040000 -3.120000 -79.030731 28.836582 7077.404785
2.960000 -9.040000 -3.080000 -109.361351 -23.970249 12534.478516
2.960000 -9.040000 -3.040000 -94.862122 -92.802872 17611.195312
2.960000 -9.040000 -3.000000 -34.435196 -137.310577 20039.978516
2.960000 -9.040000 -2.960000 39.512741 -130.111008 18490.130859
2.960000 -9.040000 -2.920000 85.119415 -79.444046 13556.671875
2.960000 -9.040000 -2.880000 83.640007 -21.904575 7475.461426
2.960000 -9.040000 -2.840000 51.446915 8.136421 2712.986328
2.960000 -9.040000 -2.800000 21.955803 4.483399 502.158142
2.960000 -9.000000 -3.200000 -13.866996 17.971827 515.280151
2.960000 -9.000000 -3.160000 -56.503708 20.402143 3608.916504
2.960000 -9.000000 -3.120000 -99.503220 -23.870647 10470.698242
2.960000 -9.000000 -3.080000 -97.063843 -102.673180 19963.171875
2.960000 -9.000000 -3.040000 -30.984877 -165.806442 28451.837891
2.960000 -9.000000 -3.000000 66.406303 -165.375748 31758.935547
2.960000 -9.000000 -2.960000 135.180023 -98.573883 27990.449219
2.960000 -9.000000 -2.920000 137.324249 -11.557518 18991.525391
2.960000 -9.000000 -2.880000 86.832092 40.163124 9152.888672
2.960000 -9.000000 -2.840000 32.909363 37.419487 2483.244141
2.960000 -9.000000 -2.800000 14.271252 7.125519 254.441650
2.960000 -8.960000 -3.200000 -10.649273 9.300411 199.904663
2.960000 -8.960000 -3.160000 -57.109180 -8.071724 3326.611328
2.960000 -8.960000 -3.120000 -76.430450 -75.104462 11482.293945
2.960000 -8.960000 -3.080000 -28.781717 -149.489380 23175.460938
2.960000 -8.960000 -3.040000 71.341690 -168.661606 33536.375000
2.960000 -8.960000 -3.000000 160.290146 -107.095016 37162.273438
2.960000 -8.960000 -2.960000 178.666229 -2.811448 31929.525391
2.960000 -8.960000 -2.920000 122.834946 74.487709 20636.843750
2.960000 -8.960000 -2.880000 45.141289 83.706932 9044.586914
2.960000 -8.960000 -2.840000 3.968773 43.523640 1910.058350
2.960000 -8.960000 -2.800000 13.355259 7.034800 227.851349
2.960000 -8.920000 -3.200000 -5.837197 13.740074 222.862518
2.960000 -8.920000 -3.160000 -42.809914 -23.721058 2395.377441
2.960000 -8.920000 -3.120000 -28.672243 -92.765060 9427.454102
2.960000 -8.920000 -3.080000 48.793568 -133.015884 20074.037109
2.960000 -8.920000 -3.040000 141.837524 -97.659523 29655.265625
2.960000 -8.920000 -3.000000 181.473740 -0.746096 32933.277344
2.960000 -8.920000 -2.960000 139.591522 91.851112 27922.419922
2.960000 -8.920000 -2.920000 53.722374 120.660431 17445.033203
2.960000 -8.920000 -2.880000 -9.460741 83.546539 7069.530273
2.960000 -8.920000 -2.840000 -14.928715 30.892994 1177.243652
2.960000 -8.920000 -2.800000 14.992904 13.179100 398.475830
2.960000 -8.880000 -3.200000 -13.762876 23.650995 748.786316
2.960000 -8.880000 -3.160000 -30.771578 -24.446180 1544.505737
2.960000 -8.880000 -3.120000 8.693020 -74.709297 5657.047363
2.960000 -8.880000 -3.080000 84.864952 -73.333733 12579.896484
2.960000 -8.880000 -3.040000 138.208359 -7.310925 19155.000000
2.960000 -8.880000 -3.000000 123.611450 79.320999 21571.611328
2.960000 -8.880000 -2.960000 52.659046 124.385925 18244.833984
2.960000 -8.880000 -2.920000 -18.125111 103.834068 11110.033203
2.960000 -8.880000 -2.880000 -40.789246 50.026249 4166.388184
2.960000 -8.880000 -2.840000 -17.495949 16.046049 563.583862
2.960000 -8.880000 -2.800000 9.178574 24.214712 670.598511
2.960000 -8.840000 -3.200000 -33.288464 22.058838 1594.714111
2.960000 -8.840000 -3.160000 -29.079697 -22.749271 1363.158203
2.960000 -8.840000 -3.120000 16.968197 -46.438751 2444.477295
2.960000 -8.840000 -3.080000 68.516449 -20.068501 5097.248535
2.960000 -8.840000 -3.040000 80.210236 40.483078 8072.561523
2.960000 -8.840000 -3.000000 40.856659 88.055664 9423.066406
2.960000 -8.840000 -2.960000 -16.533974 88.385574 8085.381836
2.960000 -8.840000 -2.920000 -47.469242 50.661201 4819.886230
2.960000 -8.840000 -2.880000 -37.723732 14.759060 1640.909790
2.960000 -8.840000 -2.840000 -12.546054 10.211712 261.682526
2.960000 -8.840000 -2.800000 -6.701214 29.442049 911.740479
2.960000 -8.800000 -3.200000 -47.497929 1.985146 2259.994141
2.960000 -8.800000 -3.160000 -29.964790 -29.121124 1745.928467
2.960000 -8.800000 -3.120000 6.864779 -32.972401 1134.304443
2.960000 -8.800000 -3.080000 31.620121 -5.387791 1028.860352
2.960000 -8.800000 -3.040000 24.345623 29.519291 1464.097900
2.960000 -8.800000 -3.000000 -5.303795 43.141571 1889.325439
2.960000 -8.800000 -2.960000 -29.557838 29.400726 1738.068604
2.960000 -8.800000 -2.920000 -30.814590 7.781990 1010.098389
2.960000 -8.800000 -2.880000 -17.246912 0.932213 298.324982
2.960000 -8.800000 -2.840000 -11.015434 11.387013 251.003876
2.960000 -8.800000 -2.800000 -23.388039 21.155087 994.538086
3.000000 -9.200000 -3.200000 20.933361 -16.750748 718.793152
3.000000 -9.200000 -3.160000 19.178043 -10.692348 482.123657
3.000000 -9.200000 -3.120000 17.854443 -9.492531 408.889282
3.000000 -9.200000 -3.080000 21.436584 -8.337282 529.037415
3.000000 -9.200000 -3.040000 26.667141 -0.489622 711.376160
3.000000 -9.200000 -3.000000 24.549618 13.855764 794.665894
3.000000 -9.200000 -2.960000 10.092943 25.063000 730.021423
3.000000 -9.200000 -2.920000 -10.139171 22.263222 598.453796
3.000000 -9.200000 -2.880000 -21.873260 4.955091 502.992432
3.000000 -9.200000 -2.840000 -16.069994 -14.363075 464.542664
3.000000 -9.200000 -2.800000 1.755280 -20.603487 427.584656
3.000000 -9.160000 -3.200000 30.608612 -1.960065 940.729004
3.000000 -9.160000 -3.160000 26.329735 7.955645 756.547241
3.000000 -9.160000 -3.120000 19.442490 14.729420 594.966187
3.000000 -9.160000 -3.080000 11.288683 19.527294 508.749573
3.000000 -9.160000 -3.040000 0.445551 22.420212 502.864410
3.000000 -9.160000 -3.000000 -13.625250 19.870110 580.468689
3.000000 -9.160000 -2.960000 -26.271441 7.861946 751.998779
3.000000 -9.160000 -2.920000 -29.061344 -11.716251 981.832275
3.000000 -9.160000 -2.880000 -17.421963 -29.086853 1149.569824
3.000000 -9.160000 -2.840000 2.943481 -33.155670 1107.962524
3.000000 -9.160000 -2.800000 18.699444 -21.553099 814.205261
3.000000 -9.120000 -3.200000 26.511187 18.688139 1052.089600
3.000000 -9.120000 -3.160000 14.142056 32.819435 1277.113159
3.000000 -9.120000 -3.120000 -7.870525 38.489708 1543.402832
3.000000 -9.120000 -3.080000 -32.238041 29.500612 1909.577393
3.000000 -9.120000 -3.040000 -48.377705 6.287228 2379.931641
3.000000 -9.120000 -3.000000 -48.146629 -23.208336 2856.724609
3.000000 -9.120000 -2.960000 -30.675606 -47.068077 3156.396484
3.000000 -9.120000 -2.920000 -3.460491 -55.527142 3095.238525
3.000000 -9.120000 -2.880000 21.214359 -46.387936 2601.889648
3.000000 -9.120000 -2.840000 33.007988 -26.453682 1789.324463
3.000000 -9.120000 -2.800000 29.475340 -7.493172 924.943298
3.000000 -9.080000 -3.200000 8.250937 31.247393 1044.477539
3.000000 -9.080000 -3.160000 -17.949430 43.311707 2198.085938
3.000000 -9.080000 -3.120000 -54.832230 31.926952 4025.903809
3.000000 -9.080000 -3.080000 -79.363686 -7.833591 6359.959961
3.000000 -9.080000 -3.040000 -71.105011 -59.368004 8580.482422
3.000000 -9.080000 -3.000000 -29.662395 -94.520584 9813.998047
3.000000 -9.080000 -2.960000 23.269745 -94.276268 9429.496094
3.000000 -9.080000 -2.920000 59.644539 -62.642136 7481.507812
3.000000 -9.080000 -2.880000 65.170357 -22.189884 4739.566406
3.000000 -9.080000 -2.840000 47.204216 4.036491 2244.531250
3.000000 -9.080000 -2.800000 25.388340 8.381392 714.815552
3.000000 -9.040000 -3.200000 -12.005289 27.520233 901.490173
3.000000 -9.040000 -3.160000 -50.907791 26.400389 3288.583740
3.000000 -9.040000 -3.120000 -86.808197 -14.024439 7732.348145
3.000000 -9.040000 -3.080000 -83.361176 -81.017349 13512.896484
3.000000 -9.040000 -3.040000 -28.206547 -133.438782 18601.517578
3.000000 -9.040000 -3.000000 51.583591 -134.116577 20648.123047
3.000000 -9.040000 -2.960000 108.814835 -81.634644 18504.882812
3.000000 -9.040000 -2.920000 113.820724 -11.810324 13094.640625
3.000000 -9.040000 -2.880000 76.358078 32.468185 6884.739258
3.000000 -9.040000 -2.840000 32.980309 34.983112 2311.519043
3.000000 -9.040000 -2.800000 13.857391 13.651940 378.402771
3.000000 -9.000000 -3.200000 -20.802422 13.694247 620.273193
3.000000 -9.000000 -3.160000 -61.997189 -8.654348 3918.549072
3.000000 -9.000000 -3.120000 -74.687729 -73.112053 10923.628906
3.000000 -9.000000 -3.080000 -26.551779 -139.880646 20271.591797
3.000000 -9.000000 -3.040000 66.355843 -154.396820 28241.476562
3.000000 -9.000000 -3.000000 146.693848 -96.539902 30839.035156
3.000000 -9.000000 -2.960000 162.906982 -1.506891 26540.957031
3.000000 -9.000000 -2.920000 112.738098 69.112656 17486.437500
3.000000 -9.000000 -2.880000 42.239204 79.207184 8057.928223
3.000000 -9.000000 -2.840000 2.718887 44.305237 1970.346313
3.000000 -9.000000 -2.800000 7.871060 10.003736 162.028336
3.000000 -8.960000 -3.200000 -16.969082 4.239702 305.924805
3.000000 -8.960000 -3.160000 -46.429611 -37.453053 3558.439941
3.000000 -8.960000 -3.120000 -24.288296 -104.718224 11555.827148
3.000000 -8.960000 -3.080000 57.498398 -139.049408 22640.804688
3.000000 -8.960000 -3.040000 150.110550 -97.558563 32050.851562
3.000000 -8.960000 -3.000000 186.500839 2.976835 34791.425781
3.000000 -8.960000 -2.960000 141.047211 96.522659 29210.941406
3.000000 -8.960000 -2.920000 52.311653 124.771393 18304.410156
3.000000 -8.960000 -2.880000 -13.202168 86.150467 7596.200195
3.000000 -8.960000 -2.840000 -20.228470 30.725382 1353.239990
3.000000 -8.960000 -2.800000 10.144131 9.218151 187.877701
3.000000 -8.920000 -3.200000 -12.619709 6.542480 202.061096
3.000000 -8.920000 -3.160000 -21.734457 -43.481758 2363.050049
3.000000 -8.920000 -3.120000 27.386395 -91.037872 9037.909180
3.000000 -8.920000 -3.080000 111.417343 -80.582199 18907.314453
3.000000 -8.920000 -3.040000 165.806351 -0.955338 27492.658203
3.000000 -8.920000 -3.000000 142.987427 97.725403 29995.658203
3.000000 -8.920000 -2.960000 57.895546 146.644226 24856.423828
3.000000 -8.920000 -2.920000 -25.228886 119.829918 14995.706055
3.000000 -8.920000 -2.880000 -51.924545 54.420528 5657.752441
3.000000 -8.920000 -2.840000 -23.985828 11.299232 702.992615
3.000000 -8.920000 -2.800000 10.510969 17.479223 416.003723
3.000000 -8.880000 -3.200000 -19.596600 12.607349 542.971924
3.000000 -8.880000 -3.160000 -9.472929 -33.130424 1187.361328
3.000000 -8.880000 -3.120000 46.644287 -52.419418 4923.484863
3.000000 -8.880000 -3.080000 105.362885 -11.878052 11242.425781
3.000000 -8.880000 -3.040000 111.967850 67.871506 17143.341797
3.000000 -8.880000 -3.000000 53.752846 127.368118 19112.005859
3.000000 -8.880000 -2.960000 -26.077595 123.101486 15834.016602
3.000000 -8.880000 -2.920000 -68.863335 67.301918 9271.707031
3.000000 -8.880000 -2.880000 -54.645805 13.198662 3160.368652
3.000000 -8.880000 -2.840000 -16.077993 2.136106 263.064819
3.000000 -8.880000 -2.800000 -0.839869 26.791538 718.491882
3.000000 -8.840000 -3.200000 -35.385933 7.571456 1309.491211
3.000000 -8.840000 -3.160000 -13.539141 -26.642014 893.105225
3.000000 -8.840000 -3.120000 33.052311 -25.152134 1725.084961
3.000000 -8.840000 -3.080000 60.931000 19.237762 4082.678223
3.000000 -8.840000 -3.040000 40.441528 71.762993 6785.444336
3.000000 -8.840000 -3.000000 -14.141457 88.368073 8008.896973
3.000000 -8.840000 -2.960000 -58.375046 58.192932 6794.063477
3.000000 -8.840000 -2.920000 -61.129734 12.393677 3890.447754
3.000000 -8.840000 -2.880000 -32.945084 -8.895126 1164.501831
3.000000 -8.840000 -2.840000 -11.255350 3.827816 141.335083
3.000000 -8.840000 -2.800000 -20.061657 23.704342 964.365906
3.000000 -8.800000 -3.200000 -44.238342 -13.293904 2133.758789
3.000000 -8.800000 -3.160000 -18.315361 -35.038628 1563.157959
3.000000 -8.800000 -3.120000 14.616863 -25.635153 870.813782
3.000000 -8.800000 -3.080000 25.008549 6.296419 665.072388
3.000000 -8.800000 -3.040000 5.303680 31.448997 1017.168457
3.000000 -8.800000 -3.000000 -23.842457 29.343632 1429.511475
3.000000 -8.800000 -2.960000 -36.111076 7.443687 1359.418335
3.000000 -8.800000 -2.920000 -26.166592 -9.447109 773.938354
3.000000 -8.800000 -2.880000 -12.468584 -6.746515 200.981064
3.000000 -8.800000 -2.840000 -14.810775 5.415451 248.686157
3.000000 -8.800000 -2.800000 -32.098835 5.319049 1058.627441
3.040000 -9.200000 -3.200000 20.179340 -3.069644 416.628479
3.040000 -9.200000 -3.160000 22.146317 2.257896 495.557434
3.040000 -9.200000 -3.120000 20.807953 9.164870 516.965759
3.040000 -9.200000 -3.080000 15.786022 14.970242 473.306641
3.040000 -9.200000 -3.040000 8.542713 17.843548 391.370178
3.040000 -9.200000 -3.000000 0.800065 17.316921 300.515869
3.040000 -9.200000 -2.960000 -5.990570 13.394497 215.299484
3.040000 -9.200000 -2.920000 -9.996113 6.472523 141.815826
3.040000 -9.200000 -2.880000 -9.174885 -1.484590 86.382523
3.040000 -9.200000 -2.840000 -3.339643 -6.585768 54.525555
3.040000 -9.200000 -2.800000 4.042686 -5.412216 45.635384
3.040000 -9.160000 -3.200000 24.058216 9.451735 668.133118
3.040000 -9.160000 -3.160000 20.523203 21.750246 894.275024
3.040000 -9.160000 -3.120000 7.256691 30.416681 977.834045
3.040000 -9.160000 -3.080000 -10.353089 28.543268 921.904602
3.040000 -9.160000 -3.040000 -23.492870 15.800198 801.561218
3.040000 -9.160000 -3.000000 -26.228363 -1.775932 691.080933
3.040000 -9.160000 -2.960000 -18.654751 -16.444769 618.430176
3.040000 -9.160000 -2.920000 -5.422413 -23.221880 568.658325
3.040000 -9.160000 -2.880000 7.644468 -21.271160 510.900146
3.040000 -9.160000 -2.840000 15.932878 -12.940611 421.316040
3.040000 -9.160000 -2.800000 17.037466 -2.461565 296.334534
3.040000 -9.120000 -3.200000 15.825068 24.941429 872.507690
3.040000 -9.120000 -3.160000 -1.406240 38.245621 1464.705078
3.040000 -9.120000 -3.120000 -28.995424 34.614891 2038.925293
3.040000 -9.120000 -3.080000 -49.509083 9.659161 2544.448486
3.040000 -9.120000 -3.040000 -48.011757 -24.986219 2929.439941
3.040000 -9.120000 -3.000000 -24.020298 -50.171135 3094.117676
3.040000 -9.120000 -2.960000 8.595169 -53.493412 2935.422119
3.040000 -9.120000 -2.920000 32.648384 -37.094593 2441.925781
3.040000 -9.120000 -2.880000 39.386971 -13.674404 1738.322876
3.040000 -9.120000 -2.840000 31.821281 3.978016 1028.418579
3.040000 -9.120000 -2.800000 19.271870 10.615860 484.101440
3.040000 -9.080000 -3.200000 -3.514501 30.887428 966.384949
3.040000 -9.080000 -3.160000 -34.731937 32.445183 2258.997559
3.040000 -9.080000 -3.120000 -63.982285 3.493187 4105.935059
3.040000 -9.080000 -3.080000 -64.234306 -45.637047 6208.786133
3.040000 -9.080000 -3.040000 -27.091816 -84.924255 7946.095215
3.040000 -9.080000 -3.000000 28.135899 -88.422211 8610.116211
3.040000 -9.080000 -2.960000 69.212814 -55.133450 7830.110840
3.040000 -9.080000 -2.920000 76.078041 -8.542892 5860.849121
3.040000 -9.080000 -2.880000 54.076736 23.481075 3475.654297
3.040000 -9.080000 -2.840000 25.416794 29.480740 1515.127441
3.040000 -9.080000 -2.800000 9.153014 18.552757 427.982483
3.040000 -9.040000 -3.200000 -21.564949 21.040173 907.735901
3.040000 -9.040000 -3.160000 -55.527809 1.191216 3084.756592
3.040000 -9.040000 -3.120000 -65.129852 -50.943951 6837.183594
3.040000 -9.040000 -3.080000 -27.344454 -103.248444 11407.959961
3.040000 -9.040000 -3.040000 43.846405 -114.931610 15131.782227
3.040000 -9.040000 -3.000000 105.213333 -72.224968 16286.291016
3.040000 -9.040000 -2.960000 119.206390 -1.561796 14212.602539
3.040000 -9.040000 -2.920000 84.100449 52.419235 9820.661133
3.040000 -9.040000 -2.880000 32.252014 63.275829 5044.022949
3.040000 -9.040000 -2.840000 0.090321 40.422241 1633.965820
3.040000 -9.040000 -2.800000 -0.972908 14.506337 211.380371
3.040000 -9.000000 -3.200000 -25.869503 3.222542 679.615967
3.040000 -9.000000 -3.160000 -46.851830 -35.609596 3463.137207
3.040000 -9.000000 -3.120000 -23.678902 -91.482704 8929.775391
3.040000 -9.000000 -3.080000 46.471279 -117.037880 15857.445312
3.040000 -9.000000 -3.040000 122.439194 -80.280090 21436.250000
3.040000 -9.000000 -3.000000 151.224213 3.058788 22878.117188
3.040000 -9.000000 -2.960000 113.829926 79.834534 19330.804688
3.040000 -9.000000 -2.920000 41.295734 104.110352 12544.302734
3.040000 -9.000000 -2.880000 -13.964634 74.215202 5702.907715
3.040000 -9.000000 -2.840000 -23.285023 28.513748 1355.226074
3.040000 -9.000000 -2.800000 -0.995325 6.959882 49.430626
3.040000 -8.960000 -3.200000 -17.005905 -7.493464 345.352814
3.040000 -8.960000 -3.160000 -16.582190 -52.023323 2981.395020
3.040000 -8.960000 -3.120000 32.921715 -88.630676 8939.236328
3.040000 -8.960000 -3.080000 107.860855 -72.167747 16842.148438
3.040000 -8.960000 -3.040000 152.426773 3.030295 23243.105469
3.040000 -8.960000 -3.000000 127.913422 91.530609 24739.695312
3.040000 -8.960000 -2.960000 49.493484 134.051865 20419.507812
3.040000 -8.960000 -2.920000 -26.370134 109.023361 12581.477539
3.040000 -8.960000 -2.880000 -52.116409 48.911697 5108.474609
3.040000 -8.960000 -2.840000 -28.253677 6.839161 845.044373
3.040000 -8.960000 -2.800000 4.552537 7.942957 83.816162
3.040000 -8.920000 -3.200000 -8.677958 -4.477454 95.354538
3.040000 -8.920000 -3.160000 9.147880 -41.097359 1772.676636
3.040000 -8.920000 -3.120000 64.489532 -49.028004 6562.645020
3.040000 -8.920000 -3.080000 115.811783 -1.594307 13414.911133
3.040000 -8.920000 -3.040000 114.091873 78.363892 19157.855469
3.040000 -8.920000 -3.000000 50.823250 134.062836 20555.845703
3.040000 -8.920000 -2.960000 -30.671764 125.649551 16728.566406
3.040000 -8.920000 -2.920000 -73.704674 66.519203 9857.183594
3.040000 -8.920000 -2.880000 -58.989243 8.971493 3560.218506
3.040000 -8.920000 -2.840000 -17.948122 -5.750729 355.205963
3.040000 -8.920000 -2.800000 2.391371 17.100548 298.147400
3.040000 -8.880000 -3.200000 -13.091902 2.715835 178.773651
3.040000 -8.880000 -3.160000 11.740406 -21.343708 593.390991
3.040000 -8.880000 -3.120000 55.318863 -9.086834 3142.747070
3.040000 -8.880000 -3.080000 74.567688 43.229656 7429.143555
3.040000 -8.880000 -3.040000 42.100563 97.864182 11349.855469
3.040000 -8.880000 -3.000000 -23.786270 109.396240 12533.324219
3.040000 -8.880000 -2.960000 -74.096512 68.591461 10195.082031
3.040000 -8.880000 -2.920000 -75.156647 11.301765 5776.251465
3.040000 -8.880000 -2.880000 -39.111740 -16.925911 1816.214722
3.040000 -8.880000 -2.840000 -8.495304 -4.085311 88.859955
3.040000 -8.880000 -2.800000 -12.299562 20.809679 584.322021
3.040000 -8.840000 -3.200000 -26.677589 -1.803385 714.945984
3.040000 -8.840000 -3.160000 -1.587606 -16.861774 286.839935
3.040000 -8.840000 -3.120000 27.076275 0.667416 733.570068
3.040000 -8.840000 -3.080000 27.082760 39.064400 2259.503174
3.040000 -8.840000 -3.040000 -7.555889 63.168610 4047.364746
3.040000 -8.840000 -3.000000 -48.946686 49.629494 4858.864746
3.040000 -8.840000 -2.960000 -62.966370 10.618889 4077.524414
3.040000 -8.840000 -2.920000 -43.231800 -19.195000 2237.436523
3.040000 -8.840000 -2.880000 -15.713425 -18.363533 584.131042
3.040000 -8.840000 -2.840000 -9.889763 0.835030 98.504684
3.040000 -8.840000 -2.800000 -27.913967 7.992027 843.062073
3.040000 -8.800000 -3.200000 -32.258255 -22.183788 1532.715454
3.040000 -8.800000 -3.160000 -6.842475 -31.721846 1053.094971
3.040000 -8.800000 -3.120000 14.219933 -16.152630 463.113922
3.040000 -8.800000 -3.080000 12.142200 8.240534 215.339417
3.040000 -8.800000 -3.040000 -8.169327 17.967957 389.585388
3.040000 -8.800000 -3.000000 -24.949713 6.542675 665.294739
3.040000 -8.800000 -2.960000 -23.616306 -10.716682 672.577209
3.040000 -8.800000 -2.920000 -11.283077 -15.557022 369.328766
3.040000 -8.800000 -2.880000 -6.411829 -7.421766 96.194168
3.040000 -8.800000 -2.840000 -16.225157 -2.937936 271.887177
3.040000 -8.800000 -2.800000 -27.764851 -15.520145 1011.761841
3.080000 -9.200000 -3.200000 12.399836 5.682484 186.046539
3.080000 -9.200000 -3.160000 15.514515 14.851513 461.267609
3.080000 -9.200000 -3.120000 8.245457 24.330006 659.936707
3.080000 -9.200000 -3.080000 -4.878617 24.752695 636.496826
3.080000 -9.200000 -3.040000 -13.580839 15.408165 421.850739
3.080000 -9.200000 -3.000000 -12.297306 4.529543 171.740494
3.080000 -9.200000 -2.960000 -5.120512 0.460560 26.431759
3.080000 -9.200000 -2.920000 -0.475624 3.606215 13.231005
3.080000 -9.200000 -2.880000 -2.075735 7.490074 60.409889
3.080000 -9.200000 -2.840000 -6.119870 6.833673 84.151894
3.080000 -9.200000 -2.800000 -7.083899 3.050133 59.484943
3.080000 -9.160000 -3.200000 13.340393 15.337480 413.204346
3.080000 -9.160000 -3.160000 5.585034 29.898756 925.128235
3.080000 -9.160000 -3.120000 -14.437933 32.954571 1294.457642
3.080000 -9.160000 -3.080000 -31.780067 18.203522 1341.340820
3.080000 -9.160000 -3.040000 -32.811932 -5.239674 1104.077026
3.080000 -9.160000 -3.000000 -17.378628 -21.326534 756.837769
3.080000 -9.160000 -2.960000 2.198084 -21.309858 458.941650
3.080000 -9.160000 -2.920000 13.110332 -9.780383 267.536713
3.080000 -9.160000 -2.880000 12.408892 1.998154 157.973206
3.080000 -9.160000 -2.840000 6.396127 7.065262 90.828369
3.080000 -9.160000 -2.800000 1.982086 6.859187 50.977112
3.080000 -9.120000 -3.200000 3.055223 25.522562 660.735596
3.080000 -9.120000 -3.160000 -19.259245 33.221828 1474.608398
3.080000 -9.120000 -3.120000 -43.936447 17.108530 2223.113281
3.080000 -9.120000 -3.080000 -48.944798 -16.416359 2665.090088
3.080000 -9.120000 -3.040000 -26.765705 -44.886272 2731.180420
3.080000 -9.120000 -3.000000 8.774632 -49.048168 2482.717041
3.080000 -9.120000 -2.960000 34.818825 -28.557497 2027.881226
3.080000 -9.120000 -2.920000 38.419132 -0.151114 1476.052490
3.080000 -9.120000 -2.880000 24.554932 18.119717 931.268799
3.080000 -9.120000 -2.840000 7.981392 20.630043 489.301270
3.080000 -9.120000 -2.800000 -0.859926 14.413322 208.483337
3.080000 -9.080000 -3.200000 -15.017021 24.319740 816.960693
3.080000 -9.080000 -3.160000 -42.894238 13.349519 2018.125244
3.080000 -9.080000 -3.120000 -54.139133 -23.256893 3471.928711
3.080000 -9.080000 -3.080000 -31.108959 -61.883453 4797.329102
3.080000 -9.080000 -3.040000 16.531906 -72.990631 5600.936035
3.080000 -9.080000 -3.000000 58.612907 -46.690540 5615.479492
3.080000 -9.080000 -2.960000 69.459190 -0.894670 4825.379395
3.080000 -9.080000 -2.920000 47.854576 34.729755 3496.216309
3.080000 -9.080000 -2.880000 14.681778 42.970146 2061.988037
3.080000 -9.080000 -2.840000 -7.074383 29.525177 921.782959
3.080000 -9.080000 -2.800000 -10.122224 12.886885 268.531219
3.080000 -9.040000 -3.200000 -27.106190 8.504893 807.078735
3.080000 -9.040000 -3.160000 -44.284302 -21.070408 2405.061523
3.080000 -9.040000 -3.120000 -28.387360 -63.005547 4775.541016
3.080000 -9.040000 -3.080000 21.502613 -82.815376 7320.749023
3.080000 -9.040000 -3.040000 75.600273 -58.398689 9125.808594
3.080000 -9.040000 -3.000000 97.056526 -1.185544 9421.375000
3.080000 -9.040000 -2.960000 72.869240 52.332329 8048.598633
3.080000 -9.040000 -2.920000 23.651604 70.865829 5581.364258
3.080000 -9.040000 -2.880000 -15.766468 52.345150 2988.596191
3.080000 -9.040000 -2.840000 -25.472235 20.958632 1088.098877
3.080000 -9.040000 -2.800000 -12.835053 2.877918 173.021011
3.080000 -9.000000 -3.200000 -22.605526 -10.535742 622.011658
3.080000 -9.000000 -3.160000 -18.955803 -45.420959 2422.385986
3.080000 -9.000000 -3.120000 20.578859 -71.355522 5515.099609
3.080000 -9.000000 -3.080000 76.471771 -57.120972 9110.737305
3.080000 -9.000000 -3.040000 108.491959 -0.888230 11771.293945
3.080000 -9.000000 -3.000000 90.211784 63.979088 12231.490234
3.080000 -9.000000 -2.960000 33.036873 95.626236 10235.811523
3.080000 -9.000000 -2.920000 -23.326630 78.637428 6727.977051
3.080000 -9.000000 -2.880000 -44.941780 34.779369 3229.368164
3.080000 -9.000000 -2.840000 -30.168705 0.910530 910.979797
3.080000 -9.000000 -2.800000 -5.377046 -3.496861 41.140656
3.080000 -8.960000 -3.200000 -6.520413 -16.970339 330.508179
3.080000 -8.960000 -3.160000 13.671168 -41.731522 1928.420776
3.080000 -8.960000 -3.120000 58.146500 -41.260307 5083.428223
3.080000 -8.960000 -3.080000 94.786774 0.328753 8984.640625
3.080000 -8.960000 -3.040000 89.149323 63.219421 11944.296875
3.080000 -8.960000 -3.000000 37.481853 105.030609 12436.318359
3.080000 -8.960000 -2.960000 -26.920868 97.195747 10171.747070
3.080000 -8.960000 -2.920000 -61.720840 50.080544 6317.522949
3.080000 -8.960000 -2.880000 -51.700619 2.590138 2679.662598
3.080000 -8.960000 -2.840000 -18.814688 -13.292589 530.685425
3.080000 -8.960000 -2.800000 1.800322 1.351983 5.069016
3.080000 -8.920000 -3.200000 4.093385 -7.482339 72.741196
3.080000 -8.920000 -3.160000 27.493237 -17.261419 1053.834717
3.080000 -8.920000 -3.120000 58.792839 1.770493 3459.732666
3.080000 -8.920000 -3.080000 66.263908 48.022694 6697.084961
3.080000 -8.920000 -3.040000 32.487511 90.584854 9261.054688
3.080000 -8.920000 -3.000000 -25.172882 95.349709 9725.241211
3.080000 -8.920000 -2.960000 -67.262886 57.256458 7802.597656
3.080000 -8.920000 -2.920000 -67.321136 6.099754 4569.342285
3.080000 -8.920000 -2.880000 -35.109810 -20.811018 1665.797241
3.080000 -8.920000 -2.840000 -5.136366 -12.266769 176.855881
3.080000 -8.920000 -2.800000 -2.753808 9.817487 103.966507
3.080000 -8.880000 -3.200000 -2.002679 3.732197 17.940018
3.080000 -8.880000 -3.160000 15.562580 1.791082 245.401871
3.080000 -8.880000 -3.120000 30.223797 22.866444 1436.352173
3.080000 -8.880000 -3.080000 19.289513 54.679306 3361.911621
3.080000 -8.880000 -3.040000 -17.973366 68.757843 5050.683105
3.080000 -8.880000 -3.000000 -55.872768 48.496452 5473.672363
3.080000 -8.880000 -2.960000 -65.602028 7.325535 4357.289551
3.080000 -8.880000 -2.920000 -43.178993 -23.074894 2396.876221
3.080000 -8.880000 -2.880000 -12.926674 -23.254198 707.856628
3.080000 -8.880000 -2.840000 -2.605129 -3.881092 21.849575
3.080000 -8.880000 -2.800000 -16.068033 7.134075 309.076721
3.080000 -8.840000 -3.200000 -16.739441 -0.643185 280.622589
3.080000 -8.840000 -3.160000 -2.709160 -3.161530 17.334824
3.080000 -8.840000 -3.120000 5.142052 10.955040 146.453598
3.080000 -8.840000 -3.080000 -6.202976 26.855753 759.708374
3.080000 -8.840000 -3.040000 -29.098423 25.410263 1492.399658
3.080000 -8.840000 -3.000000 -42.391064 4.359196 1816.004883
3.080000 -8.840000 -2.960000 -33.892265 -18.499050 1490.900513
3.080000 -8.840000 -2.920000 -13.521383 -24.135986 765.373657
3.080000 -8.840000 -2.880000 -2.362923 -12.659251 165.840042
3.080000 -8.840000 -2.840000 -9.456363 -2.726710 96.857750
3.080000 -8.840000 -2.800000 -21.868023 -10.497055 588.398560
3.080000 -8.800000 -3.200000 -19.580181 -21.292255 836.743652
3.080000 -8.800000 -3.160000 -1.905087 -23.572899 559.310913
3.080000 -8.800000 -3.120000 8.177494 -11.992785 210.698273
3.080000 -8.800000 -3.080000 4.044632 -0.384354 16.506775
3.080000 -8.800000 -3.040000 -5.688089 0.163132 32.380974
3.080000 -8.800000 -3.000000 -8.709011 -7.405724 130.691620
3.080000 -8.800000 -2.960000 -3.457958 -11.766356 150.404602
3.080000 -8.800000 -2.920000 0.404602 -8.263405 68.447563
3.080000 -8.800000 -2.880000 -4.418627 -5.000277 44.527031
3.080000 -8.800000 -2.840000 -11.925287 -12.477543 297.901550
3.080000 -8.800000 -2.800000 -8.287617 -28.909832 904.462952
3.120000 -9.200000 -3.200000 2.711251 6.080938 44.328693
3.120000 -9.200000 -3.160000 2.416691 18.453686 346.378906
3.120000 -9.200000 -3.120000 -10.366795 24.141914 690.302490
3.120000 -9.200000 -3.080000 -23.001663 15.339094 764.364380
3.120000 -9.200000 -3.040000 -22.615662 -0.388509 511.619080
3.120000 -9.200000 -3.000000 -9.799335 -8.129053 162.108459
3.120000 -9.200000 -2.960000 2.161520 -1.360269 6.522499
3.120000 -9.200000 -2.920000 1.432975 11.498997 134.280350
3.120000 -9.200000 -2.880000 -10.226057 16.498539 376.774017
3.120000 -9.200000 -2.840000 -20.229939 8.871710 487.957672
3.120000 -9.200000 -2.800000 -19.110378 -2.843797 373.293732
3.120000 -9.160000 -3.200000 2.257782 13.232481 180.196136
3.120000 -9.160000 -3.160000 -11.024446 25.063511 749.718018
3.120000 -9.160000 -3.120000 -30.737221 18.585117 1290.183350
3.120000 -9.160000 -3.080000 -37.482063 -3.565756 1417.619629
3.120000 -9.160000 -3.040000 -23.479452 -23.205051 1089.759033
3.120000 -9.160000 -3.000000 -0.057251 -24.338093 592.346069
3.120000 -9.160000 -2.960000 13.850977 -8.091328 257.319153
3.120000 -9.160000 -2.920000 9.738583 9.853380 191.929092
3.120000 -9.160000 -2.880000 -4.192598 15.434065 255.788239
3.120000 -9.160000 -2.840000 -13.534332 8.681372 258.544373
3.120000 -9.160000 -2.800000 -12.423974 0.562640 154.671692
3.120000 -9.120000 -3.200000 -7.715867 18.080812 386.450378
3.120000 -9.120000 -3.160000 -29.703674 17.140350 1176.099854
3.120000 -9.120000 -3.120000 -43.179008 -5.619177 1896.001953
3.120000 -9.120000 -3.080000 -32.052921 -33.505661 2150.019043
3.120000 -9.120000 -3.040000 -1.776158 -43.468758 1892.687622
3.120000 -9.120000 -3.000000 25.476641 -27.263847 1392.376587
3.120000 -9.120000 -2.960000 30.995266 1.832030 964.062805
3.120000 -9.120000 -2.920000 15.096815 22.336754 726.844421
3.120000 -9.120000 -2.880000 -6.012798 23.583229 592.322449
3.120000 -9.120000 -2.840000 -16.877546 12.223394 434.262939
3.120000 -9.120000 -2.800000 -15.415530 2.125031 242.154327
3.120000 -9.080000 -3.200000 -20.677538 11.097834 550.722473
3.120000 -9.080000 -3.160000 -37.613838 -6.359349 1455.242065
3.120000 -9.080000 -3.120000 -32.231255 -36.053009 2338.673340
3.120000 -9.080000 -3.080000 -1.800096 -53.176205 2830.948975
3.120000 -9.080000 -3.040000 33.873661 -40.927303 2822.469238
3.120000 -9.080000 -3.000000 49.292534 -5.934873 2464.976562
3.120000 -9.080000 -2.960000 35.052151 27.657795 1993.606934
3.120000 -9.080000 -2.920000 4.402983 39.114037 1549.294067
3.120000 -9.080000 -2.880000 -20.163845 27.048199 1138.185669
3.120000 -9.080000 -2.840000 -26.141190 6.894006 730.889160
3.120000 -9.080000 -2.800000 -18.332821 -5.176239 362.885773
3.120000 -9.040000 -3.200000 -23.309071 -6.080737 580.288086
3.120000 -9.040000 -3.160000 -23.652203 -30.373981 1482.005371
3.120000 -9.040000 -3.120000 0.618490 -49.977707 2498.153809
3.120000 -9.040000 -3.080000 36.948437 -43.846970 3287.743652
3.120000 -9.040000 -3.040000 59.307091 -10.100857 3619.358398
3.120000 -9.040000 -3.000000 50.209602 30.623318 3458.791748
3.120000 -9.040000 -2.960000 15.732674 51.864243 2937.416748
3.120000 -9.040000 -2.920000 -20.112354 42.849709 2240.604248
3.120000 -9.040000 -2.880000 -35.736992 15.474172 1516.582520
3.120000 -9.040000 -2.840000 -28.209311 -8.142574 862.066711
3.120000 -9.040000 -2.800000 -11.847063 -14.660015 355.268951
3.120000 -9.000000 -3.200000 -10.043154 -19.325405 474.336212
3.120000 -9.000000 -3.160000 4.750484 -35.324341 1270.376221
3.120000 -9.000000 -3.120000 33.828205 -34.357712 2324.799805
3.120000 -9.000000 -3.080000 57.095810 -7.970801 3323.465088
3.120000 -9.000000 -3.040000 54.186974 31.294260 3915.558594
3.120000 -9.000000 -3.000000 22.848661 58.090702 3896.591064
3.120000 -9.000000 -2.960000 -17.599722 54.806641 3313.518066
3.120000 -9.000000 -2.920000 -41.636223 26.031128 2411.194824
3.120000 -9.000000 -2.880000 -37.983334 -6.064397 1479.510498
3.120000 -9.000000 -2.840000 -16.997368 -20.839100 723.178589
3.120000 -9.000000 -2.800000 0.680628 -15.137074 229.594254
3.120000 -8.960000 -3.200000 8.440004 -15.736531 318.872070
3.120000 -8.960000 -3.160000 25.440941 -16.596066 922.670837
3.120000 -8.960000 -3.120000 42.941696 -0.246423 1844.049927
3.120000 -8.960000 -3.080000 44.049557 29.640051 2818.895996
3.120000 -8.960000 -3.040000 20.964073 54.951553 3459.165527
3.120000 -8.960000 -3.000000 -15.494726 56.942032 3482.481445
3.120000 -8.960000 -2.960000 -42.666065 32.755463 2893.313477
3.120000 -8.960000 -2.920000 -44.335800 -1.021765 1966.707153
3.120000 -8.960000 -2.880000 -24.063385 -21.937611 1060.305298
3.120000 -8.960000 -2.840000 -1.137646 -20.292700 413.087921
3.120000 -8.960000 -2.800000 6.925202 -5.776180 81.322685
3.120000 -8.920000 -3.200000 14.396562 1.264178 208.859131
3.120000 -8.920000 -3.160000 22.051800 8.604972 560.327393
3.120000 -8.920000 -3.120000 23.432455 25.003866 1174.273193
3.120000 -8.920000 -3.080000 10.056179 42.147293 1877.520996
3.120000 -8.920000 -3.040000 -15.500906 46.015205 2357.677246
3.120000 -8.920000 -3.000000 -38.500397 29.700874 2364.422363
3.120000 -8.920000 -2.960000 -43.444160 1.732626 1890.396973
3.120000 -8.920000 -2.920000 -28.049076 -19.642923 1172.595093
3.120000 -8.920000 -2.880000 -5.914015 -22.024010 520.032593
3.120000 -8.920000 -2.840000 5.616901 -9.621096 124.115067
3.120000 -8.920000 -2.800000 1.091417 1.497185 3.432754
3.120000 -8.880000 -3.200000 2.099469 13.262166 180.292816
3.120000 -8.880000 -3.160000 1.187428 16.754097 282.109741
3.120000 -8.880000 -3.120000 -3.952080 22.669071 529.505737
3.120000 -8.880000 -3.080000 -15.902039 24.651379 860.565308
3.120000 -8.880000 -3.040000 -29.013651 16.111372 1101.368164
3.120000 -8.880000 -3.000000 -33.076687 -1.240562 1095.606201
3.120000 -8.880000 -2.960000 -23.521683 -16.671661 831.213867
3.120000 -8.880000 -2.920000 -7.370661 -19.877661 449.448029
3.120000 -8.880000 -2.880000 2.564290 -11.393806 136.394409
3.120000 -8.880000 -2.840000 0.227337 -2.577644 6.695932
3.120000 -8.880000 -2.800000 -7.397278 -4.196560 72.330833
3.120000 -8.840000 -3.200000 -13.897554 5.734229 226.023392
3.120000 -8.840000 -3.160000 -12.948870 1.855639 171.116623
3.120000 -8.840000 -3.120000 -12.625593 0.666012 159.849182
3.120000 -8.840000 -3.080000 -14.421474 -1.742559 211.015442
3.120000 -8.840000 -3.040000 -14.597943 -7.624809 271.237671
3.120000 -8.840000 -3.000000 -9.416917 -13.458351 269.805542
3.120000 -8.840000 -2.960000 -1.201490 -13.592430 186.197723
3.120000 -8.840000 -2.920000 2.976660 -7.837759 70.290970
3.120000 -8.840000 -2.880000 -0.491906 -3.406573 11.846714
3.120000 -8.840000 -2.840000 -6.021207 -7.552088 93.288963
3.120000 -8.840000 -2.800000 -3.375391 -18.358688 348.434692
3.120000 -8.800000 -3.200000 -12.528131 -14.694758 372.890015
3.120000 -8.800000 -3.160000 -3.066109 -17.281254 308.042755
3.120000 -8.800000 -3.120000 3.820927 -14.358891 220.777252
3.120000 -8.800000 -3.080000 7.022925 -10.497622 159.521530
3.120000 -8.800000 -3.040000 8.962278 -7.273460 133.225662
3.120000 -8.800000 -3.000000 10.153601 -3.025331 112.248238
3.120000 -8.800000 -2.960000 7.778599 2.011675 64.553436
3.120000 -8.800000 -2.920000 0.843506 3.003855 9.734646
3.120000 -8.800000 -2.880000 -4.989263 -4.594437 46.001587
3.120000 -8.800000 -2.840000 -0.718362 -17.383905 302.716217
3.120000 -8.800000 -2.800000 16.047638 -23.719263 820.130127
3.160000 -9.200000 -3.200000 -2.250832 -0.417239 5.240331
3.160000 -9.200000 -3.160000 -7.030813 11.051165 171.560577
3.160000 -9.200000 -3.120000 -19.673485 10.654192 500.557800
3.160000 -9.200000 -3.080000 -24.969830 -1.847746 626.906555
3.160000 -9.200000 -3.040000 -15.896275 -12.942333 420.195526
3.160000 -9.200000 -3.000000 -1.451557 -10.146213 105.052650
3.160000 -9.200000 -2.960000 2.916672 4.234139 26.434908
3.160000 -9.200000 -2.920000 -8.036029 15.298717 298.628510
3.160000 -9.200000 -2.880000 -23.685913 11.331237 689.419373
3.160000 -9.200000 -2.840000 -28.847725 -4.012865 848.294312
3.160000 -9.200000 -2.800000 -19.583138 -16.066866 641.643433
3.160000 -9.160000 -3.200000 -3.129879 4.426233 29.387684
3.160000 -9.160000 -3.160000 -17.509251 10.134056 409.272949
3.160000 -9.160000 -3.120000 -29.769119 -1.465441 888.347961
3.160000 -9.160000 -3.080000 -25.390806 -19.505693 1025.165161
3.160000 -9.160000 -3.040000 -6.833397 -25.955786 720.398132
3.160000 -9.160000 -3.000000 9.026617 -14.074490 279.571075
3.160000 -9.160000 -2.960000 8.120318 5.057204 91.514885
3.160000 -9.160000 -2.920000 -7.146677 14.279066 254.966721
3.160000 -9.160000 -2.880000 -21.573891 7.417284 520.448853
3.160000 -9.160000 -2.840000 -23.251188 -6.081944 577.607788
3.160000 -9.160000 -2.800000 -14.600317 -12.603292 372.012238
3.160000 -9.120000 -3.200000 -10.123434 5.326489 130.855408
3.160000 -9.120000 -3.160000 -25.523703 -0.820473 652.132568
3.160000 -9.120000 -3.120000 -27.785324 -19.723225 1161.029785
3.160000 -9.120000 -3.080000 -11.511484 -33.519802 1256.091431
3.160000 -9.120000 -3.040000 10.597837 -28.191063 907.050171
3.160000 -9.120000 -3.000000 19.937809 -7.139221 448.484711
3.160000 -9.120000 -2.960000 9.532421 12.471648 246.409058
3.160000 -9.120000 -2.920000 -10.459434 16.210375 372.175995
3.160000 -9.120000 -2.880000 -23.747833 4.790767 586.911011
3.160000 -9.120000 -2.840000 -23.162783 -9.087768 619.102051
3.160000 -9.120000 -2.800000 -15.016474 -14.456284 434.478638
3.160000 -9.080000 -3.200000 -15.694615 -2.845259 254.416443
3.160000 -9.080000 -3.160000 -21.853743 -16.746113 758.018311
3.160000 -9.080000 -3.120000 -11.679645 -32.086292 1165.944214
3.160000 -9.080000 -3.080000 9.375236 -33.360825 1200.839600
3.160000 -9.080000 -3.040000 24.800489 -16.562819 889.391235
3.160000 -9.080000 -3.000000 21.820269 6.685544 520.820618
3.160000 -9.080000 -2.960000 2.633926 19.406601 383.553711
3.160000 -9.080000 -2.920000 -18.201693 13.850845 523.147522
3.160000 -9.080000 -2.880000 -26.931208 -3.125051 735.055847
3.160000 -9.080000 -2.840000 -21.461756 -17.815271 777.990845
3.160000 -9.080000 -2.800000 -10.632521 -21.968132 595.649292
3.160000 -9.040000 -3.200000 -10.440207 -14.629560 323.021973
3.160000 -9.040000 -3.160000 -5.354667 -25.108397 659.104065
3.160000 -9.040000 -3.120000 9.284991 -28.411259 893.410706
3.160000 -9.040000 -3.080000 23.671219 -18.064980 886.670044
3.160000 -9.040000 -3.040000 25.994743 1.417104 677.734863
3.160000 -9.040000 -3.000000 12.577309 17.209393 454.351868
3.160000 -9.040000 -2.960000 -8.434625 18.232422 403.564087
3.160000 -9.040000 -2.920000 -23.272133 4.054701 558.032776
3.160000 -9.040000 -2.880000 -23.318666 -15.023512 769.466064
3.160000 -9.040000 -2.840000 -11.290496 -26.562529 833.043213
3.160000 -9.040000 -2.800000 2.104218 -25.631468 661.399902
3.160000 -9.000000 -3.200000 4.998383 -17.323635 325.092163
3.160000 -9.000000 -3.160000 12.674656 -16.844418 444.381287
3.160000 -9.000000 -3.120000 20.110008 -10.145948 507.352722
3.160000 -9.000000 -3.080000 21.800737 1.772967 478.415558
3.160000 -9.000000 -3.040000 14.193349 13.274975 377.676117
3.160000 -9.000000 -3.000000 -0.629213 16.856781 284.546967
3.160000 -9.000000 -2.960000 -14.741323 8.614200 291.511047
3.160000 -9.000000 -2.920000 -19.183010 -7.684073 427.032867
3.160000 -9.000000 -2.880000 -10.903145 -22.150705 609.532349
3.160000 -9.000000 -2.840000 4.109183 -25.928755 689.185730
3.160000 -9.000000 -2.800000 15.108934 -18.400190 566.846924
3.160000 -8.960000 -3.200000 17.502842 -4.694468 328.387512
3.160000 -8.960000 -3.160000 16.946404 2.993969 296.144470
3.160000 -8.960000 -3.120000 12.678891 8.769926 237.665894
3.160000 -8.960000 -3.080000 6.504322 11.687492 178.903687
3.160000 -8.960000 -3.040000 -0.659363 11.470740 132.012634
3.160000 -8.960000 -3.000000 -7.619061 7.039274 107.601479
3.160000 -8.960000 -2.960000 -11.187979 -1.986470 129.116928
3.160000 -8.960000 -2.920000 -7.700544 -12.461309 214.582611
3.160000 -8.960000 -2.880000 2.634970 -18.138777 335.958282
3.160000 -8.960000 -2.840000 13.778101 -14.811109 409.205017
3.160000 -8.960000 -2.800000 18.064428 -5.271565 354.112976
3.160000 -8.920000 -3.200000 13.948126 13.795238 384.858795
3.160000 -8.920000 -3.160000 3.277811 17.488605 316.595367
3.160000 -8.920000 -3.120000 -5.791636 13.033978 203.427612
3.160000 -8.920000 -3.080000 -8.670587 5.254355 102.787323
3.160000 -8.920000 -3.040000 -6.695395 -0.577668 45.162010
3.160000 -8.920000 -3.000000 -3.702099 -3.436005 25.511663
3.160000 -8.920000 -2.960000 -1.128275 -5.376989 30.185019
3.160000 -8.920000 -2.920000 2.424185 -7.167778 57.253712
3.160000 -8.920000 -2.880000 7.463921 -6.887760 103.151352
3.160000 -8.920000 -2.840000 11.410680 -3.162303 140.203766
3.160000 -8.920000 -2.800000 11.319589 1.646765 130.844925
3.160000 -8.880000 -3.200000 -3.506499 20.605511 436.882599
3.160000 -8.880000 -3.160000 -15.280765 13.533336 416.652954
3.160000 -8.880000 -3.120000 -17.959457 0.223728 322.592163
3.160000 -8.880000 -3.080000 -10.575523 -10.025944 212.361237
3.160000 -8.880000 -3.040000 0.280592 -11.468554 131.606461
3.160000 -8.880000 -3.000000 7.022075 -5.977653 85.041862
3.160000 -8.880000 -2.960000 7.273287 0.177148 52.932087
3.160000 -8.880000 -2.920000 4.219821 2.472811 23.921680
3.160000 -8.880000 -2.880000 2.272988 0.992750 6.152025
3.160000 -8.880000 -2.840000 3.318539 -1.457048 13.135689
3.160000 -8.880000 -2.800000 6.650160 -2.506554 50.507439
3.160000 -8.840000 -3.200000 -17.095966 8.773798 369.251587
3.160000 -8.840000 -3.160000 -19.899467 -3.934825 411.471649
3.160000 -8.840000 -3.120000 -12.277231 -15.844976 401.793701
3.160000 -8.840000 -3.080000 1.886208 -18.971491 363.475250
3.160000 -8.840000 -3.040000 13.633158 -11.348776 314.657715
3.160000 -8.840000 -3.000000 15.817051 1.192127 251.600281
3.160000 -8.840000 -2.960000 8.582470 9.535511 164.584763
3.160000 -8.840000 -2.920000 -0.953737 8.269782 69.298912
3.160000 -8.840000 -2.880000 -4.307118 -0.381062 18.696474
3.160000 -8.840000 -2.840000 1.991899 -8.466664 75.652069
3.160000 -8.840000 -2.800000 13.891123 -8.321043 262.203033
3.160000 -8.800000 -3.200000 -11.177677 -8.352920 194.711731
3.160000 -8.800000 -3.160000 -5.373127 -15.091725 256.630676
3.160000 -8.800000 -3.120000 5.163051 -17.635195 337.657196
3.160000 -8.800000 -3.080000 16.490376 -12.322763 423.782990
3.160000 -8.800000 -3.040000 21.788881 0.105360 474.766449
3.160000 -8.800000 -3.000000 16.530518 12.741517 435.604279
3.160000 -8.800000 -2.960000 3.788734 16.511459 286.982819
3.160000 -8.800000 -2.920000 -6.176714 8.017859 102.437851
3.160000 -8.800000 -2.880000 -3.593018 -5.810558 46.672363
3.160000 -8.800000 -2.840000 11.664760 -11.851058 276.514191
3.160000 -8.800000 -2.800000 28.132317 -1.696932 794.306824
3.200000 -9.200000 -3.200000 0.804701 -7.512707 57.088306
3.200000 -9.200000 -3.160000 -5.390788 0.601906 29.422882
3.200000 -9.200000 -3.120000 -13.603500 -2.040326 189.218155
3.200000 -9.200000 -3.080000 -13.299862 -10.270637 282.372314
3.200000 -9.200000 -3.040000 -4.768075 -12.618099 181.950958
3.200000 -9.200000 -3.000000 1.353868 -4.577094 22.782742
3.200000 -9.200000 -2.960000 -3.817134 5.915985 49.569389
3.200000 -9.200000 -2.920000 -17.052475 6.913361 338.581451
3.200000 -9.200000 -2.880000 -25.898279 -4.404630 690.121643
3.200000 -9.200000 -2.840000 -21.766924 -18.363724 811.025330
3.200000 -9.200000 -2.800000 -8.893810 -22.838751 600.708374
3.200000 -9.160000 -3.200000 0.647374 -4.661011 22.144115
3.200000 -9.160000 -3.160000 -9.583519 -2.480977 97.999084
3.200000 -9.160000 -3.120000 -14.638824 -10.808685 331.122864
3.200000 -9.160000 -3.080000 -8.372040 -18.736628 421.152283
3.200000 -9.160000 -3.040000 2.308211 -16.092848 264.307587
3.200000 -9.160000 -3.000000 5.249236 -4.461765 47.461830
3.200000 -9.160000 -2.960000 -3.758636 4.625261 35.520386
3.200000 -9.160000 -2.920000 -16.613495 2.046017 280.194397
3.200000 -9.160000 -2.880000 -21.678984 -9.557517 561.324463
3.200000 -9.160000 -2.840000 -15.798604 -19.209646 618.606384
3.200000 -9.160000 -2.800000 -6.640090 -19.424301 421.394257
3.200000 -9.120000 -3.200000 -2.119153 -4.604094 25.688488
3.200000 -9.120000 -3.160000 -10.357554 -8.392467 177.712433
3.200000 -9.120000 -3.120000 -9.847087 -17.582952 406.125336
3.200000 -9.120000 -3.080000 -0.683916 -21.329910 455.432800
3.200000 -9.120000 -3.040000 7.637035 -14.601029 271.514374
3.200000 -9.120000 -3.000000 6.134673 -3.255955 48.235458
3.200000 -9.120000 -2.960000 -4.606351 2.088269 25.579342
3.200000 -9.120000 -2.920000 -15.389974 -3.366762 248.186371
3.200000 -9.120000 -2.880000 -17.793268 -14.501808 526.902832
3.200000 -9.120000 -2.840000 -11.862109 -22.225046 634.662292
3.200000 -9.120000 -2.800000 -4.647009 -22.483891 527.119995
3.200000 -9.080000 -3.200000 -2.307368 -8.875587 84.100006
3.200000 -9.080000 -3.160000 -5.624181 -13.523579 214.518585
3.200000 -9.080000 -3.120000 -2.433739 -19.199903 374.559387
3.200000 -9.080000 -3.080000 4.912855 -19.431446 401.717224
3.200000 -9.080000 -3.040000 9.468888 -12.864971 255.167328
3.200000 -9.080000 -3.000000 6.255775 -4.878264 62.932190
3.200000 -9.080000 -2.960000 -2.865356 -2.786081 15.972515
3.200000 -9.080000 -2.920000 -10.693569 -9.165628 198.361176
3.200000 -9.080000 -2.880000 -11.059569 -19.593277 506.210571
3.200000 -9.080000 -2.840000 -4.057055 -26.745808 731.797974
3.200000 -9.080000 -2.800000 4.616299 -26.756128 737.200623
3.200000 -9.040000 -3.200000 4.308029 -12.130726 165.713623
3.200000 -9.040000 -3.160000 2.591701 -12.754554 169.395569
3.200000 -9.040000 -3.120000 3.223588 -15.497833 250.574356
3.200000 -9.040000 -3.080000 7.143337 -16.715986 330.451477
3.200000 -9.040000 -3.040000 11.032387 -13.581104 306.159943
3.200000 -9.040000 -3.000000 10.226665 -8.070011 169.709747
3.200000 -9.040000 -2.960000 4.187128 -6.002521 53.562294
3.200000 -9.040000 -2.920000 -1.633030 -11.184597 127.761993
3.200000 -9.040000 -2.880000 -0.513842 -20.575439 423.612732
3.200000 -9.040000 -2.840000 8.530034 -26.260262 762.362793
3.200000 -9.040000 -2.800000 18.940674 -22.972696 886.493896
3.200000 -9.000000 -3.200000 13.952534 -6.798572 240.893784
3.200000 -9.000000 -3.160000 7.630456 -4.427529 77.826874
3.200000 -9.000000 -3.120000 3.756124 -9.545361 105.222382
3.200000 -9.000000 -3.080000 7.692953 -15.507345 299.659271
3.200000 -9.000000 -3.040000 15.524510 -14.624437 454.884583
3.200000 -9.000000 -3.000000 18.505672 -7.403405 397.270294
3.200000 -9.000000 -2.960000 13.547666 -2.266273 188.675247
3.200000 -9.000000 -2.920000 7.368518 -5.674049 86.489891
3.200000 -9.000000 -2.880000 9.042280 -13.988332 277.436279
3.200000 -9.000000 -2.840000 19.174831 -16.928467 654.247192
3.200000 -9.000000 -2.800000 28.320644 -9.170671 886.160095
3.200000 -8.960000 -3.200000 16.431374 7.285220 323.064484
3.200000 -8.960000 -3.160000 3.429863 5.955760 47.235046
3.200000 -8.960000 -3.120000 -0.789454 -6.276341 40.015701
3.200000 -8.960000 -3.080000 8.663507 -15.827844 325.576965
3.200000 -8.960000 -3.040000 21.990986 -12.310444 635.150513
3.200000 -8.960000 -3.000000 25.850853 0.242667 668.325500
3.200000 -8.960000 -2.960000 18.137794 8.507235 401.352631
3.200000 -8.960000 -2.920000 9.648791 5.231953 120.472504
3.200000 -8.960000 -2.880000 11.069910 -2.893199 130.913513
3.200000 -8.960000 -2.840000 20.555346 -3.628469 435.687988
3.200000 -8.960000 -2.800000 26.163897 6.184645 722.799316
3.200000 -8.920000 -3.200000 5.875020 19.818871 427.303497
3.200000 -8.920000 -3.160000 -8.429494 9.118387 154.201355
3.200000 -8.920000 -3.120000 -6.079062 -9.041931 118.711517
3.200000 -8.920000 -3.080000 11.178314 -16.468559 396.168152
3.200000 -8.920000 -3.040000 26.713739 -5.975962 749.335999
3.200000 -8.920000 -3.000000 26.664696 11.635512 846.391113
3.200000 -8.920000 -2.960000 13.857294 19.897186 587.922607
3.200000 -8.920000 -2.920000 3.214287 14.080359 208.588135
3.200000 -8.920000 -2.880000 4.753820 4.685468 44.552414
3.200000 -8.920000 -2.840000 13.556043 4.223740 201.606277
3.200000 -8.920000 -2.800000 17.055822 13.197693 465.080139
3.200000 -8.880000 -3.200000 -10.836396 19.396236 493.641479
3.200000 -8.880000 -3.160000 -18.167034 1.163715 331.395355
3.200000 -8.880000 -3.120000 -6.223087 -15.992511 294.487213
3.200000 -8.880000 -3.080000 15.337794 -15.819644 485.509094
3.200000 -8.880000 -3.040000 27.537884 1.654274 761.071655
3.200000 -8.880000 -3.000000 20.913246 20.441610 855.223267
3.200000 -8.880000 -2.960000 4.032286 25.012342 641.876587
3.200000 -8.880000 -2.920000 -6.516147 15.063632 269.373169
3.200000 -8.880000 -2.880000 -3.060110 3.770748 23.582809
3.200000 -8.880000 -2.840000 7.186803 2.928334 60.225273
3.200000 -8.880000 -2.800000 11.824379 11.695689 276.605072
3.200000 -8.840000 -3.200000 -19.090397 6.580040 407.740204
3.200000 -8.840000 -3.160000 -16.636871 -10.769217 392.761536
3.200000 -8.840000 -3.120000 0.625097 -20.350693 414.541443
3.200000 -8.840000 -3.080000 19.954147 -12.188773 546.734192
3.200000 -8.840000 -3.040000 25.530495 8.049208 716.595886
3.200000 -8.840000 -3.000000 13.595675 23.847786 753.559265
3.200000 -8.840000 -2.960000 -4.148800 23.334656 561.718689
3.200000 -8.840000 -2.920000 -11.972576 9.926584 241.879639
3.200000 -8.840000 -2.880000 -4.671477 -1.956888 25.652107
3.200000 -8.840000 -2.840000 8.799759 -0.935647 78.311195
3.200000 -8.840000 -2.800000 14.937304 11.550604 356.539490
3.200000 -8.800000 -3.200000 -11.947199 -4.397987 162.077850
3.200000 -8.800000 -3.160000 -5.785392 -14.084023 231.830444
3.200000 -8.800000 -3.120000 8.926505 -16.229620 343.083069
3.200000 -8.800000 -3.080000 22.107258 -5.077637 514.513245
3.200000 -8.800000 -3.040000 22.356979 13.218645 674.567139
3.200000 -8.800000 -3.000000 8.610114 24.710833 684.759277
3.200000 -8.800000 -2.960000 -7.400512 20.505688 475.250793
3.200000 -8.800000 -2.920000 -11.371557 5.859806 163.649643
3.200000 -8.800000 -2.880000 -0.003823 -3.944168 15.556477
3.200000 -8.800000 -2.840000 15.302204 2.320109 239.540359
3.200000 -8.800000 -2.800000 18.579617 21.038502 787.820679
