#kx 	ky 	kz 	real 	imag 	intensity
4.800000 -1.200000 6.800000 -33.167938 5.405535 1129.332031
4.800000 -1.200000 6.840000 -30.825336 -8.257221 1018.383057
4.800000 -1.200000 6.880000 -20.661358 -19.115105 792.278931
4.800000 -1.200000 6.920000 -5.933969 -22.266539 531.010742
4.800000 -1.200000 6.960000 7.222732 -16.574127 326.869537
4.800000 -1.200000 7.000000 13.854926 -5.697742 224.423248
4.800000 -1.200000 7.040000 13.443741 4.737473 203.177811
4.800000 -1.200000 7.080000 9.410406 11.401978 218.560837
4.800000 -1.200000 7.120000 5.336945 15.053885 255.102417
4.800000 -1.200000 7.160000 1.680506 18.297897 337.637146
4.800000 -1.200000 7.200000 -3.830008 21.752295 487.831268
4.800000 -1.160000 6.800000 -29.281420 -15.693471 1103.686523
4.800000 -1.160000 6.840000 -20.527996 -20.981323 861.614502
4.800000 -1.160000 6.880000 -9.996023 -21.831705 576.543823
4.800000 -1.160000 6.920000 -0.530276 -16.540409 273.866333
4.800000 -1.160000 6.960000 3.085964 -6.643808 53.663364
4.800000 -1.160000 7.000000 -1.360798 1.872429 5.357761
4.800000 -1.160000 7.040000 -9.735566 2.891087 103.139633
4.800000 -1.160000 7.080000 -13.957956 -3.549597 207.424179
4.800000 -1.160000 7.120000 -9.487377 -10.116262 192.349091
4.800000 -1.160000 7.160000 -0.521152 -8.710468 76.143860
4.800000 -1.160000 7.200000 3.284900 1.219891 12.278700
4.800000 -1.120000 6.800000 -11.652258 -28.660999 957.228027
4.800000 -1.120000 6.840000 -4.064618 -23.865051 586.061768
4.800000 -1.120000 6.880000 -0.097700 -17.140234 293.797180
4.800000 -1.120000 6.920000 -0.967527 -9.312204 87.653259
4.800000 -1.120000 6.960000 -8.259280 -4.262858 86.387665
4.800000 -1.120000 7.000000 -18.628723 -8.020121 411.351654
4.800000 -1.120000 7.040000 -22.690197 -21.745049 987.692139
4.800000 -1.120000 7.080000 -12.476475 -36.670918 1500.418701
4.800000 -1.120000 7.120000 8.928574 -39.108356 1609.182983
4.800000 -1.120000 7.160000 26.791630 -22.979099 1245.830444
4.800000 -1.120000 7.200000 26.360270 2.378382 700.520508
4.800000 -1.080000 6.800000 9.313666 -25.582125 741.189514
4.800000 -1.080000 6.840000 9.510874 -14.887555 312.096008
4.800000 -1.080000 6.880000 3.803076 -7.433113 69.714554
4.800000 -1.080000 6.920000 -6.270747 -5.481784 69.372223
4.800000 -1.080000 6.960000 -17.380484 -12.808829 466.147308
4.800000 -1.080000 7.000000 -21.050228 -30.548811 1376.341919
4.800000 -1.080000 7.040000 -8.070608 -50.592468 2624.732666
4.800000 -1.080000 7.080000 20.816896 -57.043808 3687.339355
4.800000 -1.080000 7.120000 49.887192 -38.784134 3992.940918
4.800000 -1.080000 7.160000 57.997860 -2.304003 3369.060059
4.800000 -1.080000 7.200000 36.674255 29.638882 2223.464355
4.800000 -1.040000 6.800000 20.648289 -9.646857 519.413696
4.800000 -1.040000 6.840000 12.288147 0.070213 151.003479
4.800000 -1.040000 6.880000 -0.252963 1.359510 1.912259
4.800000 -1.040000 6.920000 -12.068539 -7.453121 201.198639
4.800000 -1.040000 6.960000 -15.832510 -26.177847 935.947998
4.800000 -1.040000 7.000000 -3.087654 -47.812927 2295.609619
4.800000 -1.040000 7.040000 27.322762 -57.271149 4026.517578
4.800000 -1.040000 7.080000 61.829884 -40.809639 5488.361328
4.800000 -1.040000 7.120000 77.338554 -0.400188 5981.412109
4.800000 -1.040000 7.160000 58.977829 42.093498 5250.247070
4.800000 -1.040000 7.200000 15.202736 59.098480 3723.753662
4.800000 -1.000000 6.800000 16.942438 7.234429 339.383179
4.800000 -1.000000 6.840000 3.737622 10.957870 134.044724
4.800000 -1.000000 6.880000 -8.903573 3.583740 92.116806
4.800000 -1.000000 6.920000 -13.756454 -13.418493 369.296021
4.800000 -1.000000 6.960000 -3.743669 -33.709724 1150.360596
4.800000 -1.000000 7.000000 23.019676 -44.539001 2513.628174
4.800000 -1.000000 7.040000 56.434177 -32.434319 4236.801270
4.800000 -1.000000 7.080000 75.711609 4.492499 5752.430176
4.800000 -1.000000 7.120000 63.156799 49.102314 6399.818359
4.800000 -1.000000 7.160000 20.786652 73.673744 5859.905762
4.800000 -1.000000 7.200000 -26.848583 60.852112 4423.826172
4.800000 -0.960000 6.800000 4.039848 14.237695 219.032318
4.800000 -0.960000 6.840000 -8.736184 11.216555 202.132019
4.800000 -0.960000 6.880000 -15.509868 -1.739651 243.582382
4.800000 -0.960000 6.920000 -9.833650 -18.699781 446.382507
4.800000 -0.960000 6.960000 10.128270 -29.231617 957.069275
4.800000 -0.960000 7.000000 37.331131 -22.066772 1880.555664
4.800000 -0.960000 7.040000 55.674252 6.387585 3140.423584
4.800000 -0.960000 7.080000 48.908001 44.776684 4396.944336
4.800000 -0.960000 7.120000 14.504982 70.286667 5150.609863
4.800000 -0.960000 7.160000 -30.024788 64.280914 5033.523926
4.800000 -0.960000 7.200000 -57.265900 28.354210 4083.344482
4.800000 -0.920000 6.800000 -7.066424 9.932820 148.595276
4.800000 -0.920000 6.840000 -15.962062 2.691384 262.030975
4.800000 -0.920000 6.880000 -15.298035 -10.016796 334.366058
4.800000 -0.920000 6.920000 -3.006147 -19.254343 379.766663
4.800000 -0.920000 6.960000 15.755905 -16.096714 507.352722
4.800000 -0.920000 7.000000 29.418150 2.634644 872.368896
4.800000 -0.920000 7.040000 25.915665 29.765699 1557.618652
4.800000 -0.920000 7.080000 1.895687 49.426437 2446.566406
4.800000 -0.920000 7.120000 -31.789701 46.858307 3206.286133
4.800000 -0.920000 7.160000 -55.104221 20.425577 3453.679199
4.800000 -0.920000 7.200000 -52.926712 -14.753198 3018.893555
4.800000 -0.880000 6.800000 -10.104193 1.532646 104.443718
4.800000 -0.880000 6.840000 -14.482725 -6.887005 257.180176
4.800000 -0.880000 6.880000 -9.179109 -14.975267 308.514679
4.800000 -0.880000 6.920000 1.927040 -14.773891 221.981354
4.800000 -0.880000 6.960000 9.901412 -4.015018 114.158325
4.800000 -0.880000 7.000000 6.682935 11.682966 181.153320
4.800000 -0.880000 7.040000 -8.942879 21.777889 554.251526
4.800000 -0.880000 7.080000 -29.328571 17.690048 1173.102905
4.800000 -0.880000 7.120000 -42.126251 -0.583390 1774.961426
4.800000 -0.880000 7.160000 -38.671852 -23.253746 2036.248779
4.800000 -0.880000 7.200000 -20.743826 -36.851078 1788.308228
4.800000 -0.840000 6.800000 -7.655408 -3.469830 70.644997
4.800000 -0.840000 6.840000 -8.315435 -11.349054 197.947510
4.800000 -0.840000 6.880000 -2.448776 -14.131115 205.684921
4.800000 -0.840000 6.920000 1.902967 -8.901588 82.859558
4.800000 -0.840000 6.960000 -1.969784 -1.037777 4.957032
4.800000 -0.840000 7.000000 -13.109247 0.685482 172.322235
4.800000 -0.840000 7.040000 -23.421696 -8.020481 612.903931
4.800000 -0.840000 7.080000 -24.426355 -22.959137 1123.768799
4.800000 -0.840000 7.120000 -14.314749 -34.657570 1406.059082
4.800000 -0.840000 7.160000 0.539623 -35.830002 1284.080200
4.800000 -0.840000 7.200000 10.586503 -26.941231 837.903931
4.800000 -0.800000 6.800000 -6.178107 -4.503875 58.453888
4.800000 -0.800000 6.840000 -3.599559 -11.194065 138.263916
4.800000 -0.800000 6.880000 0.555784 -10.498791 110.533508
4.800000 -0.800000 6.920000 -1.874772 -6.217615 42.173504
4.800000 -0.800000 6.960000 -10.808874 -7.788116 177.486511
4.800000 -0.800000 7.000000 -16.946487 -19.749237 677.215820
4.800000 -0.800000 7.040000 -10.837353 -35.570206 1382.687744
4.800000 -0.800000 7.080000 6.904885 -42.639450 1865.800171
4.800000 -0.800000 7.120000 24.617962 -34.001942 1762.176147
4.800000 -0.800000 7.160000 29.315866 -15.562322 1101.605957
4.800000 -0.800000 7.200000 18.200794 -1.716905 334.216675
4.840000 -1.200000 6.800000 -44.647831 -7.226524 2045.651489
4.840000 -1.200000 6.840000 -33.955189 -22.190248 1645.361938
4.840000 -1.200000 6.880000 -16.540529 -28.364302 1078.122803
4.840000 -1.200000 6.920000 0.127633 -23.535450 553.933716
4.840000 -1.200000 6.960000 9.545793 -11.564281 224.854767
4.840000 -1.200000 7.000000 10.334588 0.868195 107.557472
4.840000 -1.200000 7.040000 5.896015 9.244730 120.228027
4.840000 -1.200000 7.080000 0.458221 13.397513 179.703323
4.840000 -1.200000 7.120000 -4.374979 15.545005 260.787598
4.840000 -1.200000 7.160000 -9.561394 16.879463 376.336548
4.840000 -1.200000 7.200000 -15.967203 16.306173 520.842896
4.840000 -1.160000 6.800000 -26.162905 -33.127239 1781.911499
4.840000 -1.160000 6.840000 -8.595516 -33.388199 1188.654785
4.840000 -1.160000 6.880000 5.469570 -22.910374 554.801392
4.840000 -1.160000 6.920000 8.714621 -6.565108 119.045250
4.840000 -1.160000 6.960000 -0.135178 5.756256 33.152756
4.840000 -1.160000 7.000000 -13.685414 6.291534 226.873962
4.840000 -1.160000 7.040000 -20.905624 -3.758614 451.172302
4.840000 -1.160000 7.080000 -16.242401 -14.676331 479.210266
4.840000 -1.160000 7.120000 -4.478252 -16.409321 289.320557
4.840000 -1.160000 7.160000 3.503534 -7.300861 65.577332
4.840000 -1.160000 7.200000 0.376809 4.660313 21.860498
4.840000 -1.120000 6.800000 6.305535 -37.536530 1448.750854
4.840000 -1.120000 6.840000 18.857204 -20.635031 781.398682
4.840000 -1.120000 6.880000 16.675541 1.526671 280.404388
4.840000 -1.120000 6.920000 -1.994884 15.996103 259.854889
4.840000 -1.120000 6.960000 -26.809860 10.884001 837.230103
4.840000 -1.120000 7.000000 -39.683826 -13.356165 1753.193115
4.840000 -1.120000 7.040000 -28.540493 -40.788944 2478.297607
4.840000 -1.120000 7.080000 1.098827 -50.705055 2572.210205
4.840000 -1.120000 7.120000 28.591225 -34.533386 2010.012939
4.840000 -1.120000 7.160000 34.301888 -3.713480 1190.409424
4.840000 -1.120000 7.200000 15.570486 19.370264 617.647156
4.840000 -1.080000 6.800000 30.856190 -16.642632 1229.081543
4.840000 -1.080000 6.840000 27.111160 10.136550 837.764648
4.840000 -1.080000 6.880000 2.819546 28.960985 846.688477
4.840000 -1.080000 6.920000 -31.846020 23.609531 1571.578857
4.840000 -1.080000 6.960000 -53.973572 -9.518938 3003.756592
4.840000 -1.080000 7.000000 -43.353642 -52.720295 4658.967773
4.840000 -1.080000 7.040000 -1.074533 -76.035690 5782.581055
4.840000 -1.080000 7.080000 46.899963 -60.172478 5820.333496
4.840000 -1.080000 7.120000 67.877258 -13.890468 4800.267578
4.840000 -1.080000 7.160000 48.358467 31.164410 3309.761719
4.840000 -1.080000 7.200000 4.866755 45.317757 2077.384277
4.840000 -1.040000 6.800000 30.874727 13.920238 1147.021729
4.840000 -1.040000 6.840000 7.951406 36.557144 1399.649658
4.840000 -1.040000 6.880000 -30.367695 36.176559 2230.940430
4.840000 -1.040000 6.920000 -61.269936 3.315104 3764.995117
4.840000 -1.040000 6.960000 -58.348190 -48.559654 5762.551270
4.840000 -1.040000 7.000000 -14.105370 -86.114388 7614.648926
4.840000 -1.040000 7.040000 48.015617 -79.442764 8616.652344
4.840000 -1.040000 7.080000 87.118736 -27.970610 8372.029297
4.840000 -1.040000 7.120000 76.110001 35.337143 7041.446289
4.840000 -1.040000 7.160000 24.153629 68.253845 5241.985352
4.840000 -1.040000 7.200000 -30.476562 52.302841 3664.407959
4.840000 -1.000000 6.800000 9.038126 31.695448 1086.289185
4.840000 -1.000000 6.840000 -24.686409 38.122189 2062.719971
4.840000 -1.000000 6.880000 -58.854637 13.965851 3658.913330
4.840000 -1.000000 6.920000 -66.300079 -35.337708 5644.454102
4.840000 -1.000000 6.960000 -31.281960 -80.979126 7536.179688
4.840000 -1.000000 7.000000 32.220688 -88.138367 8806.543945
4.840000 -1.000000 7.040000 84.594376 -44.482834 9134.930664
4.840000 -1.000000 7.080000 88.895874 25.256676 8540.375977
4.840000 -1.000000 7.120000 41.213326 75.012245 7325.375000
4.840000 -1.000000 7.160000 -24.413464 72.790359 5894.453613
4.840000 -1.000000 7.200000 -62.635620 25.570669 4577.080078
4.840000 -0.960000 6.800000 -15.680285 26.152601 929.829895
4.840000 -0.960000 6.840000 -45.848476 14.324169 2307.264648
4.840000 -0.960000 6.880000 -60.500301 -22.685349 4174.911621
4.840000 -0.960000 6.920000 -40.607765 -65.798752 5978.466309
4.840000 -0.960000 6.960000 10.891451 -83.740021 7131.014648
4.840000 -0.960000 7.000000 64.534836 -56.640148 7372.851562
4.840000 -0.960000 7.040000 82.992905 4.173431 6905.239746
4.840000 -0.960000 7.080000 50.656464 60.116730 6180.098633
4.840000 -0.960000 7.120000 -11.329594 73.540390 5536.548828
4.840000 -0.960000 7.160000 -59.896763 37.600964 5001.455078
4.840000 -0.960000 7.200000 -63.682991 -18.470005 4396.664551
4.840000 -0.920000 6.800000 -25.164516 6.127820 670.803040
4.840000 -0.920000 6.840000 -41.224724 -15.169779 1929.600098
4.840000 -0.920000 6.880000 -34.989090 -46.948757 3428.422363
4.840000 -0.920000 6.920000 -2.634092 -67.235573 4527.560547
4.840000 -0.920000 6.960000 39.382523 -56.677376 4763.308105
4.840000 -0.920000 7.000000 62.773659 -15.721748 4187.705566
4.840000 -0.920000 7.040000 48.457253 31.499105 3340.298828
4.840000 -0.920000 7.080000 3.602310 53.141079 2836.950928
4.840000 -0.920000 7.120000 -41.432819 34.375240 2898.335449
4.840000 -0.920000 7.160000 -55.847828 -10.052713 3220.037109
4.840000 -0.920000 7.200000 -32.399734 -47.225395 3279.980957
4.840000 -0.880000 6.800000 -16.964436 -10.400242 395.957123
4.840000 -0.880000 6.840000 -18.622448 -28.764885 1174.214111
4.840000 -0.880000 6.880000 -3.666634 -43.931763 1943.443970
4.840000 -0.880000 6.920000 20.449314 -42.927197 2260.918457
4.840000 -0.880000 6.960000 37.734432 -22.872353 1947.031860
4.840000 -0.880000 7.000000 34.776878 5.012512 1234.556519
4.840000 -0.880000 7.040000 11.666130 22.142975 626.409912
4.840000 -0.880000 7.080000 -16.494999 16.253489 536.260864
4.840000 -0.880000 7.120000 -30.108650 -8.532907 979.341309
4.840000 -0.880000 7.160000 -20.061375 -34.124828 1566.962646
4.840000 -0.880000 7.200000 5.111725 -42.293243 1814.848145
4.840000 -0.840000 6.800000 -3.286602 -13.313053 188.039139
4.840000 -0.840000 6.840000 1.479388 -21.757938 475.596497
4.840000 -0.840000 6.880000 10.791033 -22.741898 633.640320
4.840000 -0.840000 6.920000 16.875700 -16.129951 544.964600
4.840000 -0.840000 6.960000 15.282595 -7.757107 293.730408
4.840000 -0.840000 7.000000 7.925343 -4.336651 81.617599
4.840000 -0.840000 7.040000 1.025894 -8.311008 70.125320
4.840000 -0.840000 7.080000 0.144524 -16.416267 269.514709
4.840000 -0.840000 7.120000 6.196893 -22.443691 542.120728
4.840000 -0.840000 7.160000 15.042376 -21.851532 703.762512
4.840000 -0.840000 7.200000 20.623581 -14.942247 648.602844
4.840000 -0.800000 6.800000 3.240013 -7.494964 66.672173
4.840000 -0.800000 6.840000 6.123906 -7.669096 96.317261
4.840000 -0.800000 6.880000 4.597494 -5.387003 50.156746
4.840000 -0.800000 6.920000 -0.981644 -7.597759 58.689568
4.840000 -0.800000 6.960000 -3.353981 -17.021559 300.982635
4.840000 -0.800000 7.000000 4.048935 -27.764811 787.278564
4.840000 -0.800000 7.040000 19.363750 -30.090517 1280.394043
4.840000 -0.800000 7.080000 32.610477 -19.841871 1457.143066
4.840000 -0.800000 7.120000 34.155231 -3.144001 1176.464600
4.840000 -0.800000 7.160000 23.290411 8.365846 612.430603
4.840000 -0.800000 7.200000 8.871242 7.206275 130.629333
4.880000 -1.200000 6.800000 -44.736633 -30.886488 2955.341553
4.880000 -1.200000 6.840000 -25.712414 -40.143288 2272.611816
4.880000 -1.200000 6.880000 -5.777225 -36.792625 1387.073608
4.880000 -1.200000 6.920000 6.721636 -24.119499 626.930664
4.880000 -1.200000 6.960000 9.016445 -9.897313 179.253082
4.880000 -1.200000 7.000000 4.573455 -0.210037 20.960604
4.880000 -1.200000 7.040000 -1.261579 4.004475 17.627398
4.880000 -1.200000 7.080000 -5.754648 5.277451 60.967461
4.880000 -1.200000 7.120000 -9.339502 5.707850 119.805862
4.880000 -1.200000 7.160000 -13.024128 5.229733 196.978012
4.880000 -1.200000 7.200000 -16.378870 3.027370 277.432373
4.880000 -1.160000 6.800000 -8.657971 -48.095253 2388.113770
4.880000 -1.160000 6.840000 11.753845 -35.662029 1409.933105
4.880000 -1.160000 6.880000 18.147305 -12.749105 491.864380
4.880000 -1.160000 6.920000 6.421509 6.425522 82.523102
4.880000 -1.160000 6.960000 -14.093525 9.124901 281.891266
4.880000 -1.160000 7.000000 -27.210913 -4.882435 764.271973
4.880000 -1.160000 7.040000 -23.215279 -22.768614 1057.358887
4.880000 -1.160000 7.080000 -6.721794 -29.603828 921.569153
4.880000 -1.160000 7.120000 8.123697 -20.771816 497.462830
4.880000 -1.160000 7.160000 10.169084 -4.637152 124.913437
4.880000 -1.160000 7.200000 -0.196320 5.996605 35.997810
4.880000 -1.120000 6.800000 29.603151 -31.574125 1873.271973
4.880000 -1.120000 6.840000 33.802299 1.206281 1144.050537
4.880000 -1.120000 6.880000 10.503590 29.662903 990.213196
4.880000 -1.120000 6.920000 -29.376318 31.096472 1829.958618
4.880000 -1.120000 6.960000 -58.100742 -0.277672 3375.773438
4.880000 -1.120000 7.000000 -52.509117 -44.417740 4730.143066
4.880000 -1.120000 7.040000 -14.640732 -69.378937 5027.788086
4.880000 -1.120000 7.080000 28.396904 -57.289185 4088.435059
4.880000 -1.120000 7.120000 46.471386 -18.959528 2519.053223
4.880000 -1.120000 7.160000 30.650740 16.250668 1203.552002
4.880000 -1.120000 7.200000 -1.983505 25.379410 648.048706
4.880000 -1.080000 6.800000 41.597977 8.446811 1801.740356
4.880000 -1.080000 6.840000 16.497906 45.387161 2332.175293
4.880000 -1.080000 6.880000 -36.097805 53.502888 4165.610352
4.880000 -1.080000 6.920000 -83.639450 15.260059 7228.427246
4.880000 -1.080000 6.960000 -87.767334 -51.982010 10405.234375
4.880000 -1.080000 7.000000 -37.997757 -103.329926 12120.902344
4.880000 -1.080000 7.040000 34.773727 -101.107452 11431.928711
4.880000 -1.080000 7.080000 80.729866 -46.990768 8725.443359
4.880000 -1.080000 7.120000 71.290512 18.674873 5431.087891
4.880000 -1.080000 7.160000 20.964386 50.553482 2995.160156
4.880000 -1.080000 7.200000 -28.126024 34.307320 1968.065430
4.880000 -1.040000 6.800000 18.672001 41.992455 2112.009766
4.880000 -1.040000 6.840000 -32.266991 60.099548 4653.114258
4.880000 -1.040000 6.880000 -91.388054 29.289206 9209.633789
4.880000 -1.040000 6.920000 -112.357010 -45.947807 14735.298828
4.880000 -1.040000 6.960000 -67.310699 -120.458405 19040.957031
4.880000 -1.040000 7.000000 23.058487 -139.854141 20090.875000
4.880000 -1.040000 7.040000 99.762299 -86.364456 17411.335938
4.880000 -1.040000 7.080000 111.546692 3.176434 12452.753906
4.880000 -1.040000 7.120000 56.638664 66.111938 7578.726562
4.880000 -1.040000 7.160000 -17.746048 64.770432 4510.131348
4.880000 -1.040000 7.200000 -56.978172 13.704638 3434.329346
4.880000 -1.000000 6.800000 -19.870861 44.519836 2376.866943
4.880000 -1.000000 6.840000 -75.963150 30.243790 6685.087402
4.880000 -1.000000 6.880000 -110.594963 -33.576927 13358.656250
4.880000 -1.000000 6.920000 -84.017258 -115.195908 20328.996094
4.880000 -1.000000 6.960000 2.327350 -156.874557 24615.042969
4.880000 -1.000000 7.000000 97.363007 -121.374573 24211.341797
4.880000 -1.000000 7.040000 136.909286 -27.409786 19495.449219
4.880000 -1.000000 7.080000 96.073280 61.262207 12983.132812
4.880000 -1.000000 7.120000 10.172234 86.584846 7600.409668
4.880000 -1.000000 7.160000 -55.581829 42.095364 4861.359375
4.880000 -1.000000 7.200000 -59.989342 -26.621029 4307.400391
4.880000 -0.960000 6.800000 -43.689529 17.544815 2216.595459
4.880000 -0.960000 6.840000 -80.781677 -22.341421 7024.818359
4.880000 -0.960000 6.880000 -75.390739 -90.928024 13951.668945
4.880000 -0.960000 6.920000 -12.248578 -142.513626 20460.160156
4.880000 -0.960000 6.960000 78.079773 -132.157547 23562.068359
4.880000 -0.960000 7.000000 136.464523 -56.301548 21792.429688
4.880000 -0.960000 7.040000 121.733971 38.044540 16266.545898
4.880000 -0.960000 7.080000 46.193642 88.199699 9913.039062
4.880000 -0.960000 7.120000 -33.348484 66.048355 5474.506836
4.880000 -0.960000 7.160000 -62.217148 -0.971718 3871.917725
4.880000 -0.960000 7.200000 -30.608828 -56.201706 4095.532227
4.880000 -0.920000 6.800000 -37.586563 -14.568478 1624.990234
4.880000 -0.920000 6.840000 -45.551121 -57.969753 5435.396484
4.880000 -0.920000 6.880000 -11.976496 -102.307556 10610.272461
4.880000 -0.920000 6.920000 53.239391 -110.254112 14990.402344
4.880000 -0.920000 6.960000 110.370201 -65.048157 16412.843750
4.880000 -0.920000 7.000000 118.639359 10.596371 14187.581055
4.880000 -0.920000 7.040000 70.426781 68.269585 9620.667969
4.880000 -0.920000 7.080000 -0.131386 71.500397 5112.323730
4.880000 -0.920000 7.120000 -43.733608 25.014069 2538.332031
4.880000 -0.920000 7.160000 -35.249344 -30.486660 2171.952637
4.880000 -0.920000 7.200000 8.634688 -53.100784 2894.251221
4.880000 -0.880000 6.800000 -12.289421 -27.701441 918.399658
4.880000 -0.880000 6.840000 -1.039076 -54.457882 2966.740479
4.880000 -0.880000 6.880000 32.777313 -66.644684 5515.866211
4.880000 -0.880000 6.920000 70.591583 -48.734035 7358.177734
4.880000 -0.880000 6.960000 86.465134 -5.886848 7510.874023
4.880000 -0.880000 7.000000 67.295288 36.928772 5892.390137
4.880000 -0.880000 7.040000 24.722885 52.856041 3404.981934
4.880000 -0.880000 7.080000 -12.669632 34.118477 1324.589966
4.880000 -0.880000 7.120000 -21.398079 -1.859325 461.334869
4.880000 -0.880000 7.160000 -0.931414 -26.851851 721.889404
4.880000 -0.880000 7.200000 27.681870 -24.393927 1361.349609
4.880000 -0.840000 6.800000 8.907368 -18.188683 410.169373
4.880000 -0.840000 6.840000 19.968542 -24.351566 991.741455
4.880000 -0.840000 6.880000 33.750473 -20.094685 1542.890869
4.880000 -0.840000 6.920000 41.653542 -6.713165 1780.084229
4.880000 -0.840000 6.960000 39.002789 8.777290 1598.258301
4.880000 -0.840000 7.000000 27.693798 18.470922 1108.121460
4.880000 -0.840000 7.040000 14.477394 18.518494 552.529541
4.880000 -0.840000 7.080000 6.407715 11.111607 164.526611
4.880000 -0.840000 7.120000 6.446833 2.588039 48.259602
4.880000 -0.840000 7.160000 11.927174 -1.008980 143.275513
4.880000 -0.840000 7.200000 16.820749 2.012663 286.988403
4.880000 -0.800000 6.800000 12.756752 -1.691842 165.597061
4.880000 -0.800000 6.840000 11.510577 1.385559 134.413162
4.880000 -0.800000 6.880000 6.626088 0.501244 44.156288
4.880000 -0.800000 6.920000 4.922928 -6.653740 68.507477
4.880000 -0.800000 6.960000 12.187351 -13.971402 343.731598
4.880000 -0.800000 7.000000 25.419304 -12.208325 795.184204
4.880000 -0.800000 7.040000 33.975620 1.151455 1155.668579
4.880000 -0.800000 7.080000 29.266216 17.885887 1176.416382
4.880000 -0.800000 7.120000 13.396336 25.679928 838.920471
4.880000 -0.800000 7.160000 -2.139645 19.189606 372.819031
4.880000 -0.800000 7.200000 -6.603178 4.635792 65.092529
4.920000 -1.200000 6.800000 -24.949596 -52.038662 3330.504639
4.920000 -1.200000 6.840000 -3.662384 -50.023720 2515.785645
4.920000 -1.200000 6.880000 10.953243 -37.331676 1513.627563
4.920000 -1.200000 6.920000 14.717117 -21.946901 698.260010
4.920000 -1.200000 6.960000 10.715151 -11.092953 237.868057
4.920000 -1.200000 7.000000 4.991698 -6.430740 66.271469
4.920000 -1.200000 7.040000 1.113667 -5.210365 28.388161
4.920000 -1.200000 7.080000 -1.092285 -4.644001 22.759832
4.920000 -1.200000 7.120000 -2.853914 -4.202324 25.804354
4.920000 -1.200000 7.160000 -4.214030 -4.258284 35.891029
4.920000 -1.200000 7.200000 -4.795977 -4.220881 40.817230
4.920000 -1.160000 6.800000 18.485825 -47.397797 2588.276855
4.920000 -1.160000 6.840000 30.162302 -22.172977 1401.405396
4.920000 -1.160000 6.880000 19.861916 3.647930 407.803101
4.920000 -1.160000 6.920000 -5.393303 11.960526 172.141891
4.920000 -1.160000 6.960000 -26.010612 -2.435081 682.481567
4.920000 -1.160000 7.000000 -26.150496 -26.620197 1392.483276
4.920000 -1.160000 7.040000 -7.010757 -40.620499 1699.175659
4.920000 -1.160000 7.080000 15.259682 -34.271877 1407.419434
4.920000 -1.160000 7.120000 24.249390 -14.278309 791.903015
4.920000 -1.160000 7.160000 16.220589 3.796684 277.522308
4.920000 -1.160000 7.200000 0.251709 9.329889 87.110191
4.920000 -1.120000 6.800000 43.990913 -8.877954 2014.018555
4.920000 -1.120000 6.840000 26.719669 29.356972 1575.772461
4.920000 -1.120000 6.880000 -19.167953 43.381088 2249.329346
4.920000 -1.120000 6.920000 -63.753166 15.085594 4292.041504
4.920000 -1.120000 6.960000 -71.670349 -40.638062 6788.091309
4.920000 -1.120000 7.000000 -33.438789 -84.326096 8229.042969
4.920000 -1.120000 7.040000 24.274212 -84.186638 7676.627441
4.920000 -1.120000 7.080000 60.441811 -42.709854 5477.343750
4.920000 -1.120000 7.120000 53.622086 6.974722 2923.974854
4.920000 -1.120000 7.160000 16.952305 30.581671 1222.619263
4.920000 -1.120000 7.200000 -17.594131 19.695232 697.455688
4.920000 -1.080000 6.800000 29.719219 36.109287 2187.112549
4.920000 -1.080000 6.840000 -22.810394 61.549488 4308.653809
4.920000 -1.080000 6.880000 -88.496162 34.312794 9008.938477
4.920000 -1.080000 6.920000 -115.855621 -42.852539 15258.865234
4.920000 -1.080000 6.960000 -73.709686 -121.788345 20265.519531
4.920000 -1.080000 7.000000 16.333382 -144.946320 21276.214844
4.920000 -1.080000 7.040000 93.206055 -94.661041 17648.082031
4.920000 -1.080000 7.080000 106.255814 -9.322166 11377.200195
4.920000 -1.080000 7.120000 56.203445 49.571686 5616.179688
4.920000 -1.080000 7.160000 -9.948805 48.613964 2462.296143
4.920000 -1.080000 7.200000 -42.706196 5.005884 1848.878052
4.920000 -1.040000 6.800000 -14.199022 52.642242 2972.817871
4.920000 -1.040000 6.840000 -84.574661 40.491932 8792.469727
4.920000 -1.040000 6.880000 -132.268631 -35.374077 18746.316406
4.920000 -1.040000 6.920000 -105.127678 -136.810165 29768.851562
4.920000 -1.040000 6.960000 -3.375916 -191.685318 36754.660156
4.920000 -1.040000 7.000000 110.570045 -153.982544 35936.359375
4.920000 -1.040000 7.040000 159.709259 -46.931900 27709.650391
4.920000 -1.040000 7.080000 116.481308 53.707806 16452.423828
4.920000 -1.040000 7.120000 24.058989 82.723000 7421.929688
4.920000 -1.040000 7.160000 -44.090248 36.922714 3307.236816
4.920000 -1.040000 7.200000 -46.886635 -30.635361 3136.881836
4.920000 -1.000000 6.800000 -53.084934 28.737423 3643.849609
4.920000 -1.000000 6.840000 -108.761604 -24.269810 12418.110352
4.920000 -1.000000 6.880000 -106.222809 -122.140869 26201.675781
4.920000 -1.000000 6.920000 -20.149647 -199.350189 40146.503906
4.920000 -1.000000 6.960000 107.064087 -190.029053 47573.757812
4.920000 -1.000000 7.000000 191.438812 -88.426666 44468.093750
4.920000 -1.000000 7.040000 175.893219 39.405956 32491.253906
4.920000 -1.000000 7.080000 79.078796 107.981430 17913.445312
4.920000 -1.000000 7.120000 -21.570883 82.443268 7262.195312
4.920000 -1.000000 7.160000 -56.693466 2.505894 3220.428711
4.920000 -1.000000 7.200000 -19.404289 -59.059933 3864.602051
4.920000 -0.960000 6.800000 -57.722820 -14.479765 3541.587646
4.920000 -0.960000 6.840000 -74.558861 -85.062042 12794.575195
4.920000 -0.960000 6.880000 -21.989746 -161.912903 26699.337891
4.920000 -0.960000 6.920000 86.872643 -180.022156 39954.832031
4.920000 -0.960000 6.960000 185.210480 -108.318375 46035.792969
4.920000 -0.960000 7.000000 203.392166 15.887344 41620.781250
4.920000 -0.960000 7.040000 128.745285 111.829315 29081.144531
4.920000 -0.960000 7.080000 18.181156 120.715836 14902.867188
4.920000 -0.960000 7.120000 -49.644379 52.770802 5249.322266
4.920000 -0.960000 7.160000 -38.947685 -26.497162 2219.021973
4.920000 -0.960000 7.200000 20.197407 -55.722984 3512.986328
4.920000 -0.920000 6.800000 -28.784054 -42.535202 2637.765137
4.920000 -0.920000 6.840000 -9.266671 -98.031807 9696.106445
4.920000 -0.920000 6.880000 60.424377 -127.670731 19950.921875
4.920000 -0.920000 6.920000 143.400543 -93.203033 29250.519531
4.920000 -0.920000 6.960000 181.437714 -1.946323 32923.433594
4.920000 -0.920000 7.000000 143.123962 91.970604 28943.060547
4.920000 -0.920000 7.040000 53.035561 128.897064 19427.224609
4.920000 -0.920000 7.080000 -26.670841 92.225563 9216.888672
4.920000 -0.920000 7.120000 -47.054733 20.315836 2626.881104
4.920000 -0.920000 7.160000 -9.927761 -28.479698 909.653625
4.920000 -0.920000 7.200000 40.260498 -24.538851 2223.062988
4.920000 -0.880000 6.800000 6.868838 -37.877247 1481.866699
4.920000 -0.880000 6.840000 37.522961 -61.135998 5145.582520
4.920000 -0.880000 6.880000 86.332916 -52.777885 10238.877930
4.920000 -0.880000 6.920000 120.711456 -5.288857 14599.227539
4.920000 -0.880000 6.960000 112.389053 58.336468 16034.442383
4.920000 -0.880000 7.000000 61.915672 99.647308 13763.136719
4.920000 -0.880000 7.040000 0.395508 94.684288 8965.270508
4.920000 -0.880000 7.080000 -34.543148 52.931549 3994.978027
4.920000 -0.880000 7.120000 -27.978998 8.457762 854.358093
4.920000 -0.880000 7.160000 3.130322 -8.518947 82.371361
4.920000 -0.880000 7.200000 27.510321 5.761032 790.007263
4.920000 -0.840000 6.800000 22.614149 -12.003719 655.489014
4.920000 -0.840000 6.840000 38.738678 -11.711800 1637.851440
4.920000 -0.840000 6.880000 53.274796 2.713161 2845.565186
4.920000 -0.840000 6.920000 55.550629 26.482693 3787.205322
4.920000 -0.840000 6.960000 41.768116 48.222637 4069.998535
4.920000 -0.840000 7.000000 17.609039 57.304680 3593.904785
4.920000 -0.840000 7.040000 -5.538574 50.544865 2585.459229
4.920000 -0.840000 7.080000 -17.922396 33.695087 1456.571167
4.920000 -0.840000 7.120000 -17.160067 17.056213 585.382324
4.920000 -0.840000 7.160000 -8.684725 8.628633 149.877762
4.920000 -0.840000 7.200000 -1.101546 9.538509 92.196564
4.920000 -0.800000 6.800000 14.481756 9.949658 308.716980
4.920000 -0.800000 6.840000 9.650121 11.696604 229.935379
4.920000 -0.800000 6.880000 5.907919 7.676666 93.834717
4.920000 -0.800000 6.920000 9.576096 2.172607 96.421829
4.920000 -0.800000 6.960000 19.178436 4.265105 386.003540
4.920000 -0.800000 7.000000 24.384129 17.552448 902.674194
4.920000 -0.800000 7.040000 15.479904 33.887169 1387.967651
4.920000 -0.800000 7.080000 -5.691223 39.166759 1566.425049
4.920000 -0.800000 7.120000 -25.298071 26.573553 1346.146118
4.920000 -0.800000 7.160000 -29.293499 4.051907 874.527039
4.920000 -0.800000 7.200000 -16.277706 -12.147625 412.528503
4.960000 -1.200000 6.800000 7.374461 -53.218739 2886.616699
4.960000 -1.200000 6.840000 21.632019 -40.896564 2140.473145
4.960000 -1.200000 6.880000 25.321785 -25.541840 1293.578369
4.960000 -1.200000 6.920000 21.313515 -14.773056 672.509094
4.960000 -1.200000 6.960000 16.034029 -10.254150 362.237671
4.960000 -1.200000 7.000000 13.082577 -8.676563 246.436554
4.960000 -1.200000 7.040000 11.671833 -6.974466 184.874878
4.960000 -1.200000 7.080000 10.086861 -5.103335 127.788788
4.960000 -1.200000 7.120000 8.635994 -3.941860 90.118652
4.960000 -1.200000 7.160000 8.271288 -2.491096 74.619766
4.960000 -1.200000 7.200000 7.534407 1.073084 57.918793
4.960000 -1.160000 6.800000 39.131618 -26.204086 2217.937744
4.960000 -1.160000 6.840000 33.772594 1.625807 1143.231323
4.960000 -1.160000 6.880000 8.934944 15.936890 333.817688
4.960000 -1.160000 6.920000 -16.991714 5.491768 318.877869
4.960000 -1.160000 6.960000 -23.646164 -20.840813 993.480530
4.960000 -1.160000 7.000000 -6.483177 -41.382385 1754.533447
4.960000 -1.160000 7.040000 20.005600 -40.329575 2026.698608
4.960000 -1.160000 7.080000 35.828323 -20.029976 1684.868652
4.960000 -1.160000 7.120000 31.983229 3.609135 1035.952759
4.960000 -1.160000 7.160000 14.947691 15.998033 479.370514
4.960000 -1.160000 7.200000 -2.369041 14.119999 204.986725
4.960000 -1.120000 6.800000 37.510273 18.599957 1752.979004
4.960000 -1.120000 6.840000 -0.723469 43.168629 1864.053955
4.960000 -1.120000 6.880000 -51.507187 27.502110 3409.356201
4.960000 -1.120000 6.920000 -74.838272 -26.912338 6325.041016
4.960000 -1.120000 6.960000 -47.057648 -83.710754 9221.912109
4.960000 -1.120000 7.000000 15.475639 -100.572632 10354.349609
4.960000 -1.120000 7.040000 68.467773 -65.603195 8991.615234
4.960000 -1.120000 7.080000 76.939774 -6.826950 5966.335938
4.960000 -1.120000 7.120000 42.750805 33.445305 2946.219727
4.960000 -1.120000 7.160000 -1.798635 33.961803 1156.639160
4.960000 -1.120000 7.200000 -25.031963 7.117962 677.264587
4.960000 -1.080000 6.800000 -0.284870 46.043900 2120.121826
4.960000 -1.080000 6.840000 -64.278748 39.702873 5708.075195
4.960000 -1.080000 6.880000 -110.310524 -25.506187 12818.977539
4.960000 -1.080000 6.920000 -89.749435 -115.692154 21439.636719
4.960000 -1.080000 6.960000 -2.179901 -165.618774 27434.330078
4.960000 -1.080000 7.000000 96.640823 -134.318802 27380.990234
4.960000 -1.080000 7.040000 139.167435 -42.969994 21213.994141
4.960000 -1.080000 7.080000 102.760948 42.256981 12345.464844
4.960000 -1.080000 7.120000 25.790159 66.697388 5113.673828
4.960000 -1.080000 7.160000 -30.053307 29.886868 1796.426025
4.960000 -1.080000 7.200000 -33.068878 -23.040150 1624.399170
4.960000 -1.040000 6.800000 -45.791664 32.828564 3174.591064
4.960000 -1.040000 6.840000 -105.802643 -18.892878 11551.139648
4.960000 -1.040000 6.880000 -106.894501 -119.936890 25811.292969
4.960000 -1.040000 6.920000 -20.487305 -201.709793 41106.570312
4.960000 -1.040000 6.960000 109.803047 -194.573822 49915.679688
4.960000 -1.040000 7.000000 196.654358 -92.464348 47222.593750
4.960000 -1.040000 7.040000 181.905823 36.087921 34392.066406
4.960000 -1.040000 7.080000 86.151642 104.389984 18319.375000
4.960000 -1.040000 7.120000 -11.779497 79.632126 6480.031738
4.960000 -1.040000 7.160000 -44.785027 3.891562 2020.842896
4.960000 -1.040000 7.200000 -10.057510 -51.604729 2764.201660
4.960000 -1.000000 6.800000 -63.032745 -10.836472 4090.556152
4.960000 -1.000000 6.840000 -86.029785 -93.389198 16122.666016
4.960000 -1.000000 6.880000 -26.031979 -186.602234 35498.058594
4.960000 -1.000000 6.920000 103.232239 -210.787079 55088.085938
4.960000 -1.000000 6.960000 221.155273 -127.179184 65084.203125
4.960000 -1.000000 7.000000 243.705719 19.250727 59763.066406
4.960000 -1.000000 7.040000 156.755310 131.624237 41897.164062
4.960000 -1.000000 7.080000 29.332075 141.692749 20937.207031
4.960000 -1.000000 7.120000 -46.760658 64.591125 6358.572754
4.960000 -1.000000 7.160000 -33.811226 -21.951035 1625.046875
4.960000 -1.000000 7.200000 29.321331 -50.375015 3397.382568
4.960000 -0.960000 6.800000 -39.952873 -49.924702 4088.708008
4.960000 -0.960000 6.840000 -15.530426 -127.490540 16495.031250
4.960000 -0.960000 6.880000 81.054916 -171.308838 35916.617188
4.960000 -0.960000 6.920000 198.433731 -124.527290 54882.992188
4.960000 -0.960000 6.960000 252.591064 3.446424 63814.125000
4.960000 -0.960000 7.000000 198.571686 134.748138 57587.773438
4.960000 -0.960000 7.040000 72.929749 184.757050 39453.914062
4.960000 -0.960000 7.080000 -35.538502 132.690430 18869.734375
4.960000 -0.960000 7.120000 -60.749573 35.486629 4949.811523
4.960000 -0.960000 7.160000 -10.382580 -26.357409 802.510986
4.960000 -0.960000 7.200000 51.666470 -17.769579 2985.182129
4.960000 -0.920000 6.800000 2.292904 -55.653442 3102.562988
4.960000 -0.920000 6.840000 53.436386 -98.019073 12463.185547
4.960000 -0.920000 6.880000 139.706497 -85.610466 26847.058594
4.960000 -0.920000 6.920000 201.442383 -1.717533 40581.984375
4.960000 -0.920000 6.960000 185.188477 111.626297 46755.203125
4.960000 -0.920000 7.000000 92.680664 182.459030 41881.000000
4.960000 -0.920000 7.040000 -16.407810 167.975174 28484.875000
4.960000 -0.920000 7.080000 -73.112480 89.854950 13419.346680
4.960000 -0.920000 7.120000 -55.112885 13.128475 3209.786865
4.960000 -0.920000 7.160000 0.803930 -10.614254 113.308693
4.960000 -0.920000 7.200000 37.855171 17.564484 1741.525146
4.960000 -0.880000 6.800000 30.235195 -29.158918 1764.409546
4.960000 -0.880000 6.840000 73.963211 -33.904339 6620.060547
4.960000 -0.880000 6.880000 117.970024 4.172318 13934.334961
4.960000 -0.880000 6.920000 124.034119 73.715622 20818.455078
4.960000 -0.880000 6.960000 76.918488 134.215088 23930.142578
4.960000 -0.880000 7.000000 0.376419 147.058395 21626.314453
4.960000 -0.880000 7.040000 -60.146538 107.146347 15097.945312
4.960000 -0.880000 7.080000 -73.608185 46.297371 7561.611328
4.960000 -0.880000 7.120000 -46.051647 5.735494 2153.650146
4.960000 -0.880000 7.160000 -10.765350 3.284920 126.683464
4.960000 -0.880000 7.200000 2.535956 24.096798 587.086792
4.960000 -0.840000 6.800000 27.806484 3.697359 786.871033
4.960000 -0.840000 6.840000 44.069099 13.602295 2127.107910
4.960000 -0.840000 6.880000 50.664536 38.461601 4046.189941
4.960000 -0.840000 6.920000 37.633377 66.750298 5871.873047
4.960000 -0.840000 6.960000 7.161797 82.737404 6896.769531
4.960000 -0.840000 7.000000 -27.525940 77.385010 6746.117188
4.960000 -0.840000 7.040000 -51.200115 54.077095 5545.784180
4.960000 -0.840000 7.080000 -56.279507 25.343876 3809.694824
4.960000 -0.840000 7.120000 -46.142792 4.007051 2145.213623
4.960000 -0.840000 7.160000 -30.897324 -4.212122 972.386536
4.960000 -0.840000 7.200000 -20.058668 -2.113859 406.818573
4.960000 -0.800000 6.800000 6.465291 18.704863 391.671875
4.960000 -0.800000 6.840000 1.444458 18.064161 328.400391
4.960000 -0.800000 6.880000 0.023392 14.482763 209.750977
4.960000 -0.800000 6.920000 3.782211 14.325293 219.519135
4.960000 -0.800000 6.960000 6.018394 22.684277 550.797485
4.960000 -0.800000 7.000000 -2.913723 35.041924 1236.426147
4.960000 -0.800000 7.040000 -24.318037 38.409981 2066.693604
4.960000 -0.800000 7.080000 -46.213547 23.159359 2672.047852
4.960000 -0.800000 7.120000 -51.953609 -5.671982 2731.348877
4.960000 -0.800000 7.160000 -35.684273 -30.159828 2182.982422
4.960000 -0.800000 7.200000 -9.200275 -34.578903 1280.345581
5.000000 -1.200000 6.800000 31.327576 -29.589985 1856.984131
5.000000 -1.200000 6.840000 32.743248 -15.347733 1307.673096
5.000000 -1.200000 6.880000 27.112303 -6.544605 777.908813
5.000000 -1.200000 6.920000 21.847906 -4.407448 496.756592
5.000000 -1.200000 6.960000 20.583832 -3.991989 439.630096
5.000000 -1.200000 7.000000 20.775040 -1.223618 433.099518
5.000000 -1.200000 7.040000 18.802155 2.752418 361.096832
5.000000 -1.200000 7.080000 15.198967 4.700310 253.101501
5.000000 -1.200000 7.120000 13.253731 4.850702 199.190689
5.000000 -1.200000 7.160000 13.200649 6.999818 223.254593
5.000000 -1.200000 7.200000 10.407979 12.585816 266.728790
5.000000 -1.160000 6.800000 37.897106 4.053269 1452.619629
5.000000 -1.160000 6.840000 18.490208 20.594912 766.038208
5.000000 -1.160000 6.880000 -7.404699 15.724602 302.092682
5.000000 -1.160000 6.920000 -19.209354 -7.828300 430.281586
5.000000 -1.160000 6.960000 -7.391384 -31.165909 1025.946411
5.000000 -1.160000 7.000000 18.177139 -35.900871 1619.281006
5.000000 -1.160000 7.040000 37.770885 -19.465626 1805.550293
5.000000 -1.160000 7.080000 38.778374 4.902840 1527.800171
5.000000 -1.160000 7.120000 23.878342 21.339745 1025.559814
5.000000 -1.160000 7.160000 4.917741 23.562279 579.365173
5.000000 -1.160000 7.200000 -8.580935 15.715385 320.605804
5.000000 -1.120000 6.800000 12.752168 32.151291 1196.323364
5.000000 -1.120000 6.840000 -29.704922 30.942753 1839.836426
5.000000 -1.120000 6.880000 -60.970631 -9.248680 3802.955811
5.000000 -1.120000 6.920000 -49.379341 -65.555298 6735.816406
5.000000 -1.120000 6.960000 4.200760 -95.936340 9221.427734
5.000000 -1.120000 7.000000 63.669277 -75.751648 9792.088867
5.000000 -1.120000 7.040000 87.743683 -19.753979 8089.173828
5.000000 -1.120000 7.080000 64.318504 31.354561 5119.978516
5.000000 -1.120000 7.120000 17.415512 46.027130 2421.796875
5.000000 -1.120000 7.160000 -17.325424 25.183794 934.393799
5.000000 -1.120000 7.200000 -22.852837 -5.545554 553.005310
5.000000 -1.080000 6.800000 -27.320166 29.058470 1590.786133
5.000000 -1.080000 6.840000 -74.873337 -8.352421 5675.779297
5.000000 -1.080000 6.880000 -77.880966 -85.160164 13317.698242
5.000000 -1.080000 6.920000 -13.394928 -148.015717 22088.076172
5.000000 -1.080000 6.960000 84.815239 -142.978165 27636.380859
5.000000 -1.080000 7.000000 149.663864 -65.928261 26745.806641
5.000000 -1.080000 7.040000 137.601990 30.328705 19854.136719
5.000000 -1.080000 7.080000 65.397446 80.700592 10789.411133
5.000000 -1.080000 7.120000 -7.606094 62.009605 3903.043945
5.000000 -1.080000 7.160000 -32.780537 6.488077 1116.658691
5.000000 -1.080000 7.200000 -9.614346 -34.225479 1263.819092
5.000000 -1.040000 6.800000 -50.103043 -5.773205 2543.644775
5.000000 -1.040000 6.840000 -72.469856 -77.108383 11197.582031
5.000000 -1.040000 6.880000 -21.333118 -160.184265 26114.099609
5.000000 -1.040000 6.920000 92.528969 -182.805389 41979.417969
5.000000 -1.040000 6.960000 196.943634 -109.356041 50745.539062
5.000000 -1.040000 7.000000 216.512207 19.882626 47272.855469
5.000000 -1.040000 7.040000 139.236740 118.263382 33373.097656
5.000000 -1.040000 7.080000 27.336781 125.997162 16622.583984
5.000000 -1.040000 7.120000 -38.387955 58.147926 4854.816406
5.000000 -1.040000 7.160000 -26.846884 -16.238873 984.456177
5.000000 -1.040000 7.200000 25.992928 -39.858353 2264.320557
5.000000 -1.000000 6.800000 -36.459133 -45.427399 3392.916992
5.000000 -1.000000 6.840000 -14.021299 -123.453499 15437.363281
5.000000 -1.000000 6.880000 83.161713 -169.292862 35575.941406
5.000000 -1.000000 6.920000 203.220673 -122.395462 56279.289062
5.000000 -1.000000 6.960000 258.562195 8.536064 66927.273438
5.000000 -1.000000 7.000000 202.319199 142.492874 61237.277344
5.000000 -1.000000 7.040000 73.272339 191.856628 42177.800781
5.000000 -1.000000 7.080000 -36.121819 136.779282 20013.357422
5.000000 -1.000000 7.120000 -59.301979 37.975647 4958.874512
5.000000 -1.000000 7.160000 -7.416887 -22.221375 548.799683
5.000000 -1.000000 7.200000 52.450603 -11.538532 2884.203613
5.000000 -0.960000 6.800000 2.327644 -58.919678 3476.946289
5.000000 -0.960000 6.840000 60.914921 -109.728973 15751.075195
5.000000 -0.960000 6.880000 163.564499 -96.141235 35996.484375
5.000000 -0.960000 6.920000 237.604813 4.348015 56474.953125
5.000000 -0.960000 6.960000 216.648041 140.551682 66691.148438
5.000000 -0.960000 7.000000 103.332123 223.555389 60654.539062
5.000000 -0.960000 7.040000 -27.513372 201.836090 41494.792969
5.000000 -0.960000 7.080000 -91.522476 104.984596 19398.128906
5.000000 -0.960000 7.120000 -64.923569 14.517727 4425.833984
5.000000 -0.960000 7.160000 3.061670 -8.993385 90.254807
5.000000 -0.960000 7.200000 43.025013 27.422739 2603.158203
5.000000 -0.920000 6.800000 35.263649 -38.212440 2703.715332
5.000000 -0.920000 6.840000 98.722366 -47.111252 11965.575195
5.000000 -0.920000 6.880000 164.554184 8.529980 27150.839844
5.000000 -0.920000 6.920000 172.549652 112.555695 42442.167969
5.000000 -0.920000 6.960000 98.690178 200.995453 50138.921875
5.000000 -0.920000 7.000000 -17.665787 213.432739 45865.613281
5.000000 -0.920000 7.040000 -103.464203 145.336807 31827.628906
5.000000 -0.920000 7.080000 -112.721756 51.473843 15355.750977
5.000000 -0.920000 7.120000 -61.840046 -2.851948 3832.324707
5.000000 -0.920000 7.160000 -8.135181 4.086319 82.879181
5.000000 -0.920000 7.200000 4.443134 40.553532 1664.330444
5.000000 -0.880000 6.800000 39.645832 -3.147262 1581.697266
5.000000 -0.880000 6.840000 78.875168 15.587112 6464.250000
5.000000 -0.880000 6.880000 96.115707 72.124062 14440.109375
5.000000 -0.880000 6.920000 63.299969 136.134644 22539.527344
5.000000 -0.880000 6.960000 -11.266090 163.657013 26910.541016
5.000000 -0.880000 7.000000 -85.912575 133.828491 25291.035156
5.000000 -0.880000 7.040000 -118.660202 66.936447 18560.730469
5.000000 -0.880000 7.080000 -100.450600 6.800179 10136.565430
5.000000 -0.880000 7.120000 -58.544968 -15.668731 3673.022217
5.000000 -0.880000 7.160000 -29.279705 -4.011017 873.389404
5.000000 -0.880000 7.200000 -27.649870 14.365905 970.894531
5.000000 -0.840000 6.800000 18.978043 19.056725 723.324829
5.000000 -0.840000 6.840000 28.286938 37.076164 2174.792725
5.000000 -0.840000 6.880000 19.785629 64.116028 4502.336426
5.000000 -0.840000 6.920000 -9.677597 82.912109 6968.073730
5.000000 -0.840000 6.960000 -48.454590 79.446869 8659.652344
5.000000 -0.840000 7.000000 -78.388000 53.231087 8978.227539
5.000000 -0.840000 7.040000 -87.447678 16.721149 7926.692871
5.000000 -0.840000 7.080000 -76.314812 -14.343348 6029.682129
5.000000 -0.840000 7.120000 -55.117683 -30.815048 3987.526123
5.000000 -0.840000 7.160000 -35.147781 -33.112000 2331.770996
5.000000 -0.840000 7.200000 -22.788813 -27.586502 1280.344971
5.000000 -0.800000 6.800000 -5.021957 18.044861 350.837067
5.000000 -0.800000 6.840000 -8.932842 17.340576 380.491272
5.000000 -0.800000 6.880000 -11.113319 15.850963 374.758881
5.000000 -0.800000 6.920000 -12.582016 17.362328 459.757538
5.000000 -0.800000 6.960000 -19.176401 21.951363 849.596680
5.000000 -0.800000 7.000000 -34.646118 22.067993 1687.349854
5.000000 -0.800000 7.040000 -52.852226 8.103100 2859.018066
5.000000 -0.800000 7.080000 -59.383064 -20.255938 3936.651367
5.000000 -0.800000 7.120000 -44.024410 -49.237881 4362.517578
5.000000 -0.800000 7.160000 -12.606750 -60.403160 3807.471924
5.000000 -0.800000 7.200000 15.114979 -47.267555 2462.684326
5.040000 -1.200000 6.800000 29.250946 3.594172 868.535950
5.040000 -1.200000 6.840000 20.699345 9.366428 516.192871
5.040000 -1.200000 6.880000 14.215568 6.895889 249.635651
5.040000 -1.200000 6.920000 14.891495 3.099083 231.360931
5.040000 -1.200000 6.960000 18.739883 4.818262 374.398865
5.040000 -1.200000 7.000000 18.555862 10.944602 464.104370
5.040000 -1.200000 7.040000 13.039772 14.785614 388.650024
5.040000 -1.200000 7.080000 7.887705 13.177090 235.851593
5.040000 -1.200000 7.120000 7.713143 10.662247 173.176086
5.040000 -1.200000 7.160000 9.225361 13.248323 260.625366
5.040000 -1.200000 7.200000 4.812095 19.445282 401.275238
5.040000 -1.160000 6.800000 14.743458 22.561726 726.401001
5.040000 -1.160000 6.840000 -5.517111 21.283520 483.426727
5.040000 -1.160000 6.880000 -17.865831 3.278797 329.938446
5.040000 -1.160000 6.920000 -11.047215 -18.097382 449.556183
5.040000 -1.160000 6.960000 9.966011 -25.952547 772.856079
5.040000 -1.160000 7.000000 28.940155 -14.955845 1061.209839
5.040000 -1.160000 7.040000 33.080612 5.455566 1124.090088
5.040000 -1.160000 7.080000 22.464457 21.209763 954.505859
5.040000 -1.160000 7.120000 6.499078 25.350578 684.889832
5.040000 -1.160000 7.160000 -6.240754 20.321993 451.930420
5.040000 -1.160000 7.200000 -13.446625 11.539811 313.978943
5.040000 -1.120000 6.800000 -12.573732 22.066380 645.023865
5.040000 -1.120000 6.840000 -38.946011 1.227983 1518.299683
5.040000 -1.120000 6.880000 -39.869072 -40.558922 3234.568848
5.040000 -1.120000 6.920000 -4.436989 -72.953629 5341.918945
5.040000 -1.120000 6.960000 46.959465 -67.973732 6825.619629
5.040000 -1.120000 7.000000 78.462769 -26.114132 6838.354004
5.040000 -1.120000 7.040000 69.436920 23.378273 5368.029297
5.040000 -1.120000 7.080000 30.803352 47.889565 3242.256836
5.040000 -1.120000 7.120000 -7.192198 37.731644 1475.404541
5.040000 -1.120000 7.160000 -21.878208 9.591255 570.648193
5.040000 -1.120000 7.200000 -13.798456 -12.705974 351.839172
5.040000 -1.080000 6.800000 -30.320961 -2.200049 924.200867
5.040000 -1.080000 6.840000 -44.993526 -47.293549 4261.097168
5.040000 -1.080000 6.880000 -12.121342 -100.578781 10263.017578
5.040000 -1.080000 6.920000 61.362232 -114.483109 16871.705078
5.040000 -1.080000 6.960000 127.950951 -66.060013 20735.371094
5.040000 -1.080000 7.000000 138.849731 17.619194 19589.683594
5.040000 -1.080000 7.040000 87.390594 80.108734 14054.525391
5.040000 -1.080000 7.080000 14.603642 83.651283 7210.803223
5.040000 -1.080000 7.120000 -27.913902 39.023605 2302.027832
5.040000 -1.080000 7.160000 -21.317715 -9.565637 545.946350
5.040000 -1.080000 7.200000 11.204203 -26.703659 838.619568
5.040000 -1.040000 6.800000 -21.473988 -32.871780 1541.686035
5.040000 -1.040000 6.840000 -6.166523 -89.198944 7994.477539
5.040000 -1.040000 6.880000 65.439560 -123.322098 19490.675781
5.040000 -1.040000 6.920000 155.210403 -88.019119 31837.634766
5.040000 -1.040000 6.960000 196.212387 11.047714 38621.351562
5.040000 -1.040000 7.000000 152.319427 112.095848 35766.687500
5.040000 -1.040000 7.040000 53.420067 148.088638 24783.947266
5.040000 -1.040000 7.080000 -29.501404 104.407219 11771.200195
5.040000 -1.040000 7.120000 -46.076958 28.206264 2918.679199
5.040000 -1.040000 7.160000 -5.937929 -17.770111 351.035858
5.040000 -1.040000 7.200000 39.309303 -10.180109 1648.855957
5.040000 -1.000000 6.800000 8.900822 -45.172951 2119.820068
5.040000 -1.000000 6.840000 56.258995 -87.485565 10818.798828
5.040000 -1.000000 6.880000 143.194962 -76.316315 26328.976562
5.040000 -1.000000 6.920000 206.769989 10.490883 42863.886719
5.040000 -1.000000 6.960000 187.431061 129.034241 51780.238281
5.040000 -1.000000 7.000000 86.797775 200.365295 47680.105469
5.040000 -1.000000 7.040000 -28.316113 178.588257 32695.568359
5.040000 -1.000000 7.080000 -82.608566 90.969215 15099.574219
5.040000 -1.000000 7.120000 -56.086617 11.123524 3269.441162
5.040000 -1.000000 7.160000 5.443989 -7.656801 88.263618
5.040000 -1.000000 7.200000 39.691330 25.887165 2245.547119
5.040000 -0.960000 6.800000 37.227859 -29.253883 2241.703125
5.040000 -0.960000 6.840000 97.655289 -38.634766 11029.201172
5.040000 -0.960000 6.880000 162.795639 16.255035 26766.646484
5.040000 -0.960000 6.920000 169.955994 121.167648 43566.636719
5.040000 -0.960000 6.960000 92.879631 209.977966 52717.371094
5.040000 -0.960000 7.000000 -27.247938 219.100861 48747.636719
5.040000 -0.960000 7.040000 -113.001938 144.651947 33693.625000
5.040000 -0.960000 7.080000 -116.816605 46.278152 15787.787109
5.040000 -0.960000 7.120000 -59.024269 -6.593849 3527.343018
5.040000 -0.960000 7.160000 -2.810247 6.195751 46.284824
5.040000 -0.960000 7.200000 6.431959 46.765354 2228.368408
5.040000 -0.920000 6.800000 42.539501 1.242355 1811.152588
5.040000 -0.920000 6.840000 89.408119 22.392986 8495.257812
5.040000 -0.920000 6.880000 110.465866 91.361961 20549.714844
5.040000 -0.920000 6.920000 68.055656 170.020508 33538.546875
5.040000 -0.920000 6.960000 -27.149117 200.431854 40910.003906
5.040000 -0.920000 7.000000 -118.889145 155.904236 38440.757812
5.040000 -0.920000 7.040000 -151.594406 66.528381 27406.888672
5.040000 -0.920000 7.080000 -117.139824 -6.668652 13766.208984
5.040000 -0.920000 7.120000 -57.740532 -24.401403 3929.397461
5.040000 -0.920000 7.160000 -24.199406 1.669928 588.399841
5.040000 -0.920000 7.200000 -31.747011 28.412228 1815.127441
5.040000 -0.880000 6.800000 24.450352 22.662727 1111.418945
5.040000 -0.880000 6.840000 43.555386 53.483639 4757.571289
5.040000 -0.880000 6.880000 29.103691 102.611908 11376.228516
5.040000 -0.880000 6.920000 -26.263935 134.028030 18653.308594
5.040000 -0.880000 6.960000 -95.643425 118.431763 23173.746094
5.040000 -0.880000 7.000000 -137.919708 59.984081 22619.935547
5.040000 -0.880000 7.040000 -131.693863 -6.255466 17382.404297
5.040000 -0.880000 7.080000 -91.286316 -43.974079 10266.911133
5.040000 -0.880000 7.120000 -50.935505 -44.095539 4538.842285
5.040000 -0.880000 7.160000 -34.167229 -26.417679 1865.293213
5.040000 -0.880000 7.200000 -37.797546 -16.403915 1697.742920
5.040000 -0.840000 6.800000 0.758611 22.903219 525.132935
5.040000 -0.840000 6.840000 -1.225306 41.816856 1750.150879
5.040000 -0.840000 6.880000 -22.605099 58.543652 3938.349609
5.040000 -0.840000 6.920000 -56.355835 57.152172 6442.351074
5.040000 -0.840000 6.960000 -85.261200 32.988274 8357.698242
5.040000 -0.840000 7.000000 -94.941521 -4.100281 9030.705078
5.040000 -0.840000 7.040000 -83.293671 -38.134834 8392.101562
5.040000 -0.840000 7.080000 -59.161949 -58.231941 6891.095215
5.040000 -0.840000 7.120000 -33.881126 -63.163990 5137.620605
5.040000 -0.840000 7.160000 -14.469387 -57.938263 3566.205566
5.040000 -0.840000 7.200000 -2.862194 -48.418335 2352.527344
5.040000 -0.800000 6.800000 -11.387711 9.564606 221.161621
5.040000 -0.800000 6.840000 -16.488064 9.947793 370.814850
5.040000 -0.800000 6.880000 -21.929703 7.377111 535.333618
5.040000 -0.800000 6.920000 -26.954285 3.816696 741.100586
5.040000 -0.800000 6.960000 -33.945648 -1.097588 1153.511719
5.040000 -0.800000 7.000000 -42.811050 -12.238060 1982.556152
5.040000 -0.800000 7.040000 -46.308891 -33.253166 3250.286621
5.040000 -0.800000 7.080000 -34.405453 -58.410961 4595.575684
5.040000 -0.800000 7.120000 -5.591457 -72.963051 5354.871094
5.040000 -0.800000 7.160000 27.054873 -65.136597 4974.742676
5.040000 -0.800000 7.200000 44.351051 -39.036755 3490.883789
5.080000 -1.200000 6.800000 3.150431 21.941244 491.343384
5.080000 -1.200000 6.840000 -5.267443 14.846908 248.176620
5.080000 -1.200000 6.880000 -3.613403 4.869753 36.771175
5.080000 -1.200000 6.920000 5.067520 2.346968 31.188017
5.080000 -1.200000 6.960000 10.284035 8.964542 186.124390
5.080000 -1.200000 7.000000 6.287651 16.154400 300.499176
5.080000 -1.200000 7.040000 -1.541784 15.546391 244.067368
5.080000 -1.200000 7.080000 -3.713856 8.939165 93.701401
5.080000 -1.200000 7.120000 1.450422 5.776947 35.476841
5.080000 -1.200000 7.160000 5.472206 11.079002 152.689331
5.080000 -1.200000 7.200000 0.072359 18.421154 339.344177
5.080000 -1.160000 6.800000 -12.875807 16.357393 433.350708
5.080000 -1.160000 6.840000 -20.829851 3.628076 447.045624
5.080000 -1.160000 6.880000 -15.662411 -12.570158 403.319977
5.080000 -1.160000 6.920000 0.544693 -19.485924 379.997925
5.080000 -1.160000 6.960000 15.883171 -12.063354 397.799652
5.080000 -1.160000 7.000000 20.113470 2.855770 412.707092
5.080000 -1.160000 7.040000 13.246511 14.233124 378.051880
5.080000 -1.160000 7.080000 2.988610 17.003387 298.046967
5.080000 -1.160000 7.120000 -4.303470 14.095257 217.196121
5.080000 -1.160000 7.160000 -8.426414 10.096082 172.935333
5.080000 -1.160000 7.200000 -11.767263 5.520822 168.947968
5.080000 -1.120000 6.800000 -19.635733 -2.777516 393.276611
5.080000 -1.120000 6.840000 -22.920891 -23.693050 1086.727905
5.080000 -1.120000 6.880000 -5.075916 -45.393044 2086.293213
5.080000 -1.120000 6.920000 27.915775 -47.579254 3043.075928
5.080000 -1.120000 6.960000 54.225506 -23.541435 3494.604736
5.080000 -1.120000 7.000000 55.155315 12.205410 3191.080811
5.080000 -1.120000 7.040000 31.437063 36.136967 2294.169434
5.080000 -1.120000 7.080000 1.508654 35.504028 1262.812012
5.080000 -1.120000 7.120000 -15.312420 16.920582 520.776306
5.080000 -1.120000 7.160000 -13.819137 -2.655682 198.021179
5.080000 -1.120000 7.200000 -3.023366 -11.690650 145.812042
5.080000 -1.080000 6.800000 -7.578236 -22.353529 557.109924
5.080000 -1.080000 6.840000 1.468582 -48.793438 2382.956299
5.080000 -1.080000 6.880000 38.702026 -64.022758 5596.760254
5.080000 -1.080000 6.920000 84.369995 -43.474815 9008.355469
5.080000 -1.080000 6.960000 103.625504 9.354420 10825.750000
5.080000 -1.080000 7.000000 78.383537 61.671276 9947.325195
5.080000 -1.080000 7.040000 25.314230 78.796219 6849.654297
5.080000 -1.080000 7.080000 -18.180401 54.125237 3260.068359
5.080000 -1.080000 7.120000 -26.425934 12.951651 866.075195
5.080000 -1.080000 7.160000 -5.093365 -12.283886 176.836227
5.080000 -1.080000 7.200000 19.151058 -10.058243 467.931274
5.080000 -1.040000 6.800000 17.160738 -25.561853 947.899292
5.080000 -1.040000 6.840000 42.568123 -47.351738 4054.231934
5.080000 -1.040000 6.880000 92.204208 -39.714203 10078.833984
5.080000 -1.040000 6.920000 128.993591 12.933805 16806.628906
5.080000 -1.040000 6.960000 115.667961 85.117729 20624.105469
5.080000 -1.040000 7.000000 52.250153 128.052490 19127.517578
5.080000 -1.040000 7.040000 -19.818043 112.658508 13084.694336
5.080000 -1.040000 7.080000 -53.011559 55.946301 5940.213867
5.080000 -1.040000 7.120000 -34.658394 4.672756 1223.038818
5.080000 -1.040000 7.160000 5.861215 -7.250636 86.925560
5.080000 -1.040000 7.200000 28.678761 14.271421 1026.144775
5.080000 -1.000000 6.800000 36.069855 -7.692165 1360.203857
5.080000 -1.000000 6.840000 71.846786 -13.153971 5334.987793
5.080000 -1.000000 6.880000 113.733765 23.215927 13474.348633
5.080000 -1.000000 6.920000 117.480057 95.059021 22837.781250
5.080000 -1.000000 6.960000 62.053474 156.668732 28395.726562
5.080000 -1.000000 7.000000 -24.486919 161.349564 26633.291016
5.080000 -1.000000 7.040000 -85.672615 105.165237 18399.523438
5.080000 -1.000000 7.080000 -85.897438 31.977848 8400.952148
5.080000 -1.000000 7.120000 -40.450130 -6.138287 1673.891602
5.080000 -1.000000 7.160000 2.574933 5.674726 38.832802
5.080000 -1.000000 7.200000 8.853395 37.709358 1500.378296
5.080000 -0.960000 6.800000 34.332981 18.265659 1512.387817
5.080000 -0.960000 6.840000 66.482986 32.690666 5488.666992
5.080000 -0.960000 6.880000 81.606773 85.083313 13898.835938
5.080000 -0.960000 6.920000 46.519955 147.017517 23778.255859
5.080000 -0.960000 6.960000 -32.443214 169.881073 29912.140625
5.080000 -0.960000 7.000000 -108.198448 129.603043 28503.853516
5.080000 -0.960000 7.040000 -132.354614 51.706127 20191.267578
5.080000 -0.960000 7.080000 -98.012482 -9.957489 9705.597656
5.080000 -0.960000 7.120000 -43.788353 -20.852489 2352.246094
5.080000 -0.960000 7.160000 -15.790941 6.758234 295.027557
5.080000 -0.960000 7.200000 -26.284466 31.909515 1709.090332
5.080000 -0.920000 6.800000 14.361578 32.840225 1284.735229
5.080000 -0.920000 6.840000 30.639065 58.810265 4397.399414
5.080000 -0.920000 6.880000 16.372566 104.041245 11092.640625
5.080000 -0.920000 6.920000 -38.544365 132.716431 19099.318359
5.080000 -0.920000 6.960000 -107.275589 113.354393 24357.269531
5.080000 -0.920000 7.000000 -145.864380 50.143509 23790.789062
5.080000 -0.920000 7.040000 -131.695099 -17.894476 17663.812500
5.080000 -0.920000 7.080000 -83.015106 -50.607948 9452.671875
5.080000 -0.920000 7.120000 -40.496353 -40.619919 3289.932373
5.080000 -0.920000 7.160000 -29.855810 -14.948547 1114.828491
5.080000 -0.920000 7.200000 -42.505318 -5.150519 1833.229858
5.080000 -0.880000 6.800000 -6.991839 27.643679 813.058777
5.080000 -0.880000 6.840000 -8.367338 50.977020 2668.668945
5.080000 -0.880000 6.880000 -36.611328 72.812592 6642.062500
5.080000 -0.880000 6.920000 -82.631027 68.098671 11465.316406
5.080000 -0.880000 6.960000 -118.485390 29.289169 14896.642578
5.080000 -0.880000 7.000000 -120.705399 -24.811909 15185.423828
5.080000 -0.880000 7.040000 -90.322296 -64.437325 12310.286133
5.080000 -0.880000 7.080000 -50.409798 -73.640358 7964.049805
5.080000 -0.880000 7.120000 -24.592899 -60.813072 4303.040527
5.080000 -0.880000 7.160000 -18.213524 -46.560448 2499.607666
5.080000 -0.880000 7.200000 -19.199657 -43.259499 2240.011230
5.080000 -0.840000 6.800000 -14.867085 11.745039 358.976166
5.080000 -0.840000 6.840000 -25.281456 22.681744 1153.613525
5.080000 -0.840000 6.880000 -47.295082 22.498394 2743.002441
5.080000 -0.840000 6.920000 -68.159294 4.503941 4665.975098
5.080000 -0.840000 6.960000 -74.736496 -25.365334 6228.944336
5.080000 -0.840000 7.000000 -63.414700 -53.976173 6934.851562
5.080000 -0.840000 7.040000 -40.765091 -71.314194 6747.506836
5.080000 -0.840000 7.080000 -16.262568 -75.697479 5994.579590
5.080000 -0.840000 7.120000 4.345171 -70.858070 5039.746582
5.080000 -0.840000 7.160000 19.404713 -60.614529 4050.664062
5.080000 -0.840000 7.200000 28.173651 -47.481209 3048.219727
5.080000 -0.800000 6.800000 -9.679488 0.693212 94.173035
5.080000 -0.800000 6.840000 -17.920185 -0.820837 321.806793
5.080000 -0.800000 6.880000 -23.762447 -8.865295 643.247375
5.080000 -0.800000 6.920000 -24.636616 -18.788776 959.980957
5.080000 -0.800000 6.960000 -22.984444 -28.063627 1315.851807
5.080000 -0.800000 7.000000 -19.991611 -39.021652 1922.353882
5.080000 -0.800000 7.040000 -11.167381 -53.166218 2951.357178
5.080000 -0.800000 7.080000 8.866128 -64.443863 4231.619629
5.080000 -0.800000 7.120000 36.789261 -61.803501 5173.122559
5.080000 -0.800000 7.160000 58.675446 -40.854836 5111.925293
5.080000 -0.800000 7.200000 61.134293 -12.017693 3881.826660
5.120000 -1.200000 6.800000 -25.752678 12.590631 821.724426
5.120000 -1.200000 6.840000 -24.422245 -2.182063 601.207458
5.120000 -1.200000 6.880000 -12.247414 -10.474981 259.724365
5.120000 -1.200000 6.920000 0.035765 -6.162155 37.973434
5.120000 -1.200000 6.960000 1.967762 4.053068 20.299450
5.120000 -1.200000 7.000000 -5.155741 8.053080 91.433754
5.120000 -1.200000 7.040000 -10.104079 1.958050 105.926376
5.120000 -1.200000 7.080000 -4.894719 -5.660244 55.996632
5.120000 -1.200000 7.120000 5.791998 -4.016237 49.677402
5.120000 -1.200000 7.160000 9.937243 7.055647 148.530945
5.120000 -1.200000 7.200000 2.132672 16.444065 274.955566
5.120000 -1.160000 6.800000 -24.047428 -8.042465 642.960083
5.120000 -1.160000 6.840000 -16.984108 -18.518810 631.406250
5.120000 -1.160000 6.880000 -3.380190 -21.573685 476.849548
5.120000 -1.160000 6.920000 7.994404 -14.352182 269.895630
5.120000 -1.160000 6.960000 10.083699 -3.043354 110.942993
5.120000 -1.160000 7.000000 4.572546 3.522202 33.314079
5.120000 -1.160000 7.040000 -0.772649 2.820658 8.553096
5.120000 -1.160000 7.080000 -1.013929 0.009302 1.028139
5.120000 -1.160000 7.120000 1.232426 0.737223 2.062370
5.120000 -1.160000 7.160000 0.301162 4.271692 18.338053
5.120000 -1.160000 7.200000 -4.750249 4.952158 47.088734
5.120000 -1.120000 6.800000 -4.829728 -21.965523 505.810455
5.120000 -1.120000 6.840000 3.808246 -26.975037 742.155334
5.120000 -1.120000 6.880000 17.804432 -25.682636 976.595581
5.120000 -1.120000 6.920000 29.614355 -13.998390 1072.964966
5.120000 -1.120000 6.960000 30.824877 3.383381 961.620300
5.120000 -1.120000 7.000000 20.416704 16.359072 684.461060
5.120000 -1.120000 7.040000 5.884802 18.191336 365.555573
5.120000 -1.120000 7.080000 -3.528486 10.775841 128.568954
5.120000 -1.120000 7.120000 -4.368061 1.679435 21.900459
5.120000 -1.120000 7.160000 -0.134696 -3.130618 9.818910
5.120000 -1.120000 7.200000 3.760822 -3.442412 25.993984
5.120000 -1.080000 6.800000 20.688583 -15.639873 672.623108
5.120000 -1.080000 6.840000 28.243723 -16.651787 1074.989868
5.120000 -1.080000 6.880000 42.097832 -10.104445 1874.327271
5.120000 -1.080000 6.920000 51.205307 9.568005 2713.530029
5.120000 -1.080000 6.960000 43.584606 34.258266 3073.246582
5.120000 -1.080000 7.000000 19.652702 47.717819 2663.218994
5.120000 -1.080000 7.040000 -6.001781 40.494286 1675.808472
5.120000 -1.080000 7.080000 -16.966255 19.205723 656.713623
5.120000 -1.080000 7.120000 -9.348250 0.627470 87.783501
5.120000 -1.080000 7.160000 5.921882 -3.441464 46.912357
5.120000 -1.080000 7.200000 14.576900 4.417032 231.996201
5.120000 -1.040000 6.800000 33.131306 9.704189 1191.854736
5.120000 -1.040000 6.840000 39.041306 11.069813 1646.764282
5.120000 -1.040000 6.880000 49.797054 24.206413 3065.697021
5.120000 -1.040000 6.920000 48.676739 50.784958 4948.537109
5.120000 -1.040000 6.960000 24.832136 74.409698 6153.438477
5.120000 -1.040000 7.000000 -12.216745 74.949463 5766.670898
5.120000 -1.040000 7.040000 -38.544655 49.102959 3896.791016
5.120000 -1.040000 7.080000 -37.483406 15.521796 1645.931885
5.120000 -1.040000 7.120000 -15.186605 -1.773222 233.777298
5.120000 -1.040000 7.160000 5.937993 4.776333 58.073120
5.120000 -1.040000 7.200000 9.105459 21.154087 530.404785
5.120000 -1.000000 6.800000 21.384518 36.530621 1791.783813
5.120000 -1.000000 6.840000 25.701939 39.804264 2244.968994
5.120000 -1.000000 6.880000 28.541826 57.736328 4148.119629
5.120000 -1.000000 6.920000 12.092237 82.524467 6956.509766
5.120000 -1.000000 6.960000 -25.242085 91.565384 9021.382812
5.120000 -1.000000 7.000000 -62.436901 70.172333 8822.523438
5.120000 -1.000000 7.040000 -73.782303 28.883762 6278.099609
5.120000 -1.000000 7.080000 -53.672890 -4.077971 2897.408936
5.120000 -1.000000 7.120000 -22.430367 -8.694674 578.718689
5.120000 -1.000000 7.160000 -6.574517 8.894852 122.342667
5.120000 -1.000000 7.200000 -13.810484 24.639755 797.847046
5.120000 -0.960000 6.800000 -6.502929 44.885368 2056.984375
5.120000 -0.960000 6.840000 -4.543148 50.070168 2527.661865
5.120000 -0.960000 6.880000 -12.293308 66.758972 4607.885742
5.120000 -0.960000 6.920000 -40.169231 78.570267 7786.853516
5.120000 -0.960000 6.960000 -77.191605 65.806984 10289.103516
5.120000 -0.960000 7.000000 -98.034531 27.491989 10366.579102
5.120000 -0.960000 7.040000 -86.989578 -14.138353 7767.079590
5.120000 -0.960000 7.080000 -54.131458 -33.053150 4022.725586
5.120000 -0.960000 7.120000 -26.200909 -23.533852 1240.329834
5.120000 -0.960000 7.160000 -21.162485 -4.073013 464.440216
5.120000 -0.960000 7.200000 -32.611107 2.533769 1069.904297
5.120000 -0.920000 6.800000 -29.463390 29.874954 1760.604248
5.120000 -0.920000 6.840000 -31.362968 35.965477 2277.151367
5.120000 -0.920000 6.880000 -46.902901 44.433765 4174.241699
5.120000 -0.920000 6.920000 -74.341148 38.495010 7008.472168
5.120000 -0.920000 6.960000 -95.974976 10.181803 9314.865234
5.120000 -0.920000 7.000000 -93.847694 -28.778507 9635.591797
5.120000 -0.920000 7.040000 -67.628098 -55.838837 7691.535156
5.120000 -0.920000 7.080000 -35.748055 -58.032719 4645.719727
5.120000 -0.920000 7.120000 -18.183399 -43.127937 2190.655029
5.120000 -0.920000 7.160000 -18.571514 -30.323784 1264.432983
5.120000 -0.920000 7.200000 -23.651077 -30.785717 1507.133789
5.120000 -0.880000 6.800000 -32.010868 5.858848 1059.021729
5.120000 -0.880000 6.840000 -38.545597 10.204377 1589.892334
5.120000 -0.880000 6.880000 -54.590378 7.396906 3034.823486
5.120000 -0.880000 6.920000 -70.076530 -10.518967 5021.368652
5.120000 -0.880000 6.960000 -71.514595 -39.083996 6641.895996
5.120000 -0.880000 7.000000 -54.557846 -64.003632 7073.023438
5.120000 -0.880000 7.040000 -28.116077 -73.414108 6180.145020
5.120000 -0.880000 7.080000 -6.013639 -67.507759 4593.461426
5.120000 -0.880000 7.120000 4.969288 -56.234795 3187.045898
5.120000 -0.880000 7.160000 8.708039 -48.582237 2436.063721
5.120000 -0.880000 7.200000 12.726937 -45.076870 2193.899170
5.120000 -0.840000 6.800000 -17.705786 -7.358173 367.637573
5.120000 -0.840000 6.840000 -27.317770 -8.093002 811.757263
5.120000 -0.840000 6.880000 -36.624275 -19.249071 1711.864258
5.120000 -0.840000 6.920000 -37.032082 -37.327477 2764.715576
5.120000 -0.840000 6.960000 -26.370512 -53.697048 3578.776855
5.120000 -0.840000 7.000000 -9.512499 -62.225761 3962.532959
5.120000 -0.840000 7.040000 7.442183 -62.958900 4019.209229
5.120000 -0.840000 7.080000 22.196995 -58.926437 3965.031494
5.120000 -0.840000 7.120000 35.189777 -51.265911 3866.514160
5.120000 -0.840000 7.160000 45.297729 -39.092422 3580.101807
5.120000 -0.840000 7.200000 49.018486 -23.642767 2961.792480
5.120000 -0.800000 6.800000 -4.202330 -3.179505 27.768826
5.120000 -0.800000 6.840000 -12.653524 -10.771069 276.127594
5.120000 -0.800000 6.880000 -12.187820 -23.525391 701.987000
5.120000 -0.800000 6.920000 -3.635708 -32.626247 1077.690430
5.120000 -0.800000 6.960000 6.150425 -35.537804 1300.763306
5.120000 -0.800000 7.000000 13.783464 -36.805878 1544.656494
5.120000 -0.800000 7.040000 23.261396 -39.587898 2108.294189
5.120000 -0.800000 7.080000 39.021324 -39.045609 3047.223145
5.120000 -0.800000 7.120000 56.755104 -27.068291 3953.834229
5.120000 -0.800000 7.160000 64.598694 -3.710192 4186.756836
5.120000 -0.800000 7.200000 55.408508 18.912628 3427.790283
5.160000 -1.200000 6.800000 -35.052864 -14.828988 1448.602173
5.160000 -1.200000 6.840000 -22.348602 -26.904285 1223.300537
5.160000 -1.200000 6.880000 -5.283606 -26.559875 733.343506
5.160000 -1.200000 6.920000 4.122653 -15.858469 268.487305
5.160000 -1.200000 6.960000 1.791927 -6.352820 43.569328
5.160000 -1.200000 7.000000 -4.065856 -6.854904 63.520897
5.160000 -1.200000 7.040000 -2.101254 -13.881184 197.102524
5.160000 -1.200000 7.080000 9.382821 -15.614347 331.845154
5.160000 -1.200000 7.120000 20.225605 -5.181128 435.919189
5.160000 -1.200000 7.160000 19.319832 11.385203 502.878723
5.160000 -1.200000 7.200000 6.582147 21.284374 496.349243
5.160000 -1.160000 6.800000 -12.108353 -30.379068 1069.500000
5.160000 -1.160000 6.840000 1.202502 -29.192509 853.648560
5.160000 -1.160000 6.880000 10.152550 -19.922310 499.972717
5.160000 -1.160000 6.920000 9.871624 -9.235626 182.745758
5.160000 -1.160000 6.960000 3.666648 -5.136014 39.822952
5.160000 -1.160000 7.000000 0.245690 -8.755517 76.719444
5.160000 -1.160000 7.040000 4.739929 -12.967956 190.634796
5.160000 -1.160000 7.080000 13.177387 -9.902128 271.695679
5.160000 -1.160000 7.120000 16.626484 0.583712 276.780701
5.160000 -1.160000 7.160000 10.655548 10.636902 226.684387
5.160000 -1.160000 7.200000 -0.139596 12.583976 158.375931
5.160000 -1.120000 6.800000 17.537167 -21.502819 769.923462
5.160000 -1.120000 6.840000 20.453358 -11.025512 539.901733
5.160000 -1.120000 6.880000 17.270054 -2.137219 302.822479
5.160000 -1.120000 6.920000 10.817022 1.616071 119.619659
5.160000 -1.120000 6.960000 5.836096 -0.101178 34.070259
5.160000 -1.120000 7.000000 5.614247 -3.799194 45.953651
5.160000 -1.120000 7.040000 9.327320 -4.831684 110.344070
5.160000 -1.120000 7.080000 12.801188 -1.312817 165.593887
5.160000 -1.120000 7.120000 12.306526 4.397186 170.785828
5.160000 -1.120000 7.160000 7.793217 8.068392 125.833176
5.160000 -1.120000 7.200000 2.553660 7.455531 62.106121
5.160000 -1.080000 6.800000 30.582520 9.785895 1031.054321
5.160000 -1.080000 6.840000 19.264709 18.091663 698.437317
5.160000 -1.080000 6.880000 8.543938 17.657938 384.801636
5.160000 -1.080000 6.920000 3.001846 12.805424 172.989960
5.160000 -1.080000 6.960000 2.281123 8.402240 75.801155
5.160000 -1.080000 7.000000 3.508429 6.377702 52.984150
5.160000 -1.080000 7.040000 4.688472 5.998277 57.961090
5.160000 -1.080000 7.080000 5.622476 6.335077 71.745438
5.160000 -1.080000 7.120000 6.375234 7.485375 96.674454
5.160000 -1.080000 7.160000 6.079666 9.494833 127.114197
5.160000 -1.080000 7.200000 3.937338 11.007493 136.667526
5.160000 -1.040000 6.800000 13.805342 41.917873 1947.695557
5.160000 -1.040000 6.840000 -5.049608 37.908329 1462.539917
5.160000 -1.040000 6.880000 -13.821737 26.180994 876.484863
5.160000 -1.040000 6.920000 -13.214551 16.681376 452.892639
5.160000 -1.040000 6.960000 -10.138275 13.071669 273.653137
5.160000 -1.040000 7.000000 -9.252893 12.043743 230.667786
5.160000 -1.040000 7.040000 -9.271687 9.764983 181.319061
5.160000 -1.040000 7.080000 -6.992768 7.038451 98.438599
5.160000 -1.040000 7.120000 -2.949408 7.385426 63.243526
5.160000 -1.040000 7.160000 -1.345090 11.298219 129.459015
5.160000 -1.040000 7.200000 -4.466023 14.423541 227.983917
5.160000 -1.000000 6.800000 -22.766657 50.185135 3036.868652
5.160000 -1.000000 6.840000 -37.318279 33.045616 2484.666504
5.160000 -1.000000 6.880000 -37.258865 15.848474 1639.397095
5.160000 -1.000000 6.920000 -30.372738 7.358036 976.643921
5.160000 -1.000000 6.960000 -25.795334 5.711228 698.017334
5.160000 -1.000000 7.000000 -25.095770 4.055199 646.242310
5.160000 -1.000000 7.040000 -23.542137 -0.140701 554.252014
5.160000 -1.000000 7.080000 -18.290636 -3.015765 343.642212
5.160000 -1.000000 7.120000 -12.811905 -0.774933 164.745438
5.160000 -1.000000 7.160000 -12.355103 4.167337 170.015274
5.160000 -1.000000 7.200000 -16.538189 5.427807 302.972778
5.160000 -0.960000 6.800000 -52.561356 27.980350 3545.596191
5.160000 -0.960000 6.840000 -55.591267 6.263913 3129.625488
5.160000 -0.960000 6.880000 -47.231194 -8.365872 2300.773438
5.160000 -0.960000 6.920000 -37.716919 -13.104921 1594.304932
5.160000 -0.960000 6.960000 -32.957706 -13.842546 1277.826538
5.160000 -0.960000 7.000000 -30.699623 -16.380201 1210.777832
5.160000 -0.960000 7.040000 -26.219402 -20.141893 1093.152832
5.160000 -0.960000 7.080000 -19.424061 -20.816284 810.611816
5.160000 -0.960000 7.120000 -14.778456 -17.351849 519.489380
5.160000 -0.960000 7.160000 -14.859708 -14.060278 418.502319
5.160000 -0.960000 7.200000 -16.240734 -15.157461 493.510071
5.160000 -0.920000 6.800000 -54.720524 -6.909031 3042.070312
5.160000 -0.920000 6.840000 -48.985703 -23.361744 2945.370117
5.160000 -0.920000 6.880000 -38.309029 -32.028877 2493.430664
5.160000 -0.920000 6.920000 -29.298546 -34.369888 2039.693970
5.160000 -0.920000 6.960000 -23.578238 -35.155998 1791.877441
5.160000 -0.920000 7.000000 -18.624540 -36.740849 1696.763428
5.160000 -0.920000 7.040000 -12.492381 -37.743240 1580.611816
5.160000 -0.920000 7.080000 -6.287887 -36.416256 1365.681152
5.160000 -0.920000 7.120000 -1.993644 -33.594833 1132.587402
5.160000 -0.920000 7.160000 0.717240 -31.492395 992.285400
5.160000 -0.920000 7.200000 4.215228 -30.291851 935.364380
5.160000 -0.880000 6.800000 -31.897606 -27.803074 1790.468262
5.160000 -0.880000 6.840000 -26.200592 -36.604118 2026.332520
5.160000 -0.880000 6.880000 -18.017797 -42.365784 2119.500732
5.160000 -0.880000 6.920000 -9.212123 -44.805695 2092.413574
5.160000 -0.880000 6.960000 -1.221832 -44.567223 1987.730225
5.160000 -0.880000 7.000000 5.225456 -42.860359 1864.315796
5.160000 -0.880000 7.040000 10.468981 -40.966282 1787.835815
5.160000 -0.880000 7.080000 15.752989 -39.249161 1788.653198
5.160000 -0.880000 7.120000 22.016848 -36.558258 1821.247803
5.160000 -0.880000 7.160000 28.456644 -31.133509 1779.075928
5.160000 -0.880000 7.200000 32.610565 -22.609308 1574.629761
5.160000 -0.840000 6.800000 -6.776392 -22.645683 558.746460
5.160000 -0.840000 6.840000 -6.587627 -29.954557 940.672363
5.160000 -0.840000 6.880000 0.134116 -37.622181 1415.446411
5.160000 -0.840000 6.920000 11.198321 -40.016682 1726.737183
5.160000 -0.840000 6.960000 20.760677 -36.286442 1747.711548
5.160000 -0.840000 7.000000 25.676952 -30.922867 1615.529541
5.160000 -0.840000 7.040000 28.693501 -28.132378 1614.747559
5.160000 -0.840000 7.080000 34.540012 -26.512272 1895.913086
5.160000 -0.840000 7.120000 43.241432 -20.608589 2294.535400
5.160000 -0.840000 7.160000 48.874519 -7.961137 2452.098389
5.160000 -0.840000 7.200000 45.815563 6.630621 2143.031006
5.160000 -0.800000 6.800000 -0.433308 -3.470869 12.234684
5.160000 -0.800000 6.840000 -2.316284 -16.471697 276.681976
5.160000 -0.800000 6.880000 7.914618 -26.388073 758.971558
5.160000 -0.800000 6.920000 21.838671 -25.477901 1126.051025
5.160000 -0.800000 6.960000 29.691120 -17.241701 1178.838867
5.160000 -0.800000 7.000000 30.810349 -10.760737 1065.071045
5.160000 -0.800000 7.040000 32.726521 -9.146612 1154.685669
5.160000 -0.800000 7.080000 40.243168 -5.941466 1654.813599
5.160000 -0.800000 7.120000 47.965721 6.014331 2336.882568
5.160000 -0.800000 7.160000 45.862411 23.976940 2678.254395
5.160000 -0.800000 7.200000 31.797840 36.371361 2333.978516
5.200000 -1.200000 6.800000 -20.034691 -37.555584 1811.810669
5.200000 -1.200000 6.840000 -2.852465 -40.001106 1608.225098
5.200000 -1.200000 6.880000 10.992025 -31.543522 1115.818359
5.200000 -1.200000 6.920000 14.783245 -19.452419 596.940918
5.200000 -1.200000 6.960000 11.337655 -13.164127 301.836670
5.200000 -1.200000 7.000000 10.123017 -14.607346 315.850037
5.200000 -1.200000 7.040000 17.081373 -16.128828 551.912415
5.200000 -1.200000 7.080000 27.801405 -8.648673 847.717651
5.200000 -1.200000 7.120000 31.560585 8.273178 1064.515991
5.200000 -1.200000 7.160000 22.148561 25.172928 1124.235107
5.200000 -1.200000 7.200000 4.212688 31.493216 1009.569397
5.200000 -1.160000 6.800000 10.863643 -34.609917 1315.864990
5.200000 -1.160000 6.840000 19.115887 -23.482803 916.859192
5.200000 -1.160000 6.880000 17.774227 -11.827230 455.806519
5.200000 -1.160000 6.920000 10.617648 -7.479315 168.674606
5.200000 -1.160000 6.960000 6.663229 -11.576679 178.418121
5.200000 -1.160000 7.000000 11.840970 -16.801043 422.483582
5.200000 -1.160000 7.040000 22.896057 -13.916453 717.897095
5.200000 -1.160000 7.080000 29.904270 -0.663732 894.705933
5.200000 -1.160000 7.120000 25.321995 15.731835 888.694092
5.200000 -1.160000 7.160000 10.799334 24.970978 740.175354
5.200000 -1.160000 7.200000 -4.711601 22.587690 532.402954
5.200000 -1.120000 6.800000 29.164751 -5.450715 880.292969
5.200000 -1.120000 6.840000 18.585438 7.043261 395.026001
5.200000 -1.120000 6.880000 3.707452 6.715107 58.837860
5.200000 -1.120000 6.920000 -3.575719 -4.891106 36.708679
5.200000 -1.120000 6.960000 2.707301 -17.112919 300.181458
5.200000 -1.120000 7.000000 17.527140 -18.813936 661.164795
5.200000 -1.120000 7.040000 29.149271 -7.451543 905.205505
5.200000 -1.120000 7.080000 28.859371 9.388494 921.007080
5.200000 -1.120000 7.120000 17.408070 20.900949 739.890625
5.200000 -1.120000 7.160000 2.967301 21.682255 478.925049
5.200000 -1.120000 7.200000 -6.432143 14.454691 250.310562
5.200000 -1.080000 6.800000 16.492779 30.200508 1184.082397
5.200000 -1.080000 6.840000 -8.890957 27.197893 818.774536
5.200000 -1.080000 6.880000 -22.901459 6.218828 563.150635
5.200000 -1.080000 6.920000 -15.834410 -17.216652 547.141663
5.200000 -1.080000 6.960000 5.919449 -26.271988 725.257202
5.200000 -1.080000 7.000000 25.869919 -16.069614 927.485229
5.200000 -1.080000 7.040000 31.185036 3.984844 988.385437
5.200000 -1.080000 7.080000 21.611105 19.660465 853.573730
5.200000 -1.080000 7.120000 6.784060 23.384857 592.875061
5.200000 -1.080000 7.160000 -3.581813 17.729965 327.181030
5.200000 -1.080000 7.200000 -6.570480 9.882772 140.840393
5.200000 -1.040000 6.800000 -21.781979 44.031536 2413.230713
5.200000 -1.040000 6.840000 -45.128269 17.862217 2355.619385
5.200000 -1.040000 6.880000 -41.567818 -17.290642 2026.849731
5.200000 -1.040000 6.920000 -14.163447 -37.578041 1612.712402
5.200000 -1.040000 6.960000 16.837193 -31.409773 1270.064941
5.200000 -1.040000 7.000000 31.365053 -7.326350 1037.441895
5.200000 -1.040000 7.040000 24.685492 15.615282 853.210510
5.200000 -1.040000 7.080000 7.581599 24.294668 647.711548
5.200000 -1.040000 7.120000 -5.953471 19.534891 417.055786
5.200000 -1.040000 7.160000 -10.117674 10.647198 215.730133
5.200000 -1.040000 7.200000 -8.159498 4.917194 90.756210
5.200000 -1.000000 6.800000 -58.493759 23.073111 3953.888184
5.200000 -1.000000 6.840000 -62.939285 -17.479259 4266.877930
5.200000 -1.000000 6.880000 -36.470390 -49.243591 3755.020752
5.200000 -1.000000 6.920000 2.971903 -52.037834 2716.768555
5.200000 -1.000000 6.960000 29.382746 -27.905092 1642.039917
5.200000 -1.000000 7.000000 29.709993 2.738055 890.180664
5.200000 -1.000000 7.040000 11.550465 19.638117 519.068848
5.200000 -1.000000 7.080000 -7.255054 17.787157 369.018768
5.200000 -1.000000 7.120000 -14.898465 6.712884 267.027069
5.200000 -1.000000 7.160000 -12.343923 -1.815699 155.669189
5.200000 -1.000000 7.200000 -7.189766 -3.767675 65.888115
5.200000 -0.960000 6.800000 -66.625740 -18.075388 4765.708984
5.200000 -0.960000 6.840000 -48.865559 -54.593254 5368.266113
5.200000 -0.960000 6.880000 -9.845131 -68.277367 4758.725586
5.200000 -0.960000 6.920000 25.589451 -51.277504 3284.202393
5.200000 -0.960000 6.960000 36.815681 -18.135212 1684.280273
5.200000 -0.960000 7.000000 22.985855 7.639617 586.713318
5.200000 -0.960000 7.040000 0.523308 12.792020 163.909622
5.200000 -0.960000 7.080000 -12.963853 1.998084 172.053818
5.200000 -0.960000 7.120000 -12.204942 -10.558367 260.439697
5.200000 -0.960000 7.160000 -4.202967 -15.056376 244.359375
5.200000 -0.960000 7.200000 1.889073 -11.932926 145.963333
5.200000 -0.920000 6.800000 -42.253601 -49.063850 4192.628418
5.200000 -0.920000 6.840000 -14.341478 -68.718575 4927.920898
5.200000 -0.920000 6.880000 20.500816 -63.768120 4486.656738
5.200000 -0.920000 6.920000 41.218258 -37.452724 3101.651367
5.200000 -0.920000 6.960000 37.737289 -8.112188 1489.910645
5.200000 -0.920000 7.000000 18.077045 6.112682 364.144470
5.200000 -0.920000 7.040000 -0.071146 1.117464 1.253788
5.200000 -0.920000 7.080000 -4.503169 -12.565372 178.167114
5.200000 -0.920000 7.120000 3.416477 -21.093285 456.598969
5.200000 -0.920000 7.160000 13.401779 -18.902031 536.894470
5.200000 -0.920000 7.200000 17.040401 -10.580587 402.324097
5.200000 -0.880000 6.800000 -7.365835 -49.745773 2528.897461
5.200000 -0.880000 6.840000 15.031357 -54.914581 3241.552979
5.200000 -0.880000 6.880000 36.783649 -43.131210 3213.338135
5.200000 -0.880000 6.920000 44.737740 -20.383530 2416.953613
5.200000 -0.880000 6.960000 35.697926 -1.063312 1275.472534
5.200000 -0.880000 7.000000 19.183922 3.817709 382.597748
5.200000 -0.880000 7.040000 9.116689 -4.539889 103.724609
5.200000 -0.880000 7.080000 12.024290 -14.776932 362.941284
5.200000 -0.880000 7.120000 22.526802 -16.085785 766.209290
5.200000 -0.880000 7.160000 29.691299 -7.307456 934.972168
5.200000 -0.880000 7.200000 27.479904 3.700364 768.837830
5.200000 -0.840000 6.800000 10.317999 -26.639240 816.110229
5.200000 -0.840000 6.840000 21.883709 -30.076235 1383.476562
5.200000 -0.840000 6.880000 35.056713 -23.104214 1762.777832
5.200000 -0.840000 6.920000 40.025005 -8.191615 1669.103638
5.200000 -0.840000 6.960000 33.571342 4.556902 1147.800415
5.200000 -0.840000 7.000000 22.779032 6.966680 567.418884
5.200000 -0.840000 7.040000 18.280005 0.987215 335.133148
5.200000 -0.840000 7.080000 23.548521 -3.305758 565.460876
5.200000 -0.840000 7.120000 31.510292 1.812130 996.182312
5.200000 -0.840000 7.160000 32.196533 13.745504 1225.555542
5.200000 -0.840000 7.200000 23.327835 22.659208 1057.627563
5.200000 -0.800000 6.800000 1.671360 -4.916460 26.965023
5.200000 -0.800000 6.840000 10.257577 -15.805784 355.040710
5.200000 -0.800000 6.880000 25.183670 -14.592478 847.157654
5.200000 -0.800000 6.920000 33.561413 -2.066945 1130.640625
5.200000 -0.800000 6.960000 30.054495 10.715448 1018.093506
5.200000 -0.800000 7.000000 21.479126 14.611857 674.859253
5.200000 -0.800000 7.040000 18.131380 11.740641 466.589600
5.200000 -0.800000 7.080000 21.872215 11.760159 616.695129
5.200000 -0.800000 7.120000 24.595287 19.740004 994.595947
5.200000 -0.800000 7.160000 18.544209 29.916470 1238.882812
5.200000 -0.800000 7.200000 6.124381 32.644676 1103.182983
