#kx 	ky 	kz 	real 	imag 	intensity
0.800000 2.800000 2.800000 -0.091913 -0.736391 0.550720
0.800000 2.800000 2.840000 -4.678910 0.602309 22.254976
0.800000 2.800000 2.880000 -9.385989 -3.562937 100.791313
0.800000 2.800000 2.920000 -9.096463 -11.688927 219.376648
0.800000 2.800000 2.960000 -1.763781 -18.345509 339.668610
0.800000 2.800000 3.000000 9.477781 -18.224491 421.960419
0.800000 2.800000 3.040000 18.339622 -10.358950 443.649597
0.800000 2.800000 3.080000 20.104153 1.050204 405.279877
0.800000 2.800000 3.120000 15.027634 10.012109 326.072083
0.800000 2.800000 3.160000 7.485387 13.380827 235.077545
0.800000 2.800000 3.200000 1.782606 12.593173 161.765701
0.800000 2.840000 2.800000 -3.798189 -4.029836 30.665819
0.800000 2.840000 2.840000 -6.252193 -4.910740 63.205292
0.800000 2.840000 2.880000 -7.685918 -9.216000 144.007980
0.800000 2.840000 2.920000 -4.575289 -15.052910 247.523361
0.800000 2.840000 2.960000 3.547050 -17.617195 322.947144
0.800000 2.840000 3.000000 12.461894 -13.243780 330.696503
0.800000 2.840000 3.040000 16.146648 -3.348856 271.929108
0.800000 2.840000 3.080000 12.101965 6.028366 182.798737
0.800000 2.840000 3.120000 3.891891 9.337597 102.337532
0.800000 2.840000 3.160000 -2.104315 6.517796 46.909798
0.800000 2.840000 3.200000 -2.792320 2.694662 15.058250
0.800000 2.880000 2.800000 -1.869426 -11.607395 138.226379
0.800000 2.880000 2.840000 -1.030577 -12.001850 145.106491
0.800000 2.880000 2.880000 -0.003114 -13.825456 191.143234
0.800000 2.880000 2.920000 3.567546 -15.918306 266.119843
0.800000 2.880000 2.960000 9.421160 -14.985691 313.329193
0.800000 2.880000 3.000000 13.828776 -9.474596 281.003021
0.800000 2.880000 3.040000 13.102871 -2.236650 176.687836
0.800000 2.880000 3.080000 7.905231 1.661811 65.254303
0.800000 2.880000 3.120000 3.227951 0.220517 10.468296
0.800000 2.880000 3.160000 3.271959 -2.958968 19.461210
0.800000 2.880000 3.200000 6.565295 -2.337076 48.565025
0.800000 2.920000 2.800000 8.272539 -15.610831 312.132965
0.800000 2.920000 2.840000 10.505787 -12.629835 269.884308
0.800000 2.920000 2.880000 10.950342 -10.927384 239.317719
0.800000 2.920000 2.920000 12.035128 -10.378181 252.550949
0.800000 2.920000 2.960000 14.128318 -8.945688 279.634705
0.800000 2.920000 3.000000 15.355652 -5.924531 270.896118
0.800000 2.920000 3.040000 14.555412 -3.114067 221.557449
0.800000 2.920000 3.080000 13.378495 -2.273787 184.154236
0.800000 2.920000 3.120000 14.349488 -2.069199 210.189392
0.800000 2.920000 3.160000 16.880745 1.058947 286.080933
0.800000 2.920000 3.200000 16.444614 8.236652 338.267792
0.800000 2.960000 2.800000 20.323719 -9.020204 494.417633
0.800000 2.960000 2.840000 20.014641 -2.610384 407.399963
0.800000 2.960000 2.880000 16.936520 0.525692 287.122070
0.800000 2.960000 2.920000 14.580976 0.431277 212.790878
0.800000 2.960000 2.960000 14.519969 -0.714584 211.340134
0.800000 2.960000 3.000000 16.323534 -1.079392 267.622864
0.800000 2.960000 3.040000 19.157167 0.136299 367.015656
0.800000 2.960000 3.080000 22.292206 3.716846 510.757385
0.800000 2.960000 3.120000 23.915136 10.572382 683.708984
0.800000 2.960000 3.160000 20.754715 19.760113 821.220215
0.800000 2.960000 3.200000 10.648487 26.829081 833.189819
0.800000 3.000000 2.800000 24.010410 6.423820 617.765259
0.800000 3.000000 2.840000 18.604147 12.714397 507.770203
0.800000 3.000000 2.880000 11.982368 13.346491 321.705933
0.800000 3.000000 2.920000 8.431967 9.741758 165.999908
0.800000 3.000000 2.960000 9.761182 5.573632 126.346046
0.800000 3.000000 3.000000 14.936375 4.545097 243.753204
0.800000 3.000000 3.040000 20.787148 8.911870 511.526917
0.800000 3.000000 3.080000 23.032673 18.479330 871.989624
0.800000 3.000000 3.120000 17.937235 29.886898 1214.971069
0.800000 3.000000 3.160000 4.850891 37.126595 1401.915161
0.800000 3.000000 3.200000 -11.831568 34.535599 1332.693604
0.800000 3.040000 2.800000 14.828842 20.628471 645.428406
0.800000 3.040000 2.840000 5.773236 22.346802 532.709778
0.800000 3.040000 2.880000 -1.030966 17.979313 324.318604
0.800000 3.040000 2.920000 -1.965616 11.021673 125.340927
0.800000 3.040000 2.960000 3.200053 6.602129 53.828453
0.800000 3.040000 3.000000 10.910081 8.877073 197.832306
0.800000 3.040000 3.040000 15.138885 18.450151 569.593933
0.800000 3.040000 3.080000 10.572079 31.039040 1075.190796
0.800000 3.040000 3.120000 -3.571943 38.952984 1530.093750
0.800000 3.040000 3.160000 -21.695919 35.587856 1737.208374
0.800000 3.040000 3.200000 -34.303169 20.412731 1593.386963
0.800000 3.080000 2.800000 -1.353254 24.062340 580.827515
0.800000 3.080000 2.840000 -9.543348 19.630621 476.436768
0.800000 3.080000 2.880000 -12.407843 11.463095 285.357117
0.800000 3.080000 2.920000 -8.527999 4.411191 92.185379
0.800000 3.080000 2.960000 -0.435102 3.475525 12.268589
0.800000 3.080000 3.000000 5.824120 10.656461 147.480530
0.800000 3.080000 3.040000 3.818717 22.521950 521.820801
0.800000 3.080000 3.080000 -8.517346 31.033386 1035.616211
0.800000 3.080000 3.120000 -26.019627 28.462183 1487.116943
0.800000 3.080000 3.160000 -38.591064 13.443404 1669.995361
0.800000 3.080000 3.200000 -38.031342 -6.877403 1493.681641
0.800000 3.120000 2.800000 -13.741992 16.248508 452.856384
0.800000 3.120000 2.840000 -17.210131 8.166992 362.888367
0.800000 3.120000 2.880000 -14.590384 0.097345 212.888763
0.800000 3.120000 2.920000 -7.171381 -3.324907 62.483707
0.800000 3.120000 2.960000 0.183250 0.735919 0.575158
0.800000 3.120000 3.000000 1.143287 10.403481 109.539513
0.800000 3.120000 3.040000 -7.521384 18.743118 407.875702
0.800000 3.120000 3.080000 -22.205595 17.853531 811.837036
0.800000 3.120000 3.120000 -33.614418 5.166018 1156.616821
0.800000 3.120000 3.160000 -33.184097 -13.360712 1279.692993
0.800000 3.120000 3.200000 -20.005650 -26.793858 1118.136841
0.800000 3.160000 2.800000 -16.554523 5.256593 301.684021
0.800000 3.160000 2.840000 -15.002176 -2.396876 230.810303
0.800000 3.160000 2.880000 -8.849057 -7.065610 128.228668
0.800000 3.160000 2.920000 -1.450441 -5.648525 34.009617
0.800000 3.160000 2.960000 1.719384 1.401963 4.921782
0.800000 3.160000 3.000000 -3.096056 8.840436 87.738869
0.800000 3.160000 3.040000 -13.949634 9.516539 285.156799
0.800000 3.160000 3.080000 -23.190165 0.148367 537.805786
0.800000 3.160000 3.120000 -22.815086 -14.897303 742.457764
0.800000 3.160000 3.160000 -11.212427 -26.020760 802.798462
0.800000 3.160000 3.200000 4.790102 -25.737354 685.356445
0.800000 3.200000 2.800000 -13.293465 -0.909234 177.542908
0.800000 3.200000 2.840000 -9.292343 -6.094057 123.485168
0.800000 3.200000 2.880000 -2.802677 -7.023537 57.185066
0.800000 3.200000 2.920000 1.745313 -2.662138 10.133098
0.800000 3.200000 2.960000 0.211332 3.530302 12.507692
0.800000 3.200000 3.000000 -6.983581 5.353520 77.430580
0.800000 3.200000 3.040000 -13.881115 -0.871531 193.444916
0.800000 3.200000 3.080000 -13.346449 -12.165289 326.121948
0.800000 3.200000 3.120000 -3.481755 -20.380133 427.472443
0.800000 3.200000 3.160000 9.945713 -18.821510 453.166443
0.800000 3.200000 3.200000 17.848923 -8.178764 385.476227
0.840000 2.800000 2.800000 -3.166515 4.772926 32.807644
0.840000 2.800000 2.840000 -7.523950 0.258752 56.676769
0.840000 2.800000 2.880000 -6.948729 -6.470990 90.158539
0.840000 2.800000 2.920000 -1.616374 -11.079510 125.368202
0.840000 2.800000 2.960000 5.447245 -11.281948 156.954834
0.840000 2.800000 3.000000 11.269329 -7.640052 185.368179
0.840000 2.800000 3.040000 14.581316 -1.846853 216.025650
0.840000 2.800000 3.080000 15.166420 4.902870 254.058426
0.840000 2.800000 3.120000 12.657484 11.696001 297.008362
0.840000 2.800000 3.160000 6.767995 16.886799 330.969727
0.840000 2.800000 3.200000 -1.402628 18.254196 335.183044
0.840000 2.840000 2.800000 -5.362415 -3.006995 37.797512
0.840000 2.840000 2.840000 0.652290 -8.601643 74.413742
0.840000 2.840000 2.880000 9.950300 -6.409319 140.087845
0.840000 2.840000 2.920000 14.265994 3.222126 213.900681
0.840000 2.840000 2.960000 9.460970 12.950068 257.214203
0.840000 2.840000 3.000000 -0.479542 15.415209 237.858627
0.840000 2.840000 3.040000 -7.495774 10.111908 158.437317
0.840000 2.840000 3.080000 -7.208422 3.269907 62.653633
0.840000 2.840000 3.120000 -2.510809 1.321265 8.049903
0.840000 2.840000 3.160000 0.125341 4.896979 23.996117
0.840000 2.840000 3.200000 -2.716504 9.052444 89.326126
0.840000 2.880000 2.800000 1.833781 -10.470772 112.999817
0.840000 2.880000 2.840000 16.830030 -6.500189 325.502380
0.840000 2.880000 2.880000 23.822617 11.505198 699.886719
0.840000 2.880000 2.920000 12.601912 31.152925 1129.312988
0.840000 2.880000 2.960000 -11.791183 35.875439 1426.079102
0.840000 2.880000 3.000000 -32.052288 20.207132 1435.677246
0.840000 2.880000 3.040000 -33.542305 -4.617311 1146.405762
0.840000 2.880000 3.080000 -17.007545 -20.395994 705.253174
0.840000 2.880000 3.120000 2.863676 -17.684864 320.955078
0.840000 2.880000 3.160000 11.020315 -2.689329 128.679840
0.840000 2.880000 3.200000 4.382811 10.100281 121.224701
0.840000 2.920000 2.800000 14.472626 -8.102726 275.111053
0.840000 2.920000 2.840000 27.222660 11.298820 868.736572
0.840000 2.920000 2.880000 17.686649 39.140285 1844.779541
0.840000 2.920000 2.920000 -14.873299 51.832085 2907.780029
0.840000 2.920000 2.960000 -49.501152 34.003735 3606.617920
0.840000 2.920000 3.000000 -59.902275 -5.569717 3619.304199
0.840000 2.920000 3.040000 -37.510235 -39.542393 2970.618652
0.840000 2.920000 3.080000 0.579218 -44.831009 2010.154785
0.840000 2.920000 3.120000 26.452393 -21.652760 1168.571045
0.840000 2.920000 3.160000 24.839462 8.524499 689.666016
0.840000 2.920000 3.200000 3.637190 22.867668 536.159363
0.840000 2.960000 2.800000 21.058445 5.762980 476.670044
0.840000 2.960000 2.840000 18.792810 34.283337 1528.516846
0.840000 2.960000 2.880000 -11.410096 55.053696 3161.099609
0.840000 2.960000 2.920000 -53.826298 44.093147 4841.476074
0.840000 2.960000 2.960000 -76.473923 0.473113 5848.484375
0.840000 2.960000 3.000000 -58.383419 -48.336472 5745.038086
0.840000 2.960000 3.040000 -9.787683 -67.686371 4677.243652
0.840000 2.960000 3.080000 34.916740 -45.077568 3251.166016
0.840000 2.960000 3.120000 45.793411 -0.428401 2097.220215
0.840000 2.960000 3.160000 21.316124 32.005474 1478.727539
0.840000 2.960000 3.200000 -13.584846 32.503494 1241.025269
0.840000 3.000000 2.800000 13.336220 21.433128 637.233765
0.840000 3.000000 2.840000 -6.742989 44.029434 1984.058960
0.840000 3.000000 2.880000 -45.838413 43.149017 3962.997803
0.840000 3.000000 2.920000 -76.330704 7.404077 5881.196777
0.840000 3.000000 2.960000 -69.683990 -45.116058 6891.317383
0.840000 3.000000 3.000000 -23.596878 -77.566315 6573.345703
0.840000 3.000000 3.040000 32.029118 -64.882004 5235.538574
0.840000 3.000000 3.080000 58.353058 -16.374243 3673.195068
0.840000 3.000000 3.120000 39.863754 31.469831 2579.469238
0.840000 3.000000 3.160000 -3.935416 45.775253 2110.861328
0.840000 3.000000 3.200000 -37.343624 23.296505 1937.273438
0.840000 3.040000 2.800000 -4.861341 25.947968 696.929626
0.840000 3.040000 2.840000 -32.162228 31.004000 1995.656982
0.840000 3.040000 2.880000 -60.910637 8.906654 3789.434082
0.840000 3.040000 2.920000 -64.831833 -34.679962 5405.866211
0.840000 3.040000 2.960000 -31.664864 -71.399826 6100.598633
0.840000 3.040000 3.000000 21.252344 -71.738335 5598.050781
0.840000 3.040000 3.040000 57.497955 -31.803352 4317.468262
0.840000 3.040000 3.080000 51.318974 20.545410 3055.750977
0.840000 3.040000 3.120000 9.786323 47.856224 2385.990479
0.840000 3.040000 3.160000 -33.545029 34.044037 2284.265381
0.840000 3.040000 3.200000 -47.604698 -4.031930 2282.463623
0.840000 3.080000 2.800000 -20.282280 15.262534 644.315796
0.840000 3.080000 2.840000 -39.439186 4.217729 1573.238525
0.840000 3.080000 2.880000 -46.700615 -23.877300 2751.072998
0.840000 3.080000 2.920000 -28.383160 -53.806519 3700.745117
0.840000 3.080000 2.960000 10.508850 -62.008846 3955.532959
0.840000 3.080000 3.000000 45.232239 -37.191895 3429.192383
0.840000 3.080000 3.040000 49.846123 6.419048 2525.840088
0.840000 3.080000 3.080000 19.997072 38.007545 1844.456421
0.840000 3.080000 3.120000 -21.718788 35.263664 1715.231689
0.840000 3.080000 3.160000 -44.200085 3.135740 1963.480347
0.840000 3.080000 3.200000 -33.684795 -31.244499 2110.884277
0.840000 3.120000 2.800000 -22.382784 -1.868801 504.481415
0.840000 3.120000 2.840000 -25.950272 -16.608829 949.269836
0.840000 3.120000 2.880000 -16.862347 -33.846249 1429.907349
0.840000 3.120000 2.920000 5.230307 -41.225212 1726.874146
0.840000 3.120000 2.960000 28.578690 -29.201927 1669.494141
0.840000 3.120000 3.000000 36.039097 -1.919674 1302.501709
0.840000 3.120000 3.040000 19.713396 22.593227 899.071899
0.840000 3.120000 3.080000 -10.024918 25.832420 767.812927
0.840000 3.120000 3.120000 -31.215134 4.909780 998.490540
0.840000 3.120000 3.160000 -28.249903 -23.984997 1373.337158
0.840000 3.120000 3.200000 -4.986001 -38.931953 1540.557251
0.840000 3.160000 2.800000 -12.805624 -12.425949 318.388214
0.840000 3.160000 2.840000 -6.041906 -19.055569 399.619324
0.840000 3.160000 2.880000 4.493467 -20.445118 438.194092
0.840000 3.160000 2.920000 14.287714 -13.992635 399.932617
0.840000 3.160000 2.960000 16.881315 -1.532118 287.326172
0.840000 3.160000 3.000000 8.735970 9.516682 166.884399
0.840000 3.160000 3.040000 -6.101782 10.425364 145.919952
0.840000 3.160000 3.080000 -17.102413 -1.382564 294.403992
0.840000 3.160000 3.120000 -14.993483 -18.573879 569.793518
0.840000 3.160000 3.160000 0.026178 -28.620502 819.133850
0.840000 3.160000 3.200000 17.511042 -23.904596 878.066284
0.840000 3.200000 2.800000 -2.728913 -11.490366 139.475464
0.840000 3.200000 2.840000 3.452227 -8.353541 81.699524
0.840000 3.200000 2.880000 4.915337 -2.209524 29.042530
0.840000 3.200000 2.920000 0.997038 2.463856 7.064671
0.840000 3.200000 2.960000 -5.557101 2.073547 35.180973
0.840000 3.200000 3.000000 -10.170000 -4.008445 119.496529
0.840000 3.200000 3.040000 -8.967299 -12.886204 246.466690
0.840000 3.200000 3.080000 -1.188581 -19.486933 381.153259
0.840000 3.200000 3.120000 9.903427 -19.413139 474.947815
0.840000 3.200000 3.160000 18.541231 -11.895867 485.288910
0.840000 3.200000 3.200000 19.987181 -0.771789 400.083069
0.880000 2.800000 2.800000 -9.801584 5.113688 122.220856
0.880000 2.800000 2.840000 -8.865114 -3.725946 92.472923
0.880000 2.800000 2.880000 -1.874649 -8.093895 69.025452
0.880000 2.800000 2.920000 4.709354 -5.912151 57.131554
0.880000 2.800000 2.960000 6.644684 -1.449057 46.251591
0.880000 2.800000 3.000000 5.958534 0.476643 35.731319
0.880000 2.800000 3.040000 7.360256 0.401314 54.334423
0.880000 2.800000 3.080000 11.480947 3.198532 142.042755
0.880000 2.800000 3.120000 13.136248 11.336313 301.072998
0.880000 2.800000 3.160000 7.061243 20.398552 465.962067
0.880000 2.800000 3.200000 -5.224792 22.556929 536.113464
0.880000 2.840000 2.800000 -6.743536 -4.803619 68.550034
0.880000 2.840000 2.840000 10.835951 -4.502449 137.689880
0.880000 2.840000 2.880000 21.157125 14.404230 655.105835
0.880000 2.840000 2.920000 9.587502 37.129242 1470.500732
0.880000 2.840000 2.960000 -18.322830 42.182816 2115.115967
0.880000 2.840000 3.000000 -40.439884 22.738960 2152.444580
0.880000 2.840000 3.040000 -38.898838 -5.802788 1546.791992
0.880000 2.840000 3.080000 -17.198784 -20.290163 707.488892
0.880000 2.840000 3.120000 3.849644 -11.753508 152.964706
0.880000 2.840000 3.160000 6.739533 7.384584 99.953400
0.880000 2.840000 3.200000 -6.820982 17.227390 343.308777
0.880000 2.880000 2.800000 4.806074 -7.533096 79.845886
0.880000 2.880000 2.840000 26.084873 16.859497 964.663208
0.880000 2.880000 2.880000 14.692749 57.691879 3544.229980
0.880000 2.880000 2.920000 -33.382019 77.421623 7108.467285
0.880000 2.880000 2.960000 -85.923538 50.253754 9908.293945
0.880000 2.880000 3.000000 -101.165848 -10.497139 10344.717773
0.880000 2.880000 3.040000 -66.250557 -61.595810 8183.179688
0.880000 2.880000 3.080000 -9.426800 -68.115692 4728.612305
0.880000 2.880000 3.120000 26.146284 -33.590397 1811.942993
0.880000 2.880000 3.160000 20.842186 6.614477 478.148041
0.880000 2.880000 3.200000 -7.993608 20.142910 469.634583
0.880000 2.920000 2.800000 14.251691 2.351167 208.638672
0.880000 2.920000 2.840000 16.099325 48.560150 2617.276367
0.880000 2.920000 2.880000 -32.779224 86.157906 8497.662109
0.880000 2.920000 2.920000 -106.971191 68.954285 16197.529297
0.880000 2.920000 2.960000 -148.437698 -7.655293 22092.353516
0.880000 2.920000 3.000000 -118.007545 -95.220528 22992.730469
0.880000 2.920000 3.040000 -33.442078 -131.766632 18480.818359
0.880000 2.920000 3.080000 44.425529 -95.998123 11189.267578
0.880000 2.920000 3.120000 64.938622 -24.146606 4800.083008
0.880000 2.920000 3.160000 29.072264 25.591915 1500.142578
0.880000 2.920000 3.200000 -18.819456 24.675831 963.068542
0.880000 2.960000 2.800000 10.320206 17.797623 423.262024
0.880000 2.960000 2.840000 -20.619133 63.490372 4456.175781
0.880000 2.960000 2.880000 -94.861649 66.676117 13444.437500
0.880000 2.960000 2.920000 -157.393188 -1.010281 24773.636719
0.880000 2.960000 2.960000 -147.922592 -106.262558 33172.824219
0.880000 2.960000 3.000000 -58.780098 -175.338196 34198.582031
0.880000 2.960000 3.040000 52.219540 -157.234436 27449.548828
0.880000 2.960000 3.080000 109.612587 -69.203522 16804.046875
0.880000 2.960000 3.120000 84.436569 19.472260 7508.703125
0.880000 2.960000 3.160000 14.284060 49.210873 2625.744385
0.880000 2.960000 3.200000 -36.848774 17.801048 1674.709473
0.880000 3.000000 2.800000 -6.926647 24.232761 635.205200
0.880000 3.000000 2.840000 -60.265697 43.636814 5536.125977
0.880000 3.000000 2.880000 -125.440582 2.369331 15740.953125
0.880000 3.000000 2.920000 -139.943771 -92.578217 28154.986328
0.880000 3.000000 2.960000 -70.925598 -178.801849 37000.542969
0.880000 3.000000 3.000000 46.864277 -188.265289 37640.082031
0.880000 3.000000 3.040000 134.466644 -108.861359 29932.074219
0.880000 3.000000 3.080000 135.160278 2.104710 18272.730469
0.880000 3.000000 3.120000 61.859570 67.079941 8326.324219
0.880000 3.000000 3.160000 -18.735743 53.649162 3229.260742
0.880000 3.000000 3.200000 -47.625130 -4.782312 2291.023682
0.880000 3.040000 2.800000 -24.288666 13.322777 767.435669
0.880000 3.040000 2.840000 -72.710617 -1.070076 5287.979004
0.880000 3.040000 2.880000 -99.165482 -65.273354 14094.404297
0.880000 3.040000 2.920000 -61.420753 -143.569946 24384.839844
0.880000 3.040000 2.960000 34.255371 -173.647736 31326.964844
0.880000 3.040000 3.000000 128.474091 -121.568069 31284.386719
0.880000 3.040000 3.040000 155.523438 -16.874104 24472.275391
0.880000 3.040000 3.080000 100.136459 68.819382 14763.417969
0.880000 3.040000 3.120000 10.318611 81.968277 6825.271973
0.880000 3.040000 3.160000 -45.997139 30.021992 3017.056885
0.880000 3.040000 3.200000 -38.645763 -31.718439 2499.554443
0.880000 3.080000 2.800000 -26.963646 -8.092566 792.527832
0.880000 3.080000 2.840000 -48.605476 -39.441021 3918.086426
0.880000 3.080000 2.880000 -35.377670 -90.916122 9517.320312
0.880000 3.080000 2.920000 23.381592 -123.103806 15701.246094
0.880000 3.080000 2.960000 97.532410 -99.988495 19510.269531
0.880000 3.080000 3.000000 135.250488 -25.218277 18928.656250
0.880000 3.080000 3.040000 106.899963 54.474380 14395.060547
0.880000 3.080000 3.080000 32.917934 86.038818 8486.268555
0.880000 3.080000 3.120000 -32.270260 54.584389 4020.825195
0.880000 3.080000 3.160000 -46.392113 -5.925172 2187.335693
0.880000 3.080000 3.200000 -12.610710 -44.993568 2183.451172
0.880000 3.120000 2.800000 -12.573574 -23.622696 716.126526
0.880000 3.120000 2.840000 -8.082767 -46.200279 2199.796875
0.880000 3.120000 2.880000 18.777676 -64.426392 4503.360840
0.880000 3.120000 2.920000 59.291695 -57.191357 6786.356445
0.880000 3.120000 2.960000 87.067154 -18.091789 7908.002441
0.880000 3.120000 3.000000 78.341690 33.228512 7241.554688
0.880000 3.120000 3.040000 34.552998 63.221115 5190.819336
0.880000 3.120000 3.080000 -15.352901 51.854927 2924.645020
0.880000 3.120000 3.120000 -37.570869 10.405680 1519.848389
0.880000 3.120000 3.160000 -21.324287 -27.890856 1232.625000
0.880000 3.120000 3.200000 13.662609 -36.201363 1497.205566
0.880000 3.160000 2.800000 6.500440 -22.524742 549.619751
0.880000 3.160000 2.840000 17.871504 -23.709070 881.510620
0.880000 3.160000 2.880000 30.092970 -17.119595 1198.667358
0.880000 3.160000 2.920000 36.976360 -2.236580 1372.253540
0.880000 3.160000 2.960000 32.258030 15.754799 1288.794189
0.880000 3.160000 3.000000 15.376446 26.835896 956.600342
0.880000 3.160000 3.040000 -5.260254 22.796131 547.333862
0.880000 3.160000 3.080000 -16.581392 4.953785 299.482544
0.880000 3.160000 3.120000 -10.841668 -14.881718 339.007294
0.880000 3.160000 3.160000 7.277611 -22.798883 572.752686
0.880000 3.160000 3.200000 23.742172 -14.033485 760.629456
0.880000 3.200000 2.800000 15.142649 -9.472312 319.024506
0.880000 3.200000 2.840000 15.270155 2.559807 239.730240
0.880000 3.200000 2.880000 5.772408 9.676804 126.961227
0.880000 3.200000 2.920000 -5.445044 6.374249 70.279541
0.880000 3.200000 2.960000 -9.788208 -4.286259 114.181030
0.880000 3.200000 3.000000 -4.849937 -14.280575 227.456711
0.880000 3.200000 3.040000 5.003952 -17.637863 336.133728
0.880000 3.200000 3.080000 13.579487 -14.161087 384.938843
0.880000 3.200000 3.120000 17.691710 -7.495703 369.182129
0.880000 3.200000 3.160000 17.778973 -0.996265 317.084412
0.880000 3.200000 3.200000 15.312694 4.056635 250.934875
0.920000 2.800000 2.800000 -13.898735 0.360572 193.304840
0.920000 2.800000 2.840000 -5.937340 -7.320480 88.841431
0.920000 2.800000 2.880000 3.658085 -5.086475 39.253819
0.920000 2.800000 2.920000 5.900772 2.642975 41.804428
0.920000 2.800000 2.960000 0.967842 6.167377 38.973263
0.920000 2.800000 3.000000 -2.249619 1.869888 8.557266
0.920000 2.800000 3.040000 3.173279 -3.190475 20.248833
0.920000 2.800000 3.080000 13.232418 0.809784 175.752640
0.920000 2.800000 3.120000 16.329258 14.557953 478.578644
0.920000 2.800000 3.160000 5.880899 27.201920 774.529419
0.920000 2.800000 3.200000 -11.479888 26.885326 854.608643
0.920000 2.840000 2.800000 -5.716534 -6.520370 75.193985
0.920000 2.840000 2.840000 14.603418 9.320248 300.126831
0.920000 2.840000 2.880000 9.384949 41.735420 1829.922607
0.920000 2.840000 2.920000 -26.971191 58.903061 4197.015625
0.920000 2.840000 2.960000 -67.938866 37.908928 6052.776367
0.920000 2.840000 3.000000 -78.015953 -10.165367 6189.823242
0.920000 2.840000 3.040000 -47.134125 -48.211540 4545.978516
0.920000 2.840000 3.080000 -1.212563 -47.534580 2261.006592
0.920000 2.840000 3.120000 22.473381 -14.370567 711.566040
0.920000 2.840000 3.160000 10.113245 18.021858 427.065125
0.920000 2.840000 3.200000 -18.415598 22.631008 851.296753
0.920000 2.880000 2.800000 4.728497 -2.303385 27.664261
0.920000 2.880000 2.840000 10.581635 44.697746 2109.859619
0.920000 2.880000 2.880000 -38.326309 85.453918 8771.278320
0.920000 2.880000 2.920000 -116.037224 68.540817 18162.480469
0.920000 2.880000 2.960000 -159.483032 -12.221664 25584.207031
0.920000 2.880000 3.000000 -125.950172 -104.307167 26743.431641
0.920000 2.880000 3.040000 -35.538773 -140.617523 21036.291016
0.920000 2.880000 3.080000 45.028633 -99.789169 11985.456055
0.920000 2.880000 3.120000 62.369225 -23.534449 4443.790527
0.920000 2.880000 3.160000 21.338837 24.898907 1075.301514
0.920000 2.880000 3.200000 -27.206121 18.304924 1075.243286
0.920000 2.920000 2.800000 5.511623 10.256948 135.582993
0.920000 2.920000 2.840000 -28.574760 67.909264 5428.185059
0.920000 2.920000 2.880000 -119.691971 74.244568 19838.423828
0.920000 2.920000 2.920000 -198.275345 -9.134018 39396.542969
0.920000 2.920000 2.960000 -186.704926 -140.909134 54714.117188
0.920000 2.920000 3.000000 -74.802116 -227.361145 57288.445312
0.920000 2.920000 3.040000 63.845669 -204.297592 45813.777344
0.920000 2.920000 3.080000 134.412018 -94.960884 27084.160156
0.920000 2.920000 3.120000 102.876816 12.782887 10747.041992
0.920000 2.920000 3.160000 19.043716 46.520557 2526.825439
0.920000 2.920000 3.200000 -37.689072 8.013149 1484.676636
0.920000 2.960000 2.800000 -7.442480 18.099747 382.991333
0.920000 2.960000 2.840000 -80.020386 49.888454 8892.120117
0.920000 2.960000 2.880000 -173.772614 -5.616909 30228.470703
0.920000 2.960000 2.920000 -196.493546 -140.756989 58422.242188
0.920000 2.960000 2.960000 -98.709213 -265.371033 80165.289062
0.920000 2.960000 3.000000 70.067871 -280.567169 83627.445312
0.920000 2.960000 3.040000 196.371384 -168.954483 67107.335938
0.920000 2.960000 3.080000 200.017090 -12.844954 40171.828125
0.920000 2.960000 3.120000 101.049973 78.614441 16391.328125
0.920000 2.960000 3.160000 -6.218729 62.770405 3978.796387
0.920000 2.960000 3.200000 -42.497566 -10.898643 1924.823486
0.920000 3.000000 2.800000 -24.095881 9.878380 678.193848
0.920000 3.000000 2.840000 -103.271767 -6.538597 10707.810547
0.920000 3.000000 2.880000 -150.537033 -108.181030 34364.535156
0.920000 3.000000 2.920000 -92.537857 -237.239182 64845.683594
0.920000 3.000000 2.960000 62.718384 -289.683533 87850.140625
0.920000 3.000000 3.000000 218.274948 -208.238754 91007.328125
0.920000 3.000000 3.040000 266.875793 -40.210960 72839.609375
0.920000 3.000000 3.080000 183.961960 99.349426 43712.312500
0.920000 3.000000 3.120000 46.158142 126.213943 18060.533203
0.920000 3.000000 3.160000 -40.963810 53.755028 4567.636719
0.920000 3.000000 3.200000 -33.919777 -32.144241 2183.803467
0.920000 3.040000 2.800000 -28.160553 -11.728859 930.582886
0.920000 3.040000 2.840000 -76.156410 -64.381271 9944.747070
0.920000 3.040000 2.880000 -58.862633 -162.768097 29958.261719
0.920000 3.040000 2.920000 49.056286 -229.312363 54990.679688
0.920000 3.040000 2.960000 191.446457 -191.425232 73295.367188
0.920000 3.040000 3.000000 268.815002 -53.313221 75103.804688
0.920000 3.040000 3.040000 223.633438 98.217552 59658.601562
0.920000 3.040000 3.080000 92.323792 164.742493 35663.773438
0.920000 3.040000 3.120000 -26.933556 118.719215 14819.667969
0.920000 3.040000 3.160000 -59.695454 20.249044 3973.570801
0.920000 3.040000 3.200000 -12.712116 -44.042782 2101.364502
0.920000 3.080000 2.800000 -12.574497 -30.559397 1091.994629
0.920000 3.080000 2.840000 -16.535725 -83.123093 7182.878906
0.920000 3.080000 2.880000 37.937748 -135.049225 19677.566406
0.920000 3.080000 2.920000 134.127396 -129.047302 34643.367188
0.920000 3.080000 2.960000 207.633270 -43.683945 45019.859375
0.920000 3.080000 3.000000 198.181213 77.548798 45289.609375
0.920000 3.080000 3.040000 104.970833 156.298889 35448.218750
0.920000 3.080000 3.080000 -8.627708 144.513275 20958.523438
0.920000 3.080000 3.120000 -67.972031 64.174080 8738.509766
0.920000 3.080000 3.160000 -48.570023 -15.394634 2596.041992
0.920000 3.080000 3.200000 10.454634 -39.499702 1669.525757
0.920000 3.120000 2.800000 12.665425 -31.230228 1135.740112
0.920000 3.120000 2.840000 32.493996 -54.044621 3976.680664
0.920000 3.120000 2.880000 76.778717 -55.932892 9023.458984
0.920000 3.120000 2.920000 119.463715 -17.377182 14573.545898
0.920000 3.120000 2.960000 124.277573 50.313904 17976.404297
0.920000 3.120000 3.000000 77.022743 107.094414 17401.716797
0.920000 3.120000 3.040000 2.618248 114.798882 13185.638672
0.920000 3.120000 3.080000 -52.067833 69.870766 7592.983398
0.920000 3.120000 3.120000 -56.040146 7.218109 3192.599121
0.920000 3.120000 3.160000 -18.358788 -29.316805 1196.520142
0.920000 3.120000 3.200000 23.070259 -22.694286 1047.267578
0.920000 3.160000 2.800000 28.980381 -13.570938 1024.032837
0.920000 3.160000 2.840000 40.428383 -6.408594 1675.524170
0.920000 3.160000 2.880000 47.643822 9.106644 2352.864746
0.920000 3.160000 2.920000 44.218819 29.555725 2828.844727
0.920000 3.160000 2.960000 27.105118 46.209721 2870.025879
0.920000 3.160000 3.000000 1.190941 48.977020 2400.166992
0.920000 3.160000 3.040000 -21.140594 33.952301 1599.683594
0.920000 3.160000 3.080000 -27.514467 8.405167 827.692749
0.920000 3.160000 3.120000 -15.134104 -12.708588 390.549286
0.920000 3.160000 3.160000 6.127386 -17.383266 339.722809
0.920000 3.160000 3.200000 20.912100 -5.791286 470.854919
0.920000 3.200000 2.800000 26.248798 7.175430 740.486206
0.920000 3.200000 2.840000 14.093075 20.910448 635.861572
0.920000 3.200000 2.880000 -4.773800 19.202141 391.511353
0.920000 3.200000 2.920000 -14.665646 3.223801 225.474060
0.920000 3.200000 2.960000 -8.284142 -13.494123 250.718369
0.920000 3.200000 3.000000 7.275238 -18.188072 383.735046
0.920000 3.200000 3.040000 18.595369 -10.137268 448.551941
0.920000 3.200000 3.080000 18.927160 0.767139 358.825897
0.920000 3.200000 3.120000 12.849850 5.232016 192.492630
0.920000 3.200000 3.160000 9.112400 3.165882 93.058647
0.920000 3.200000 3.200000 10.698422 1.303755 116.156021
0.960000 2.800000 2.800000 -13.047539 -4.452761 190.065338
0.960000 2.800000 2.840000 -1.691048 -6.351311 43.198792
0.960000 2.800000 2.880000 4.564957 1.749981 23.901262
0.960000 2.800000 2.920000 0.060783 9.424244 88.820068
0.960000 2.800000 2.960000 -8.012032 6.992691 113.090378
0.960000 2.800000 3.000000 -7.371136 -2.866150 62.548454
0.960000 2.800000 3.040000 4.927597 -7.036835 73.798256
0.960000 2.800000 3.080000 17.570786 3.695393 322.388428
0.960000 2.800000 3.120000 15.975815 23.246105 795.608032
0.960000 2.800000 3.160000 -1.908610 34.905617 1222.044922
0.960000 2.800000 3.200000 -22.178759 27.980652 1274.814209
0.960000 2.840000 2.800000 -4.823174 -5.444155 52.901825
0.960000 2.840000 2.840000 3.696800 23.614906 571.330139
0.960000 2.840000 2.880000 -24.726883 51.927036 3307.835693
0.960000 2.840000 2.920000 -74.364799 43.006363 7379.670898
0.960000 2.840000 2.960000 -102.000305 -8.904083 10483.344727
0.960000 2.840000 3.000000 -77.778221 -67.789368 10644.849609
0.960000 2.840000 3.040000 -16.383965 -87.078178 7851.043457
0.960000 2.840000 3.080000 34.527229 -53.405495 4044.276367
0.960000 2.840000 3.120000 38.361496 1.113617 1472.844482
0.960000 2.840000 3.160000 2.165796 30.466129 932.875732
0.960000 2.840000 3.200000 -34.081696 17.735870 1476.123047
0.960000 2.880000 2.800000 -1.201481 1.783260 4.623574
0.960000 2.880000 2.840000 -27.038876 52.143356 3450.030518
0.960000 2.880000 2.880000 -104.591927 59.541241 14484.629883
0.960000 2.880000 2.920000 -172.754669 -11.870605 29985.087891
0.960000 2.880000 2.960000 -161.903046 -126.202454 42139.656250
0.960000 2.880000 3.000000 -62.858452 -199.841568 43887.835938
0.960000 2.880000 3.040000 57.975258 -176.012573 34341.554688
0.960000 2.880000 3.080000 115.874710 -77.322090 19405.654297
0.960000 2.880000 3.120000 82.619324 16.025372 7082.765137
0.960000 2.880000 3.160000 6.137173 40.267441 1659.131714
0.960000 2.880000 3.200000 -41.148109 0.935148 1694.041382
0.960000 2.920000 2.800000 -8.323664 8.405142 139.929779
0.960000 2.920000 2.840000 -80.525604 43.368614 8365.209961
0.960000 2.920000 2.880000 -177.237091 -12.008820 31557.197266
0.960000 2.920000 2.920000 -201.081055 -151.323486 63332.386719
0.960000 2.920000 2.960000 -99.250580 -280.110901 88312.796875
0.960000 2.920000 3.000000 76.168175 -294.425903 92488.203125
0.960000 2.920000 3.040000 205.836411 -176.929581 73672.703125
0.960000 2.920000 3.080000 206.874176 -15.292545 43030.789062
0.960000 2.920000 3.120000 102.899551 76.464020 16435.062500
0.960000 2.920000 3.160000 -5.839151 56.755310 3255.260986
0.960000 2.920000 3.200000 -38.470596 -19.090668 1844.440430
0.960000 2.960000 2.800000 -20.852104 3.412727 446.456940
0.960000 2.960000 2.840000 -114.467155 -12.221794 13252.101562
0.960000 2.960000 2.880000 -172.399490 -131.461868 47003.804688
0.960000 2.960000 2.920000 -104.431274 -285.460876 92393.804688
0.960000 2.960000 2.960000 80.683197 -348.347595 127855.828125
0.960000 2.960000 3.000000 266.173859 -251.069885 133884.609375
0.960000 2.960000 3.040000 323.616760 -51.159599 107345.109375
0.960000 2.960000 3.080000 225.293747 113.469818 63632.671875
0.960000 2.960000 3.120000 64.263596 144.271637 24944.113281
0.960000 2.960000 3.160000 -34.902264 60.426659 4869.548828
0.960000 2.960000 3.200000 -24.803879 -35.066051 1844.860352
0.960000 3.000000 2.800000 -24.936668 -14.383907 828.734192
0.960000 3.000000 2.840000 -93.987625 -82.191917 15589.185547
0.960000 3.000000 2.880000 -74.362030 -216.810730 52536.605469
0.960000 3.000000 2.920000 71.538681 -310.118927 101291.531250
0.960000 3.000000 2.960000 266.692810 -260.349213 138906.765625
0.960000 3.000000 3.000000 373.718323 -72.832695 144970.000000
0.960000 3.000000 3.040000 314.099670 133.193359 116399.070312
0.960000 3.000000 3.080000 138.614410 224.258362 69505.765625
0.960000 3.000000 3.120000 -19.686325 165.305756 27713.542969
0.960000 3.000000 3.160000 -63.266468 39.037170 5526.546875
0.960000 3.000000 3.200000 -5.102516 -40.356663 1654.695923
0.960000 3.040000 2.800000 -11.131371 -32.571747 1184.826172
0.960000 3.040000 2.840000 -25.864445 -116.389076 14215.386719
0.960000 3.040000 2.880000 56.546619 -204.774689 45130.191406
0.960000 3.040000 2.920000 211.110352 -200.977081 84959.375000
0.960000 3.040000 2.960000 332.399475 -67.524994 115049.039062
0.960000 3.040000 3.000000 321.572235 125.911095 119262.304688
0.960000 3.040000 3.040000 176.995911 253.439026 95558.890625
0.960000 3.040000 3.080000 -0.430660 239.308640 57268.808594
0.960000 3.040000 3.120000 -94.359573 119.422150 23165.378906
0.960000 3.040000 3.160000 -69.475235 1.420444 4828.825684
0.960000 3.040000 3.200000 12.086603 -34.005219 1302.440796
0.960000 3.080000 2.800000 14.985361 -35.006687 1450.029175
0.960000 3.080000 2.840000 43.997883 -90.485840 10123.500977
0.960000 3.080000 2.880000 132.930786 -107.450287 29216.158203
0.960000 3.080000 2.920000 226.893265 -37.912170 52917.886719
0.960000 3.080000 2.960000 246.126862 97.858757 70154.765625
0.960000 3.080000 3.000000 157.829529 216.577835 71816.117188
0.960000 3.080000 3.040000 11.717659 238.856064 57189.523438
0.960000 3.080000 3.080000 -98.217743 157.104156 34328.441406
0.960000 3.080000 3.120000 -111.927475 40.152885 14140.013672
0.960000 3.080000 3.160000 -48.589909 -28.931305 3197.999512
0.960000 3.080000 3.200000 20.486404 -21.532219 883.329224
0.960000 3.120000 2.800000 35.918728 -16.851753 1574.136597
0.960000 3.120000 2.840000 69.495972 -27.436203 5582.435059
0.960000 3.120000 2.880000 114.894814 -0.870819 13201.577148
0.960000 3.120000 2.920000 132.784592 65.733185 21952.599609
0.960000 3.120000 2.960000 93.963402 137.640900 27774.138672
0.960000 3.120000 3.000000 9.680023 165.997192 27648.771484
0.960000 3.120000 3.040000 -71.757675 128.640076 21697.433594
0.960000 3.120000 3.080000 -102.374283 50.569195 13037.737305
0.960000 3.120000 3.120000 -72.851883 -16.105125 5566.771973
0.960000 3.120000 3.160000 -17.020870 -34.775356 1499.035400
0.960000 3.120000 3.200000 20.133646 -10.596888 517.657715
0.960000 3.160000 2.800000 37.339401 9.979454 1493.820312
0.960000 3.160000 2.840000 43.145565 23.965162 2435.868652
0.960000 3.160000 2.880000 39.525749 43.294815 3436.725830
0.960000 3.160000 2.920000 22.885254 60.488766 4182.625977
0.960000 3.160000 2.960000 -4.047943 66.019974 4375.022461
0.960000 3.160000 3.000000 -31.395981 53.914310 3892.460449
0.960000 3.160000 3.040000 -46.471863 27.069260 2892.378906
0.960000 3.160000 3.080000 -41.777874 -2.533951 1751.811646
0.960000 3.160000 3.120000 -20.928757 -20.544212 860.077515
0.960000 3.160000 3.160000 2.957605 -19.831146 402.021790
0.960000 3.160000 3.200000 16.220543 -5.368027 291.921722
0.960000 3.200000 2.800000 20.910009 27.083590 1170.749268
0.960000 3.200000 2.840000 -1.543686 32.423069 1053.638306
0.960000 3.200000 2.880000 -20.197941 16.681293 686.222412
0.960000 3.200000 2.920000 -18.783493 -7.596188 410.521667
0.960000 3.200000 2.960000 0.422195 -20.045006 401.980499
0.960000 3.200000 3.000000 19.311707 -12.332039 525.021179
0.960000 3.200000 3.040000 22.319685 4.703323 520.289612
0.960000 3.200000 3.080000 11.146744 13.428043 304.562256
0.960000 3.200000 3.120000 0.938271 7.563938 58.093513
0.960000 3.200000 3.160000 3.174035 -2.942886 18.735077
0.960000 3.200000 3.200000 14.086575 -4.372215 217.547852
1.000000 2.800000 2.800000 -10.563784 -5.419636 140.965973
1.000000 2.800000 2.840000 -1.484982 -2.019108 6.281967
1.000000 2.800000 2.880000 -1.253471 6.618176 45.371437
1.000000 2.800000 2.920000 -9.200069 9.018883 165.981537
1.000000 2.800000 2.960000 -14.035898 0.853271 197.734512
1.000000 2.800000 3.000000 -6.374413 -8.744667 117.102341
1.000000 2.800000 3.040000 9.349884 -6.052668 124.055115
1.000000 2.800000 3.080000 17.510994 11.770405 445.177368
1.000000 2.800000 3.120000 6.996162 31.550854 1044.402588
1.000000 2.800000 3.160000 -16.288128 36.003334 1561.543213
1.000000 2.800000 3.200000 -33.960060 20.996315 1594.130859
1.000000 2.840000 2.800000 -7.880955 -3.759109 76.240349
1.000000 2.840000 2.840000 -17.915878 24.209373 907.072449
1.000000 2.840000 2.880000 -58.809990 30.582642 4393.913086
1.000000 2.840000 2.920000 -96.414444 -7.514641 9352.214844
1.000000 2.840000 2.960000 -89.449478 -70.586586 12983.675781
1.000000 2.840000 3.000000 -31.892517 -109.512695 13010.163086
1.000000 2.840000 3.040000 36.405205 -90.676384 9547.545898
1.000000 2.840000 3.080000 64.361176 -29.012100 4984.062988
1.000000 2.840000 3.120000 36.393784 25.181469 1958.613770
1.000000 2.840000 3.160000 -15.159245 33.053391 1322.329346
1.000000 2.840000 3.200000 -43.484909 0.882565 1891.716187
1.000000 2.880000 2.800000 -10.915514 -1.458451 121.275528
1.000000 2.880000 2.840000 -61.733932 25.521152 4462.407715
1.000000 2.880000 2.880000 -132.866470 -14.268311 17857.082031
1.000000 2.880000 2.920000 -150.213959 -117.692726 36415.812500
1.000000 2.880000 2.960000 -72.692505 -213.201447 50739.054688
1.000000 2.880000 3.000000 59.907875 -221.127121 52486.156250
1.000000 2.880000 3.040000 155.550140 -128.791367 40783.062500
1.000000 2.880000 3.080000 151.008194 -5.179680 22830.302734
1.000000 2.880000 3.120000 66.785767 61.064968 8189.268555
1.000000 2.880000 3.160000 -17.145887 39.569706 1859.743042
1.000000 2.880000 3.200000 -38.079849 -23.235968 1989.985107
1.000000 2.920000 2.800000 -17.475098 -5.856003 339.671814
1.000000 2.920000 2.840000 -99.071342 -17.852081 10133.828125
1.000000 2.920000 2.880000 -150.502014 -122.946014 37766.578125
1.000000 2.920000 2.920000 -89.339333 -259.963440 75562.507812
1.000000 2.920000 2.960000 77.095497 -314.917328 105116.640625
1.000000 2.920000 3.000000 242.808228 -225.372131 109748.437500
1.000000 2.920000 3.040000 291.534912 -44.494965 86972.406250
1.000000 2.920000 3.080000 199.725769 101.831406 50260.015625
1.000000 2.920000 3.120000 54.006462 125.347855 18628.783203
1.000000 2.920000 3.160000 -32.167912 46.518837 3198.776855
1.000000 2.920000 3.200000 -18.444498 -38.734718 1840.577881
1.000000 2.960000 2.800000 -18.494953 -18.902550 699.369690
1.000000 2.960000 2.840000 -89.983505 -86.129990 15515.406250
1.000000 2.960000 2.880000 -70.810059 -224.214325 55286.125000
1.000000 2.960000 2.920000 79.621506 -320.487762 109051.992188
1.000000 2.960000 2.960000 281.305664 -268.351929 151145.625000
1.000000 2.960000 3.000000 390.922485 -73.663376 158246.687500
1.000000 2.960000 3.040000 327.578125 138.697632 126544.460938
1.000000 2.960000 3.080000 145.904297 230.462967 74401.242188
1.000000 2.960000 3.120000 -15.108742 167.741699 28365.550781
1.000000 2.960000 3.160000 -56.402557 38.934750 4697.163086
1.000000 2.960000 3.200000 4.588432 -38.072216 1470.547363
1.000000 3.000000 2.800000 -6.230156 -32.564922 1099.288940
1.000000 3.000000 2.840000 -27.320988 -130.783264 17850.697266
1.000000 3.000000 2.880000 68.296951 -237.397842 61022.207031
1.000000 3.000000 2.920000 251.962296 -234.743530 118589.523438
1.000000 3.000000 2.960000 396.838165 -76.831467 163383.609375
1.000000 3.000000 3.000000 384.273682 152.621994 170959.734375
1.000000 3.000000 3.040000 213.291687 303.055603 137336.031250
1.000000 3.000000 3.080000 5.183048 285.774811 81694.109375
1.000000 3.000000 3.120000 -102.992706 145.986572 31919.578125
1.000000 3.000000 3.160000 -73.049881 11.710560 5473.422363
1.000000 3.000000 3.200000 18.617682 -25.192162 981.263062
1.000000 3.040000 2.800000 16.656235 -34.099545 1440.209106
1.000000 3.040000 2.840000 51.406895 -115.619415 16010.518555
1.000000 3.040000 2.880000 175.146484 -145.559006 51863.714844
1.000000 3.040000 2.920000 309.875671 -52.196434 98747.398438
1.000000 3.040000 2.960000 340.512665 136.991669 134715.593750
1.000000 3.040000 3.000000 219.724213 303.604858 140454.640625
1.000000 3.040000 3.040000 18.165352 335.776978 113076.156250
1.000000 3.040000 3.080000 -132.426300 224.552521 67960.562500
1.000000 3.040000 3.120000 -150.854736 67.250549 27279.789062
1.000000 3.040000 3.160000 -67.236000 -22.927532 5046.351562
1.000000 3.040000 3.200000 19.754797 -11.664267 526.307129
1.000000 3.080000 2.800000 36.839062 -17.534388 1664.571167
1.000000 3.080000 2.840000 93.597153 -49.928860 11253.318359
1.000000 3.080000 2.880000 181.788300 -13.527390 33229.976562
1.000000 3.080000 2.920000 224.710205 102.628593 61027.304688
1.000000 3.080000 2.960000 163.448608 234.595276 81750.390625
1.000000 3.080000 3.000000 16.879829 290.246674 84528.062500
1.000000 3.080000 3.040000 -126.283630 228.347412 68090.093750
1.000000 3.080000 3.080000 -179.943115 95.291946 41460.078125
1.000000 3.080000 3.120000 -130.601532 -15.957714 17311.408203
1.000000 3.080000 3.160000 -40.469982 -44.902428 3654.047363
1.000000 3.080000 3.200000 14.653425 -6.246601 253.742889
1.000000 3.120000 2.800000 40.600319 9.499685 1738.629883
1.000000 3.120000 2.840000 76.130875 18.861652 6151.671875
1.000000 3.120000 2.880000 100.859077 68.409126 14852.362305
1.000000 3.120000 2.920000 78.153954 137.667099 25060.271484
1.000000 3.120000 2.960000 2.452026 179.279816 32147.263672
1.000000 3.120000 3.000000 -88.680450 157.168579 32566.185547
1.000000 3.120000 3.040000 -141.211197 79.193901 26212.275391
1.000000 3.120000 3.080000 -127.766846 -7.041695 16373.953125
1.000000 3.120000 3.120000 -68.213196 -52.423973 7401.312988
1.000000 3.120000 3.160000 -9.814095 -43.808403 2015.492554
1.000000 3.120000 3.200000 12.966873 -7.954517 231.414154
1.000000 3.160000 2.800000 25.717649 31.038082 1624.760010
1.000000 3.160000 2.840000 22.944748 46.536503 2692.107422
1.000000 3.160000 2.880000 8.375565 61.352112 3834.231689
1.000000 3.160000 2.920000 -16.238770 66.571548 4695.468750
1.000000 3.160000 2.960000 -42.851448 56.161003 4990.304688
1.000000 3.160000 3.000000 -60.512951 30.957726 4620.197754
1.000000 3.160000 3.040000 -60.939007 -0.600800 3713.923340
1.000000 3.160000 3.080000 -43.499935 -26.041389 2570.398438
1.000000 3.160000 3.120000 -16.395828 -35.402267 1522.143799
1.000000 3.160000 3.160000 7.479438 -27.069729 788.712219
1.000000 3.160000 3.200000 18.028200 -8.817762 402.768921
1.000000 3.200000 2.800000 3.488861 35.963139 1305.519409
1.000000 3.200000 2.840000 -19.947186 28.053768 1184.904053
1.000000 3.200000 2.880000 -27.952518 2.731237 788.802917
1.000000 3.200000 2.920000 -12.319695 -18.757519 503.619385
1.000000 3.200000 2.960000 12.574577 -18.406708 496.926880
1.000000 3.200000 3.000000 24.186047 0.351685 585.088501
1.000000 3.200000 3.040000 14.687126 16.764389 496.756409
1.000000 3.200000 3.080000 -1.906555 14.685356 219.294632
1.000000 3.200000 3.120000 -5.576229 -1.066284 32.231293
1.000000 3.200000 3.160000 8.264347 -11.060844 190.641708
1.000000 3.200000 3.200000 24.649448 -2.745805 615.134705
1.040000 2.800000 2.800000 -11.034170 -4.054047 138.188202
1.040000 2.800000 2.840000 -6.594496 -0.106205 43.498653
1.040000 2.800000 2.880000 -9.402809 4.165756 105.766342
1.040000 2.800000 2.920000 -14.745949 1.241226 218.983658
1.040000 2.800000 2.960000 -13.052711 -7.262466 223.116699
1.040000 2.800000 3.000000 -1.487427 -10.715097 117.025757
1.040000 2.800000 3.040000 10.606049 -0.685886 112.958710
1.040000 2.800000 3.080000 9.755020 18.337200 431.413330
1.040000 2.800000 3.120000 -7.504229 31.129311 1025.347412
1.040000 2.800000 3.160000 -29.413673 25.919720 1536.996094
1.040000 2.800000 3.200000 -39.214058 6.378017 1578.421387
1.040000 2.840000 2.800000 -14.000371 -6.877481 243.310150
1.040000 2.840000 2.840000 -34.408386 5.952286 1219.366699
1.040000 2.840000 2.880000 -66.323914 -11.391624 4528.630371
1.040000 2.840000 2.920000 -73.750641 -59.561100 8986.681641
1.040000 2.840000 2.960000 -35.218674 -104.064865 12069.851562
1.040000 2.840000 3.000000 29.948868 -104.649109 11848.370117
1.040000 2.840000 3.040000 74.646614 -54.804848 8575.688477
1.040000 2.840000 3.080000 66.207062 8.981812 4464.047852
1.040000 2.840000 3.120000 16.583267 39.430336 1829.756104
1.040000 2.840000 3.160000 -29.822401 20.954716 1328.475708
1.040000 2.840000 3.200000 -38.243866 -19.257092 1833.428833
1.040000 2.880000 2.800000 -16.168259 -14.278899 465.299561
1.040000 2.880000 2.840000 -65.419754 -21.423630 4738.715820
1.040000 2.880000 2.880000 -96.749893 -87.916718 17089.890625
1.040000 2.880000 2.920000 -55.796730 -175.212662 33812.750000
1.040000 2.880000 2.960000 53.406754 -208.653732 46388.660156
1.040000 2.880000 3.000000 160.888290 -146.876907 47457.867188
1.040000 2.880000 3.040000 189.269012 -25.758942 36486.281250
1.040000 2.880000 3.080000 123.607468 69.716125 20139.144531
1.040000 2.880000 3.120000 23.808548 80.384491 7028.513672
1.040000 2.880000 3.160000 -32.278694 21.873243 1520.352783
1.040000 2.880000 3.200000 -18.041580 -38.287750 1791.450439
1.040000 2.920000 2.800000 -12.072428 -25.409855 791.404236
1.040000 2.920000 2.840000 -64.860748 -75.653961 9930.438477
1.040000 2.920000 2.880000 -48.692825 -180.905289 35097.714844
1.040000 2.920000 2.920000 69.047089 -253.764862 69164.109375
1.040000 2.920000 2.960000 226.022766 -210.598923 95438.195312
1.040000 2.920000 3.000000 309.533844 -56.299728 98980.859375
1.040000 2.920000 3.040000 256.372742 109.952354 77816.507812
1.040000 2.920000 3.080000 111.225517 178.884796 44370.882812
1.040000 2.920000 3.120000 -14.588577 125.247673 15899.805664
1.040000 2.920000 3.160000 -43.088707 21.578091 2322.250732
1.040000 2.920000 3.200000 9.211694 -37.361061 1480.704224
1.040000 2.960000 2.800000 1.646013 -33.787361 1144.295166
1.040000 2.960000 2.840000 -16.848572 -119.556183 14577.554688
1.040000 2.960000 2.880000 68.969818 -213.906128 50512.667969
1.040000 2.960000 2.920000 234.112869 -210.113312 98956.437500
1.040000 2.960000 2.960000 363.667236 -66.261971 136644.515625
1.040000 2.960000 3.000000 350.147339 141.224777 142547.593750
1.040000 2.960000 3.040000 193.816376 275.361877 113388.953125
1.040000 2.960000 3.080000 6.219402 256.795654 65982.687500
1.040000 2.960000 3.120000 -88.372818 129.012405 24453.957031
1.040000 2.960000 3.160000 -57.882412 9.759972 3445.630615
1.040000 2.960000 3.200000 25.192965 -19.070004 998.350525
1.040000 3.000000 2.800000 21.321838 -31.177168 1426.636597
1.040000 3.000000 2.840000 55.249924 -115.173401 16317.465820
1.040000 3.000000 2.880000 182.874496 -147.083206 55076.550781
1.040000 3.000000 2.920000 323.024780 -50.478649 106893.101562
1.040000 3.000000 2.960000 354.704529 146.276855 147212.218750
1.040000 3.000000 3.000000 228.561630 318.851654 153906.796875
1.040000 3.000000 3.040000 19.614067 350.687012 123366.093750
1.040000 3.000000 3.080000 -134.219376 234.423462 72969.203125
1.040000 3.000000 3.120000 -150.351349 73.454453 28001.083984
1.040000 3.000000 3.160000 -63.600170 -15.214390 4276.459473
1.040000 3.000000 3.200000 22.006067 0.080799 484.273529
1.040000 3.040000 2.800000 36.894836 -14.693142 1577.117432
1.040000 3.040000 2.840000 104.271942 -58.823936 14332.893555
1.040000 3.040000 2.880000 214.449890 -18.254025 46321.964844
1.040000 3.040000 2.920000 270.686890 123.180565 88444.843750
1.040000 3.040000 2.960000 197.894440 286.021423 120970.468750
1.040000 3.040000 3.000000 19.371429 355.003418 126402.679688
1.040000 3.040000 3.040000 -154.166809 279.637085 101964.304688
1.040000 3.040000 3.080000 -217.193741 119.114128 61361.296875
1.040000 3.040000 3.120000 -156.292542 -11.744892 24565.302734
1.040000 3.040000 3.160000 -50.514210 -42.051044 4319.975586
1.040000 3.040000 3.200000 9.006371 5.156900 107.708328
1.040000 3.080000 2.800000 38.765888 9.343339 1590.092041
1.040000 3.080000 2.840000 98.589920 13.050396 9890.285156
1.040000 3.080000 2.880000 148.019836 86.345421 29365.402344
1.040000 3.080000 2.920000 121.748917 198.575439 54255.007812
1.040000 3.080000 2.960000 6.732796 270.255585 73083.406250
1.040000 3.080000 3.000000 -135.850372 239.976929 76044.250000
1.040000 3.080000 3.040000 -217.264420 120.732040 61780.054688
1.040000 3.080000 3.080000 -194.995682 -9.221703 38108.355469
1.040000 3.080000 3.120000 -104.651306 -72.877563 16263.035156
1.040000 3.080000 3.160000 -22.334787 -55.177494 3543.398682
1.040000 3.080000 3.200000 2.947016 -3.489498 20.861500
1.040000 3.120000 2.800000 25.408590 29.078827 1491.174561
1.040000 3.120000 2.840000 48.527908 54.263260 5299.459473
1.040000 3.120000 2.880000 42.389420 105.618507 12952.132812
1.040000 3.120000 2.920000 -10.887810 148.026367 22030.349609
1.040000 3.120000 2.960000 -91.197227 142.106659 28511.238281
1.040000 3.120000 3.000000 -151.560089 79.358200 29268.185547
1.040000 3.120000 3.040000 -154.981903 -7.388794 24073.984375
1.040000 3.120000 3.080000 -104.072708 -69.102249 15606.250000
1.040000 3.120000 3.120000 -36.821793 -78.676239 7545.794922
1.040000 3.120000 3.160000 6.049979 -48.080578 2348.344238
1.040000 3.120000 3.200000 11.418143 -11.795078 269.497864
1.040000 3.160000 2.800000 4.739182 35.803558 1304.354614
1.040000 3.160000 2.840000 -4.958611 47.136044 2246.394531
1.040000 3.160000 2.880000 -24.307571 51.623207 3255.813477
1.040000 3.160000 2.920000 -46.510788 43.018734 4013.864746
1.040000 3.160000 2.960000 -62.093613 21.473984 4316.748535
1.040000 3.160000 3.000000 -63.921040 -6.688934 4130.641113
1.040000 3.160000 3.040000 -50.285942 -32.072052 3557.292480
1.040000 3.160000 3.080000 -25.484192 -46.043411 2769.439697
1.040000 3.160000 3.120000 1.664280 -44.117027 1949.081909
1.040000 3.160000 3.160000 21.070234 -28.255182 1242.310059
1.040000 3.160000 3.200000 26.090099 -6.741693 726.143738
1.040000 3.200000 2.800000 -12.303417 30.065603 1055.314575
1.040000 3.200000 2.840000 -27.443764 12.933121 920.425781
1.040000 3.200000 2.880000 -21.787415 -11.217422 600.521973
1.040000 3.200000 2.920000 1.257282 -20.673737 428.984131
1.040000 3.200000 2.960000 20.622742 -7.694771 484.506989
1.040000 3.200000 3.000000 19.308620 12.949699 540.517517
1.040000 3.200000 3.040000 2.265953 19.476364 384.463318
1.040000 3.200000 3.080000 -9.129044 6.289753 122.900436
1.040000 3.200000 3.120000 -0.282394 -10.176441 103.639702
1.040000 3.200000 3.160000 20.739376 -9.418846 518.836426
1.040000 3.200000 3.200000 31.839935 10.842945 1131.350952
1.080000 2.800000 2.800000 -14.714735 -5.127140 242.810989
1.080000 2.800000 2.840000 -12.115549 -4.601379 167.959229
1.080000 2.800000 2.880000 -12.571661 -4.558502 178.826599
1.080000 2.800000 2.920000 -12.289146 -7.878662 213.096436
1.080000 2.800000 2.960000 -6.801338 -11.263086 173.115326
1.080000 2.800000 3.000000 2.187378 -8.025826 69.198494
1.080000 2.800000 3.040000 6.397419 3.774208 55.171616
1.080000 2.800000 3.080000 -1.183121 16.893005 286.773407
1.080000 2.800000 3.120000 -17.953478 20.180706 729.588257
1.080000 2.800000 3.160000 -32.261196 9.274653 1126.803955
1.080000 2.800000 3.200000 -33.530952 -8.288115 1193.017700
1.080000 2.840000 2.800000 -16.741220 -16.702467 559.240845
1.080000 2.840000 2.840000 -31.528458 -20.101959 1398.132446
1.080000 2.840000 2.880000 -40.728706 -44.919491 3676.588135
1.080000 2.840000 2.920000 -22.535446 -77.621223 6532.900391
1.080000 2.840000 2.960000 22.457245 -88.441055 8326.148438
1.080000 2.840000 3.000000 65.744110 -59.842453 7903.407227
1.080000 2.840000 3.040000 74.308716 -6.819092 5568.285156
1.080000 2.840000 3.080000 41.486115 33.381760 2835.439453
1.080000 2.840000 3.120000 -5.673855 33.954502 1185.100830
1.080000 2.840000 3.160000 -30.822079 2.039768 954.161194
1.080000 2.840000 3.200000 -20.773289 -29.989313 1330.888428
1.080000 2.880000 2.800000 -9.027184 -29.971016 979.751831
1.080000 2.880000 2.840000 -32.698418 -56.142231 4221.136719
1.080000 2.880000 2.880000 -20.711853 -110.759331 12696.609375
1.080000 2.880000 2.920000 45.283463 -147.325455 23755.380859
1.080000 2.880000 2.960000 131.590134 -119.973511 31709.605469
1.080000 2.880000 3.000000 175.642456 -31.410294 31836.878906
1.080000 2.880000 3.040000 142.007034 62.295723 24046.755859
1.080000 2.880000 3.080000 56.640846 98.737274 12957.234375
1.080000 2.880000 3.120000 -15.669247 63.714363 4305.045410
1.080000 2.880000 3.160000 -29.242058 0.358661 855.226624
1.080000 2.880000 3.200000 5.679124 -34.578804 1227.946167
1.080000 2.920000 2.800000 8.494982 -36.279327 1388.354248
1.080000 2.920000 2.840000 0.181959 -89.261726 7967.688965
1.080000 2.920000 2.880000 58.388836 -147.415298 25140.525391
1.080000 2.920000 2.920000 167.389679 -140.983490 47895.648438
1.080000 2.920000 2.960000 251.363907 -42.306808 64973.679688
1.080000 2.920000 3.000000 238.900513 97.297226 66540.203125
1.080000 2.920000 3.040000 130.943451 185.656006 51614.339844
1.080000 2.920000 3.080000 3.772774 169.743195 28826.986328
1.080000 2.920000 3.120000 -57.988811 80.443253 9833.818359
1.080000 2.920000 3.160000 -33.495426 -0.656975 1122.375244
1.080000 2.920000 3.200000 25.707369 -17.452040 965.442505
1.080000 2.960000 2.800000 28.390106 -29.061584 1650.573730
1.080000 2.960000 2.840000 55.323761 -89.188492 11015.305664
1.080000 2.960000 2.880000 152.564758 -110.141335 35407.117188
1.080000 2.960000 2.920000 258.469055 -33.151459 67905.265625
1.080000 2.960000 2.960000 279.998993 119.845444 92762.367188
1.080000 2.960000 3.000000 179.583359 252.380280 95945.984375
1.080000 2.960000 3.040000 16.539230 274.398651 75568.164062
1.080000 2.960000 3.080000 -101.294655 181.695404 43273.828125
1.080000 2.960000 3.120000 -110.618286 56.584545 15438.215820
1.080000 2.960000 3.160000 -41.028362 -9.392498 1771.545532
1.080000 2.960000 3.200000 24.340761 6.406935 633.521484
1.080000 3.000000 2.800000 39.965130 -9.654245 1690.416016
1.080000 3.000000 2.840000 98.153175 -46.807446 11824.982422
1.080000 3.000000 2.880000 194.657257 -9.785877 37987.210938
1.080000 3.000000 2.920000 243.282089 116.686020 72801.804688
1.080000 3.000000 2.960000 176.730927 261.571045 99653.234375
1.080000 3.000000 3.000000 16.465210 321.561554 103672.937500
1.080000 3.000000 3.040000 -137.469528 252.399734 82603.500000
1.080000 3.000000 3.080000 -191.030685 109.021912 48378.500000
1.080000 3.000000 3.120000 -134.636902 -4.865612 18150.769531
1.080000 3.000000 3.160000 -41.637924 -27.662930 2498.954346
1.080000 3.000000 3.200000 6.541164 16.291636 308.204224
1.080000 3.040000 2.800000 36.941650 12.802074 1528.578613
1.080000 3.040000 2.840000 99.145470 14.451214 10038.662109
1.080000 3.040000 2.880000 152.707764 90.379364 31488.089844
1.080000 3.040000 2.920000 126.499207 209.198029 59765.867188
1.080000 3.040000 2.960000 5.542618 285.576233 81584.500000
1.080000 3.040000 3.000000 -144.462677 253.562988 85163.656250
1.080000 3.040000 3.040000 -228.548691 128.083221 68639.812500
1.080000 3.040000 3.080000 -203.040878 -6.198215 41264.015625
1.080000 3.040000 3.120000 -108.701721 -68.403717 16495.132812
1.080000 3.040000 3.160000 -27.285828 -46.436234 2900.840088
1.080000 3.040000 3.200000 -7.519669 5.922693 91.623711
1.080000 3.080000 2.800000 21.945848 27.813761 1255.225586
1.080000 3.080000 2.840000 59.215874 56.554893 6704.975586
1.080000 3.080000 2.880000 59.008999 127.147461 19648.539062
1.080000 3.080000 2.920000 -8.748268 190.278595 36282.476562
1.080000 3.080000 2.960000 -117.698486 187.424011 48980.695312
1.080000 3.080000 3.000000 -200.473953 104.820618 51177.167969
1.080000 3.080000 3.040000 -204.380173 -10.365540 41878.699219
1.080000 3.080000 3.080000 -135.343842 -88.666397 26179.685547
1.080000 3.080000 3.120000 -49.224110 -95.302643 11505.606445
1.080000 3.080000 3.160000 -1.143353 -52.542625 2762.034912
1.080000 3.080000 3.200000 -2.468313 -10.544539 117.279877
1.080000 3.120000 2.800000 3.826609 30.928249 971.199524
1.080000 3.120000 2.840000 8.277834 58.174393 3452.782471
1.080000 3.120000 2.880000 -18.939316 90.075768 8472.341797
1.080000 3.120000 2.920000 -73.881226 94.895012 14463.499023
1.080000 3.120000 2.960000 -125.549149 55.511497 18844.115234
1.080000 3.120000 3.000000 -139.371399 -12.973206 19592.691406
1.080000 3.120000 3.040000 -105.450363 -73.315132 16494.886719
1.080000 3.120000 3.080000 -45.956154 -95.072769 11150.798828
1.080000 3.120000 3.120000 4.017441 -76.332191 5842.743164
1.080000 3.120000 3.160000 23.547108 -40.283161 2177.199219
1.080000 3.120000 3.200000 17.060030 -12.901440 457.491760
1.080000 3.160000 2.800000 -9.682283 25.581291 748.149048
1.080000 3.160000 2.840000 -21.472706 29.980303 1359.895630
1.080000 3.160000 2.880000 -37.326538 24.735809 2005.130615
1.080000 3.160000 2.920000 -49.017765 8.909645 2482.123047
1.080000 3.160000 2.960000 -50.438164 -12.515579 2700.647949
1.080000 3.160000 3.000000 -40.344707 -32.500763 2683.995117
1.080000 3.160000 3.040000 -21.357536 -45.239365 2502.744385
1.080000 3.160000 3.080000 1.770905 -47.026600 2214.636963
1.080000 3.160000 3.120000 22.630058 -36.578239 1850.087158
1.080000 3.160000 3.160000 34.014908 -16.656187 1434.442505
1.080000 3.160000 3.200000 31.326408 4.891492 1005.270569
1.080000 3.200000 2.800000 -17.185570 18.242199 628.121643
1.080000 3.200000 2.840000 -21.553047 0.671644 464.984955
1.080000 3.200000 2.880000 -8.241991 -13.804829 258.503723
1.080000 3.200000 2.920000 11.293522 -10.694962 241.925842
1.080000 3.200000 2.960000 18.377625 6.471260 379.614288
1.080000 3.200000 3.000000 7.479187 19.157673 422.954651
1.080000 3.200000 3.040000 -7.151886 13.891275 244.117004
1.080000 3.200000 3.080000 -6.781796 -2.429512 51.895279
1.080000 3.200000 3.120000 10.830482 -9.405567 205.764038
1.080000 3.200000 3.160000 27.901606 4.616703 799.813538
1.080000 3.200000 3.200000 25.175922 29.016182 1475.765869
1.120000 2.800000 2.800000 -17.155756 -10.766636 410.240417
1.120000 2.800000 2.840000 -11.990404 -12.919839 310.692017
1.120000 2.800000 2.880000 -7.876331 -12.587311 220.476990
1.120000 2.800000 2.920000 -4.621647 -11.574680 155.332840
1.120000 2.800000 2.960000 -1.088741 -9.469090 90.849014
1.120000 2.800000 3.000000 1.679855 -4.518982 23.243113
1.120000 2.800000 3.040000 0.309143 2.781517 7.832407
1.120000 2.800000 3.080000 -7.125444 8.041878 115.443756
1.120000 2.800000 3.120000 -17.458521 6.132107 342.402679
1.120000 2.800000 3.160000 -23.699278 -3.424915 573.385803
1.120000 2.800000 3.200000 -20.971672 -14.710612 656.213135
1.120000 2.840000 2.800000 -10.469154 -27.729177 878.510498
1.120000 2.840000 2.840000 -10.468201 -35.184105 1347.504517
1.120000 2.840000 2.880000 -2.230812 -48.037415 2312.569824
1.120000 2.840000 2.920000 19.534142 -54.826653 3387.544678
1.120000 2.840000 2.960000 45.780861 -42.626793 3912.930664
1.120000 2.840000 3.000000 57.810677 -11.952759 3484.942627
1.120000 2.840000 3.040000 44.006336 19.609665 2321.096680
1.120000 2.840000 3.080000 12.438465 30.913712 1110.372925
1.120000 2.840000 3.120000 -14.386524 16.015003 463.452393
1.120000 2.840000 3.160000 -18.806532 -10.287816 459.524780
1.120000 2.840000 3.200000 -2.994942 -26.048283 687.482666
1.120000 2.880000 2.800000 9.393015 -36.627571 1429.807739
1.120000 2.880000 2.840000 12.569565 -54.963326 3178.960938
1.120000 2.880000 2.880000 40.328888 -73.670372 7053.743164
1.120000 2.880000 2.920000 86.716080 -65.285950 11781.933594
1.120000 2.880000 2.960000 120.525192 -18.589622 14871.896484
1.120000 2.880000 3.000000 111.464310 44.337646 14390.119141
1.120000 2.880000 3.040000 60.125900 82.990135 10502.486328
1.120000 2.880000 3.080000 0.912251 73.438850 5394.096680
1.120000 2.880000 3.120000 -27.000053 29.718334 1612.182251
1.120000 2.880000 3.160000 -13.264227 -9.740294 270.813019
1.120000 2.880000 3.200000 17.771761 -17.281162 614.474060
1.120000 2.920000 2.800000 32.400269 -28.475895 1860.653931
1.120000 2.920000 2.840000 49.935665 -52.532120 5253.194336
1.120000 2.920000 2.880000 100.081345 -56.455910 13203.544922
1.120000 2.920000 2.920000 152.209183 -11.097069 23290.779297
1.120000 2.920000 2.960000 158.940369 71.846573 30423.970703
1.120000 2.920000 3.000000 101.335075 141.715607 30352.109375
1.120000 2.920000 3.040000 11.611240 151.001801 22936.363281
1.120000 2.920000 3.080000 -51.870388 98.155914 12325.121094
1.120000 2.920000 3.120000 -54.886349 28.749035 3839.018311
1.120000 2.920000 3.160000 -14.454976 -6.451874 250.573013
1.120000 2.920000 3.200000 22.349318 4.872648 523.234680
1.120000 2.960000 2.800000 44.234802 -5.670144 1988.868286
1.120000 2.960000 2.840000 78.658783 -21.195286 6636.444336
1.120000 2.960000 2.880000 133.779480 6.464310 17938.736328
1.120000 2.960000 2.920000 158.533844 86.287781 32578.562500
1.120000 2.960000 2.960000 112.778847 174.972672 43334.503906
1.120000 2.960000 3.000000 10.651697 209.425323 43972.421875
1.120000 2.960000 3.040000 -85.300476 163.315704 33948.191406
1.120000 2.960000 3.080000 -116.860329 72.246918 18875.953125
1.120000 2.960000 3.120000 -79.475861 1.897602 6320.013672
1.120000 2.960000 3.160000 -20.946289 -9.741682 533.647400
1.120000 2.960000 3.200000 6.846684 19.971815 445.750488
1.120000 3.000000 2.800000 37.666367 18.746883 1770.200806
1.120000 3.000000 2.840000 77.922821 23.565748 6627.310547
1.120000 3.000000 2.880000 111.672455 78.907784 18697.175781
1.120000 3.000000 2.920000 89.028381 163.007935 34497.640625
1.120000 3.000000 2.960000 -0.192297 215.356110 46378.289062
1.120000 3.000000 3.000000 -108.332802 189.447235 47626.250000
1.120000 3.000000 3.040000 -167.184906 97.405746 37438.671875
1.120000 3.000000 3.080000 -146.700806 1.383354 21523.041016
1.120000 3.000000 3.120000 -78.457779 -40.764862 7817.396973
1.120000 3.000000 3.160000 -22.552839 -22.712189 1024.474121
1.120000 3.000000 3.200000 -12.607973 14.099638 357.760773
1.120000 3.040000 2.800000 18.393896 31.317038 1319.092285
1.120000 3.040000 2.840000 47.354103 54.959572 5262.965820
1.120000 3.040000 2.880000 45.838440 113.861603 15065.626953
1.120000 3.040000 2.920000 -12.624033 166.586334 27910.371094
1.120000 3.040000 2.960000 -105.727951 162.890198 37711.617188
1.120000 3.040000 3.000000 -175.422653 91.361946 39120.113281
1.120000 3.040000 3.040000 -177.004349 -6.429947 31371.882812
1.120000 3.040000 3.080000 -117.480286 -70.615318 18788.140625
1.120000 3.040000 3.120000 -46.508194 -73.334961 7541.028809
1.120000 3.040000 3.160000 -10.513487 -36.878010 1470.520996
1.120000 3.040000 3.200000 -15.539291 -5.515294 271.888031
1.120000 3.080000 2.800000 -0.350519 28.806007 829.908936
1.120000 3.080000 2.840000 7.685738 56.715012 3275.663086
1.120000 3.080000 2.880000 -18.932514 93.449196 9091.192383
1.120000 3.080000 2.920000 -78.682411 101.938538 16582.386719
1.120000 3.080000 2.960000 -136.639801 60.527306 22333.990234
1.120000 3.080000 3.000000 -152.310944 -14.061756 23396.355469
1.120000 3.080000 3.040000 -114.664993 -78.453140 19302.955078
1.120000 3.080000 3.080000 -50.949753 -98.525223 12303.096680
1.120000 3.080000 3.120000 -1.812315 -75.420380 5691.518555
1.120000 3.080000 3.160000 12.266204 -38.802666 1656.106567
1.120000 3.080000 3.200000 1.972163 -17.126434 297.204193
1.120000 3.120000 2.800000 -9.582117 19.249462 462.358765
1.120000 3.120000 2.840000 -17.301392 35.321198 1546.925171
1.120000 3.120000 2.880000 -43.929512 42.375031 3725.445312
1.120000 3.120000 2.920000 -75.646744 24.777405 6336.349609
1.120000 3.120000 2.960000 -89.849365 -15.307243 8307.219727
1.120000 3.120000 3.000000 -73.822052 -57.806591 8791.296875
1.120000 3.120000 3.040000 -35.136066 -80.176338 7662.788086
1.120000 3.120000 3.080000 5.091999 -74.128693 5520.991211
1.120000 3.120000 3.120000 28.723614 -49.320744 3257.581543
1.120000 3.120000 3.160000 31.844608 -22.890869 1538.071045
1.120000 3.120000 3.200000 22.754206 -6.251831 556.839294
1.120000 3.160000 2.800000 -11.323325 12.687707 289.195618
1.120000 3.160000 2.840000 -20.140848 11.323417 533.873535
1.120000 3.160000 2.880000 -27.600798 2.561684 768.366211
1.120000 3.160000 2.920000 -28.660830 -10.453217 930.712891
1.120000 3.160000 2.960000 -22.514816 -22.713356 1022.813477
1.120000 3.160000 3.000000 -11.177872 -31.021538 1087.280640
1.120000 3.160000 3.040000 3.352592 -33.923973 1162.075806
1.120000 3.160000 3.080000 19.080982 -29.683010 1245.165039
1.120000 3.160000 3.120000 31.733206 -16.797791 1289.162109
1.120000 3.160000 3.160000 34.970322 2.323271 1228.320923
1.120000 3.160000 3.200000 25.341019 19.541576 1024.040405
1.120000 3.200000 2.800000 -14.064297 11.053843 319.991882
1.120000 3.200000 2.840000 -12.000916 -0.676197 144.479248
1.120000 3.200000 2.880000 -0.130426 -4.841576 23.457867
1.120000 3.200000 2.920000 9.243954 3.544693 98.015533
1.120000 3.200000 2.960000 5.989586 15.150113 265.401062
1.120000 3.200000 3.000000 -5.552116 16.333073 297.595245
1.120000 3.200000 3.040000 -10.503437 5.199055 137.352356
1.120000 3.200000 3.080000 -0.288715 -4.825939 23.373045
1.120000 3.200000 3.120000 16.213377 0.856350 263.606934
1.120000 3.200000 3.160000 20.730137 20.992121 870.407715
1.120000 3.200000 3.200000 5.132579 37.883038 1461.467896
1.160000 2.800000 2.800000 -14.411390 -17.664738 519.731140
1.160000 2.800000 2.840000 -5.656786 -18.408710 370.879852
1.160000 2.800000 2.880000 0.102200 -14.099755 198.813553
1.160000 2.800000 2.920000 1.289494 -8.984138 82.377541
1.160000 2.800000 2.960000 0.078274 -5.937819 35.263817
1.160000 2.800000 3.000000 -0.968199 -4.464113 20.865717
1.160000 2.800000 3.040000 -1.843523 -2.738220 10.896427
1.160000 2.800000 3.080000 -4.313346 -0.882504 19.383768
1.160000 2.800000 3.120000 -8.604590 -1.328361 75.803520
1.160000 2.800000 3.160000 -11.831100 -5.682196 172.262299
1.160000 2.800000 3.200000 -10.525357 -11.856215 251.352966
1.160000 2.840000 2.800000 2.753724 -31.366949 991.468506
1.160000 2.840000 2.840000 12.396781 -29.805580 1042.052734
1.160000 2.840000 2.880000 20.591425 -25.101665 1054.100342
1.160000 2.840000 2.920000 27.067047 -17.259583 1030.518311
1.160000 2.840000 2.960000 29.773846 -5.978458 922.223816
1.160000 2.840000 3.000000 25.561733 6.325033 693.408264
1.160000 2.840000 3.040000 14.082184 13.981629 393.793884
1.160000 2.840000 3.080000 0.439674 12.103932 146.698486
1.160000 2.840000 3.120000 -7.339793 1.700455 56.764107
1.160000 2.840000 3.160000 -4.814184 -9.782187 118.867538
1.160000 2.840000 3.200000 4.639703 -14.158550 221.991379
1.160000 2.880000 2.800000 27.656076 -27.766880 1535.858154
1.160000 2.880000 2.840000 37.796925 -23.837540 1996.835815
1.160000 2.880000 2.880000 49.325527 -14.954794 2656.653320
1.160000 2.880000 2.920000 57.435532 2.609478 3305.649658
1.160000 2.880000 2.960000 53.614426 25.857697 3543.126953
1.160000 2.880000 3.000000 34.436718 43.627319 3089.230469
1.160000 2.880000 3.040000 7.866508 44.673012 2057.559814
1.160000 2.880000 3.080000 -10.950277 28.354832 923.905029
1.160000 2.880000 3.120000 -11.942959 6.807556 188.977081
1.160000 2.880000 3.160000 1.092314 -4.778782 24.029905
1.160000 2.880000 3.200000 14.181643 -1.080995 202.287567
1.160000 2.920000 2.800000 43.516136 -5.598052 1924.992188
1.160000 2.920000 2.840000 53.527710 1.398527 2867.171631
1.160000 2.920000 2.880000 64.433983 18.372480 4489.286133
1.160000 2.920000 2.920000 64.112411 46.627850 6284.557617
1.160000 2.920000 2.960000 42.788479 73.776413 7273.812988
1.160000 2.920000 3.000000 5.818880 81.733810 6714.274902
1.160000 2.920000 3.040000 -26.986755 63.294266 4734.449219
1.160000 2.920000 3.080000 -37.061745 30.660172 2313.619141
1.160000 2.920000 3.120000 -23.254169 6.070361 577.605713
1.160000 2.920000 3.160000 -2.359375 2.708570 12.903004
1.160000 2.920000 3.200000 6.869631 14.363750 253.509155
1.160000 2.960000 2.800000 38.573029 21.741032 1960.551025
1.160000 2.960000 2.840000 46.667763 32.249477 3217.908936
1.160000 2.960000 2.880000 49.908550 56.249390 5654.857422
1.160000 2.960000 2.920000 33.095284 86.203339 8526.313477
1.160000 2.960000 2.960000 -5.814325 101.475143 10331.011719
1.160000 2.960000 3.000000 -48.663483 86.620422 9871.232422
1.160000 2.960000 3.040000 -70.331757 47.752701 7226.876465
1.160000 2.960000 3.080000 -60.649643 9.402928 3766.794189
1.160000 2.960000 3.120000 -33.283985 -6.370831 1148.411133
1.160000 2.960000 3.160000 -12.477364 1.600695 158.246826
1.160000 2.960000 3.200000 -10.891464 15.462391 357.709534
1.160000 3.000000 2.800000 16.665550 36.507187 1610.515259
1.160000 3.000000 2.840000 20.498861 49.317451 2852.414307
1.160000 3.000000 2.880000 11.866241 73.147194 5491.319824
1.160000 3.000000 2.920000 -19.092911 91.503700 8737.465820
1.160000 3.000000 2.960000 -62.065407 84.215836 10944.421875
1.160000 3.000000 3.000000 -91.919655 47.986847 10751.959961
1.160000 3.000000 3.040000 -90.257774 2.409793 8152.272949
1.160000 3.000000 3.080000 -62.126606 -25.981270 4534.741211
1.160000 3.000000 3.120000 -30.982845 -26.368511 1655.235107
1.160000 3.000000 3.160000 -17.015442 -10.885265 408.014282
1.160000 3.000000 3.200000 -20.594704 -0.194581 424.179688
1.160000 3.040000 2.800000 -5.894363 31.670172 1037.743286
1.160000 3.040000 2.840000 -7.441216 43.722450 1967.024414
1.160000 3.040000 2.880000 -24.915174 58.826504 4081.323486
1.160000 3.040000 2.920000 -57.570976 58.717354 6762.144531
1.160000 3.040000 2.960000 -87.278984 32.933434 8702.232422
1.160000 3.040000 3.000000 -93.360489 -8.746895 8792.688477
1.160000 3.040000 3.040000 -71.449425 -43.002964 6954.275391
1.160000 3.040000 3.080000 -37.479256 -52.802818 4192.832031
1.160000 3.040000 3.120000 -13.000820 -40.885620 1840.655273
1.160000 3.040000 3.160000 -6.819819 -24.281239 636.088501
1.160000 3.040000 3.200000 -10.737461 -16.870251 399.898407
1.160000 3.080000 2.800000 -15.006529 16.291891 490.621643
1.160000 3.080000 2.840000 -20.568565 24.199411 1008.677368
1.160000 3.080000 2.880000 -38.229660 27.220339 2202.453857
1.160000 3.080000 2.920000 -59.471672 13.970936 3732.066895
1.160000 3.080000 2.960000 -68.517929 -14.542057 4906.177734
1.160000 3.080000 3.000000 -56.502243 -44.062679 5134.022949
1.160000 3.080000 3.040000 -29.529709 -58.804482 4329.970703
1.160000 3.080000 3.080000 -3.040645 -54.185913 2945.358887
1.160000 3.080000 3.120000 11.292243 -38.628349 1619.664185
1.160000 3.080000 3.160000 13.226859 -24.122494 756.844482
1.160000 3.080000 3.200000 10.199757 -16.071003 362.312164
1.160000 3.120000 2.800000 -11.040005 5.749929 154.943390
1.160000 3.120000 2.840000 -17.194237 7.756031 355.797791
1.160000 3.120000 2.880000 -27.126259 2.866184 744.048950
1.160000 3.120000 2.920000 -33.145325 -10.719540 1213.521118
1.160000 3.120000 2.960000 -28.976419 -27.578892 1600.228149
1.160000 3.120000 3.000000 -14.867222 -39.426941 1775.517944
1.160000 3.120000 3.040000 3.215485 -41.223499 1709.716309
1.160000 3.120000 3.080000 18.371754 -33.547672 1462.967651
1.160000 3.120000 3.120000 26.597809 -20.530067 1128.927124
1.160000 3.120000 3.160000 27.128597 -6.733329 781.298523
1.160000 3.120000 3.200000 21.197210 4.121067 466.304901
1.160000 3.160000 2.800000 -6.539372 6.321715 82.727478
1.160000 3.160000 2.840000 -9.500940 3.221931 100.648712
1.160000 3.160000 2.880000 -9.808381 -1.662928 98.969666
1.160000 3.160000 2.920000 -7.578865 -5.852703 91.693329
1.160000 3.160000 2.960000 -4.393532 -8.891621 98.364044
1.160000 3.160000 3.000000 -0.137203 -11.812006 139.542313
1.160000 3.160000 3.040000 7.108168 -13.696363 238.116425
1.160000 3.160000 3.080000 17.128366 -10.564816 404.996277
1.160000 3.160000 3.120000 24.663021 0.469239 608.484802
1.160000 3.160000 3.160000 22.626137 15.845201 763.012451
1.160000 3.160000 3.200000 9.567668 26.078314 771.618713
1.160000 3.200000 2.800000 -11.802778 9.705864 233.509369
1.160000 3.200000 2.840000 -9.045452 4.359523 100.825653
1.160000 3.200000 2.880000 -3.713715 5.170239 40.523052
1.160000 3.200000 2.920000 -3.420200 10.539952 122.788361
1.160000 3.200000 2.960000 -9.493427 12.298477 241.377716
1.160000 3.200000 3.000000 -14.132133 5.779900 233.124435
1.160000 3.200000 3.040000 -9.051133 -2.993168 90.882065
1.160000 3.200000 3.080000 3.560994 -2.599295 19.437012
1.160000 3.200000 3.120000 11.091771 10.670955 236.896667
1.160000 3.200000 3.160000 3.189848 26.497557 712.295593
1.160000 3.200000 3.200000 -16.017937 29.559597 1130.344116
1.200000 2.800000 2.800000 -7.764817 -20.672609 487.649170
1.200000 2.800000 2.840000 1.280371 -17.587133 310.946594
1.200000 2.800000 2.880000 4.373901 -10.497655 129.331772
1.200000 2.800000 2.920000 1.810615 -5.708705 35.867641
1.200000 2.800000 2.960000 -1.328890 -5.848910 35.975700
1.200000 2.800000 3.000000 -0.878851 -7.890238 63.028236
1.200000 2.800000 3.040000 2.118303 -7.187375 56.145565
1.200000 2.800000 3.080000 3.068410 -3.022260 18.549194
1.200000 2.800000 3.120000 -0.518331 0.487984 0.506795
1.200000 2.800000 3.160000 -5.746104 -0.885349 33.801559
1.200000 2.800000 3.200000 -7.204170 -6.433984 93.296211
1.200000 2.840000 2.800000 13.909195 -24.706848 803.894043
1.200000 2.840000 2.840000 20.614292 -12.411824 579.002441
1.200000 2.840000 2.880000 16.660328 -0.992454 278.551483
1.200000 2.840000 2.920000 7.799191 2.341950 66.312103
1.200000 2.840000 2.960000 2.355638 -1.537581 7.913185
1.200000 2.840000 3.000000 3.404419 -5.875043 46.106209
1.200000 2.840000 3.040000 6.968800 -5.552648 79.396072
1.200000 2.840000 3.080000 7.500368 -1.857568 59.706081
1.200000 2.840000 3.120000 4.167972 0.112445 17.384632
1.200000 2.840000 3.160000 1.200168 -2.137469 6.009178
1.200000 2.840000 3.200000 2.449346 -5.651030 37.933434
1.200000 2.880000 2.800000 33.272003 -9.462473 1196.564697
1.200000 2.880000 2.840000 30.265182 8.166835 982.678467
1.200000 2.880000 2.880000 16.928658 17.033400 576.716125
1.200000 2.880000 2.920000 4.162116 13.609898 202.552521
1.200000 2.880000 2.960000 0.316740 4.306205 18.643724
1.200000 2.880000 3.000000 4.695468 -1.535628 24.405579
1.200000 2.880000 3.040000 10.097639 -0.183156 101.995865
1.200000 2.880000 3.080000 10.763911 4.605976 137.076797
1.200000 2.880000 3.120000 7.286711 7.116599 103.742134
1.200000 2.880000 3.160000 4.224885 5.809212 51.596603
1.200000 2.880000 3.200000 4.235999 3.793779 32.336445
1.200000 2.920000 2.800000 34.874012 16.764456 1497.243652
1.200000 2.920000 2.840000 20.175852 30.716509 1350.568848
1.200000 2.920000 2.880000 1.607990 30.041920 905.102600
1.200000 2.920000 2.920000 -8.675453 18.027748 400.263184
1.200000 2.920000 2.960000 -6.441115 5.647026 73.376862
1.200000 2.920000 3.000000 2.431192 1.795797 9.135582
1.200000 2.920000 3.040000 8.534039 6.647468 117.018639
1.200000 2.920000 3.080000 7.258773 13.527044 235.670715
1.200000 2.920000 3.120000 1.255575 16.129223 261.728302
1.200000 2.920000 3.160000 -3.906968 13.573787 199.512085
1.200000 2.920000 3.200000 -5.325921 9.307637 114.997543
1.200000 2.960000 2.800000 16.249651 35.640381 1534.287842
1.200000 2.960000 2.840000 -4.181403 38.135380 1471.791382
1.200000 2.960000 2.880000 -19.377918 26.450336 1075.124023
1.200000 2.960000 2.920000 -21.112837 9.886930 543.503296
1.200000 2.960000 2.960000 -11.629647 0.083048 135.255585
1.200000 2.960000 3.000000 -0.839016 1.893916 4.290867
1.200000 2.960000 3.040000 2.336770 10.663923 119.179756
1.200000 2.960000 3.080000 -3.402718 17.449455 316.061981
1.200000 2.960000 3.120000 -12.270454 16.702974 429.553406
1.200000 2.960000 3.160000 -17.352011 9.711528 395.406067
1.200000 2.960000 3.200000 -15.997929 1.975848 259.837677
1.200000 3.000000 2.800000 -8.807814 34.318077 1255.308105
1.200000 3.000000 2.840000 -25.037788 24.939362 1248.862549
1.200000 3.000000 2.880000 -30.004791 8.021207 964.627258
1.200000 3.000000 2.920000 -22.322374 -5.481195 528.331909
1.200000 3.000000 2.960000 -9.536520 -7.800644 151.795258
1.200000 3.000000 3.000000 -1.995136 -0.072511 3.985825
1.200000 3.000000 3.040000 -4.765309 9.238955 108.066452
1.200000 3.000000 3.080000 -14.295426 11.560588 338.006409
1.200000 3.000000 3.120000 -22.143188 4.832346 513.672363
1.200000 3.000000 3.160000 -22.085258 -5.737648 520.679260
1.200000 3.000000 3.200000 -14.539648 -12.606880 370.334778
1.200000 3.040000 2.800000 -22.154032 16.924040 777.224243
1.200000 3.040000 2.840000 -27.832882 2.840883 782.739929
1.200000 3.040000 2.880000 -22.640625 -10.533933 623.561646
1.200000 3.040000 2.920000 -10.850086 -15.406639 355.088898
1.200000 3.040000 2.960000 -1.329552 -10.153580 104.862892
1.200000 3.040000 3.000000 -0.802927 -0.757098 1.217889
1.200000 3.040000 3.040000 -8.538069 3.921890 88.279839
1.200000 3.040000 3.080000 -17.063122 -0.673520 291.603760
1.200000 3.040000 3.120000 -18.461370 -11.186577 465.961700
1.200000 3.040000 3.160000 -10.894171 -19.383667 494.409485
1.200000 3.040000 3.200000 0.182359 -19.129841 365.984070
1.200000 3.080000 2.800000 -17.742641 0.261693 314.869812
1.200000 3.080000 2.840000 -14.493946 -9.952085 309.118469
1.200000 3.080000 2.880000 -5.561316 -14.749477 248.475327
1.200000 3.080000 2.920000 2.989990 -11.571266 142.834244
1.200000 3.080000 2.960000 5.021212 -3.760414 39.353279
1.200000 3.080000 3.000000 -0.510139 1.431393 2.309127
1.200000 3.080000 3.040000 -8.108640 -1.238757 67.284561
1.200000 3.080000 3.080000 -10.076124 -10.172052 204.998932
1.200000 3.080000 3.120000 -3.329131 -17.887756 331.054932
1.200000 3.080000 3.160000 7.586043 -17.477795 363.021362
1.200000 3.080000 3.200000 14.335923 -8.785482 282.703400
1.200000 3.120000 2.800000 -6.365074 -2.716964 47.896061
1.200000 3.120000 2.840000 -1.021378 -5.978477 36.785404
1.200000 3.120000 2.880000 4.741430 -4.105675 39.337727
1.200000 3.120000 2.920000 6.360339 1.521377 42.768501
1.200000 3.120000 2.960000 2.093637 5.745391 37.392834
1.200000 3.120000 3.000000 -4.344454 3.722408 32.730598
1.200000 3.120000 3.040000 -6.209890 -4.010802 54.649269
1.200000 3.120000 3.080000 -0.001775 -10.913371 119.101669
1.200000 3.120000 3.120000 10.371794 -9.961029 206.796204
1.200000 3.120000 3.160000 16.370777 -0.555211 268.310608
1.200000 3.120000 3.200000 12.598470 10.202703 262.816589
1.200000 3.160000 2.800000 -3.647420 4.674277 35.152534
1.200000 3.160000 2.840000 -1.179271 4.782598 24.263929
1.200000 3.160000 2.880000 -0.374324 7.643118 58.557377
1.200000 3.160000 2.920000 -3.619438 10.283998 118.860939
1.200000 3.160000 2.960000 -9.092819 8.314669 151.813080
1.200000 3.160000 3.000000 -11.039218 1.047472 122.961533
1.200000 3.160000 3.040000 -5.296643 -6.031060 64.428116
1.200000 3.160000 3.080000 5.201663 -5.482743 57.117775
1.200000 3.160000 3.120000 11.566183 4.330987 152.534042
1.200000 3.160000 3.160000 7.063086 16.125557 309.920776
1.200000 3.160000 3.200000 -5.622427 19.653748 417.881500
1.200000 3.200000 2.800000 -13.303479 7.292972 230.169998
1.200000 3.200000 2.840000 -12.504737 5.873866 190.870743
1.200000 3.200000 2.880000 -13.197706 6.362977 214.666916
1.200000 3.200000 2.920000 -16.582645 5.069594 300.684906
1.200000 3.200000 2.960000 -18.775824 -0.882949 353.311157
1.200000 3.200000 3.000000 -14.462152 -8.423095 280.102386
1.200000 3.200000 3.040000 -4.030200 -9.937569 114.997787
1.200000 3.200000 3.080000 4.359353 -1.329934 20.772680
1.200000 3.200000 3.120000 1.815196 11.735187 141.009537
1.200000 3.200000 3.160000 -11.465362 17.503176 437.815674
1.200000 3.200000 3.200000 -24.552372 9.476276 692.618774
