#kx 	ky 	kz 	real 	imag 	intensity
0.800000 2.800000 2.983333 -76.580215 -22.318735 6362.655273
0.800000 2.800000 2.991667 23.064606 -13.583896 716.498230
0.800000 2.800000 3.000000 -60.262558 43.773994 5547.738281
0.800000 2.800000 3.008333 -58.408752 -72.305191 8639.623047
0.800000 2.800000 3.016667 39.102718 -21.160843 1976.803833
0.800000 2.900000 2.983333 -12.798523 -77.876984 6228.626953
0.800000 2.900000 2.991667 20.212000 8.563599 481.860168
0.800000 2.900000 3.000000 -75.186485 -56.593807 8855.867188
0.800000 2.900000 3.008333 59.411095 -85.956390 10918.179688
0.800000 2.900000 3.016667 19.086140 2.597635 371.028442
0.800000 3.000000 2.983333 49.184574 -29.407974 3283.951172
0.800000 3.000000 2.991667 39.306541 -28.638817 2365.186035
0.800000 3.000000 3.000000 79.780037 -9.258350 6450.571777
0.800000 3.000000 3.008333 47.361145 23.066525 2775.142578
0.800000 3.000000 3.016667 69.904099 47.627655 7154.976562
0.800000 3.100000 2.983333 12.922623 18.238426 499.634369
0.800000 3.100000 2.991667 89.582458 57.620533 11345.142578
0.800000 3.100000 3.000000 -87.286758 123.877266 22964.554688
0.800000 3.100000 3.008333 -18.187372 -40.120392 1940.426392
0.800000 3.100000 3.016667 -65.062683 99.536720 14140.710938
0.800000 3.200000 2.983333 4.184689 -3.503147 29.783657
0.800000 3.200000 2.991667 -23.565634 87.313171 8178.928711
0.800000 3.200000 3.000000 -113.353767 -112.931183 25602.527344
0.800000 3.200000 3.008333 105.456123 -38.456287 12599.879883
0.800000 3.200000 3.016667 -43.027653 -35.920998 3141.697021
0.900000 2.800000 2.983333 -54.729675 -24.360046 3588.749268
0.900000 2.800000 2.991667 -50.507374 -82.574348 9369.517578
0.900000 2.800000 3.000000 23.346245 -33.846470 1690.630615
0.900000 2.800000 3.008333 -28.419127 -69.328346 5614.066406
0.900000 2.800000 3.016667 93.919426 -18.559040 9165.295898
0.900000 2.900000 2.983333 412.843048 -592.322510 521285.343750
0.900000 2.900000 2.991667 -333.176453 1195.493530 1540211.250000
0.900000 2.900000 3.000000 -1523.202881 -789.918335 2944118.000000
0.900000 2.900000 3.008333 158.195282 -988.314880 1001792.062500
0.900000 2.900000 3.016667 165.576706 -691.074951 505000.250000
0.900000 3.000000 2.983333 1008.030518 465.250671 1232583.750000
0.900000 3.000000 2.991667 -1925.345215 -231.249573 3760430.500000
0.900000 3.000000 3.000000 816.913696 -2508.488037 6959860.000000
0.900000 3.000000 3.008333 1505.748169 -81.276672 2273883.500000
0.900000 3.000000 3.016667 1199.955566 86.734146 1447416.125000
0.900000 3.100000 2.983333 -130.920807 725.863525 544018.125000
0.900000 3.100000 2.991667 -99.755554 -1140.422974 1310515.625000
0.900000 3.100000 3.000000 1578.462646 205.207657 2533654.500000
0.900000 3.100000 3.008333 260.924408 924.675171 923105.750000
0.900000 3.100000 3.016667 19.193207 806.817017 651322.062500
0.900000 3.200000 2.983333 -44.762768 116.966904 15684.961914
0.900000 3.200000 2.991667 -154.886505 -56.189205 27147.056641
0.900000 3.200000 3.000000 79.208687 -98.602654 15996.500000
0.900000 3.200000 3.008333 -14.303411 85.240463 7470.523926
0.900000 3.200000 3.016667 -48.763992 -68.949692 7131.987305
1.000000 2.800000 2.983333 -71.247833 -107.059837 16538.062500
1.000000 2.800000 2.991667 125.854324 -117.353951 29611.259766
1.000000 2.800000 3.000000 23.930351 54.996277 3597.252197
1.000000 2.800000 3.008333 26.550068 -109.290176 12649.249023
1.000000 2.800000 3.016667 115.180260 59.468327 16802.974609
1.000000 2.900000 2.983333 1022.978516 415.572266 1219185.375000
1.000000 2.900000 2.991667 -1896.060547 -220.825073 3643809.250000
1.000000 2.900000 3.000000 783.418884 -2581.175781 7276213.500000
1.000000 2.900000 3.008333 1625.179443 -103.109070 2651839.750000
1.000000 2.900000 3.016667 1169.036377 116.592560 1380239.875000
1.000000 3.000000 2.983333 -446.234253 1659.846802 2954216.500000
1.000000 3.000000 2.991667 -77.997437 -3047.278076 9291988.000000
1.000000 3.000000 3.000000 4139.082031 620.051208 17516464.000000
1.000000 3.000000 3.008333 558.680054 2342.429688 5799100.500000
1.000000 3.000000 3.016667 214.262924 1900.080566 3656214.750000
1.000000 3.100000 2.983333 -1141.260986 -39.159698 1304010.125000
1.000000 3.100000 2.991667 1831.337646 -386.807739 3503417.750000
1.000000 3.100000 3.000000 10.900414 2615.167969 6839222.500000
1.000000 3.100000 3.008333 -1402.983398 587.825439 2313901.000000
1.000000 3.100000 3.016667 -1244.276855 315.859894 1647992.375000
1.000000 3.200000 2.983333 -162.227005 -40.494331 27957.392578
1.000000 3.200000 2.991667 43.586563 -143.908234 22609.369141
1.000000 3.200000 3.000000 31.923252 -2.013237 1023.147156
1.000000 3.200000 3.008333 -13.555107 -67.670486 4763.035645
1.000000 3.200000 3.016667 64.546455 -92.559387 12733.485352
1.100000 2.800000 2.983333 91.080177 -90.966019 16570.414062
1.100000 2.800000 2.991667 60.245682 79.374382 9929.834961
1.100000 2.800000 3.000000 -29.499428 3.194520 880.421204
1.100000 2.800000 3.008333 67.297623 -32.045433 5555.879883
1.100000 2.800000 3.016667 60.290359 104.074112 14466.348633
1.100000 2.900000 2.983333 -143.574875 734.867981 560644.687500
1.100000 2.900000 2.991667 -53.805573 -1239.497559 1539249.250000
1.100000 2.900000 3.000000 1740.561890 243.067108 3088637.250000
1.100000 2.900000 3.008333 261.890442 1037.555420 1145107.875000
1.100000 2.900000 3.016667 29.601494 812.784302 661494.562500
1.100000 3.000000 2.983333 -1133.922363 -145.744003 1307021.250000
1.100000 3.000000 2.991667 1920.032959 -335.390747 3799013.500000
1.100000 3.000000 3.000000 -1.080933 2688.452637 7227778.500000
1.100000 3.000000 3.008333 -1453.135498 588.934570 2458446.750000
1.100000 3.000000 3.016667 -1182.084595 318.746521 1498923.375000
1.100000 3.100000 2.983333 -35.122044 -756.120911 572952.375000
1.100000 3.100000 2.991667 393.616913 1127.481934 1426149.750000
1.100000 3.100000 3.000000 -1658.612793 208.573135 2794499.250000
1.100000 3.100000 3.008333 -470.926727 -860.753052 962667.812500
1.100000 3.100000 3.016667 -307.228424 -735.116760 634785.937500
1.100000 3.200000 2.983333 38.957657 -66.640625 5958.671875
1.100000 3.200000 2.991667 62.360306 2.833559 3896.836670
1.100000 3.200000 3.000000 72.270988 -10.433975 5331.963379
1.100000 3.200000 3.008333 72.770393 43.637062 7199.723633
1.100000 3.200000 3.016667 65.658966 53.027977 7123.065918
1.200000 2.800000 2.983333 21.257662 44.171524 2403.011719
1.200000 2.800000 2.991667 -29.824022 -76.557732 6750.558594
1.200000 2.800000 3.000000 45.912685 -13.250791 2283.558105
1.200000 2.800000 3.008333 53.748756 -18.200830 3220.198975
1.200000 2.800000 3.016667 -2.687938 106.749649 11402.711914
1.200000 2.900000 2.983333 -70.694878 -15.198660 5228.764648
1.200000 2.900000 2.991667 91.671410 -20.457214 8822.145508
1.200000 2.900000 3.000000 -10.171185 77.172432 6059.037598
1.200000 2.900000 3.008333 -8.653427 24.501139 675.187561
1.200000 2.900000 3.016667 -64.113251 15.133251 4339.523926
1.200000 3.000000 2.983333 71.641434 -87.165245 12730.275391
1.200000 3.000000 2.991667 -3.255994 35.182556 1248.413696
1.200000 3.000000 3.000000 -25.196049 -53.685326 3516.955078
1.200000 3.000000 3.008333 34.554703 -32.919762 2277.738281
1.200000 3.000000 3.016667 13.542725 10.221158 287.877472
1.200000 3.100000 2.983333 89.186226 81.453735 14588.894531
1.200000 3.100000 2.991667 11.279327 -38.691891 1624.285645
1.200000 3.100000 3.000000 110.582626 16.627464 12504.990234
1.200000 3.100000 3.008333 51.672104 69.767914 7537.568359
1.200000 3.100000 3.016667 -14.140826 60.024891 3802.950439
1.200000 3.200000 2.983333 -41.544975 77.884850 7792.034668
1.200000 3.200000 2.991667 23.908081 -8.208618 638.977722
1.200000 3.200000 3.000000 10.190741 103.939621 10907.295898
1.200000 3.200000 3.008333 -58.830292 45.348774 5517.514648
1.200000 3.200000 3.016667 -57.618103 24.462187 3918.244141
