#kx 	ky 	kz 	real 	imag 	intensity
2.800000 -5.200000 -7.200000 -52.118385 2.336258 2721.784180
2.800000 -5.200000 -7.160000 -35.679874 -28.861500 2106.039551
2.800000 -5.200000 -7.120000 -2.037918 -29.266562 860.684753
2.800000 -5.200000 -7.080000 12.862182 -0.187991 165.471054
2.800000 -5.200000 -7.040000 -6.741921 26.464344 745.815002
2.800000 -5.200000 -7.000000 -40.619835 22.094082 2138.119385
2.800000 -5.200000 -6.960000 -54.788960 -9.213596 3086.720459
2.800000 -5.200000 -6.920000 -37.118603 -36.621086 2718.894531
2.800000 -5.200000 -6.880000 -8.235203 -35.950218 1360.236816
2.800000 -5.200000 -6.840000 2.365635 -13.916505 199.265350
2.800000 -5.200000 -6.800000 -12.374677 1.676651 155.943787
2.800000 -5.160000 -7.200000 -38.944229 -33.335281 2627.894043
2.800000 -5.160000 -7.160000 -6.818188 -46.984123 2253.995605
2.800000 -5.160000 -7.120000 20.170961 -27.861519 1183.131836
2.800000 -5.160000 -7.080000 16.705425 2.904893 287.509644
2.800000 -5.160000 -7.040000 -11.178365 13.397038 304.436462
2.800000 -5.160000 -7.000000 -33.386177 -6.309009 1154.440430
2.800000 -5.160000 -6.960000 -27.525333 -35.326508 2005.606201
2.800000 -5.160000 -6.920000 -0.947973 -45.253761 2048.801514
2.800000 -5.160000 -6.880000 19.277559 -29.525976 1243.407593
2.800000 -5.160000 -6.840000 15.821713 -7.826719 311.584137
2.800000 -5.160000 -6.800000 -2.319518 -2.967950 14.188890
2.800000 -5.120000 -7.200000 -3.714458 -45.450123 2079.510742
2.800000 -5.120000 -7.160000 25.594940 -36.278904 1971.259766
2.800000 -5.120000 -7.120000 34.229893 -9.094305 1254.391968
2.800000 -5.120000 -7.080000 17.721966 10.093606 415.948975
2.800000 -5.120000 -7.040000 -4.108759 5.012933 42.011398
2.800000 -5.120000 -7.000000 -8.421973 -15.278729 304.369202
2.800000 -5.120000 -6.960000 7.473660 -27.596928 817.445984
2.800000 -5.120000 -6.920000 25.324408 -19.525764 1022.581116
2.800000 -5.120000 -6.880000 26.837927 -1.060369 721.398682
2.800000 -5.120000 -6.840000 12.666598 8.169359 227.181152
2.800000 -5.120000 -6.800000 -0.446158 0.531526 0.481576
2.800000 -5.080000 -7.200000 25.705034 -27.232750 1402.371460
2.800000 -5.080000 -7.160000 37.722515 -6.058846 1459.697754
2.800000 -5.080000 -7.120000 29.661856 14.094436 1078.478760
2.800000 -5.080000 -7.080000 12.491522 18.161545 485.879822
2.800000 -5.080000 -7.040000 3.722593 8.202054 81.131393
2.800000 -5.080000 -7.000000 9.225394 -0.424056 85.287727
2.800000 -5.080000 -6.960000 18.470135 3.480031 353.256500
2.800000 -5.080000 -6.920000 17.586916 15.240837 541.582764
2.800000 -5.080000 -6.880000 5.128300 20.688883 454.329346
2.800000 -5.080000 -6.840000 -6.880557 12.597071 206.028259
2.800000 -5.080000 -6.800000 -6.895064 -1.532282 49.889801
2.800000 -5.040000 -7.200000 29.519018 2.980428 880.255371
2.800000 -5.040000 -7.160000 24.086481 20.175444 987.207092
2.800000 -5.040000 -7.120000 10.424517 26.385584 804.869568
2.800000 -5.040000 -7.080000 1.054560 21.701969 472.087555
2.800000 -5.040000 -7.040000 1.144171 16.491108 273.265747
2.800000 -5.040000 -7.000000 3.729804 19.038616 376.380341
2.800000 -5.040000 -6.960000 -1.285147 25.923853 673.697754
2.800000 -5.040000 -6.920000 -14.555278 25.993004 887.492310
2.800000 -5.040000 -6.880000 -25.467581 13.544401 832.048462
2.800000 -5.040000 -6.840000 -23.380789 -4.225143 564.513062
2.800000 -5.040000 -6.800000 -9.385795 -14.115205 287.332153
2.800000 -5.000000 -7.200000 11.921939 21.031879 584.472595
2.800000 -5.000000 -7.160000 -0.527338 26.366491 695.469971
2.800000 -5.000000 -7.120000 -10.294919 22.212702 599.389465
2.800000 -5.000000 -7.080000 -12.221148 16.386189 417.863647
2.800000 -5.000000 -7.040000 -11.112995 16.387098 392.035645
2.800000 -5.000000 -7.000000 -15.788999 20.389894 665.040283
2.800000 -5.000000 -6.960000 -27.948643 18.684258 1130.228149
2.800000 -5.000000 -6.920000 -38.441792 4.794958 1500.762939
2.800000 -5.000000 -6.880000 -35.862518 -15.825544 1536.568115
2.800000 -5.000000 -6.840000 -18.784052 -29.545815 1225.795776
2.800000 -5.000000 -6.800000 1.757430 -27.504623 759.592896
2.800000 -4.960000 -7.200000 -7.152073 18.954279 410.416809
2.800000 -4.960000 -7.160000 -17.552006 15.529917 549.251221
2.800000 -4.960000 -7.120000 -21.863657 7.483888 534.028076
2.800000 -4.960000 -7.080000 -20.437181 2.039356 421.837341
2.800000 -4.960000 -7.040000 -19.887499 1.695091 398.385925
2.800000 -4.960000 -7.000000 -25.106482 0.910040 631.163574
2.800000 -4.960000 -6.960000 -32.352478 -7.840795 1108.160889
2.800000 -4.960000 -6.920000 -31.758038 -24.555607 1611.550781
2.800000 -4.960000 -6.880000 -17.547037 -39.412415 1861.236816
2.800000 -4.960000 -6.840000 4.675626 -41.139172 1714.292847
2.800000 -4.960000 -6.800000 21.839914 -27.887497 1254.694336
2.800000 -4.920000 -7.200000 -13.563639 8.151897 250.425720
2.800000 -4.920000 -7.160000 -21.211048 1.843833 453.308289
2.800000 -4.920000 -7.120000 -22.705103 -8.492708 587.647827
2.800000 -4.920000 -7.080000 -17.837114 -16.315197 584.348267
2.800000 -4.920000 -7.040000 -12.104860 -18.637783 493.894592
2.800000 -4.920000 -7.000000 -10.120946 -19.225800 472.064941
2.800000 -4.920000 -6.960000 -9.729681 -23.732374 657.892273
2.800000 -4.920000 -6.920000 -4.090653 -32.000935 1040.793213
2.800000 -4.920000 -6.880000 10.012934 -36.550049 1436.164917
2.800000 -4.920000 -6.840000 26.843409 -29.777056 1607.241699
2.800000 -4.920000 -6.800000 35.810463 -12.449425 1437.377441
2.800000 -4.880000 -7.200000 -10.817701 3.301002 127.919273
2.800000 -4.880000 -7.160000 -19.154964 -5.795164 400.496582
2.800000 -4.880000 -7.120000 -17.001865 -20.952333 728.063721
2.800000 -4.880000 -7.080000 -3.473303 -30.400986 936.283752
2.800000 -4.880000 -7.040000 11.683265 -27.537636 894.820068
2.800000 -4.880000 -7.000000 18.343363 -17.446205 640.849060
2.800000 -4.880000 -6.960000 16.369774 -10.726417 383.025513
2.800000 -4.880000 -6.920000 14.695208 -11.609051 350.719177
2.800000 -4.880000 -6.880000 20.374260 -13.663717 601.807617
2.800000 -4.880000 -6.840000 30.046646 -7.677020 961.737610
2.800000 -4.880000 -6.800000 33.250122 7.255986 1158.219971
2.800000 -4.840000 -7.200000 -11.698435 5.989790 172.730972
2.800000 -4.840000 -7.160000 -19.530617 -10.692202 495.768158
2.800000 -4.840000 -7.120000 -7.784529 -30.008408 961.103394
2.800000 -4.840000 -7.080000 17.417324 -33.030022 1394.345459
2.800000 -4.840000 -7.040000 36.289253 -15.348383 1552.482788
2.800000 -4.840000 -7.000000 35.018383 8.438597 1297.497070
2.800000 -4.840000 -6.960000 18.927710 19.715115 746.943909
2.800000 -4.840000 -6.920000 5.695580 14.175547 233.385742
2.800000 -4.840000 -6.880000 6.554911 4.385473 62.199238
2.800000 -4.840000 -6.840000 15.683985 4.886000 269.860382
2.800000 -4.840000 -6.800000 18.231609 16.582649 607.375854
2.800000 -4.800000 -7.200000 -21.206684 5.185390 476.611725
2.800000 -4.800000 -7.160000 -20.540936 -20.212204 830.463257
2.800000 -4.800000 -7.120000 5.113687 -35.505577 1286.795776
2.800000 -4.800000 -7.080000 35.725075 -22.459078 1780.691162
2.800000 -4.800000 -7.040000 44.696823 11.013985 2119.113770
2.800000 -4.800000 -7.000000 24.794809 38.095146 2066.022705
2.800000 -4.800000 -6.960000 -5.487409 39.030922 1553.524536
2.800000 -4.800000 -6.920000 -21.032034 19.023420 804.237000
2.800000 -4.800000 -6.880000 -14.182648 0.532112 201.430634
2.800000 -4.800000 -6.840000 0.599039 -0.410627 0.527463
2.800000 -4.800000 -6.800000 4.376825 11.302703 146.907684
2.840000 -5.200000 -7.200000 -36.746944 -30.864452 2302.952393
2.840000 -5.200000 -7.160000 -4.474916 -38.866623 1530.639282
2.840000 -5.200000 -7.120000 17.176716 -14.719273 511.696564
2.840000 -5.200000 -7.080000 5.214284 15.160202 257.020477
2.840000 -5.200000 -7.040000 -27.743923 17.914671 1090.660645
2.840000 -5.200000 -7.000000 -46.771393 -10.776635 2303.699219
2.840000 -5.200000 -6.960000 -31.692276 -42.353207 2798.194336
2.840000 -5.200000 -6.920000 2.063857 -45.944839 2115.187744
2.840000 -5.200000 -6.880000 20.719564 -20.636002 855.144897
2.840000 -5.200000 -6.840000 8.105917 4.995717 90.663078
2.840000 -5.200000 -6.800000 -18.605072 4.275848 364.431580
2.840000 -5.160000 -7.200000 -6.993029 -48.623474 2413.144531
2.840000 -5.160000 -7.160000 24.453949 -36.402512 1923.138428
2.840000 -5.160000 -7.120000 31.045792 -5.239793 991.296631
2.840000 -5.160000 -7.080000 9.547120 14.276546 294.967255
2.840000 -5.160000 -7.040000 -15.304180 4.865746 257.893402
2.840000 -5.160000 -7.000000 -17.316782 -20.301025 712.002563
2.840000 -5.160000 -6.960000 4.055126 -32.897881 1098.714600
2.840000 -5.160000 -6.920000 24.780516 -19.909679 1010.469299
2.840000 -5.160000 -6.880000 23.119675 3.725509 548.398743
2.840000 -5.160000 -6.840000 2.441562 12.780918 169.313095
2.840000 -5.160000 -6.800000 -14.148574 -0.802415 200.826019
2.840000 -5.120000 -7.200000 25.978249 -37.077576 2049.615967
2.840000 -5.120000 -7.160000 43.373192 -12.139892 2028.610718
2.840000 -5.120000 -7.120000 36.139900 14.743674 1523.468384
2.840000 -5.120000 -7.080000 14.948982 23.866137 793.064575
2.840000 -5.120000 -7.040000 0.630665 14.691969 216.251694
2.840000 -5.120000 -7.000000 2.498714 3.710474 20.011187
2.840000 -5.120000 -6.960000 10.716496 4.962267 139.467377
2.840000 -5.120000 -6.920000 9.763100 15.224243 327.095703
2.840000 -5.120000 -6.880000 -3.168130 19.514593 390.856384
2.840000 -5.120000 -6.840000 -15.465527 9.427806 328.066040
2.840000 -5.120000 -6.800000 -14.178732 -7.008897 250.161072
2.840000 -5.080000 -7.200000 37.571899 -6.236513 1450.541626
2.840000 -5.080000 -7.160000 38.906296 18.021658 1838.479980
2.840000 -5.080000 -7.120000 25.624153 35.747803 1934.502686
2.840000 -5.080000 -7.080000 8.240236 41.042801 1752.412964
2.840000 -5.080000 -7.040000 -4.861313 38.444519 1501.613403
2.840000 -5.080000 -7.000000 -14.028753 34.596504 1393.723999
2.840000 -5.080000 -6.960000 -23.690418 29.771091 1447.553711
2.840000 -5.080000 -6.920000 -33.391418 19.241814 1485.234253
2.840000 -5.080000 -6.880000 -36.262764 2.115154 1319.461914
2.840000 -5.080000 -6.840000 -27.165993 -14.044617 935.242432
2.840000 -5.080000 -6.800000 -10.601288 -19.483074 491.977478
2.840000 -5.040000 -7.200000 22.967245 18.830921 882.097900
2.840000 -5.040000 -7.160000 16.006378 34.510536 1447.181152
2.840000 -5.040000 -7.120000 2.502615 45.543468 2080.470703
2.840000 -5.040000 -7.080000 -15.219419 50.601879 2792.180664
2.840000 -5.040000 -7.040000 -35.813034 47.919884 3578.888672
2.840000 -5.040000 -7.000000 -55.795235 34.374943 4294.745117
2.840000 -5.040000 -6.960000 -67.468941 9.473259 4641.800781
2.840000 -5.040000 -6.920000 -62.869419 -19.873466 4347.518555
2.840000 -5.040000 -6.880000 -41.587658 -40.866898 3399.636719
2.840000 -5.040000 -6.840000 -14.088827 -43.817558 2118.473389
2.840000 -5.040000 -6.800000 4.927655 -30.788818 972.233154
2.840000 -5.000000 -7.200000 -0.515747 21.847363 477.573242
2.840000 -5.000000 -7.160000 -7.872162 30.521519 993.534058
2.840000 -5.000000 -7.120000 -21.763199 38.182388 1931.531616
2.840000 -5.000000 -7.080000 -43.618130 38.670586 3397.955566
2.840000 -5.000000 -7.040000 -67.985626 24.276283 5211.383301
2.840000 -5.000000 -7.000000 -82.433853 -6.603389 6838.945312
2.840000 -5.000000 -6.960000 -75.253601 -44.123177 7609.958984
2.840000 -5.000000 -6.920000 -45.742157 -70.860107 7113.500000
2.840000 -5.000000 -6.880000 -7.346435 -73.747101 5492.604980
2.840000 -5.000000 -6.840000 20.886593 -54.389442 3394.461182
2.840000 -5.000000 -6.800000 28.351894 -27.973522 1586.347900
2.840000 -4.960000 -7.200000 -12.214823 8.678545 224.519043
2.840000 -4.960000 -7.160000 -19.040020 15.332443 597.606201
2.840000 -4.960000 -7.120000 -35.421520 18.095642 1582.136353
2.840000 -4.960000 -7.080000 -56.993233 7.149849 3299.348877
2.840000 -4.960000 -7.040000 -70.825363 -20.989662 5456.797852
2.840000 -4.960000 -7.000000 -63.791622 -57.491356 7374.626953
2.840000 -4.960000 -6.960000 -33.418396 -84.739716 8297.608398
2.840000 -4.960000 -6.920000 8.123733 -88.061195 7820.769043
2.840000 -4.960000 -6.880000 41.348679 -66.562164 6140.234863
2.840000 -4.960000 -6.840000 52.897911 -33.846340 3943.763672
2.840000 -4.960000 -6.800000 44.197754 -7.631425 2011.680054
2.840000 -4.920000 -7.200000 -7.902464 -2.163581 67.130020
2.840000 -4.920000 -7.160000 -17.907879 2.724948 328.117493
2.840000 -4.920000 -7.120000 -34.183876 -4.010619 1184.622437
2.840000 -4.920000 -7.080000 -44.455780 -25.881176 2646.151611
2.840000 -4.920000 -7.040000 -37.061356 -54.761242 4372.337891
2.840000 -4.920000 -7.000000 -10.294732 -75.463463 5800.715820
2.840000 -4.920000 -6.960000 25.456793 -75.989517 6422.455078
2.840000 -4.920000 -6.920000 54.352222 -55.549400 6039.899902
2.840000 -4.920000 -6.880000 65.183746 -24.536541 4850.962891
2.840000 -4.920000 -6.840000 57.551559 2.936663 3320.805908
2.840000 -4.920000 -6.800000 40.139732 17.885662 1931.094971
2.840000 -4.880000 -7.200000 -0.672729 -0.200231 0.492656
2.840000 -4.880000 -7.160000 -14.216160 -2.442731 208.066132
2.840000 -4.880000 -7.120000 -22.207464 -19.181866 861.115479
2.840000 -4.880000 -7.080000 -13.779415 -40.693104 1845.801025
2.840000 -4.880000 -7.040000 9.751898 -52.312523 2831.699707
2.840000 -4.880000 -7.000000 36.455647 -46.156178 3459.406982
2.840000 -4.880000 -6.960000 53.631977 -25.903534 3547.381836
2.840000 -4.880000 -6.920000 56.242058 -1.959463 3167.008545
2.840000 -4.880000 -6.880000 47.550003 16.844109 2544.726562
2.840000 -4.880000 -6.840000 33.866058 27.405424 1897.967163
2.840000 -4.880000 -6.800000 19.769241 30.733957 1335.399048
2.840000 -4.840000 -7.200000 -3.967276 7.298745 69.010963
2.840000 -4.840000 -7.160000 -14.141277 -5.949106 235.367584
2.840000 -4.840000 -7.120000 -6.774119 -24.813444 661.595703
2.840000 -4.840000 -7.080000 15.584459 -31.549843 1238.267944
2.840000 -4.840000 -7.040000 36.823711 -18.860899 1711.719238
2.840000 -4.840000 -7.000000 42.684784 4.240459 1839.972168
2.840000 -4.840000 -6.960000 32.817932 22.377472 1577.767944
2.840000 -4.840000 -6.920000 18.196419 28.044800 1117.620483
2.840000 -4.840000 -6.880000 8.635851 25.727106 736.461914
2.840000 -4.840000 -6.840000 4.440929 23.659157 579.477539
2.840000 -4.840000 -6.800000 -0.205235 23.994431 575.774841
2.840000 -4.800000 -7.200000 -16.086128 5.656541 290.759979
2.840000 -4.800000 -7.160000 -13.799728 -14.094137 389.077209
2.840000 -4.800000 -7.120000 7.237509 -22.962866 579.674744
2.840000 -4.800000 -7.080000 28.634348 -9.124909 903.189880
2.840000 -4.800000 -7.040000 30.697212 17.587120 1251.625610
2.840000 -4.800000 -7.000000 11.607191 35.565109 1399.603882
2.840000 -4.800000 -6.960000 -11.911348 32.474865 1196.497070
2.840000 -4.800000 -6.920000 -21.990885 15.638258 728.154114
2.840000 -4.800000 -6.880000 -16.191853 2.277408 267.362671
2.840000 -4.800000 -6.840000 -6.768841 1.520993 48.130630
2.840000 -4.800000 -6.800000 -5.532228 7.309401 84.032890
2.880000 -5.200000 -7.200000 -3.418925 -41.723385 1752.529907
2.880000 -5.200000 -7.160000 22.138937 -22.383038 991.132935
2.880000 -5.200000 -7.120000 17.136551 9.628870 386.376526
2.880000 -5.200000 -7.080000 -14.237141 20.049173 604.665527
2.880000 -5.200000 -7.040000 -38.983116 -3.844494 1534.463501
2.880000 -5.200000 -7.000000 -29.774055 -38.588432 2375.561523
2.880000 -5.200000 -6.960000 5.702393 -48.595798 2394.068848
2.880000 -5.200000 -6.920000 32.414062 -23.532667 1604.457764
2.880000 -5.200000 -6.880000 24.626305 10.957356 726.518555
2.880000 -5.200000 -6.840000 -7.657478 20.499802 478.878845
2.880000 -5.200000 -6.800000 -30.283520 -2.378101 922.746948
2.880000 -5.160000 -7.200000 24.657104 -36.886963 1968.620850
2.880000 -5.160000 -7.160000 37.585228 -7.558231 1469.776245
2.880000 -5.160000 -7.120000 21.724709 18.097048 799.466064
2.880000 -5.160000 -7.080000 -5.062014 17.971365 348.593964
2.880000 -5.160000 -7.040000 -15.363281 -2.861919 244.220993
2.880000 -5.160000 -7.000000 -1.187378 -18.459698 342.170288
2.880000 -5.160000 -6.960000 18.387482 -10.444935 447.196167
2.880000 -5.160000 -6.920000 18.833557 12.392082 508.266602
2.880000 -5.160000 -6.880000 -2.878684 24.376251 602.488403
2.880000 -5.160000 -6.840000 -25.313679 11.248383 767.308472
2.880000 -5.160000 -6.800000 -26.148756 -14.639211 898.063965
2.880000 -5.120000 -7.200000 40.471176 -12.042044 1782.927002
2.880000 -5.120000 -7.160000 40.004280 16.797443 1882.496582
2.880000 -5.120000 -7.120000 21.151190 35.208897 1687.039185
2.880000 -5.120000 -7.080000 -0.041847 35.610756 1268.127686
2.880000 -5.120000 -7.040000 -10.874454 26.778967 835.366882
2.880000 -5.120000 -7.000000 -13.347351 21.426170 637.232544
2.880000 -5.120000 -6.960000 -18.106482 21.443058 787.649414
2.880000 -5.120000 -6.920000 -29.255724 17.480705 1161.472412
2.880000 -5.120000 -6.880000 -38.190838 2.428295 1464.436646
2.880000 -5.120000 -6.840000 -33.615639 -17.675873 1442.447632
2.880000 -5.120000 -6.800000 -15.815077 -28.546688 1065.030029
2.880000 -5.080000 -7.200000 32.982185 14.811749 1307.212524
2.880000 -5.080000 -7.160000 25.307789 37.820091 2070.843506
2.880000 -5.080000 -7.120000 5.720060 53.949833 2943.303467
2.880000 -5.080000 -7.080000 -20.017462 58.609150 3835.731201
2.880000 -5.080000 -7.040000 -46.042240 50.589462 4679.181641
2.880000 -5.080000 -7.000000 -66.599525 30.315495 5354.525879
2.880000 -5.080000 -6.960000 -75.098160 0.844528 5640.446777
2.880000 -5.080000 -6.920000 -66.460297 -29.711962 5299.771973
2.880000 -5.080000 -6.880000 -42.468502 -49.705959 4274.255859
2.880000 -5.080000 -6.840000 -13.947511 -51.219147 2817.933838
2.880000 -5.080000 -6.800000 5.149217 -37.225922 1412.283691
2.880000 -5.040000 -7.200000 11.137291 24.921474 745.119141
2.880000 -5.040000 -7.160000 1.381870 43.953339 1933.805542
2.880000 -5.040000 -7.120000 -23.574236 59.597805 4107.643066
2.880000 -5.040000 -7.080000 -61.613842 58.529495 7221.967773
2.880000 -5.040000 -7.040000 -98.316208 30.874220 10619.294922
2.880000 -5.040000 -7.000000 -113.083069 -18.898445 13144.931641
2.880000 -5.040000 -6.960000 -93.643181 -70.231422 13701.498047
2.880000 -5.040000 -6.920000 -47.334305 -98.395798 11922.269531
2.880000 -5.040000 -6.880000 1.942392 -92.017883 8471.063477
2.880000 -5.040000 -6.840000 30.413528 -61.462868 4702.666992
2.880000 -5.040000 -6.800000 31.347496 -30.130344 1890.503174
2.880000 -5.000000 -7.200000 -5.401305 16.027382 286.051086
2.880000 -5.000000 -7.160000 -18.116877 34.406376 1512.019897
2.880000 -5.000000 -7.120000 -52.278896 43.395340 4616.238281
2.880000 -5.000000 -7.080000 -95.823074 22.427343 9685.046875
2.880000 -5.000000 -7.040000 -120.171654 -32.031528 15467.245117
2.880000 -5.000000 -7.000000 -101.606316 -97.078926 19748.162109
2.880000 -5.000000 -6.960000 -42.801041 -136.913239 20577.164062
2.880000 -5.000000 -6.920000 26.003109 -129.759918 17513.798828
2.880000 -5.000000 -6.880000 68.991875 -84.799438 11950.824219
2.880000 -5.000000 -6.840000 71.427765 -33.846684 6247.523926
2.880000 -5.000000 -6.800000 47.781677 -5.267856 2310.838867
2.880000 -4.960000 -7.200000 -5.546861 2.790792 38.556187
2.880000 -4.960000 -7.160000 -25.118633 18.850689 986.294189
2.880000 -4.960000 -7.120000 -63.653774 12.150663 4199.441406
2.880000 -4.960000 -7.080000 -94.116150 -31.225258 9832.866211
2.880000 -4.960000 -7.040000 -85.156807 -95.521027 16375.948242
2.880000 -4.960000 -7.000000 -29.373259 -142.618805 21202.912109
2.880000 -4.960000 -6.960000 46.563801 -141.154449 22092.765625
2.880000 -4.960000 -6.920000 100.880669 -92.078995 18655.449219
2.880000 -4.960000 -6.880000 108.703400 -27.479446 12571.548828
2.880000 -4.960000 -6.840000 78.923485 15.954540 6483.463867
2.880000 -4.960000 -6.800000 42.236984 24.606800 2389.457520
2.880000 -4.920000 -7.200000 3.702834 0.584412 14.052517
2.880000 -4.920000 -7.160000 -22.612921 7.738857 571.234070
2.880000 -4.920000 -7.120000 -52.947266 -16.698055 3082.237793
2.880000 -4.920000 -7.080000 -55.611160 -67.615028 7664.393066
2.880000 -4.920000 -7.040000 -14.694859 -113.080154 13003.059570
2.880000 -4.920000 -7.000000 52.774170 -118.781693 16894.203125
2.880000 -4.920000 -6.960000 108.034920 -76.685379 17552.191406
2.880000 -4.920000 -6.920000 120.842003 -11.869465 14743.673828
2.880000 -4.920000 -6.880000 91.818741 38.292091 9896.965820
2.880000 -4.920000 -6.840000 48.005676 53.143276 5128.752930
2.880000 -4.920000 -6.800000 17.966501 40.484966 1961.827637
2.880000 -4.880000 -7.200000 6.696816 9.901269 142.882477
2.880000 -4.880000 -7.160000 -19.147202 3.195824 376.828613
2.880000 -4.880000 -7.120000 -30.387350 -29.706913 1805.891724
2.880000 -4.880000 -7.080000 -7.650784 -66.504036 4481.321289
2.880000 -4.880000 -7.040000 41.553223 -76.518288 7581.718750
2.880000 -4.880000 -7.000000 87.010132 -47.041023 9783.621094
2.880000 -4.880000 -6.960000 100.177917 5.676762 10067.840820
2.880000 -4.880000 -6.920000 76.404243 50.296791 8367.375000
2.880000 -4.880000 -6.880000 35.789177 65.499947 5571.108398
2.880000 -4.880000 -6.840000 4.108730 53.710640 2901.714355
2.880000 -4.880000 -6.800000 -7.193813 33.477669 1172.505249
2.880000 -4.840000 -7.200000 -3.284218 17.369759 312.494629
2.880000 -4.840000 -7.160000 -18.805933 -0.386944 353.812836
2.880000 -4.840000 -7.120000 -10.628559 -26.954094 839.489441
2.880000 -4.840000 -7.080000 19.781212 -37.856300 1824.395874
2.880000 -4.840000 -7.040000 50.849049 -20.239540 2995.264648
2.880000 -4.840000 -7.000000 59.685085 15.710339 3809.124023
2.880000 -4.840000 -6.960000 41.229244 46.333714 3846.663574
2.880000 -4.840000 -6.920000 10.358986 54.758846 3105.839844
2.880000 -4.840000 -6.880000 -12.963299 42.648926 1986.978027
2.880000 -4.840000 -6.840000 -19.880260 24.510351 995.982056
2.880000 -4.840000 -6.800000 -15.839329 12.834644 415.612427
2.880000 -4.800000 -7.200000 -17.027912 11.392217 419.732422
2.880000 -4.800000 -7.160000 -17.565496 -7.514182 365.009583
2.880000 -4.800000 -7.120000 -0.365900 -17.914978 321.080322
2.880000 -4.800000 -7.080000 18.951948 -8.364313 429.138062
2.880000 -4.800000 -7.040000 22.588554 13.892086 703.232849
2.880000 -4.800000 -7.000000 7.292801 30.423302 978.762207
2.880000 -4.800000 -6.960000 -13.878437 29.196133 1045.025146
2.880000 -4.800000 -6.920000 -25.087868 14.306008 834.062988
2.880000 -4.800000 -6.880000 -21.830156 -0.424389 476.735840
2.880000 -4.800000 -6.840000 -12.103071 -5.532682 177.094910
2.880000 -4.800000 -6.800000 -5.874229 -2.801849 42.356934
2.920000 -5.200000 -7.200000 24.062241 -25.369026 1222.578857
2.920000 -5.200000 -7.160000 25.388443 5.915655 679.568054
2.920000 -5.200000 -7.120000 -2.420485 23.319382 549.652344
2.920000 -5.200000 -7.080000 -32.330967 6.832893 1091.979858
2.920000 -5.200000 -7.040000 -32.527985 -28.804245 1887.754395
2.920000 -5.200000 -7.000000 -0.444283 -47.454681 2252.144043
2.920000 -5.200000 -6.960000 32.894169 -28.828505 1913.109131
2.920000 -5.200000 -6.920000 34.174614 9.711082 1262.209473
2.920000 -5.200000 -6.880000 2.183555 30.514030 935.873962
2.920000 -5.200000 -6.840000 -31.141684 14.199432 1171.428345
2.920000 -5.200000 -6.800000 -33.901875 -21.218204 1599.549316
2.920000 -5.160000 -7.200000 36.234772 -8.932613 1392.750366
2.920000 -5.160000 -7.160000 26.140121 18.484644 1024.988037
2.920000 -5.160000 -7.120000 -0.402819 25.825197 667.103088
2.920000 -5.160000 -7.080000 -18.204994 9.802534 427.511475
2.920000 -5.160000 -7.040000 -12.745888 -9.174622 246.631348
2.920000 -5.160000 -7.000000 4.541378 -9.289337 106.915901
2.920000 -5.160000 -6.960000 9.228464 8.767570 162.034851
2.920000 -5.160000 -6.920000 -8.824297 22.526878 585.328430
2.920000 -5.160000 -6.880000 -33.693787 12.483450 1291.107788
2.920000 -5.160000 -6.840000 -40.147522 -16.124739 1871.830688
2.920000 -5.160000 -6.800000 -20.696857 -38.286140 1894.188354
2.920000 -5.120000 -7.200000 34.095966 12.305751 1313.966431
2.920000 -5.120000 -7.160000 20.014357 33.704918 1536.595947
2.920000 -5.120000 -7.120000 -3.027941 40.774254 1671.708252
2.920000 -5.120000 -7.080000 -22.415989 34.532715 1694.984985
2.920000 -5.120000 -7.040000 -33.725113 23.795599 1703.613770
2.920000 -5.120000 -7.000000 -41.370388 13.657433 1898.034546
2.920000 -5.120000 -6.960000 -48.920895 0.919220 2394.098877
2.920000 -5.120000 -6.920000 -51.808304 -18.576187 3029.175049
2.920000 -5.120000 -6.880000 -41.926498 -40.380775 3388.438477
2.920000 -5.120000 -6.840000 -19.069460 -52.351463 3104.320068
2.920000 -5.120000 -6.800000 4.938801 -46.502159 2186.842529
2.920000 -5.080000 -7.200000 19.027504 25.287464 1001.501770
2.920000 -5.080000 -7.160000 4.168212 45.320396 2071.312256
2.920000 -5.080000 -7.120000 -24.480785 56.507721 3792.431396
2.920000 -5.080000 -7.080000 -60.376030 49.398781 6085.504395
2.920000 -5.080000 -7.040000 -90.297844 20.119705 8558.502930
2.920000 -5.080000 -7.000000 -99.575844 -24.763313 10528.570312
2.920000 -5.080000 -6.960000 -80.863953 -68.710434 11260.102539
2.920000 -5.080000 -6.920000 -40.660496 -93.218849 10343.029297
2.920000 -5.080000 -6.880000 2.685787 -89.358978 7992.240234
2.920000 -5.080000 -6.840000 30.070967 -64.164909 5021.398926
2.920000 -5.080000 -6.800000 34.212929 -35.753601 2448.844482
2.920000 -5.040000 -7.200000 2.779112 23.793243 573.841858
2.920000 -5.040000 -7.160000 -17.053547 45.775566 2386.225830
2.920000 -5.040000 -7.120000 -59.985550 52.251671 6328.502930
2.920000 -5.040000 -7.080000 -108.745102 22.875885 12348.802734
2.920000 -5.040000 -7.040000 -131.280197 -41.598091 18964.890625
2.920000 -5.040000 -7.000000 -104.844650 -112.673676 23687.757812
2.920000 -5.040000 -6.960000 -36.959484 -151.645050 24362.224609
2.920000 -5.040000 -6.920000 36.959652 -138.497726 20547.636719
2.920000 -5.040000 -6.880000 79.308411 -87.203384 13894.253906
2.920000 -5.040000 -6.840000 77.737381 -33.561878 7169.500000
2.920000 -5.040000 -6.800000 50.812477 -6.392327 2622.769531
2.920000 -5.000000 -7.200000 -3.328293 14.222907 213.368622
2.920000 -5.000000 -7.160000 -33.888710 33.884285 2296.589355
2.920000 -5.000000 -7.120000 -86.723854 20.810011 7954.083496
2.920000 -5.000000 -7.080000 -124.827148 -40.377335 17212.146484
2.920000 -5.000000 -7.040000 -108.312965 -125.564560 27498.156250
2.920000 -5.000000 -7.000000 -31.315775 -183.280396 34572.382812
2.920000 -5.000000 -6.960000 67.165359 -174.689911 35027.750000
2.920000 -5.000000 -6.920000 131.551208 -106.091522 28561.132812
2.920000 -5.000000 -6.880000 132.993881 -23.652494 18246.814453
2.920000 -5.000000 -6.840000 89.005341 24.993305 8546.616211
2.920000 -5.000000 -6.800000 43.143768 26.994194 2590.071289
2.920000 -4.960000 -7.200000 0.957570 9.021423 82.303017
2.920000 -4.960000 -7.160000 -39.415672 16.981985 1841.983032
2.920000 -4.960000 -7.120000 -85.040344 -21.550161 7696.270020
2.920000 -4.960000 -7.080000 -88.665657 -99.566284 17775.042969
2.920000 -4.960000 -7.040000 -25.828573 -168.628616 29102.724609
2.920000 -4.960000 -7.000000 76.930649 -175.737640 36802.042969
2.920000 -4.960000 -6.960000 158.575806 -109.219467 37075.179688
2.920000 -4.960000 -6.920000 172.236023 -10.423409 29773.894531
2.920000 -4.960000 -6.880000 121.895851 60.495640 18518.320312
2.920000 -4.960000 -6.840000 54.211063 72.959427 8261.917969
2.920000 -4.960000 -6.800000 15.491713 44.663902 2234.857422
2.920000 -4.920000 -7.200000 5.300052 14.091198 226.652405
2.920000 -4.920000 -7.160000 -35.534695 4.357198 1281.699707
2.920000 -4.920000 -7.120000 -57.426884 -49.249104 5723.321289
2.920000 -4.920000 -7.080000 -23.553465 -115.001389 13780.084961
2.920000 -4.920000 -7.040000 60.326546 -139.161667 23005.261719
2.920000 -4.920000 -7.000000 143.834686 -92.860252 29311.441406
2.920000 -4.920000 -6.960000 171.838104 0.022476 29528.333984
2.920000 -4.920000 -6.920000 130.167572 81.381332 23566.519531
2.920000 -4.920000 -6.880000 55.011124 106.927704 14459.757812
2.920000 -4.920000 -6.840000 -1.159481 79.210266 6275.610352
2.920000 -4.920000 -6.800000 -13.381350 37.318123 1571.702881
2.920000 -4.880000 -7.200000 -0.005832 23.100290 533.623474
2.920000 -4.880000 -7.160000 -29.948650 -1.097612 898.126404
2.920000 -4.880000 -7.120000 -25.284191 -50.596893 3199.335938
2.920000 -4.880000 -7.080000 26.091782 -83.938202 7726.402832
2.920000 -4.880000 -7.040000 94.285072 -65.006989 13115.583984
2.920000 -4.880000 -7.000000 130.029251 2.489716 16913.804688
2.920000 -4.880000 -6.960000 106.790039 75.761368 17143.896484
2.920000 -4.880000 -6.920000 42.906235 108.826782 13684.213867
2.920000 -4.880000 -6.880000 -16.299633 89.803925 8330.422852
2.920000 -4.880000 -6.840000 -37.842033 45.786469 3528.420166
2.920000 -4.880000 -6.800000 -24.694849 14.086721 808.271301
2.920000 -4.840000 -7.200000 -13.731794 24.540503 790.798462
2.920000 -4.840000 -7.160000 -27.546352 -3.951628 774.416870
2.920000 -4.840000 -7.120000 -7.824837 -35.767654 1340.553101
2.920000 -4.840000 -7.080000 35.497852 -38.983986 2779.848633
2.920000 -4.840000 -7.040000 68.626160 -3.796417 4723.962402
2.920000 -4.840000 -7.000000 63.642601 46.855705 6245.837891
2.920000 -4.840000 -6.960000 23.243446 77.016228 6471.757324
2.920000 -4.840000 -6.920000 -22.730995 68.645592 5228.915527
2.920000 -4.840000 -6.880000 -44.370266 34.683105 3171.638184
2.920000 -4.840000 -6.840000 -35.738266 3.941929 1292.762451
2.920000 -4.840000 -6.800000 -14.716648 -5.213480 243.760101
2.920000 -4.800000 -7.200000 -25.007118 14.052132 822.818359
2.920000 -4.800000 -7.160000 -25.949364 -9.100039 756.180237
2.920000 -4.800000 -7.120000 -6.172501 -22.908607 562.904053
2.920000 -4.800000 -7.080000 17.005688 -13.733887 477.813049
2.920000 -4.800000 -7.040000 22.751064 11.012096 638.877197
2.920000 -4.800000 -7.000000 6.145836 30.077797 942.445190
2.920000 -4.800000 -6.960000 -18.156693 28.290173 1129.999390
2.920000 -4.800000 -6.920000 -30.545383 9.397781 1021.338745
2.920000 -4.800000 -6.880000 -23.985458 -9.551197 666.527527
2.920000 -4.800000 -6.840000 -7.847868 -14.878578 282.961121
2.920000 -4.800000 -6.800000 3.380188 -6.980289 60.150108
2.960000 -5.200000 -7.200000 28.000967 2.307114 789.376892
2.960000 -5.200000 -7.160000 6.728918 22.638914 557.798767
2.960000 -5.200000 -7.120000 -24.011198 14.707039 792.834656
2.960000 -5.200000 -7.080000 -33.734371 -17.298136 1437.233276
2.960000 -5.200000 -7.040000 -10.383972 -43.097733 1965.241455
2.960000 -5.200000 -7.000000 24.858351 -36.039062 1916.751587
2.960000 -5.200000 -6.960000 37.275131 -1.316998 1391.169922
2.960000 -5.200000 -6.920000 13.736559 27.806450 961.891724
2.960000 -5.200000 -6.880000 -23.409346 23.126240 1082.820312
2.960000 -5.200000 -6.840000 -38.778252 -10.140594 1606.584473
2.960000 -5.200000 -6.800000 -19.537880 -39.319702 1927.767700
2.960000 -5.160000 -7.200000 24.755070 13.807518 803.461060
2.960000 -5.160000 -7.160000 3.153622 24.877865 628.853455
2.960000 -5.160000 -7.120000 -17.716547 14.834093 533.926392
2.960000 -5.160000 -7.080000 -20.614326 -4.826324 448.243866
2.960000 -5.160000 -7.040000 -7.740891 -13.559315 243.776398
2.960000 -5.160000 -7.000000 1.550903 -4.228653 20.286808
2.960000 -5.160000 -6.960000 -7.724058 8.578362 133.249359
2.960000 -5.160000 -6.920000 -28.701809 4.342445 842.650635
2.960000 -5.160000 -6.880000 -38.905930 -20.227802 1922.835327
2.960000 -5.160000 -6.840000 -24.181679 -46.011299 2701.793213
2.960000 -5.160000 -6.800000 5.426563 -50.603920 2590.204346
2.960000 -5.120000 -7.200000 16.606789 22.108952 764.591187
2.960000 -5.120000 -7.160000 -1.416656 32.394791 1051.429443
2.960000 -5.120000 -7.120000 -22.687412 30.315901 1433.772461
2.960000 -5.120000 -7.080000 -39.472805 18.152153 1887.603027
2.960000 -5.120000 -7.040000 -49.280964 0.868217 2429.367188
2.960000 -5.120000 -7.000000 -52.515022 -19.151779 3124.618164
2.960000 -5.120000 -6.960000 -47.612850 -41.133732 3958.967285
2.960000 -5.120000 -6.920000 -31.371475 -60.910015 4694.199219
2.960000 -5.120000 -6.880000 -4.986900 -69.906631 4911.806152
2.960000 -5.120000 -6.840000 21.987476 -61.802299 4302.973145
2.960000 -5.120000 -6.800000 36.703430 -40.486454 2986.294922
2.960000 -5.080000 -7.200000 6.636935 24.817310 659.947754
2.960000 -5.080000 -7.160000 -14.834560 40.351776 1848.330078
2.960000 -5.080000 -7.120000 -50.910042 39.322716 4138.108398
2.960000 -5.080000 -7.080000 -86.048691 10.807095 7521.170410
2.960000 -5.080000 -7.040000 -98.457840 -40.564926 11339.458984
2.960000 -5.080000 -7.000000 -75.162506 -93.473679 14386.730469
2.960000 -5.080000 -6.960000 -23.186600 -122.086441 15442.716797
2.960000 -5.080000 -6.920000 33.197662 -113.443092 13971.419922
2.960000 -5.080000 -6.880000 68.318565 -76.373253 10500.299805
2.960000 -5.080000 -6.840000 72.051788 -34.499947 6381.706055
2.960000 -5.080000 -6.800000 54.557281 -8.891843 3055.562012
2.960000 -5.040000 -7.200000 -0.941982 22.648327 513.834045
2.960000 -5.040000 -7.160000 -35.327217 38.203911 2707.551270
2.960000 -5.040000 -7.120000 -86.358978 19.274359 7829.374023
2.960000 -5.040000 -7.080000 -118.003510 -43.627686 15828.203125
2.960000 -5.040000 -7.040000 -96.034081 -124.114868 24627.046875
2.960000 -5.040000 -7.000000 -19.582130 -174.330200 30774.478516
2.960000 -5.040000 -6.960000 72.685875 -161.530548 31375.353516
2.960000 -5.040000 -6.920000 130.294647 -94.959335 25993.970703
2.960000 -5.040000 -6.880000 129.321945 -18.269886 17057.955078
2.960000 -5.040000 -6.840000 87.753426 25.908091 8371.892578
2.960000 -5.040000 -6.800000 45.595291 27.365408 2827.796143
2.960000 -5.000000 -7.200000 -4.033392 19.526493 397.552185
2.960000 -5.000000 -7.160000 -51.429901 22.180424 3137.005859
2.960000 -5.000000 -7.120000 -98.931732 -26.551655 10492.477539
2.960000 -5.000000 -7.080000 -96.413010 -114.459396 22396.421875
2.960000 -5.000000 -7.040000 -21.607510 -186.885941 35393.238281
2.960000 -5.000000 -7.000000 92.374733 -188.223984 43961.359375
2.960000 -5.000000 -6.960000 177.989182 -110.240799 43833.183594
2.960000 -5.000000 -6.920000 186.850174 -1.539471 34915.359375
2.960000 -5.000000 -6.880000 127.535706 72.136879 21469.085938
2.960000 -5.000000 -6.840000 53.564552 80.433487 9338.707031
2.960000 -5.000000 -6.800000 14.830509 46.292385 2362.928955
2.960000 -4.960000 -7.200000 -4.814844 19.446995 401.368347
2.960000 -4.960000 -7.160000 -53.474892 0.693550 2860.044922
2.960000 -4.960000 -7.120000 -75.065453 -69.278412 10434.320312
2.960000 -4.960000 -7.080000 -26.969351 -149.815857 23172.136719
2.960000 -4.960000 -7.040000 80.676033 -175.144958 37184.378906
2.960000 -4.960000 -7.000000 183.604980 -111.985649 46251.574219
2.960000 -4.960000 -6.960000 213.707153 6.747138 45716.269531
2.960000 -4.960000 -6.920000 156.114075 106.578957 35730.679688
2.960000 -4.960000 -6.880000 59.677345 132.915161 21227.824219
2.960000 -4.960000 -6.840000 -7.991453 92.409279 8603.337891
2.960000 -4.960000 -6.800000 -17.120768 37.962601 1734.279785
2.960000 -4.920000 -7.200000 -8.019441 22.533089 572.051514
2.960000 -4.920000 -7.160000 -43.549255 -13.701721 2084.274658
2.960000 -4.920000 -7.120000 -31.935951 -81.814354 7713.493164
2.960000 -4.920000 -7.080000 43.280930 -125.976677 17743.361328
2.960000 -4.920000 -7.040000 140.858276 -96.059631 29068.507812
2.960000 -4.920000 -7.000000 191.039658 2.961010 36504.921875
2.960000 -4.920000 -6.960000 155.322281 109.522141 36120.109375
2.960000 -4.920000 -6.920000 60.420700 156.128006 28026.615234
2.960000 -4.920000 -6.880000 -26.078819 125.145126 16341.407227
2.960000 -4.920000 -6.840000 -54.441841 57.992485 6327.042480
2.960000 -4.920000 -6.800000 -30.073839 12.301542 1055.763672
2.960000 -4.880000 -7.200000 -16.262798 24.398460 859.763428
2.960000 -4.880000 -7.160000 -32.727207 -16.704765 1350.119263
2.960000 -4.880000 -7.120000 -0.220776 -64.052368 4102.754883
2.960000 -4.880000 -7.080000 70.274017 -68.307983 9604.417969
2.960000 -4.880000 -7.040000 126.963913 -9.796848 16215.813477
2.960000 -4.880000 -7.000000 121.380829 77.972275 20812.980469
2.960000 -4.880000 -6.960000 52.878883 134.371490 20851.873047
2.960000 -4.880000 -6.920000 -29.926605 123.832169 16230.007812
2.960000 -4.880000 -6.880000 -72.189438 64.526558 9374.992188
2.960000 -4.880000 -6.840000 -58.653519 7.731096 3500.005127
2.960000 -4.880000 -6.800000 -19.846970 -9.607721 486.210510
2.960000 -4.840000 -7.200000 -26.905628 20.099377 1127.897827
2.960000 -4.840000 -7.160000 -29.009115 -15.188666 1072.224365
2.960000 -4.840000 -7.120000 5.328977 -39.693398 1603.963745
2.960000 -4.840000 -7.080000 51.651512 -23.592873 3224.502441
2.960000 -4.840000 -7.040000 69.146690 28.178497 5575.292480
2.960000 -4.840000 -7.000000 38.701454 77.351257 7481.019531
2.960000 -4.840000 -6.960000 -18.433296 86.165833 7764.337402
2.960000 -4.840000 -6.920000 -59.805252 50.917374 6169.247070
2.960000 -4.840000 -6.880000 -59.660057 3.057800 3568.672607
2.960000 -4.840000 -6.840000 -28.869442 -21.386723 1290.836670
2.960000 -4.840000 -6.800000 0.064542 -12.931585 167.230057
2.960000 -4.800000 -7.200000 -33.928482 9.067966 1233.369873
2.960000 -4.800000 -7.160000 -29.773642 -17.981689 1209.810913
2.960000 -4.800000 -7.120000 -3.751246 -30.125309 921.606079
2.960000 -4.800000 -7.080000 21.438013 -15.086365 687.186829
2.960000 -4.800000 -7.040000 23.204407 14.110413 737.548279
2.960000 -4.800000 -7.000000 0.669029 31.580723 997.789612
2.960000 -4.800000 -6.960000 -25.205391 23.188435 1173.015137
2.960000 -4.800000 -6.920000 -32.245415 -1.205902 1041.220947
2.960000 -4.800000 -6.880000 -17.272943 -18.940784 657.107910
2.960000 -4.800000 -6.840000 3.392319 -16.433807 281.577850
2.960000 -4.800000 -6.800000 11.424212 0.120085 130.527023
3.000000 -5.200000 -7.200000 10.926161 18.738188 470.500671
3.000000 -5.200000 -7.160000 -14.276924 16.495230 475.923157
3.000000 -5.200000 -7.120000 -28.221491 -7.735706 856.293701
3.000000 -5.200000 -7.080000 -15.264027 -34.465630 1420.870117
3.000000 -5.200000 -7.040000 15.250408 -38.412811 1708.119019
3.000000 -5.200000 -7.000000 35.349964 -14.244179 1452.516602
3.000000 -5.200000 -6.960000 25.306149 16.048328 897.949951
3.000000 -5.200000 -6.920000 -5.996117 23.610304 593.399902
3.000000 -5.200000 -6.880000 -29.023716 1.232471 843.895081
3.000000 -5.200000 -6.840000 -22.654816 -29.456898 1380.949463
3.000000 -5.200000 -6.800000 5.208773 -39.851566 1615.278687
3.000000 -5.160000 -7.200000 4.889415 17.431679 327.769806
3.000000 -5.160000 -7.160000 -11.363226 12.836943 293.910004
3.000000 -5.160000 -7.120000 -18.206364 -2.299921 336.761322
3.000000 -5.160000 -7.080000 -11.418671 -14.750860 347.973907
3.000000 -5.160000 -7.040000 -1.071918 -14.509369 211.670792
3.000000 -5.160000 -7.000000 -0.863012 -6.405136 41.770557
3.000000 -5.160000 -6.960000 -12.282021 -5.526173 181.386612
3.000000 -5.160000 -6.920000 -21.444794 -20.273390 870.889526
3.000000 -5.160000 -6.880000 -13.389679 -41.408455 1893.943604
3.000000 -5.160000 -6.840000 10.947938 -49.988571 2618.714600
3.000000 -5.160000 -6.800000 33.754395 -36.804287 2493.914551
3.000000 -5.120000 -7.200000 3.159219 17.265572 308.080627
3.000000 -5.120000 -7.160000 -11.702158 20.638548 562.890137
3.000000 -5.120000 -7.120000 -29.047283 13.390882 1023.060425
3.000000 -5.120000 -7.080000 -41.304245 -4.414268 1725.526367
3.000000 -5.120000 -7.040000 -42.910297 -28.171818 2634.944824
3.000000 -5.120000 -7.000000 -31.863220 -51.286560 3645.576172
3.000000 -5.120000 -6.960000 -9.676941 -66.930511 4573.336426
3.000000 -5.120000 -6.920000 18.414043 -69.369392 5151.189941
3.000000 -5.120000 -6.880000 43.649597 -56.541157 5102.189453
3.000000 -5.120000 -6.840000 56.756130 -32.962788 4307.803711
3.000000 -5.120000 -6.800000 53.713490 -9.249735 2970.696533
3.000000 -5.080000 -7.200000 0.908420 20.582115 424.448700
3.000000 -5.080000 -7.160000 -25.988173 28.661909 1496.890137
3.000000 -5.080000 -7.120000 -60.762394 10.570354 3803.801025
3.000000 -5.080000 -7.080000 -78.268448 -35.891953 7414.182129
3.000000 -5.080000 -7.040000 -58.503204 -90.413651 11597.253906
3.000000 -5.080000 -7.000000 -4.088104 -122.175873 14943.657227
3.000000 -5.080000 -6.960000 59.009377 -112.113701 16051.587891
3.000000 -5.080000 -6.920000 99.331970 -67.094772 14368.548828
3.000000 -5.080000 -6.880000 101.917877 -14.125145 10586.773438
3.000000 -5.080000 -6.840000 76.558189 20.127419 6266.269043
3.000000 -5.080000 -6.800000 46.847580 27.160273 2932.376221
3.000000 -5.040000 -7.200000 -5.363338 24.069542 608.108215
3.000000 -5.040000 -7.160000 -47.967201 21.644474 2769.335449
3.000000 -5.040000 -7.120000 -85.189743 -24.796515 7872.159668
3.000000 -5.040000 -7.080000 -76.712265 -99.915802 15867.939453
3.000000 -5.040000 -7.040000 -8.923382 -156.760071 24653.347656
3.000000 -5.040000 -7.000000 87.024025 -152.195099 30736.529297
3.000000 -5.040000 -6.960000 155.619354 -83.594154 31205.365234
3.000000 -5.040000 -6.920000 160.022095 7.278564 25660.046875
3.000000 -5.040000 -6.880000 109.646843 67.707458 16606.730469
3.000000 -5.040000 -6.840000 48.274677 74.765709 7920.355469
3.000000 -5.040000 -6.800000 15.379227 47.514931 2494.189209
3.000000 -5.000000 -7.200000 -13.941570 23.525700 747.825928
3.000000 -5.000000 -7.160000 -60.140350 -1.841839 3620.254150
3.000000 -5.000000 -7.120000 -74.337692 -73.456345 10921.926758
3.000000 -5.000000 -7.080000 -20.370295 -148.594604 22495.306641
3.000000 -5.000000 -7.040000 86.439278 -165.777863 34954.046875
3.000000 -5.000000 -7.000000 182.533432 -98.257065 42972.906250
3.000000 -5.000000 -6.960000 205.335968 18.148827 42492.238281
3.000000 -5.000000 -6.920000 145.081253 111.690308 33523.296875
3.000000 -5.000000 -6.880000 51.159775 132.932739 20288.435547
3.000000 -5.000000 -6.840000 -12.279579 91.381058 8501.286133
3.000000 -5.000000 -6.800000 -19.015657 38.782890 1865.707764
3.000000 -4.960000 -7.200000 -20.533863 18.937929 780.284668
3.000000 -4.960000 -7.160000 -52.430405 -26.633213 3458.275391
3.000000 -4.960000 -7.120000 -30.510965 -99.908562 10912.639648
3.000000 -4.960000 -7.080000 57.026146 -140.804443 23077.871094
3.000000 -4.960000 -7.040000 162.137909 -99.639137 36216.660156
3.000000 -4.960000 -7.000000 210.448486 13.024113 44458.195312
3.000000 -4.960000 -6.960000 164.486649 128.151840 43478.750000
3.000000 -4.960000 -6.920000 57.336163 174.010620 33567.132812
3.000000 -4.960000 -6.880000 -36.169487 135.055161 19548.128906
3.000000 -4.960000 -6.840000 -63.484180 59.392521 7557.712891
3.000000 -4.960000 -6.800000 -33.431759 10.552990 1229.048096
3.000000 -4.920000 -7.200000 -23.692522 13.973509 756.594482
3.000000 -4.920000 -7.160000 -32.989525 -36.481682 2419.221680
3.000000 -4.920000 -7.120000 14.629805 -87.345535 7843.273926
3.000000 -4.920000 -7.080000 102.059898 -82.723007 17259.318359
3.000000 -4.920000 -7.040000 166.535553 -3.554863 27746.726562
3.000000 -4.920000 -7.000000 152.080841 106.394104 34448.289062
3.000000 -4.920000 -6.960000 61.606712 172.992126 33721.664062
3.000000 -4.920000 -6.920000 -42.816963 154.790894 25793.513672
3.000000 -4.920000 -6.880000 -93.408066 77.123001 14673.023438
3.000000 -4.920000 -6.840000 -73.079681 5.492075 5370.802734
3.000000 -4.920000 -6.800000 -22.384306 -14.121336 700.469299
3.000000 -4.880000 -7.200000 -26.299419 10.909916 810.685730
3.000000 -4.880000 -7.160000 -19.303249 -30.568819 1307.068115
3.000000 -4.880000 -7.120000 31.193266 -53.282516 3812.046387
3.000000 -4.880000 -7.080000 91.655487 -21.075993 8844.925781
3.000000 -4.880000 -7.040000 108.312187 56.487320 14922.347656
3.000000 -4.880000 -7.000000 57.378998 125.764908 19109.162109
3.000000 -4.880000 -6.960000 -29.391708 134.696350 19006.980469
3.000000 -4.880000 -6.920000 -90.884811 79.411133 14566.176758
3.000000 -4.880000 -6.880000 -90.119949 6.438190 8163.055664
3.000000 -4.880000 -6.840000 -43.631252 -30.918514 2859.640625
3.000000 -4.880000 -6.800000 -0.305069 -18.600250 346.062378
3.000000 -4.840000 -7.200000 -31.389639 7.347923 1039.301392
3.000000 -4.840000 -7.160000 -19.736134 -23.059067 921.235535
3.000000 -4.840000 -7.120000 18.926128 -29.969177 1256.349976
3.000000 -4.840000 -7.080000 51.092331 2.828396 2618.426025
3.000000 -4.840000 -7.040000 43.149330 53.681564 4743.575195
3.000000 -4.840000 -7.000000 -4.644669 80.581665 6514.977539
3.000000 -4.840000 -6.960000 -56.119164 60.263794 6781.085449
3.000000 -4.840000 -6.920000 -72.091507 10.040943 5298.005859
3.000000 -4.840000 -6.880000 -45.710701 -29.174770 2940.635498
3.000000 -4.840000 -6.840000 -5.831051 -30.990360 994.403564
3.000000 -4.840000 -6.800000 12.878114 -4.940647 190.255798
3.000000 -4.800000 -7.200000 -37.341145 -1.128618 1395.634888
3.000000 -4.800000 -7.160000 -25.803614 -26.821335 1385.210449
3.000000 -4.800000 -7.120000 3.171803 -31.800426 1021.327454
3.000000 -4.800000 -7.080000 23.653221 -10.536986 670.502930
3.000000 -4.800000 -7.040000 17.516090 17.459396 611.643921
3.000000 -4.800000 -7.000000 -7.911827 26.921906 787.385986
3.000000 -4.800000 -6.960000 -27.854799 11.366909 905.096436
3.000000 -4.800000 -6.920000 -24.851582 -11.881279 758.765930
3.000000 -4.800000 -6.880000 -4.745308 -20.209320 430.934570
3.000000 -4.800000 -6.840000 11.283319 -7.737759 187.186218
3.000000 -4.800000 -6.800000 8.670938 11.133686 199.144135
3.040000 -5.200000 -7.200000 -8.392667 13.967672 265.532715
3.040000 -5.200000 -7.160000 -18.586306 -2.648266 352.464050
3.040000 -5.200000 -7.120000 -11.787439 -23.245111 679.278931
3.040000 -5.200000 -7.080000 9.863956 -31.242737 1073.406250
3.040000 -5.200000 -7.040000 29.825500 -18.370949 1227.052246
3.040000 -5.200000 -7.000000 30.899574 5.495522 984.984436
3.040000 -5.200000 -6.960000 11.892838 19.656689 527.825012
3.040000 -5.200000 -6.920000 -9.996452 11.656871 235.811707
3.040000 -5.200000 -6.880000 -14.955441 -10.486896 333.640198
3.040000 -5.200000 -6.840000 0.477715 -25.827053 667.264893
3.040000 -5.200000 -6.800000 20.360172 -20.927952 852.515747
3.040000 -5.160000 -7.200000 -5.347579 5.911720 63.545036
3.040000 -5.160000 -7.160000 -8.324392 -1.507511 71.568100
3.040000 -5.160000 -7.120000 -5.764507 -9.483644 123.169037
3.040000 -5.160000 -7.080000 0.571510 -12.886444 166.387070
3.040000 -5.160000 -7.040000 4.652714 -10.948391 141.515015
3.040000 -5.160000 -7.000000 2.928749 -9.378128 96.526855
3.040000 -5.160000 -6.960000 -0.355225 -14.426748 208.257263
3.040000 -5.160000 -6.920000 3.425522 -24.738108 623.708191
3.040000 -5.160000 -6.880000 17.508755 -30.667683 1247.063232
3.040000 -5.160000 -6.840000 34.152653 -23.515030 1719.360352
3.040000 -5.160000 -6.800000 40.609085 -5.595770 1680.410400
3.040000 -5.120000 -7.200000 1.127894 8.668630 76.417290
3.040000 -5.120000 -7.160000 -10.250906 11.298805 232.744080
3.040000 -5.120000 -7.120000 -24.264494 1.519688 591.075134
3.040000 -5.120000 -7.080000 -29.328379 -19.890953 1255.803833
3.040000 -5.120000 -7.040000 -18.295464 -43.171005 2198.459717
3.040000 -5.120000 -7.000000 6.461380 -56.337029 3215.610352
3.040000 -5.120000 -6.960000 34.995384 -52.746529 4006.873047
3.040000 -5.120000 -6.920000 56.071838 -34.240719 4316.478027
3.040000 -5.120000 -6.880000 62.913731 -9.017525 4039.453125
3.040000 -5.120000 -6.840000 55.577240 13.045738 3259.020996
3.040000 -5.120000 -6.800000 39.966328 24.858395 2215.247070
3.040000 -5.080000 -7.200000 -1.053904 18.606724 347.320892
3.040000 -5.080000 -7.160000 -29.354240 16.540182 1135.249023
3.040000 -5.080000 -7.120000 -51.825962 -14.923347 2908.636719
3.040000 -5.080000 -7.080000 -43.115898 -62.688576 5788.837891
3.040000 -5.080000 -7.040000 2.366436 -96.007248 9222.991211
3.040000 -5.080000 -7.000000 62.928665 -89.876831 12037.861328
3.040000 -5.080000 -6.960000 104.792587 -45.137253 13018.857422
3.040000 -5.080000 -6.920000 107.291588 12.261959 11661.839844
3.040000 -5.080000 -6.880000 76.640266 51.649109 8541.361328
3.040000 -5.080000 -6.840000 37.791710 59.618267 4982.550781
3.040000 -5.080000 -6.800000 13.413116 45.690823 2267.562988
3.040000 -5.040000 -7.200000 -13.835047 23.456499 741.615845
3.040000 -5.040000 -7.160000 -49.737679 0.553646 2474.143311
3.040000 -5.040000 -7.120000 -56.776043 -56.262436 6388.980469
3.040000 -5.040000 -7.080000 -11.067240 -111.046539 12453.817383
3.040000 -5.040000 -7.040000 71.173439 -118.602066 19132.109375
3.040000 -5.040000 -7.000000 140.852219 -63.112080 23822.482422
3.040000 -5.040000 -6.960000 153.734512 25.572329 24288.244141
3.040000 -5.040000 -6.920000 105.840401 94.479034 20128.478516
3.040000 -5.040000 -6.880000 34.733524 109.315437 13156.283203
3.040000 -5.040000 -6.840000 -13.488693 78.348892 6320.493652
3.040000 -5.040000 -6.800000 -20.523453 38.854519 1930.885742
3.040000 -5.000000 -7.200000 -27.167053 16.166494 999.404297
3.040000 -5.000000 -7.160000 -50.931961 -28.557076 3409.571289
3.040000 -5.000000 -7.120000 -24.807535 -91.464066 8981.088867
3.040000 -5.000000 -7.080000 54.976425 -120.414154 17521.976562
3.040000 -5.000000 -7.040000 143.459854 -77.580894 26599.525391
3.040000 -5.000000 -7.000000 178.648148 22.616119 32426.648438
3.040000 -5.000000 -6.960000 133.278595 119.637115 32076.222656
3.040000 -5.000000 -6.920000 38.977924 154.795990 25481.078125
3.040000 -5.000000 -6.880000 -40.569359 118.210190 15619.522461
3.040000 -5.000000 -6.840000 -62.747276 52.143406 6656.155273
3.040000 -5.000000 -6.800000 -36.514877 9.857519 1430.506958
3.040000 -4.960000 -7.200000 -30.489349 2.553143 936.118958
3.040000 -4.960000 -7.160000 -30.065329 -48.248917 3231.882080
3.040000 -4.960000 -7.120000 23.779242 -91.048584 8855.296875
3.040000 -4.960000 -7.080000 108.573601 -76.521439 17643.757812
3.040000 -4.960000 -7.040000 164.034851 6.653389 26951.699219
3.040000 -4.960000 -7.000000 141.458588 112.640823 32698.486328
3.040000 -4.960000 -6.960000 48.977879 171.707458 31882.283203
3.040000 -4.960000 -6.920000 -51.992531 148.314362 24700.373047
3.040000 -4.960000 -6.880000 -98.103294 70.043083 14530.291016
3.040000 -4.960000 -6.840000 -75.670380 0.370293 5726.143555
3.040000 -4.960000 -6.800000 -25.252834 -17.751429 952.818848
3.040000 -4.920000 -7.200000 -24.503431 -5.688945 632.782227
3.040000 -4.920000 -7.160000 -5.546471 -44.923542 2048.887939
3.040000 -4.920000 -7.120000 52.740990 -57.079166 6039.643555
3.040000 -4.920000 -7.080000 112.083374 -11.302315 12690.424805
3.040000 -4.920000 -7.040000 119.136848 75.970657 19965.128906
3.040000 -4.920000 -7.000000 55.023514 146.623566 24526.058594
3.040000 -4.920000 -6.960000 -42.126343 148.725662 23893.951172
3.040000 -4.920000 -6.920000 -106.839737 82.732117 18259.332031
3.040000 -4.920000 -6.880000 -102.098801 1.075674 10425.322266
3.040000 -4.920000 -6.840000 -48.544918 -39.046890 3881.268799
3.040000 -4.920000 -6.800000 -0.406546 -24.145014 583.146973
3.040000 -4.880000 -7.200000 -19.928215 -4.554813 417.880096
3.040000 -4.880000 -7.160000 2.134526 -28.016260 789.467041
3.040000 -4.880000 -7.120000 45.388519 -21.051073 2503.265381
3.040000 -4.880000 -7.080000 71.957642 27.372908 5927.178223
3.040000 -4.880000 -7.040000 48.528313 87.789574 10062.005859
3.040000 -4.880000 -7.000000 -18.215389 112.105614 12899.469727
3.040000 -4.880000 -6.960000 -82.393806 77.519424 12798.000000
3.040000 -4.880000 -6.920000 -98.308517 9.314514 9751.324219
3.040000 -4.880000 -6.880000 -61.005260 -41.264706 5424.417969
3.040000 -4.880000 -6.840000 -8.482222 -42.989799 1920.070923
3.040000 -4.880000 -6.800000 15.723995 -9.738407 342.080597
3.040000 -4.840000 -7.200000 -24.642830 -2.479441 613.416687
3.040000 -4.840000 -7.160000 -8.240720 -19.491440 447.825684
3.040000 -4.840000 -7.120000 19.604368 -11.941019 526.919189
3.040000 -4.840000 -7.080000 29.775196 20.750324 1317.138306
3.040000 -4.840000 -7.040000 5.961067 51.590122 2697.075195
3.040000 -4.840000 -7.000000 -36.268513 50.889973 3905.194336
3.040000 -4.840000 -6.960000 -62.200359 16.057678 4126.733887
3.040000 -4.840000 -6.920000 -50.837112 -24.624912 3190.798340
3.040000 -4.840000 -6.880000 -14.668222 -38.743084 1716.183350
3.040000 -4.840000 -6.840000 13.483372 -19.972202 580.690186
3.040000 -4.840000 -6.800000 12.469584 8.374606 225.624542
3.040000 -4.800000 -7.200000 -33.673447 -10.664036 1247.622681
3.040000 -4.800000 -7.160000 -18.055920 -30.173185 1236.437378
3.040000 -4.800000 -7.120000 7.308620 -28.338810 856.504089
3.040000 -4.800000 -7.080000 19.739601 -7.146848 440.729279
3.040000 -4.800000 -7.040000 9.692532 13.129890 266.339203
3.040000 -4.800000 -7.000000 -10.402112 14.677849 323.643188
3.040000 -4.800000 -6.960000 -19.845795 -0.453014 394.060791
3.040000 -4.800000 -6.920000 -10.953373 -14.053104 317.466125
3.040000 -4.800000 -6.880000 4.406925 -11.593649 153.833679
3.040000 -4.800000 -6.840000 8.770863 3.269045 87.614685
3.040000 -4.800000 -6.800000 -2.431664 14.159748 206.411453
3.080000 -5.200000 -7.200000 -12.848629 -2.457760 171.127853
3.080000 -5.200000 -7.160000 -4.725061 -14.644518 236.788101
3.080000 -5.200000 -7.120000 9.801245 -18.258968 429.454315
3.080000 -5.200000 -7.080000 22.923782 -10.682528 639.616211
3.080000 -5.200000 -7.040000 26.649305 3.928082 725.615295
3.080000 -5.200000 -7.000000 18.625011 16.181978 608.747437
3.080000 -5.200000 -6.960000 4.904633 17.929356 345.517212
3.080000 -5.200000 -6.920000 -4.098701 9.019703 98.154396
3.080000 -5.200000 -6.880000 -2.183088 -2.106091 9.201492
3.080000 -5.200000 -6.840000 7.089720 -5.690306 82.643707
3.080000 -5.200000 -6.800000 13.698336 0.362686 187.775940
3.080000 -5.160000 -7.200000 -0.287722 -5.157234 26.679850
3.080000 -5.160000 -7.160000 3.994789 -3.395861 27.490210
3.080000 -5.160000 -7.120000 4.767424 -1.874399 26.241701
3.080000 -5.160000 -7.080000 4.724648 -2.559391 28.872776
3.080000 -5.160000 -7.040000 6.054771 -4.503645 56.943073
3.080000 -5.160000 -7.000000 9.078133 -6.148507 120.216629
3.080000 -5.160000 -6.960000 13.456734 -6.632320 225.071350
3.080000 -5.160000 -6.920000 18.909718 -4.994106 382.518524
3.080000 -5.160000 -6.880000 24.061178 0.201992 578.981079
3.080000 -5.160000 -6.840000 25.651695 8.925070 737.666321
3.080000 -5.160000 -6.800000 20.828623 17.572910 742.638733
3.080000 -5.120000 -7.200000 5.840985 6.510763 76.507141
3.080000 -5.120000 -7.160000 -6.085416 10.549492 148.324066
3.080000 -5.120000 -7.120000 -17.639454 -1.132839 312.433655
3.080000 -5.120000 -7.080000 -14.557089 -21.993595 695.627075
3.080000 -5.120000 -7.040000 5.982590 -36.247089 1349.642822
3.080000 -5.120000 -7.000000 32.998207 -32.211006 2126.430664
3.080000 -5.120000 -6.960000 51.013191 -11.203587 2727.865967
3.080000 -5.120000 -6.920000 51.736526 14.925133 2899.427734
3.080000 -5.120000 -6.880000 38.217690 33.663963 2593.854248
3.080000 -5.120000 -6.840000 20.015574 39.689152 1975.851929
3.080000 -5.120000 -6.800000 5.647097 35.468910 1289.933228
3.080000 -5.080000 -7.200000 -4.226480 18.558678 362.287659
3.080000 -5.080000 -7.160000 -28.057339 7.138274 838.169189
3.080000 -5.080000 -7.120000 -33.393524 -26.545208 1819.775513
3.080000 -5.080000 -7.080000 -5.961594 -58.326004 3437.463379
3.080000 -5.080000 -7.040000 42.381149 -60.701500 5480.833984
3.080000 -5.080000 -7.000000 81.419495 -26.147354 7312.818359
3.080000 -5.080000 -6.960000 86.398697 26.094971 8145.682617
3.080000 -5.080000 -6.920000 56.859184 65.552170 7530.053711
3.080000 -5.080000 -6.880000 14.722649 73.977692 5689.455078
3.080000 -5.080000 -6.840000 -14.871960 56.470005 3410.036865
3.080000 -5.080000 -6.800000 -21.962608 32.800377 1558.220947
3.080000 -5.040000 -7.200000 -22.276394 15.723354 743.461609
3.080000 -5.040000 -7.160000 -39.557957 -17.033100 1854.958374
3.080000 -5.040000 -7.120000 -19.687595 -60.609325 4061.091553
3.080000 -5.040000 -7.080000 36.314140 -77.720490 7359.191406
3.080000 -5.040000 -7.040000 94.976418 -44.962696 11042.164062
3.080000 -5.040000 -7.000000 114.932556 24.519022 13810.674805
3.080000 -5.040000 -6.960000 80.681953 88.873909 14408.149414
3.080000 -5.040000 -6.920000 15.378774 110.332703 12409.812500
3.080000 -5.040000 -6.880000 -38.822800 84.079987 8576.654297
3.080000 -5.040000 -6.840000 -54.715416 38.306122 4461.135742
3.080000 -5.040000 -6.800000 -38.078144 7.449699 1505.443115
3.080000 -5.000000 -7.200000 -30.754261 -1.570463 948.290955
3.080000 -5.000000 -7.160000 -26.142334 -42.939167 2527.193848
3.080000 -5.000000 -7.120000 19.484898 -72.614075 5652.464844
3.080000 -5.000000 -7.080000 84.085754 -55.636913 10165.879883
3.080000 -5.000000 -7.040000 121.560623 11.454932 14908.201172
3.080000 -5.000000 -7.000000 98.732155 91.222900 18069.656250
3.080000 -5.000000 -6.960000 25.401703 132.333405 18157.376953
3.080000 -5.000000 -6.920000 -51.436005 110.943573 14954.138672
3.080000 -5.000000 -6.880000 -85.577339 49.306057 9754.568359
3.080000 -5.000000 -6.840000 -67.839821 -5.265902 4629.970703
3.080000 -5.000000 -6.800000 -28.391750 -20.939369 1244.548706
3.080000 -4.960000 -7.200000 -22.082113 -17.367020 789.233093
3.080000 -4.960000 -7.160000 2.209133 -47.864090 2295.851562
3.080000 -4.960000 -7.120000 54.224422 -49.571514 5397.623047
3.080000 -4.960000 -7.080000 99.481491 -3.445384 9908.438477
3.080000 -4.960000 -7.040000 97.188560 71.490829 14556.554688
3.080000 -4.960000 -7.000000 37.213116 126.739433 17447.699219
3.080000 -4.960000 -6.960000 -45.922382 122.681572 17159.632812
3.080000 -4.960000 -6.920000 -98.624924 63.003750 13696.348633
3.080000 -4.960000 -6.880000 -92.167213 -7.755949 8554.949219
3.080000 -4.960000 -6.840000 -44.811764 -42.466713 3811.515869
3.080000 -4.960000 -6.800000 -2.003696 -30.095951 909.781067
3.080000 -4.920000 -7.200000 -7.210383 -17.794697 368.640869
3.080000 -4.920000 -7.160000 20.275585 -29.405689 1275.793945
3.080000 -4.920000 -7.120000 57.264271 -10.825201 3396.381836
3.080000 -4.920000 -7.080000 71.374352 39.849785 6682.303223
3.080000 -4.920000 -7.040000 39.188622 92.887466 10163.829102
3.080000 -4.920000 -7.000000 -27.594376 107.530792 12324.320312
3.080000 -4.920000 -6.960000 -86.125031 68.024582 12044.865234
3.080000 -4.920000 -6.920000 -96.966774 0.542158 9402.849609
3.080000 -4.920000 -6.880000 -58.208862 -47.609894 5654.973633
3.080000 -4.920000 -6.840000 -6.215071 -48.587769 2399.398438
3.080000 -4.920000 -6.800000 18.210741 -16.087734 590.446289
3.080000 -4.880000 -7.200000 -3.474421 -6.770213 57.907383
3.080000 -4.880000 -7.160000 13.711821 -8.684469 263.434021
3.080000 -4.880000 -7.120000 31.168621 10.225977 1076.053467
3.080000 -4.880000 -7.080000 26.517120 44.059410 2644.389160
3.080000 -4.880000 -7.040000 -8.259499 66.736374 4521.962891
3.080000 -4.880000 -7.000000 -53.459888 54.391441 5816.388672
3.080000 -4.880000 -6.960000 -75.476410 10.164330 5800.001953
3.080000 -4.880000 -6.920000 -57.020645 -34.974968 4474.602539
3.080000 -4.880000 -6.880000 -14.152954 -48.820419 2583.739502
3.080000 -4.880000 -6.840000 18.034279 -26.917183 1049.770020
3.080000 -4.880000 -6.800000 17.799353 4.796751 339.825775
3.080000 -4.840000 -7.200000 -14.735247 -2.067364 221.401474
3.080000 -4.840000 -7.160000 -5.607775 -8.398211 101.977074
3.080000 -4.840000 -7.120000 5.577152 -0.814394 31.767864
3.080000 -4.840000 -7.080000 3.392014 15.728394 258.888123
3.080000 -4.840000 -7.040000 -15.028557 23.683689 786.774658
3.080000 -4.840000 -7.000000 -34.393776 11.181976 1307.968384
3.080000 -4.840000 -6.960000 -35.567024 -13.879684 1457.658813
3.080000 -4.840000 -6.920000 -15.508366 -30.042227 1143.044800
3.080000 -4.840000 -6.880000 8.521038 -23.406776 620.485291
3.080000 -4.840000 -6.840000 15.780430 -1.741013 252.053101
3.080000 -4.840000 -6.800000 2.640431 13.570531 191.131180
3.080000 -4.800000 -7.200000 -25.866858 -15.350654 904.736877
3.080000 -4.800000 -7.160000 -11.845929 -28.628363 959.909180
3.080000 -4.800000 -7.120000 6.919537 -25.728035 709.811768
3.080000 -4.800000 -7.080000 15.379097 -10.676300 350.500000
3.080000 -4.800000 -7.040000 9.600550 2.400490 97.932907
3.080000 -4.800000 -7.000000 -0.869818 4.012524 16.856928
3.080000 -4.800000 -6.960000 -4.484798 -2.099266 24.520334
3.080000 -4.800000 -6.920000 0.035915 -5.064020 25.645590
3.080000 -4.800000 -6.880000 3.856997 0.005301 14.876450
3.080000 -4.800000 -6.840000 -0.502166 6.874310 47.508301
3.080000 -4.800000 -6.800000 -10.055426 6.245104 140.112915
3.120000 -5.200000 -7.200000 -1.719358 -12.655748 163.124161
3.120000 -5.200000 -7.160000 11.750863 -8.664139 213.150085
3.120000 -5.200000 -7.120000 17.477913 1.437917 307.545044
3.120000 -5.200000 -7.080000 15.859927 10.459347 360.935242
3.120000 -5.200000 -7.040000 11.107519 15.577148 366.024536
3.120000 -5.200000 -7.000000 6.028046 17.825079 354.070770
3.120000 -5.200000 -6.960000 0.851551 18.271196 334.561737
3.120000 -5.200000 -6.920000 -4.260396 16.440596 288.444153
3.120000 -5.200000 -6.880000 -7.639205 12.179352 206.694061
3.120000 -5.200000 -6.840000 -7.849812 7.414139 116.588997
3.120000 -5.200000 -6.800000 -5.980452 4.625658 57.162514
3.120000 -5.160000 -7.200000 10.614107 -4.275878 130.942398
3.120000 -5.160000 -7.160000 10.090061 7.332867 155.580261
3.120000 -5.160000 -7.120000 2.361972 10.851196 123.327370
3.120000 -5.160000 -7.080000 -1.906811 5.822549 37.538002
3.120000 -5.160000 -7.040000 2.068245 0.495681 4.523336
3.120000 -5.160000 -7.000000 9.626049 2.115129 97.134590
3.120000 -5.160000 -6.960000 12.972792 9.984238 267.978333
3.120000 -5.160000 -6.920000 9.282412 17.688332 399.040222
3.120000 -5.160000 -6.880000 2.127396 20.348326 418.580170
3.120000 -5.160000 -6.840000 -3.674232 18.430782 353.193726
3.120000 -5.160000 -6.800000 -6.687153 15.044682 271.060455
3.120000 -5.120000 -7.200000 7.717402 11.448730 190.631699
3.120000 -5.120000 -7.160000 -7.490649 14.183088 257.269806
3.120000 -5.120000 -7.120000 -16.352770 0.587891 267.758698
3.120000 -5.120000 -7.080000 -7.403326 -15.815780 304.948120
3.120000 -5.120000 -7.040000 13.984694 -18.188629 526.397888
3.120000 -5.120000 -7.000000 30.997391 -1.862217 964.306091
3.120000 -5.120000 -6.960000 30.703526 22.318613 1440.826904
3.120000 -5.120000 -6.920000 14.310975 38.578053 1693.070068
3.120000 -5.120000 -6.880000 -6.116165 39.324928 1583.857422
3.120000 -5.120000 -6.840000 -19.129217 28.864536 1199.088379
3.120000 -5.120000 -6.800000 -21.789886 16.637873 751.617981
3.120000 -5.080000 -7.200000 -9.358112 16.387419 356.121765
3.120000 -5.080000 -7.160000 -24.889456 0.598740 619.843445
3.120000 -5.080000 -7.120000 -18.143740 -24.804775 944.472168
3.120000 -5.080000 -7.080000 11.001157 -36.029503 1419.150635
3.120000 -5.080000 -7.040000 42.246231 -18.786421 2137.673584
3.120000 -5.080000 -7.000000 51.535877 18.705870 3005.855957
3.120000 -5.080000 -6.960000 30.997175 52.307892 3696.940430
3.120000 -5.080000 -6.920000 -5.510960 61.695770 3836.738770
3.120000 -5.080000 -6.880000 -34.993229 45.357346 3281.814941
3.120000 -5.080000 -6.840000 -43.557457 18.780685 2249.966309
3.120000 -5.080000 -6.800000 -34.387737 -0.223769 1182.566528
3.120000 -5.040000 -7.200000 -23.301750 2.871935 551.219543
3.120000 -5.040000 -7.160000 -22.912430 -24.094410 1105.520020
3.120000 -5.040000 -7.120000 4.319705 -43.288921 1892.590576
3.120000 -5.040000 -7.080000 42.868233 -32.993744 2926.272461
3.120000 -5.040000 -7.040000 63.921299 7.400931 4140.706055
3.120000 -5.040000 -7.000000 48.423759 54.201073 5282.617188
3.120000 -5.040000 -6.960000 3.412514 76.973175 5936.514648
3.120000 -5.040000 -6.920000 -42.987892 62.343323 5734.648926
3.120000 -5.040000 -6.880000 -63.762764 23.558117 4620.674805
3.120000 -5.040000 -6.840000 -53.084003 -11.833609 2957.945557
3.120000 -5.040000 -6.800000 -27.622726 -24.480274 1362.298828
3.120000 -5.000000 -7.200000 -18.842155 -16.813900 637.734070
3.120000 -5.000000 -7.160000 -0.150184 -37.150074 1380.150635
3.120000 -5.000000 -7.120000 34.762901 -35.704006 2483.235352
3.120000 -5.000000 -7.080000 62.089317 -3.492488 3867.280762
3.120000 -5.000000 -7.040000 57.421528 44.793903 5303.725586
3.120000 -5.000000 -7.000000 16.635099 78.398201 6423.004395
3.120000 -5.000000 -6.960000 -37.666176 73.508507 6822.241211
3.120000 -5.000000 -6.920000 -71.944618 32.918213 6259.637207
3.120000 -5.000000 -6.880000 -67.680389 -15.541682 4822.179199
3.120000 -5.000000 -6.840000 -35.198708 -41.373253 2950.695068
3.120000 -5.000000 -6.800000 -3.153441 -35.326096 1257.877197
3.120000 -4.960000 -7.200000 -0.025596 -22.937103 526.111389
3.120000 -4.960000 -7.160000 23.310276 -25.496878 1193.459717
3.120000 -4.960000 -7.120000 46.830536 -6.213313 2231.704346
3.120000 -4.960000 -7.080000 50.713608 30.975739 3531.366455
3.120000 -4.960000 -7.040000 23.665447 65.144485 4803.857422
3.120000 -4.960000 -7.000000 -24.087219 71.289047 5662.322754
3.120000 -4.960000 -6.960000 -64.206070 40.819691 5788.666504
3.120000 -4.960000 -6.920000 -70.871956 -8.531873 5095.626953
3.120000 -4.960000 -6.880000 -42.120434 -44.818436 3782.823242
3.120000 -4.960000 -6.840000 -2.011101 -47.454086 2255.934814
3.120000 -4.960000 -6.800000 19.892782 -23.638367 954.495178
3.120000 -4.920000 -7.200000 13.264771 -10.022311 276.400848
3.120000 -4.920000 -7.160000 25.437714 -0.646489 647.495239
3.120000 -4.920000 -7.120000 29.990324 19.466873 1278.378662
3.120000 -4.920000 -7.080000 17.416042 42.574554 2115.911133
3.120000 -4.920000 -7.040000 -12.605978 52.817207 2948.568115
3.120000 -4.920000 -7.000000 -45.388420 37.662601 3478.580078
3.120000 -4.920000 -6.960000 -59.037102 1.335499 3487.162842
3.120000 -4.920000 -6.920000 -42.393112 -34.246067 2969.968994
3.120000 -4.920000 -6.880000 -6.850445 -45.698776 2135.306885
3.120000 -4.920000 -6.840000 21.466711 -28.406246 1267.734497
3.120000 -4.920000 -6.800000 24.124657 -1.035564 583.071472
3.120000 -4.880000 -7.200000 6.881351 6.214034 85.967209
3.120000 -4.880000 -7.160000 5.609675 11.829971 171.416687
3.120000 -4.880000 -7.120000 1.327541 18.507645 344.295258
3.120000 -4.880000 -7.080000 -9.111986 23.454498 633.141724
3.120000 -4.880000 -7.040000 -24.324095 19.659924 978.174194
3.120000 -4.880000 -7.000000 -34.960423 3.270920 1232.930176
3.120000 -4.880000 -6.960000 -30.236860 -18.721554 1264.764282
3.120000 -4.880000 -6.920000 -9.656328 -31.154299 1063.834961
3.120000 -4.880000 -6.880000 13.151575 -24.006340 749.268311
3.120000 -4.880000 -6.840000 21.261635 -3.423975 463.780731
3.120000 -4.880000 -6.800000 10.607873 12.525736 269.421021
3.120000 -4.840000 -7.200000 -11.128996 5.435840 153.402908
3.120000 -4.840000 -7.160000 -13.443517 -1.204572 182.179138
3.120000 -4.840000 -7.120000 -10.365803 -5.885345 142.087158
3.120000 -4.840000 -7.080000 -6.910213 -6.195576 86.136208
3.120000 -4.840000 -7.040000 -6.435257 -5.642025 73.244980
3.120000 -4.840000 -7.000000 -6.392109 -8.012642 105.061485
3.120000 -4.840000 -6.960000 -2.195795 -11.400061 134.782898
3.120000 -4.840000 -6.920000 5.541773 -9.905244 128.825104
3.120000 -4.840000 -6.880000 9.989328 -1.536716 102.148178
3.120000 -4.840000 -6.840000 5.635595 7.532874 88.504120
3.120000 -4.840000 -6.800000 -4.150818 8.675479 92.493217
3.120000 -4.800000 -7.200000 -17.941650 -14.396089 529.150208
3.120000 -4.800000 -7.160000 -8.638997 -25.639606 732.021667
3.120000 -4.800000 -7.120000 6.672981 -26.879656 767.044556
3.120000 -4.800000 -7.080000 18.343803 -17.384975 638.732483
3.120000 -4.800000 -7.040000 20.474201 -3.948437 434.783051
3.120000 -4.800000 -7.000000 14.730965 5.789952 250.524857
3.120000 -4.800000 -6.960000 6.790428 9.247894 131.633469
3.120000 -4.800000 -6.920000 0.480000 8.552361 73.373283
3.120000 -4.800000 -6.880000 -3.903406 6.062819 51.994358
3.120000 -4.800000 -6.840000 -6.657701 2.063765 48.584103
3.120000 -4.800000 -6.800000 -6.398692 -3.100858 50.558578
3.160000 -5.200000 -7.200000 11.184940 -7.884937 187.275131
3.160000 -5.200000 -7.160000 14.745049 7.694960 276.628845
3.160000 -5.200000 -7.120000 6.404137 17.405016 343.947540
3.160000 -5.200000 -7.080000 -2.476438 16.765453 287.213165
3.160000 -5.200000 -7.040000 -4.434673 12.864166 185.153091
3.160000 -5.200000 -7.000000 -2.945872 13.859112 200.753143
3.160000 -5.200000 -6.960000 -6.218544 18.955282 397.973022
3.160000 -5.200000 -6.920000 -16.149397 19.963909 659.360718
3.160000 -5.200000 -6.880000 -25.487782 11.694689 786.392761
3.160000 -5.200000 -6.840000 -25.997850 -1.437473 677.954590
3.160000 -5.200000 -6.800000 -17.691235 -10.047895 413.939972
3.160000 -5.160000 -7.200000 14.105413 6.111738 236.316040
3.160000 -5.160000 -7.160000 2.876667 18.169729 338.414276
3.160000 -5.160000 -7.120000 -10.315759 15.097718 334.355988
3.160000 -5.160000 -7.080000 -12.426751 4.474682 174.446930
3.160000 -5.160000 -7.040000 -4.203126 0.157389 17.691038
3.160000 -5.160000 -7.000000 2.442505 7.251820 58.554718
3.160000 -5.160000 -6.960000 -1.841141 17.752312 318.534363
3.160000 -5.160000 -6.920000 -14.304976 20.236290 614.139771
3.160000 -5.160000 -6.880000 -24.200539 11.901011 727.300171
3.160000 -5.160000 -6.840000 -24.492628 0.165917 599.916382
3.160000 -5.160000 -6.800000 -17.905888 -6.376394 361.279236
3.160000 -5.120000 -7.200000 2.456188 16.144833 266.688477
3.160000 -5.120000 -7.160000 -14.352553 14.006012 402.164154
3.160000 -5.120000 -7.120000 -19.674461 -0.744907 387.639343
3.160000 -5.120000 -7.080000 -8.894121 -11.681000 215.551147
3.160000 -5.120000 -7.040000 6.462969 -6.857737 88.798531
3.160000 -5.120000 -7.000000 10.672209 10.057338 215.046082
3.160000 -5.120000 -6.960000 -1.231994 24.291504 591.594971
3.160000 -5.120000 -6.920000 -20.004192 24.322153 991.734863
3.160000 -5.120000 -6.880000 -32.087234 11.380077 1159.096680
3.160000 -5.120000 -6.840000 -31.633976 -3.976048 1016.517395
3.160000 -5.120000 -6.800000 -23.176384 -12.624475 696.522156
3.160000 -5.080000 -7.200000 -12.795527 10.319498 270.217560
3.160000 -5.080000 -7.160000 -21.028631 -3.966706 457.938110
3.160000 -5.080000 -7.120000 -12.212614 -18.794523 502.382050
3.160000 -5.080000 -7.080000 6.644979 -18.998663 405.104919
3.160000 -5.080000 -7.040000 18.753349 -1.901649 355.304382
3.160000 -5.080000 -7.000000 12.214318 20.115141 553.808472
3.160000 -5.080000 -6.960000 -9.898676 30.235950 1012.196472
3.160000 -5.080000 -6.920000 -32.668674 21.056334 1510.611450
3.160000 -5.080000 -6.880000 -41.887802 -0.462949 1754.802368
3.160000 -5.080000 -6.840000 -34.541679 -20.038820 1594.681885
3.160000 -5.080000 -6.800000 -18.976105 -27.636858 1123.888428
3.160000 -5.040000 -7.200000 -14.930611 -6.860746 269.992981
3.160000 -5.040000 -7.160000 -8.919687 -20.133194 484.906311
3.160000 -5.040000 -7.120000 7.494298 -23.282150 598.223022
3.160000 -5.040000 -7.080000 22.099888 -10.562572 599.972961
3.160000 -5.040000 -7.040000 21.934296 11.624845 616.250305
3.160000 -5.040000 -7.000000 3.589170 28.264267 811.750916
3.160000 -5.040000 -6.960000 -23.038311 26.570183 1236.738403
3.160000 -5.040000 -6.920000 -41.290028 5.956254 1740.343262
3.160000 -5.040000 -6.880000 -39.971813 -21.008301 2039.094482
3.160000 -5.040000 -6.840000 -21.658052 -37.936623 1908.258545
3.160000 -5.040000 -6.800000 -0.227137 -36.888359 1360.802612
3.160000 -5.000000 -7.200000 0.071156 -17.492794 306.002899
3.160000 -5.000000 -7.160000 11.932981 -18.219522 474.347046
3.160000 -5.000000 -7.120000 22.334833 -9.041576 580.594849
3.160000 -5.000000 -7.080000 23.860596 7.238286 621.720764
3.160000 -5.000000 -7.040000 12.227732 22.480122 654.873291
3.160000 -5.000000 -7.000000 -9.506721 26.250313 779.456665
3.160000 -5.000000 -6.960000 -30.069099 12.723764 1066.044922
3.160000 -5.000000 -6.920000 -35.979401 -12.939640 1461.951538
3.160000 -5.000000 -6.880000 -22.014359 -35.781616 1764.956055
3.160000 -5.000000 -6.840000 2.924802 -41.527760 1733.109253
3.160000 -5.000000 -6.800000 21.627316 -28.576839 1284.376465
3.160000 -4.960000 -7.200000 17.550993 -9.073136 390.359161
3.160000 -4.960000 -7.160000 21.156004 1.245023 449.126587
3.160000 -4.960000 -7.120000 17.853380 11.361120 447.818237
3.160000 -4.960000 -7.080000 9.433195 18.459984 429.756165
3.160000 -4.960000 -7.040000 -2.992877 20.438110 426.673676
3.160000 -4.960000 -7.000000 -16.680273 13.849147 470.030396
3.160000 -4.960000 -6.960000 -24.447544 -2.575092 604.313538
3.160000 -4.960000 -6.920000 -18.417763 -22.429451 842.294250
3.160000 -4.960000 -6.880000 1.133476 -33.074135 1095.183228
3.160000 -4.960000 -6.840000 22.245319 -26.148062 1178.575439
3.160000 -4.960000 -6.800000 29.990143 -7.189773 951.101501
3.160000 -4.920000 -7.200000 18.838848 10.926248 474.285095
3.160000 -4.920000 -7.160000 8.560876 19.355606 447.928101
3.160000 -4.920000 -7.120000 -2.599589 17.876659 326.332825
3.160000 -4.920000 -7.080000 -8.400234 11.538659 203.704590
3.160000 -4.920000 -7.040000 -10.262131 5.603532 136.710892
3.160000 -4.920000 -7.000000 -11.223944 -0.434507 126.165710
3.160000 -4.920000 -6.960000 -9.395010 -8.865243 166.858734
3.160000 -4.920000 -6.920000 -0.525275 -16.554012 274.311218
3.160000 -4.920000 -6.880000 13.642685 -15.861514 437.710480
3.160000 -4.920000 -6.840000 23.406668 -4.065459 564.400024
3.160000 -4.920000 -6.800000 20.386419 10.509060 526.046387
3.160000 -4.880000 -7.200000 1.813668 21.726749 475.341034
3.160000 -4.880000 -7.160000 -13.858697 17.099865 484.468872
3.160000 -4.880000 -7.120000 -19.083532 2.649448 371.200775
3.160000 -4.880000 -7.080000 -11.926379 -8.736725 218.568878
3.160000 -4.880000 -7.040000 -1.373275 -10.184676 105.613518
3.160000 -4.880000 -7.000000 4.209376 -5.685821 50.047405
3.160000 -4.880000 -6.960000 5.135471 -2.370666 31.993114
3.160000 -4.880000 -6.920000 6.587860 -1.355073 45.236118
3.160000 -4.880000 -6.880000 9.750179 1.597573 97.618233
3.160000 -4.880000 -6.840000 10.084613 7.949151 164.888428
3.160000 -4.880000 -6.800000 4.705982 12.636579 181.829391
3.160000 -4.840000 -7.200000 -15.382212 11.392576 366.403229
3.160000 -4.840000 -7.160000 -22.657688 -4.266843 531.576782
3.160000 -4.840000 -7.120000 -13.784874 -20.496426 610.126221
3.160000 -4.840000 -7.080000 4.656219 -23.775387 586.949402
3.160000 -4.840000 -7.040000 18.387854 -12.537573 495.303894
3.160000 -4.840000 -7.000000 19.139179 2.992415 375.262726
3.160000 -4.840000 -6.960000 10.495523 11.928789 252.452026
3.160000 -4.840000 -6.920000 1.592656 11.952621 145.401703
3.160000 -4.840000 -6.880000 -2.403430 8.070934 70.916458
3.160000 -4.840000 -6.840000 -2.686483 5.068556 32.907455
3.160000 -4.840000 -6.800000 -1.943252 3.557930 16.435089
3.160000 -4.800000 -7.200000 -12.942554 -9.056837 249.535980
3.160000 -4.800000 -7.160000 -7.043107 -22.690496 564.463989
3.160000 -4.800000 -7.120000 10.301269 -28.066208 893.828186
3.160000 -4.800000 -7.080000 28.029795 -17.910748 1106.464233
3.160000 -4.800000 -7.040000 33.390488 2.676144 1122.086426
3.160000 -4.800000 -7.000000 22.999512 20.449821 947.172729
3.160000 -4.800000 -6.960000 5.033025 25.210323 660.891785
3.160000 -4.800000 -6.920000 -8.488912 17.163500 366.647339
3.160000 -4.800000 -6.880000 -11.100128 4.797282 146.226761
3.160000 -4.800000 -6.840000 -4.941489 -2.960975 33.185688
3.160000 -4.800000 -6.800000 3.080455 -2.591014 16.202557
3.200000 -5.200000 -7.200000 12.749827 4.597047 183.690948
3.200000 -5.200000 -7.160000 3.077754 17.723516 323.595612
3.200000 -5.200000 -7.120000 -10.828220 16.671757 395.197845
3.200000 -5.200000 -7.080000 -15.447994 7.122159 289.365662
3.200000 -5.200000 -7.040000 -10.448027 2.434623 115.088654
3.200000 -5.200000 -7.000000 -7.360916 7.625222 112.327087
3.200000 -5.200000 -6.960000 -15.000162 13.908675 418.456116
3.200000 -5.200000 -6.920000 -28.575317 9.366932 904.288208
3.200000 -5.200000 -6.880000 -34.683083 -6.828710 1249.547485
3.200000 -5.200000 -6.840000 -26.171474 -22.839672 1206.596680
3.200000 -5.200000 -6.800000 -9.957062 -26.688822 811.436279
3.200000 -5.160000 -7.200000 6.444900 14.137209 241.397400
3.200000 -5.160000 -7.160000 -10.477730 17.590868 419.221436
3.200000 -5.160000 -7.120000 -20.800011 6.593152 476.110107
3.200000 -5.160000 -7.080000 -16.996403 -5.047145 314.351379
3.200000 -5.160000 -7.040000 -7.404144 -5.326118 83.188881
3.200000 -5.160000 -7.000000 -5.638573 3.557745 44.451050
3.200000 -5.160000 -6.960000 -15.408535 8.855210 315.837708
3.200000 -5.160000 -6.920000 -27.132671 1.835692 739.551636
3.200000 -5.160000 -6.880000 -28.953308 -13.091714 1009.687012
3.200000 -5.160000 -6.840000 -19.203903 -23.921165 941.012085
3.200000 -5.160000 -6.800000 -6.928175 -23.940973 621.169861
3.200000 -5.120000 -7.200000 -5.571780 14.001091 227.075287
3.200000 -5.120000 -7.160000 -19.727205 6.770839 435.006897
3.200000 -5.120000 -7.120000 -21.236629 -7.497049 507.200195
3.200000 -5.120000 -7.080000 -11.334593 -14.847528 348.922089
3.200000 -5.120000 -7.040000 -2.066724 -9.780975 99.938828
3.200000 -5.120000 -7.000000 -3.580918 0.272364 12.897159
3.200000 -5.120000 -6.960000 -14.461020 3.403200 220.702850
3.200000 -5.120000 -6.920000 -24.245411 -4.910062 611.948669
3.200000 -5.120000 -6.880000 -24.218491 -18.462051 927.382629
3.200000 -5.120000 -6.840000 -14.949052 -27.495277 979.464478
3.200000 -5.120000 -6.800000 -3.905653 -27.772179 786.548035
3.200000 -5.080000 -7.200000 -11.302809 3.113698 137.448608
3.200000 -5.080000 -7.160000 -16.599060 -7.125982 326.308441
3.200000 -5.080000 -7.120000 -11.883482 -16.982170 429.611267
3.200000 -5.080000 -7.080000 -2.047436 -18.601400 350.204071
3.200000 -5.080000 -7.040000 3.783462 -11.598795 148.846619
3.200000 -5.080000 -7.000000 0.181738 -3.243549 10.553638
3.200000 -5.080000 -6.960000 -9.978018 -2.119678 104.053871
3.200000 -5.080000 -6.920000 -18.032578 -10.861078 443.136871
3.200000 -5.080000 -6.880000 -16.777842 -24.096024 862.114319
3.200000 -5.080000 -6.840000 -6.123383 -32.974895 1124.839600
3.200000 -5.080000 -6.800000 7.216598 -32.144821 1085.368774
3.200000 -5.040000 -7.200000 -3.396044 -7.398166 66.265968
3.200000 -5.040000 -7.160000 -3.316962 -11.774261 149.635452
3.200000 -5.040000 -7.120000 -0.013517 -15.631754 244.351913
3.200000 -5.040000 -7.080000 5.639892 -15.926658 285.466827
3.200000 -5.040000 -7.040000 9.456400 -11.182661 214.475403
3.200000 -5.040000 -7.000000 6.890912 -4.889161 71.388565
3.200000 -5.040000 -6.960000 -1.446371 -4.035956 18.380932
3.200000 -5.040000 -6.920000 -8.194498 -12.465239 222.531967
3.200000 -5.040000 -6.880000 -5.082157 -25.464558 674.272034
3.200000 -5.040000 -6.840000 8.510090 -32.473133 1126.926025
3.200000 -5.040000 -6.800000 23.392584 -26.689627 1259.549072
3.200000 -5.000000 -7.200000 11.338934 -4.712346 150.777634
3.200000 -5.000000 -7.160000 7.366160 -2.061381 58.509613
3.200000 -5.000000 -7.120000 4.196708 -5.894202 52.353973
3.200000 -5.000000 -7.080000 7.611681 -10.661224 171.599396
3.200000 -5.000000 -7.040000 13.945903 -8.992889 275.360260
3.200000 -5.000000 -7.000000 14.517146 -2.099492 215.155396
3.200000 -5.000000 -6.960000 7.271021 0.620531 53.252804
3.200000 -5.000000 -6.920000 1.022274 -6.910791 48.804081
3.200000 -5.000000 -6.880000 5.972401 -18.539465 379.381348
3.200000 -5.000000 -6.840000 20.956966 -21.224855 889.688904
3.200000 -5.000000 -6.800000 32.870152 -9.651974 1173.607544
3.200000 -4.960000 -7.200000 17.328501 11.401782 430.277588
3.200000 -4.960000 -7.160000 3.596813 13.125357 185.212067
3.200000 -4.960000 -7.120000 -3.129911 1.590408 12.325742
3.200000 -4.960000 -7.080000 4.512982 -8.984005 101.079361
3.200000 -4.960000 -7.040000 16.815418 -6.653511 327.027527
3.200000 -4.960000 -7.000000 19.529799 4.465749 401.355927
3.200000 -4.960000 -6.960000 11.109440 10.044164 224.304871
3.200000 -4.960000 -6.920000 4.110712 3.448503 28.790127
3.200000 -4.960000 -6.880000 9.380236 -6.067743 124.806335
3.200000 -4.960000 -6.840000 22.337029 -4.683590 520.878845
3.200000 -4.960000 -6.800000 28.026333 8.780922 862.579956
3.200000 -4.920000 -7.200000 6.395853 26.645859 750.908691
3.200000 -4.920000 -7.160000 -12.900786 18.086718 493.559631
3.200000 -4.920000 -7.120000 -14.440045 -2.817857 216.455231
3.200000 -4.920000 -7.080000 2.634990 -14.074255 205.027832
3.200000 -4.920000 -7.040000 19.896381 -5.479733 425.893463
3.200000 -4.920000 -7.000000 21.013426 11.673610 577.837219
3.200000 -4.920000 -6.960000 8.893021 19.175570 446.788269
3.200000 -4.920000 -6.920000 -0.098273 12.552454 157.573761
3.200000 -4.920000 -6.880000 3.689237 4.071993 30.191597
3.200000 -4.920000 -6.840000 12.909946 6.260083 205.855362
3.200000 -4.920000 -6.800000 14.003174 16.707150 475.217712
3.200000 -4.880000 -7.200000 -12.506981 26.337879 850.108459
3.200000 -4.880000 -7.160000 -26.846903 6.082057 757.747559
3.200000 -4.880000 -7.120000 -16.529510 -17.450008 577.727539
3.200000 -4.880000 -7.080000 8.903814 -21.517586 542.284424
3.200000 -4.880000 -7.040000 25.766266 -3.530896 676.367676
3.200000 -4.880000 -7.000000 21.072542 18.176264 774.428589
3.200000 -4.880000 -6.960000 3.845166 25.063414 642.959961
3.200000 -4.880000 -6.920000 -7.501647 16.518629 329.139801
3.200000 -4.880000 -6.880000 -5.346997 6.681090 73.227341
3.200000 -4.880000 -6.840000 1.982536 6.478213 45.897697
3.200000 -4.880000 -6.800000 3.279366 12.792884 174.412125
3.200000 -4.840000 -7.200000 -21.600521 11.365446 595.755859
3.200000 -4.840000 -7.160000 -24.096695 -12.432035 735.206177
3.200000 -4.840000 -7.120000 -3.637516 -28.965408 852.226379
3.200000 -4.840000 -7.080000 23.006390 -21.595182 995.645874
3.200000 -4.840000 -7.040000 33.253674 3.856578 1120.679932
3.200000 -4.840000 -7.000000 20.587711 25.993275 1099.504150
3.200000 -4.840000 -6.960000 -1.219438 29.228546 855.794922
3.200000 -4.840000 -6.920000 -13.750731 16.824501 472.146423
3.200000 -4.840000 -6.880000 -11.224370 3.974756 141.785156
3.200000 -4.840000 -6.840000 -2.253613 1.260638 6.667978
3.200000 -4.840000 -6.800000 2.306816 6.748102 50.858284
3.200000 -4.800000 -7.200000 -13.059599 -1.641390 173.247299
3.200000 -4.800000 -7.160000 -6.898989 -19.077583 411.550232
3.200000 -4.800000 -7.120000 14.898637 -24.502398 822.336853
3.200000 -4.800000 -7.080000 34.944706 -8.629747 1295.604980
3.200000 -4.800000 -7.040000 35.746117 18.399845 1616.339233
3.200000 -4.800000 -7.000000 16.309481 36.442253 1594.036987
3.200000 -4.800000 -6.960000 -7.688929 33.912388 1209.169678
3.200000 -4.800000 -6.920000 -19.019934 16.931911 648.447510
3.200000 -4.800000 -6.880000 -13.535156 1.645500 185.908127
3.200000 -4.800000 -6.840000 -1.110778 -0.873589 1.996985
3.200000 -4.800000 -6.800000 5.389767 7.587174 86.614807
