#kx 	ky 	kz 	real 	imag 	intensity
6.800000 -7.200000 -1.200000 -29.328400 -0.955377 861.067749
6.800000 -7.200000 -1.160000 -12.823088 -6.862032 211.519058
6.800000 -7.200000 -1.120000 -5.833046 9.276067 120.069847
6.800000 -7.200000 -1.080000 -25.213444 24.222191 1222.432373
6.800000 -7.200000 -1.040000 -55.760849 11.005047 3230.383301
6.800000 -7.200000 -1.000000 -63.883842 -28.617971 4900.133789
6.800000 -7.200000 -0.960000 -34.177242 -61.786732 4985.684082
6.800000 -7.200000 -0.920000 11.063219 -57.161652 3389.849121
6.800000 -7.200000 -0.880000 32.132469 -18.293304 1367.140625
6.800000 -7.200000 -0.840000 11.581390 18.427980 473.719055
6.800000 -7.200000 -0.800000 -28.486261 19.764025 1202.083740
6.800000 -7.160000 -1.200000 -24.658754 -18.788403 961.058228
6.800000 -7.160000 -1.160000 -5.943176 -13.614382 220.672729
6.800000 -7.160000 -1.120000 -8.403530 4.567050 91.477264
6.800000 -7.160000 -1.080000 -32.154839 7.214590 1085.983887
6.800000 -7.160000 -1.040000 -50.075481 -18.692619 2856.968018
6.800000 -7.160000 -1.000000 -36.942036 -53.609222 4238.662598
6.800000 -7.160000 -0.960000 1.445240 -64.336868 4141.321289
6.800000 -7.160000 -0.920000 31.887863 -39.444588 2572.711426
6.800000 -7.160000 -0.880000 27.460506 -2.677559 761.248718
6.800000 -7.160000 -0.840000 -4.631598 10.697777 135.894119
6.800000 -7.160000 -0.800000 -30.794212 -10.425296 1056.970337
6.800000 -7.120000 -1.200000 -7.528886 -28.143663 848.749939
6.800000 -7.120000 -1.160000 5.401738 -13.351009 207.428223
6.800000 -7.120000 -1.120000 -4.514194 0.866154 21.128166
6.800000 -7.120000 -1.080000 -23.268845 -6.109706 578.767639
6.800000 -7.120000 -1.040000 -25.807896 -30.643681 1605.082642
6.800000 -7.120000 -1.000000 -4.145456 -48.133888 2334.055908
6.800000 -7.120000 -0.960000 22.928894 -39.953728 2122.034668
6.800000 -7.120000 -0.920000 29.794273 -14.377277 1094.404785
6.800000 -7.120000 -0.880000 11.796360 1.835083 142.521637
6.800000 -7.120000 -0.840000 -9.642642 -7.956893 156.292694
6.800000 -7.120000 -0.800000 -10.051588 -32.787323 1176.042969
6.800000 -7.080000 -1.200000 10.454654 -21.801857 584.620728
6.800000 -7.080000 -1.160000 13.278124 -3.749111 190.364410
6.800000 -7.080000 -1.120000 0.302285 4.320342 18.756733
6.800000 -7.080000 -1.080000 -11.041804 -4.838612 145.333603
6.800000 -7.080000 -1.040000 -7.219223 -19.415283 429.070404
6.800000 -7.080000 -1.000000 6.995560 -22.989920 577.474243
6.800000 -7.080000 -0.960000 15.295698 -13.440048 414.593292
6.800000 -7.080000 -0.920000 9.536456 -4.721809 113.239479
6.800000 -7.080000 -0.880000 -0.490675 -9.866282 97.584274
6.800000 -7.080000 -0.840000 1.565178 -25.023859 628.643311
6.800000 -7.080000 -0.800000 19.280975 -33.071110 1465.454224
6.800000 -7.040000 -1.200000 16.756563 -5.573748 311.849091
6.800000 -7.040000 -1.160000 10.638284 8.991436 194.019012
6.800000 -7.040000 -1.120000 -2.285277 11.741738 143.090912
6.800000 -7.040000 -1.080000 -10.101446 4.513792 122.413536
6.800000 -7.040000 -1.040000 -9.741431 -3.191225 105.079399
6.800000 -7.040000 -1.000000 -7.362123 -6.492224 96.349823
6.800000 -7.040000 -0.960000 -7.766794 -9.687763 154.175842
6.800000 -7.040000 -0.920000 -6.807030 -18.101881 374.013763
6.800000 -7.040000 -0.880000 3.331530 -28.105385 801.011719
6.800000 -7.040000 -0.840000 22.278519 -28.691729 1319.547607
6.800000 -7.040000 -0.800000 38.180653 -13.998453 1653.718872
6.800000 -7.000000 -1.200000 9.496703 7.463869 145.896713
6.800000 -7.000000 -1.160000 -1.133215 15.030213 227.191498
6.800000 -7.000000 -1.120000 -12.860571 13.424486 345.611115
6.800000 -7.000000 -1.080000 -20.560892 6.271029 462.076080
6.800000 -7.000000 -1.040000 -24.478558 -2.971466 608.029358
6.800000 -7.000000 -1.000000 -25.075485 -14.731384 845.793640
6.800000 -7.000000 -0.960000 -18.706089 -28.973194 1189.363770
6.800000 -7.000000 -0.920000 -1.545292 -39.484192 1561.389404
6.800000 -7.000000 -0.880000 22.226460 -36.417747 1820.267822
6.800000 -7.000000 -0.840000 39.384571 -16.723274 1830.812256
6.800000 -7.000000 -0.800000 38.120426 9.260645 1538.926392
6.800000 -6.960000 -1.200000 -2.206250 9.642712 97.849426
6.800000 -6.960000 -1.160000 -13.118720 10.117985 274.474426
6.800000 -6.960000 -1.120000 -22.489239 4.027292 521.984924
6.800000 -6.960000 -1.080000 -28.262617 -6.229373 837.580627
6.800000 -6.960000 -1.040000 -29.461111 -19.947178 1265.846924
6.800000 -6.960000 -1.000000 -22.664711 -35.984402 1808.566406
6.800000 -6.960000 -0.960000 -4.460241 -48.086937 2332.247314
6.800000 -6.960000 -0.920000 21.384071 -46.301243 2601.083740
6.800000 -6.960000 -0.880000 41.775497 -26.343000 2439.145752
6.800000 -6.960000 -0.840000 43.249046 2.674081 1877.630737
6.800000 -6.960000 -0.800000 24.979496 22.879866 1147.463501
6.800000 -6.920000 -1.200000 -8.875725 4.491637 98.953293
6.800000 -6.920000 -1.160000 -17.466227 -0.945118 305.962311
6.800000 -6.920000 -1.120000 -21.807262 -11.150516 599.890686
6.800000 -6.920000 -1.080000 -20.913519 -23.121204 971.965332
6.800000 -6.920000 -1.040000 -14.213498 -35.373753 1453.325928
6.800000 -6.920000 -1.000000 0.156612 -44.950859 2020.604248
6.800000 -6.920000 -0.960000 21.294205 -45.226570 2498.885742
6.800000 -6.920000 -0.920000 40.972717 -30.656971 2618.613281
6.800000 -6.920000 -0.880000 46.933617 -4.971762 2227.482910
6.800000 -6.920000 -0.840000 33.847881 17.768099 1461.384399
6.800000 -6.920000 -0.800000 10.643013 23.753815 677.517456
6.800000 -6.880000 -1.200000 -9.911346 0.100843 98.244957
6.800000 -6.880000 -1.160000 -14.175407 -10.172893 304.429901
6.800000 -6.880000 -1.120000 -10.562448 -21.528835 575.056030
6.800000 -6.880000 -1.080000 -1.567257 -28.976612 842.100342
6.800000 -6.880000 -1.040000 9.514414 -31.813046 1102.593994
6.800000 -6.880000 -1.000000 21.774479 -30.130173 1381.955322
6.800000 -6.880000 -0.960000 33.789310 -21.894918 1621.104980
6.800000 -6.880000 -0.920000 40.238541 -6.171123 1657.222900
6.800000 -6.880000 -0.880000 35.086075 11.696297 1367.835938
6.800000 -6.880000 -0.840000 19.194012 21.557756 833.146973
6.800000 -6.880000 -0.800000 2.571461 17.583361 315.786957
6.800000 -6.840000 -1.200000 -11.395156 -1.295442 131.527756
6.800000 -6.840000 -1.160000 -8.888638 -14.609706 292.451385
6.800000 -6.840000 -1.120000 2.966044 -21.869188 487.058807
6.800000 -6.840000 -1.080000 15.232380 -19.203312 600.792603
6.800000 -6.840000 -1.040000 21.474787 -11.500888 593.436890
6.800000 -6.840000 -1.000000 22.727730 -4.719187 538.820435
6.800000 -6.840000 -0.960000 22.847691 0.477787 522.245239
6.800000 -6.840000 -0.920000 22.049517 6.549076 529.071594
6.800000 -6.840000 -0.880000 17.381426 12.940603 469.573181
6.800000 -6.840000 -0.840000 8.672808 15.223717 306.979126
6.800000 -6.840000 -0.800000 0.946904 10.916163 120.059250
6.800000 -6.800000 -1.200000 -16.112783 -5.044987 285.073700
6.800000 -6.800000 -1.160000 -5.058051 -17.540562 333.255188
6.800000 -6.800000 -1.120000 11.339605 -16.165489 389.909668
6.800000 -6.800000 -1.080000 19.212852 -3.615888 382.208344
6.800000 -6.800000 -1.040000 14.526889 7.675956 269.950806
6.800000 -6.800000 -1.000000 5.342497 9.192960 113.052788
6.800000 -6.800000 -0.960000 1.472725 3.751585 16.243309
6.800000 -6.800000 -0.920000 4.373095 -0.094791 19.132942
6.800000 -6.800000 -0.880000 7.945698 1.678011 65.949837
6.800000 -6.800000 -0.840000 7.089863 5.574076 81.336472
6.800000 -6.800000 -0.800000 2.940580 6.512683 51.062050
6.840000 -7.200000 -1.200000 -29.256384 0.984136 856.904480
6.840000 -7.200000 -1.160000 -23.115124 2.431100 540.219238
6.840000 -7.200000 -1.120000 -31.398254 8.619185 1060.140747
6.840000 -7.200000 -1.080000 -50.537285 -1.036132 2555.090576
6.840000 -7.200000 -1.040000 -57.005405 -32.095005 4279.705566
6.840000 -7.200000 -1.000000 -32.909561 -63.055882 5059.083496
6.840000 -7.200000 -0.960000 10.287612 -64.411491 4254.675293
6.840000 -7.200000 -0.920000 38.314220 -30.506567 2398.630127
6.840000 -7.200000 -0.880000 27.035316 10.710252 845.617798
6.840000 -7.200000 -0.840000 -12.110020 22.878868 670.095215
6.840000 -7.200000 -0.800000 -41.957504 -3.400132 1771.993042
6.840000 -7.160000 -1.200000 -22.065685 -20.168896 893.678833
6.840000 -7.160000 -1.160000 -14.825725 -12.727831 381.799805
6.840000 -7.160000 -1.120000 -23.572817 -8.810262 633.298401
6.840000 -7.160000 -1.080000 -33.980957 -23.155319 1690.874268
6.840000 -7.160000 -1.040000 -24.906963 -47.852219 2910.191406
6.840000 -7.160000 -1.000000 5.929235 -57.891983 3386.637451
6.840000 -7.160000 -0.960000 35.272926 -38.147961 2699.446289
6.840000 -7.160000 -0.920000 36.474674 -2.537231 1336.839355
6.840000 -7.160000 -0.880000 8.027730 17.186081 359.805847
6.840000 -7.160000 -0.840000 -22.704210 2.946064 524.160461
6.840000 -7.160000 -0.800000 -25.922840 -30.877508 1625.414185
6.840000 -7.120000 -1.200000 0.069117 -28.119995 790.738892
6.840000 -7.120000 -1.160000 4.793143 -14.555971 234.850525
6.840000 -7.120000 -1.120000 -2.924504 -9.462000 98.082169
6.840000 -7.120000 -1.080000 -7.288654 -17.945257 375.156738
6.840000 -7.120000 -1.040000 2.632095 -27.487183 762.473145
6.840000 -7.120000 -1.000000 19.283157 -22.597441 882.484497
6.840000 -7.120000 -0.960000 24.279060 -3.955490 605.118652
6.840000 -7.120000 -0.920000 9.691949 10.211395 198.206467
6.840000 -7.120000 -0.880000 -10.947536 3.334951 130.970459
6.840000 -7.120000 -0.840000 -15.328761 -20.365620 649.729370
6.840000 -7.120000 -0.800000 4.134556 -38.472218 1497.206177
6.840000 -7.080000 -1.200000 19.831087 -16.028326 650.179199
6.840000 -7.080000 -1.160000 18.733328 1.894313 354.525970
6.840000 -7.080000 -1.120000 8.103682 10.831526 182.991608
6.840000 -7.080000 -1.080000 -1.347744 9.838490 98.612289
6.840000 -7.080000 -1.040000 -5.145229 6.141323 64.189240
6.840000 -7.080000 -1.000000 -7.521142 4.531998 77.106583
6.840000 -7.080000 -0.960000 -12.840956 1.459511 167.020309
6.840000 -7.080000 -0.920000 -17.192917 -8.881413 374.475891
6.840000 -7.080000 -0.880000 -11.371496 -24.109875 710.596985
6.840000 -7.080000 -0.840000 7.352709 -32.429012 1105.703247
6.840000 -7.080000 -0.800000 28.694279 -23.870106 1393.143555
6.840000 -7.040000 -1.200000 22.489420 5.239092 533.222107
6.840000 -7.040000 -1.160000 13.362734 24.031679 756.084229
6.840000 -7.040000 -1.120000 -5.721470 33.315002 1142.624634
6.840000 -7.040000 -1.080000 -26.905485 29.430098 1590.035767
6.840000 -7.040000 -1.040000 -42.611687 13.755405 2004.967041
6.840000 -7.040000 -1.000000 -47.261650 -9.170815 2317.767334
6.840000 -7.040000 -0.960000 -37.708519 -32.317848 2466.375732
6.840000 -7.040000 -0.920000 -15.167606 -46.626209 2404.059814
6.840000 -7.040000 -0.880000 12.480835 -44.460335 2132.492676
6.840000 -7.040000 -0.840000 32.547829 -25.578678 1713.630005
6.840000 -7.040000 -0.800000 35.197708 0.069488 1238.883545
6.840000 -7.000000 -1.200000 9.410156 18.450676 428.978455
6.840000 -7.000000 -1.160000 -7.813738 33.387009 1175.746826
6.840000 -7.000000 -1.120000 -35.362675 34.521355 2442.242676
6.840000 -7.000000 -1.080000 -61.500458 15.669308 4027.833496
6.840000 -7.000000 -1.040000 -71.655579 -19.303333 5507.140625
6.840000 -7.000000 -1.000000 -56.842216 -56.141357 6382.889648
6.840000 -7.000000 -0.960000 -20.682362 -76.730644 6315.352051
6.840000 -7.000000 -0.920000 20.481007 -69.956848 5313.432129
6.840000 -7.000000 -0.880000 46.480473 -39.859798 3749.237793
6.840000 -7.000000 -0.840000 46.356888 -4.077485 2165.586914
6.840000 -7.000000 -0.800000 25.851097 17.898266 988.627197
6.840000 -6.960000 -1.200000 -5.425019 16.618853 305.617096
6.840000 -6.960000 -1.160000 -27.768011 23.176437 1308.209717
6.840000 -6.960000 -1.120000 -55.642929 10.064383 3197.427246
6.840000 -6.960000 -1.080000 -71.416870 -24.448006 5698.074219
6.840000 -6.960000 -1.040000 -59.940331 -66.900696 8068.546387
6.840000 -6.960000 -1.000000 -20.607437 -94.733658 9399.131836
6.840000 -6.960000 -0.960000 29.224453 -90.787262 9096.395508
6.840000 -6.960000 -0.920000 63.994965 -56.204994 7254.356934
6.840000 -6.960000 -0.880000 67.158226 -11.004273 4631.321777
6.840000 -6.960000 -0.840000 42.808205 19.644707 2218.456787
6.840000 -6.960000 -0.800000 11.789825 23.384544 685.836914
6.840000 -6.920000 -1.200000 -10.854367 7.336458 171.640915
6.840000 -6.920000 -1.160000 -32.609985 3.424128 1075.135742
6.840000 -6.920000 -1.120000 -49.837170 -21.210903 2933.645752
6.840000 -6.920000 -1.080000 -45.366501 -58.417004 5470.666016
6.840000 -6.920000 -1.040000 -13.378058 -87.867546 7899.678223
6.840000 -6.920000 -1.000000 33.947128 -89.989761 9250.564453
6.840000 -6.920000 -0.960000 72.506592 -60.317486 8895.405273
6.840000 -6.920000 -0.920000 82.133575 -14.233168 6948.507324
6.840000 -6.920000 -0.880000 60.950771 22.892721 4239.073242
6.840000 -6.920000 -0.840000 26.491568 33.640366 1833.477295
6.840000 -6.920000 -0.800000 1.886312 20.454887 421.960571
6.840000 -6.880000 -1.200000 -8.484714 1.648571 74.708153
6.840000 -6.880000 -1.160000 -23.403732 -10.681379 661.826538
6.840000 -6.880000 -1.120000 -24.711006 -36.342262 1931.393799
6.840000 -6.880000 -1.080000 -4.567083 -60.430508 3672.704346
6.840000 -6.880000 -1.040000 30.700489 -66.257034 5332.514648
6.840000 -6.880000 -1.000000 63.685612 -46.849342 6250.717773
6.840000 -6.880000 -0.960000 76.793106 -10.434576 6006.061523
6.840000 -6.880000 -0.920000 63.945259 24.206085 4674.930664
6.840000 -6.880000 -0.880000 34.881989 40.055824 2821.222168
6.840000 -6.880000 -0.840000 8.179850 33.417343 1183.628784
6.840000 -6.880000 -0.800000 -2.437843 15.602556 249.382843
6.840000 -6.840000 -1.200000 -7.201873 1.433919 53.923100
6.840000 -6.840000 -1.160000 -11.621347 -13.524217 317.960144
6.840000 -6.840000 -1.120000 -1.278957 -29.608040 878.271790
6.840000 -6.840000 -1.080000 19.957037 -34.842003 1612.248535
6.840000 -6.840000 -1.040000 40.993221 -24.364855 2274.090332
6.840000 -6.840000 -1.000000 51.055496 -2.599468 2613.420898
6.840000 -6.840000 -0.960000 45.687214 20.157106 2493.630371
6.840000 -6.840000 -0.920000 28.636112 33.714569 1956.698975
6.840000 -6.840000 -0.880000 9.413233 33.525040 1212.537354
6.840000 -6.840000 -0.840000 -2.486048 23.166628 542.873047
6.840000 -6.840000 -0.800000 -3.738251 11.650427 149.706970
6.840000 -6.800000 -1.200000 -10.343798 -0.431070 107.179970
6.840000 -6.800000 -1.160000 -5.239232 -11.246220 153.927002
6.840000 -6.800000 -1.120000 6.977168 -14.190864 250.061493
6.840000 -6.800000 -1.080000 17.277882 -7.685876 357.597900
6.840000 -6.800000 -1.040000 20.273188 2.765606 418.650726
6.840000 -6.800000 -1.000000 16.953245 11.159019 411.936249
6.840000 -6.800000 -0.960000 11.133709 15.350233 359.589111
6.840000 -6.800000 -0.920000 5.444569 16.157223 290.699188
6.840000 -6.800000 -0.880000 0.797209 14.702013 216.784729
6.840000 -6.800000 -0.840000 -2.234136 11.740201 142.823685
6.840000 -6.800000 -0.800000 -3.325840 8.445930 82.394958
6.880000 -7.200000 -1.200000 -36.482426 -5.485987 1361.063477
6.880000 -7.200000 -1.160000 -38.016361 -9.180713 1529.529297
6.880000 -7.200000 -1.120000 -44.372063 -18.819382 2323.049072
6.880000 -7.200000 -1.080000 -43.908188 -40.071880 3533.684570
6.880000 -7.200000 -1.040000 -23.628468 -61.919525 4392.332031
6.880000 -7.200000 -1.000000 12.145460 -63.384300 4165.082031
6.880000 -7.200000 -0.960000 39.401783 -35.875046 2839.519531
6.880000 -7.200000 -0.920000 35.264023 2.897694 1251.947876
6.880000 -7.200000 -0.880000 2.310766 21.547199 469.621429
6.880000 -7.200000 -0.840000 -30.280962 4.339322 935.766357
6.880000 -7.200000 -0.800000 -32.795925 -32.330368 2120.825439
6.880000 -7.160000 -1.200000 -18.746552 -28.460205 1161.416504
6.880000 -7.160000 -1.160000 -15.659173 -26.495787 947.236450
6.880000 -7.160000 -1.120000 -16.026649 -31.516396 1250.136719
6.880000 -7.160000 -1.080000 -7.773872 -42.579239 1873.424683
6.880000 -7.160000 -1.040000 13.281723 -45.773193 2271.589355
6.880000 -7.160000 -1.000000 34.116875 -29.265810 2020.448730
6.880000 -7.160000 -0.960000 35.042961 0.173962 1228.039429
6.880000 -7.160000 -0.920000 11.203701 19.274475 497.028320
6.880000 -7.160000 -0.880000 -18.414211 9.967299 438.430237
6.880000 -7.160000 -0.840000 -26.668194 -20.881573 1147.232666
6.880000 -7.160000 -0.800000 -4.490055 -45.628193 2102.092529
6.880000 -7.120000 -1.200000 11.195587 -27.750340 895.422546
6.880000 -7.120000 -1.160000 13.745012 -16.038681 446.164673
6.880000 -7.120000 -1.120000 11.310837 -9.893810 225.822510
6.880000 -7.120000 -1.080000 11.151005 -7.484389 180.360992
6.880000 -7.120000 -1.040000 13.051842 -1.928532 174.069809
6.880000 -7.120000 -1.000000 9.293407 7.889481 148.611328
6.880000 -7.120000 -0.960000 -4.559982 12.933292 188.063492
6.880000 -7.120000 -0.920000 -20.519966 3.052376 430.385986
6.880000 -7.120000 -0.880000 -22.986799 -19.487894 908.170959
6.880000 -7.120000 -0.840000 -4.567893 -37.981991 1463.497192
6.880000 -7.120000 -0.800000 23.725502 -35.475231 1821.391602
6.880000 -7.080000 -1.200000 28.398155 -3.754621 820.552368
6.880000 -7.080000 -1.160000 22.253513 16.762009 776.183777
6.880000 -7.080000 -1.120000 5.412979 29.749149 914.312256
6.880000 -7.080000 -1.080000 -15.529255 30.866016 1193.868652
6.880000 -7.080000 -1.040000 -33.687798 20.308773 1547.313965
6.880000 -7.080000 -1.000000 -43.648399 1.032616 1906.249023
6.880000 -7.080000 -0.960000 -41.364296 -21.939262 2192.336182
6.880000 -7.080000 -0.920000 -25.332207 -40.895397 2314.154297
6.880000 -7.080000 -0.880000 0.305368 -46.925606 2202.105713
6.880000 -7.080000 -0.840000 24.700506 -35.378700 1861.767456
6.880000 -7.080000 -0.800000 35.448990 -11.348311 1385.415039
6.880000 -7.040000 -1.200000 20.294224 22.657078 925.198730
6.880000 -7.040000 -1.160000 -0.524836 44.374535 1969.374878
6.880000 -7.040000 -1.120000 -36.028442 49.115089 3710.340820
6.880000 -7.040000 -1.080000 -70.836021 27.934097 5798.055664
6.880000 -7.040000 -1.040000 -85.847931 -13.857735 7561.903809
6.880000 -7.040000 -1.000000 -70.720894 -57.732967 8334.540039
6.880000 -7.040000 -0.960000 -31.436104 -82.587997 7809.005859
6.880000 -7.040000 -0.920000 12.833046 -77.696609 6201.450195
6.880000 -7.040000 -0.880000 41.554825 -48.880028 4116.060547
6.880000 -7.040000 -0.840000 45.019695 -13.818657 2217.728271
6.880000 -7.040000 -0.800000 28.746037 9.789938 922.177490
6.880000 -7.000000 -1.200000 -2.527619 30.995417 967.104736
6.880000 -7.000000 -1.160000 -36.740166 43.208107 3216.780273
6.880000 -7.000000 -1.120000 -80.271927 25.473639 7092.488281
6.880000 -7.000000 -1.080000 -105.370697 -24.896202 11722.804688
6.880000 -7.000000 -1.040000 -89.593307 -85.918999 15409.035156
6.880000 -7.000000 -1.000000 -35.042023 -123.754044 16543.007812
6.880000 -7.000000 -0.960000 30.456787 -116.928452 14599.878906
6.880000 -7.000000 -0.920000 72.537674 -72.158760 10468.601562
6.880000 -7.000000 -0.880000 74.402107 -18.519478 5878.644531
6.880000 -7.000000 -0.840000 46.376190 14.745348 2368.176270
6.880000 -7.000000 -0.800000 14.372056 18.116156 534.751099
6.880000 -6.960000 -1.200000 -18.970480 19.989111 759.443665
6.880000 -6.960000 -1.160000 -57.667450 15.635384 3570.000000
6.880000 -6.960000 -1.120000 -90.211304 -25.329664 8779.670898
6.880000 -6.960000 -1.080000 -84.859581 -89.117798 15143.130859
6.880000 -6.960000 -1.040000 -31.796265 -138.444748 20177.949219
6.880000 -6.960000 -1.000000 44.653633 -139.879364 21560.183594
6.880000 -6.960000 -0.960000 101.917175 -90.718300 18616.919922
6.880000 -6.960000 -0.920000 110.885895 -21.709759 12766.995117
6.880000 -6.960000 -0.880000 76.526138 27.000515 6585.277832
6.880000 -6.960000 -0.840000 30.479361 35.795952 2210.341553
6.880000 -6.960000 -0.800000 3.700081 16.267570 278.324463
6.880000 -6.920000 -1.200000 -18.889412 5.456342 386.581543
6.880000 -6.920000 -1.160000 -50.795486 -14.285345 2784.252441
6.880000 -6.920000 -1.120000 -59.433075 -64.273827 7663.415039
6.880000 -6.920000 -1.080000 -23.415833 -115.241150 13828.823242
6.880000 -6.920000 -1.040000 45.954639 -129.178528 18798.919922
6.880000 -6.920000 -1.000000 109.681335 -90.500137 20220.269531
6.880000 -6.920000 -0.960000 130.309555 -20.247931 17390.558594
6.880000 -6.920000 -0.920000 100.709206 39.804012 11726.703125
6.880000 -6.920000 -0.880000 47.624306 59.519352 5810.627930
6.880000 -6.920000 -0.840000 7.953058 41.240952 1764.067139
6.880000 -6.920000 -0.800000 -0.445254 12.474669 155.815628
6.880000 -6.880000 -1.200000 -10.574575 1.444906 113.909401
6.880000 -6.880000 -1.160000 -28.830063 -25.520748 1482.481201
6.880000 -6.880000 -1.120000 -15.829742 -66.459030 4667.383301
6.880000 -6.880000 -1.080000 31.408003 -88.961128 8900.544922
6.880000 -6.880000 -1.040000 87.116226 -69.742996 12453.322266
6.880000 -6.880000 -1.000000 115.725098 -15.097717 13620.239258
6.880000 -6.880000 -0.960000 99.892944 42.929203 11821.517578
6.880000 -6.880000 -0.920000 53.511406 71.587799 7988.283203
6.880000 -6.880000 -0.880000 8.958702 62.027176 3927.628906
6.880000 -6.880000 -0.840000 -9.402685 32.808308 1164.795532
6.880000 -6.880000 -0.800000 -2.220683 11.029617 126.583893
6.880000 -6.840000 -1.200000 -7.996722 6.203435 102.430176
6.880000 -6.840000 -1.160000 -13.167580 -18.575912 518.449646
6.880000 -6.840000 -1.120000 8.005512 -41.541321 1789.769531
6.880000 -6.840000 -1.080000 44.737099 -40.512180 3642.644531
6.880000 -6.840000 -1.040000 72.124069 -10.709084 5316.565918
6.880000 -6.840000 -1.000000 70.975464 30.927151 5994.005371
6.880000 -6.840000 -0.960000 42.678131 59.230057 5329.622559
6.880000 -6.840000 -0.920000 6.951183 60.274353 3681.316406
6.880000 -6.840000 -0.880000 -14.739548 40.518402 1858.995239
6.880000 -6.840000 -0.840000 -15.389339 18.932859 595.284912
6.880000 -6.840000 -0.800000 -5.053394 10.165655 128.877335
6.880000 -6.800000 -1.200000 -13.907531 7.523918 250.028763
6.880000 -6.800000 -1.160000 -11.599646 -9.694260 228.530441
6.880000 -6.800000 -1.120000 5.023434 -18.362452 362.414520
6.880000 -6.800000 -1.080000 23.447166 -10.574051 661.580139
6.880000 -6.800000 -1.040000 30.394905 8.704346 999.615906
6.880000 -6.800000 -1.000000 21.860062 26.698662 1190.680908
6.880000 -6.800000 -0.960000 4.818214 33.121811 1120.269531
6.880000 -6.800000 -0.920000 -9.486000 27.128553 825.942627
6.880000 -6.800000 -0.880000 -14.334950 16.119772 465.337830
6.880000 -6.800000 -0.840000 -11.451132 8.600533 205.097580
6.880000 -6.800000 -0.800000 -7.708449 7.368543 113.715614
6.920000 -7.200000 -1.200000 -35.906963 -24.020998 1866.318359
6.920000 -7.200000 -1.160000 -33.468624 -35.382809 2372.091797
6.920000 -7.200000 -1.120000 -25.019573 -48.971321 3024.169189
6.920000 -7.200000 -1.080000 -6.024920 -59.251408 3547.028809
6.920000 -7.200000 -1.040000 20.452477 -55.482643 3496.627441
6.920000 -7.200000 -1.000000 40.166458 -32.521912 2671.019043
6.920000 -7.200000 -0.960000 37.548435 -0.918890 1410.729370
6.920000 -7.200000 -0.920000 11.935404 17.400938 445.246490
6.920000 -7.200000 -0.880000 -17.215820 7.676920 355.319550
6.920000 -7.200000 -0.840000 -24.932537 -22.030556 1106.976807
6.920000 -7.200000 -0.800000 -3.423754 -45.438515 2076.380859
6.920000 -7.160000 -1.200000 -4.427443 -37.751991 1444.815186
6.920000 -7.160000 -1.160000 3.025950 -37.694572 1430.037109
6.920000 -7.160000 -1.120000 12.474024 -37.035194 1527.206909
6.920000 -7.160000 -1.080000 24.875687 -30.955929 1577.069336
6.920000 -7.160000 -1.040000 33.793396 -14.918060 1364.542236
6.920000 -7.160000 -1.000000 28.954453 6.528221 880.977966
6.920000 -7.160000 -0.960000 7.865207 18.982155 422.183685
6.920000 -7.160000 -0.920000 -16.817955 9.981941 382.482758
6.920000 -7.160000 -0.880000 -24.932541 -16.796675 903.759888
6.920000 -7.160000 -0.840000 -6.961656 -40.737579 1708.015015
6.920000 -7.160000 -0.800000 24.844707 -40.851879 2286.135498
6.920000 -7.120000 -1.200000 25.901321 -19.384995 1046.656494
6.920000 -7.120000 -1.160000 26.973822 -4.880265 751.404053
6.920000 -7.120000 -1.120000 21.247864 8.067140 516.550476
6.920000 -7.120000 -1.080000 10.120369 17.088444 394.436798
6.920000 -7.120000 -1.040000 -5.191130 19.885563 422.383423
6.920000 -7.120000 -1.000000 -21.697992 13.082466 641.953796
6.920000 -7.120000 -0.960000 -32.257851 -4.870506 1064.290771
6.920000 -7.120000 -0.920000 -28.097271 -28.519955 1602.844482
6.920000 -7.120000 -0.880000 -6.726110 -44.895134 2060.813477
6.920000 -7.120000 -0.840000 22.147884 -41.631271 2223.691406
6.920000 -7.120000 -0.800000 40.861649 -18.217974 2001.568848
6.920000 -7.080000 -1.200000 28.918598 15.853651 1087.623535
6.920000 -7.080000 -1.160000 12.113651 37.139908 1526.113403
6.920000 -7.080000 -1.120000 -18.218647 45.023987 2359.078613
6.920000 -7.080000 -1.080000 -50.149124 31.349934 3497.752930
6.920000 -7.080000 -1.040000 -68.143135 -1.138077 4644.782227
6.920000 -7.080000 -1.000000 -62.335415 -39.150028 5418.428711
6.920000 -7.080000 -0.960000 -34.475910 -65.926987 5534.956055
6.920000 -7.080000 -0.920000 2.987362 -70.222466 4940.119141
6.920000 -7.080000 -0.880000 33.619186 -51.880291 3821.814453
6.920000 -7.080000 -0.840000 45.433216 -21.394775 2521.913574
6.920000 -7.080000 -0.800000 36.695015 6.065996 1383.320435
6.920000 -7.040000 -1.200000 3.693981 38.190674 1472.173096
6.920000 -7.040000 -1.160000 -33.204140 51.015396 3705.085449
6.920000 -7.040000 -1.120000 -78.912209 33.089336 7322.041016
6.920000 -7.040000 -1.080000 -105.742546 -17.597046 11491.142578
6.920000 -7.040000 -1.040000 -91.975357 -78.938339 14690.726562
6.920000 -7.040000 -1.000000 -40.098621 -118.053978 15544.641602
6.920000 -7.040000 -0.960000 23.193851 -114.604492 13672.144531
6.920000 -7.040000 -0.920000 65.755379 -74.744019 9910.438477
6.920000 -7.040000 -0.880000 71.796936 -24.718666 5765.812500
6.920000 -7.040000 -0.840000 49.515331 9.213606 2536.658691
6.920000 -7.040000 -0.800000 20.596031 17.492823 730.195312
6.920000 -7.000000 -1.200000 -25.893017 31.909393 1688.657715
6.920000 -7.000000 -1.160000 -72.605759 23.658463 5831.318848
6.920000 -7.000000 -1.120000 -109.789505 -26.442593 12752.946289
6.920000 -7.000000 -1.080000 -101.978271 -100.891602 20578.683594
6.920000 -7.000000 -1.040000 -40.118179 -156.520782 26108.224609
6.920000 -7.000000 -1.000000 46.123081 -156.852448 26730.027344
6.920000 -7.000000 -0.960000 108.749512 -101.566650 22142.240234
6.920000 -7.000000 -0.920000 117.618179 -26.654505 14544.499023
6.920000 -7.000000 -0.880000 80.944992 24.633045 7158.878906
6.920000 -7.000000 -0.840000 33.759109 33.798244 2281.998779
6.920000 -7.000000 -0.800000 7.143097 15.149549 280.532684
6.920000 -6.960000 -1.200000 -35.759125 8.723511 1354.814575
6.920000 -6.960000 -1.160000 -76.115036 -21.702545 6264.499023
6.920000 -6.960000 -1.120000 -84.010185 -89.295242 15031.351562
6.920000 -6.960000 -1.080000 -33.403252 -154.907806 25112.205078
6.920000 -6.960000 -1.040000 58.252415 -169.558655 32143.480469
6.920000 -6.960000 -1.000000 138.484924 -116.038956 32643.113281
6.920000 -6.960000 -0.960000 160.385681 -25.483297 26372.964844
6.920000 -6.960000 -0.920000 119.395020 47.202255 16483.224609
6.920000 -6.960000 -0.880000 53.577072 66.896744 7345.676758
6.920000 -6.960000 -0.840000 9.015148 41.909485 1837.677856
6.920000 -6.960000 -0.800000 3.261676 9.118221 93.780487
6.920000 -6.920000 -1.200000 -24.452600 -6.853567 644.901062
6.920000 -6.920000 -1.160000 -47.321758 -49.175186 4657.547852
6.920000 -6.920000 -1.120000 -23.758121 -109.767365 12613.322266
6.920000 -6.920000 -1.080000 49.790924 -140.269501 22154.669922
6.920000 -6.920000 -1.040000 132.777847 -106.689377 29012.580078
6.920000 -6.920000 -1.000000 170.939667 -21.751999 29693.519531
6.920000 -6.920000 -0.960000 141.129944 62.940193 23879.128906
6.920000 -6.920000 -0.920000 69.625511 98.830704 14615.219727
6.920000 -6.920000 -0.880000 7.741959 78.174042 6171.118652
6.920000 -6.920000 -0.840000 -11.477213 34.443382 1318.072998
6.920000 -6.920000 -0.800000 4.217999 8.193644 84.927315
6.920000 -6.880000 -1.200000 -11.071581 -3.375877 133.976456
6.920000 -6.880000 -1.160000 -16.247375 -44.503086 2244.501953
6.920000 -6.880000 -1.120000 23.193775 -82.261398 7304.888672
6.920000 -6.880000 -1.080000 89.384323 -76.618050 13859.882812
6.920000 -6.880000 -1.040000 136.263672 -18.662182 18916.066406
6.920000 -6.880000 -1.000000 128.202271 58.313194 19836.250000
6.920000 -6.880000 -0.960000 70.774567 105.618973 16164.406250
6.920000 -6.880000 -0.920000 5.130890 99.446564 9915.945312
6.920000 -6.880000 -0.880000 -27.997791 57.770042 4121.253906
6.920000 -6.880000 -0.840000 -20.706356 20.123638 833.713989
6.920000 -6.880000 -0.800000 1.815041 11.559496 136.916321
6.920000 -6.840000 -1.200000 -12.463526 7.932634 218.266174
6.920000 -6.840000 -1.160000 -7.247322 -24.791256 667.130066
6.920000 -6.840000 -1.120000 29.605907 -41.210159 2574.787109
6.920000 -6.840000 -1.080000 71.551422 -19.184410 5487.647461
6.920000 -6.840000 -1.040000 84.036552 31.542904 8057.096680
6.920000 -6.840000 -1.000000 54.923813 76.636475 8889.774414
6.920000 -6.840000 -0.960000 4.778488 86.635330 7528.514648
6.920000 -6.840000 -0.920000 -32.050468 61.121872 4763.115723
6.920000 -6.840000 -0.880000 -36.979710 25.926571 2039.686035
6.920000 -6.840000 -0.840000 -19.961880 7.887894 460.695526
6.920000 -6.840000 -0.800000 -5.674410 12.164602 180.176483
6.920000 -6.800000 -1.200000 -25.378750 8.559721 717.349731
6.920000 -6.800000 -1.160000 -16.698750 -15.933529 532.725586
6.920000 -6.800000 -1.120000 9.793941 -22.594948 606.452942
6.920000 -6.800000 -1.080000 31.870396 -4.208202 1033.431030
6.920000 -6.800000 -1.040000 31.267502 25.205307 1612.964111
6.920000 -6.800000 -1.000000 9.080376 43.432590 1968.843140
6.920000 -6.800000 -0.960000 -16.871979 39.419250 1838.541016
6.920000 -6.800000 -0.920000 -28.991398 20.999214 1281.468140
6.920000 -6.800000 -0.880000 -24.532759 5.175194 628.638916
6.920000 -6.800000 -0.840000 -14.941540 1.751902 226.318756
6.920000 -6.800000 -0.800000 -12.484619 6.187719 194.153595
6.960000 -7.200000 -1.200000 -16.970367 -40.682404 1943.051392
6.960000 -7.200000 -1.160000 -3.706002 -49.987556 2512.490234
6.960000 -7.200000 -1.120000 15.017893 -50.909809 2817.345703
6.960000 -7.200000 -1.080000 33.155655 -40.212772 2716.364502
6.960000 -7.200000 -1.040000 42.308407 -19.261375 2161.001953
6.960000 -7.200000 -1.000000 35.851707 3.663158 1298.763672
6.960000 -7.200000 -0.960000 15.382137 15.824280 487.018005
6.960000 -7.200000 -0.920000 -6.745050 8.761026 122.251289
6.960000 -7.200000 -0.880000 -14.289100 -12.892891 370.405029
6.960000 -7.200000 -0.840000 -0.240271 -32.022221 1025.480347
6.960000 -7.200000 -0.800000 25.366442 -31.611839 1642.764771
6.960000 -7.160000 -1.200000 18.721563 -33.926178 1501.482544
6.960000 -7.160000 -1.160000 29.585772 -26.744661 1590.594727
6.960000 -7.160000 -1.120000 36.198586 -13.182178 1484.107422
6.960000 -7.160000 -1.080000 34.230339 3.796806 1186.131836
6.960000 -7.160000 -1.040000 21.407497 17.863148 777.372986
6.960000 -7.160000 -1.000000 0.803283 20.832977 434.658203
6.960000 -7.160000 -0.960000 -17.599878 7.966698 373.223969
6.960000 -7.160000 -0.920000 -21.272106 -15.842560 703.489197
6.960000 -7.160000 -0.880000 -4.822813 -35.837090 1307.556519
6.960000 -7.160000 -0.840000 22.950094 -36.658268 1870.535400
6.960000 -7.160000 -0.800000 43.027920 -15.190487 2082.152832
6.960000 -7.120000 -1.200000 34.202194 0.965208 1170.721680
6.960000 -7.120000 -1.160000 27.967262 19.368853 1157.320312
6.960000 -7.120000 -1.120000 9.688446 32.178738 1129.337158
6.960000 -7.120000 -1.080000 -14.880716 31.410984 1208.085571
6.960000 -7.120000 -1.040000 -35.400436 14.846031 1473.595581
6.960000 -7.120000 -1.000000 -41.964382 -12.243347 1910.908936
6.960000 -7.120000 -0.960000 -29.921665 -38.818924 2402.214844
6.960000 -7.120000 -0.920000 -2.947651 -52.498722 2764.804443
6.960000 -7.120000 -0.880000 27.212524 -45.673615 2826.600586
6.960000 -7.120000 -0.840000 45.680450 -20.797384 2519.234863
6.960000 -7.120000 -0.800000 42.945839 9.275562 1930.381104
6.960000 -7.080000 -1.200000 14.538578 34.569004 1406.386230
6.960000 -7.080000 -1.160000 -15.061057 47.570240 2489.763184
6.960000 -7.080000 -1.120000 -52.997063 36.583855 4147.067383
6.960000 -7.080000 -1.080000 -78.141853 -0.861580 6106.891602
6.960000 -7.080000 -1.040000 -73.168396 -49.290146 7783.132812
6.960000 -7.080000 -1.000000 -37.652374 -84.488014 8555.925781
6.960000 -7.080000 -0.960000 11.151081 -89.407524 8118.052246
6.960000 -7.080000 -0.920000 49.850288 -64.424690 6635.591797
6.960000 -7.080000 -0.880000 63.260307 -25.184090 4636.104980
6.960000 -7.080000 -0.840000 51.453941 8.601345 2721.491211
6.960000 -7.080000 -0.800000 26.501366 24.504292 1302.782715
6.960000 -7.040000 -1.200000 -23.238642 38.603447 2030.260498
6.960000 -7.040000 -1.160000 -67.062538 29.265205 5353.835938
6.960000 -7.040000 -1.120000 -100.695206 -17.115618 10432.468750
6.960000 -7.040000 -1.080000 -94.000458 -84.070930 15904.007812
6.960000 -7.040000 -1.040000 -40.172291 -134.254593 19638.107422
6.960000 -7.040000 -1.000000 35.195683 -136.880188 19974.921875
6.960000 -7.040000 -0.960000 91.737778 -91.434067 16776.007812
6.960000 -7.040000 -0.920000 103.698761 -27.140343 11490.031250
6.960000 -7.040000 -0.880000 76.104988 20.374016 6207.069824
6.960000 -7.040000 -0.840000 35.857819 34.206833 2455.890625
6.960000 -7.040000 -0.800000 8.390488 22.848446 592.451721
6.960000 -7.000000 -1.200000 -46.808464 12.738621 2353.304688
6.960000 -7.000000 -1.160000 -85.623024 -23.412479 7879.446289
6.960000 -7.000000 -1.120000 -89.166840 -93.377304 16670.046875
6.960000 -7.000000 -1.080000 -34.978928 -157.486649 26025.570312
6.960000 -7.000000 -1.040000 57.079594 -169.257141 31906.060547
6.960000 -7.000000 -1.000000 135.299957 -114.660255 31453.052734
6.960000 -7.000000 -0.960000 155.732971 -25.691187 24912.794922
6.960000 -7.000000 -0.920000 115.865547 44.899258 15440.768555
6.960000 -7.000000 -0.880000 52.727169 64.756851 6973.604004
6.960000 -7.000000 -0.840000 9.383522 42.514236 1895.510864
6.960000 -7.000000 -0.800000 1.637449 12.384625 156.060196
6.960000 -6.960000 -1.200000 -39.962715 -16.560917 1871.282471
6.960000 -6.960000 -1.160000 -58.228329 -68.539276 8088.170898
6.960000 -6.960000 -1.120000 -24.068729 -134.667770 18714.710938
6.960000 -6.960000 -1.080000 62.032597 -162.618225 30292.730469
6.960000 -6.960000 -1.040000 153.017456 -118.788345 37525.011719
6.960000 -6.960000 -1.000000 190.380829 -21.493689 36706.839844
6.960000 -6.960000 -0.960000 152.624054 70.746628 28299.187500
6.960000 -6.960000 -0.920000 72.241066 106.518723 16565.009766
6.960000 -6.960000 -0.880000 6.040962 81.103806 6614.320312
6.960000 -6.960000 -0.840000 -12.393138 33.459717 1273.142456
6.960000 -6.960000 -0.800000 5.454681 6.990604 78.622101
6.960000 -6.920000 -1.200000 -16.829449 -23.564657 838.523438
6.960000 -6.920000 -1.160000 -12.677187 -74.443085 5702.483887
6.960000 -6.920000 -1.120000 44.120281 -114.612617 15082.651367
6.960000 -6.920000 -1.080000 127.846924 -97.624672 25875.412109
6.960000 -6.920000 -1.040000 180.680237 -17.489429 32951.226562
6.960000 -6.920000 -1.000000 161.658569 80.114639 32551.847656
6.960000 -6.920000 -0.960000 83.358597 134.178421 24952.505859
6.960000 -6.920000 -0.920000 0.993872 119.181358 14205.183594
6.960000 -6.920000 -0.880000 -35.541203 63.094521 5244.095703
6.960000 -6.920000 -0.840000 -21.214394 17.641315 761.266479
6.960000 -6.920000 -0.800000 8.154228 11.577097 200.520615
6.960000 -6.880000 -1.200000 -4.981430 -8.470582 96.565407
6.960000 -6.880000 -1.160000 12.146105 -48.093575 2460.519775
6.960000 -6.880000 -1.120000 68.352203 -60.056480 8278.804688
6.960000 -6.880000 -1.080000 124.087021 -17.052029 15688.360352
6.960000 -6.880000 -1.040000 131.273285 61.879379 21061.734375
6.960000 -6.880000 -1.000000 77.592300 124.207115 21447.972656
6.960000 -6.880000 -0.960000 -0.917881 129.201309 16693.820312
6.960000 -6.880000 -0.920000 -51.678986 82.580711 9490.291016
6.960000 -6.880000 -0.880000 -50.970444 28.017262 3382.953125
6.960000 -6.880000 -0.840000 -19.990337 5.537245 430.274658
6.960000 -6.880000 -0.800000 0.977105 17.977451 324.143494
6.960000 -6.840000 -1.200000 -16.078455 5.430491 288.006958
6.960000 -6.840000 -1.160000 4.216629 -23.657883 577.475403
6.960000 -6.840000 -1.120000 46.965424 -20.772446 2637.245605
6.960000 -6.840000 -1.080000 73.910606 21.759464 5936.251953
6.960000 -6.840000 -1.040000 56.729080 74.756020 8806.650391
6.960000 -6.840000 -1.000000 4.245560 97.797256 9582.328125
6.960000 -6.840000 -0.960000 -45.509617 75.833351 7821.822266
6.960000 -6.840000 -0.920000 -60.276802 31.151714 4603.722168
6.960000 -6.840000 -0.880000 -41.057777 0.229435 1685.793701
6.960000 -6.840000 -0.840000 -16.480824 -0.258834 271.684540
6.960000 -6.840000 -0.800000 -12.314305 14.987496 376.267151
6.960000 -6.800000 -1.200000 -34.972507 -1.734707 1226.085449
6.960000 -6.800000 -1.160000 -14.007120 -25.154980 828.972412
6.960000 -6.800000 -1.120000 17.797569 -20.145248 722.584473
6.960000 -6.800000 -1.080000 31.825016 9.727198 1107.450073
6.960000 -6.800000 -1.040000 15.813057 38.852158 1759.542847
6.960000 -6.800000 -1.000000 -15.883137 43.967133 2185.382812
6.960000 -6.800000 -0.960000 -37.584770 24.742687 2024.815552
6.960000 -6.800000 -0.920000 -36.714638 1.033569 1349.032837
6.960000 -6.800000 -0.880000 -22.947445 -8.501244 598.856323
6.960000 -6.800000 -0.840000 -14.841583 -3.600580 233.236771
6.960000 -6.800000 -0.800000 -19.845234 0.997474 394.828278
7.000000 -7.200000 -1.200000 11.813523 -37.726727 1562.865234
7.000000 -7.200000 -1.160000 29.628899 -34.092690 2040.183105
7.000000 -7.200000 -1.120000 41.760460 -18.639309 2091.359863
7.000000 -7.200000 -1.080000 41.446102 1.408829 1719.764160
7.000000 -7.200000 -1.040000 28.942207 16.443897 1108.053101
7.000000 -7.200000 -1.000000 10.784626 19.735546 505.799957
7.000000 -7.200000 -0.960000 -3.668148 10.567440 125.126099
7.000000 -7.200000 -0.920000 -6.714819 -5.181841 71.940269
7.000000 -7.200000 -0.880000 3.353565 -17.378799 313.269073
7.000000 -7.200000 -0.840000 20.125591 -17.009209 694.352600
7.000000 -7.200000 -0.800000 31.773792 -2.478118 1015.714905
7.000000 -7.160000 -1.200000 34.526199 -11.712510 1329.241333
7.000000 -7.160000 -1.160000 39.011234 5.105779 1547.945312
7.000000 -7.160000 -1.120000 30.357658 22.889278 1445.506470
7.000000 -7.160000 -1.080000 10.990476 31.522081 1114.432129
7.000000 -7.160000 -1.040000 -10.082973 25.551559 754.548584
7.000000 -7.160000 -1.000000 -22.440884 7.114502 554.209412
7.000000 -7.160000 -0.960000 -19.510834 -15.099020 608.653076
7.000000 -7.160000 -0.920000 -2.023460 -29.720644 887.411072
7.000000 -7.160000 -0.880000 21.398979 -28.181400 1252.107666
7.000000 -7.160000 -0.840000 37.684956 -10.075511 1521.671753
7.000000 -7.160000 -0.800000 36.599598 15.053163 1566.128174
7.000000 -7.120000 -1.200000 25.280066 24.559635 1242.257324
7.000000 -7.120000 -1.160000 7.208815 39.881905 1642.533325
7.000000 -7.120000 -1.120000 -21.073750 39.215096 1981.926636
7.000000 -7.120000 -1.080000 -44.466995 18.025639 2302.237305
7.000000 -7.120000 -1.040000 -48.951706 -15.163998 2626.216309
7.000000 -7.120000 -1.000000 -30.888901 -44.231171 2910.520752
7.000000 -7.120000 -0.960000 1.250801 -55.337292 3063.780273
7.000000 -7.120000 -0.920000 32.417709 -44.175549 3002.386963
7.000000 -7.120000 -0.880000 49.034615 -17.137255 2698.078857
7.000000 -7.120000 -0.840000 45.180130 12.615404 2200.392578
7.000000 -7.120000 -0.800000 24.786371 31.690422 1618.646973
7.000000 -7.080000 -1.200000 -11.253854 39.067200 1652.895264
7.000000 -7.080000 -1.160000 -45.875626 34.442329 3290.847168
7.000000 -7.080000 -1.120000 -73.850426 1.270569 5455.499512
7.000000 -7.080000 -1.080000 -72.681236 -48.508175 7635.604980
7.000000 -7.080000 -1.040000 -36.705795 -88.182007 9123.381836
7.000000 -7.080000 -1.000000 17.255302 -95.295959 9379.065430
7.000000 -7.080000 -0.960000 61.665550 -67.280396 8329.291992
7.000000 -7.080000 -0.920000 76.973663 -21.563553 6389.931641
7.000000 -7.080000 -0.880000 62.393150 18.022066 4217.700195
7.000000 -7.080000 -0.840000 32.412994 36.433445 2377.998047
7.000000 -7.080000 -0.800000 4.625300 33.426094 1138.697144
7.000000 -7.040000 -1.200000 -44.837555 18.379038 2348.195312
7.000000 -7.040000 -1.160000 -76.858002 -14.031898 6104.046387
7.000000 -7.040000 -1.120000 -78.418510 -72.486786 11403.796875
7.000000 -7.040000 -1.080000 -33.629425 -124.440735 16616.433594
7.000000 -7.040000 -1.040000 40.433090 -134.193359 19642.691406
7.000000 -7.040000 -1.000000 103.596512 -91.828911 19164.785156
7.000000 -7.040000 -0.960000 122.421310 -21.764387 15460.666016
7.000000 -7.040000 -0.920000 94.091309 36.415489 10179.262695
7.000000 -7.040000 -0.880000 44.725113 57.363602 5290.918457
7.000000 -7.040000 -0.840000 6.071066 44.577370 2023.999634
7.000000 -7.040000 -0.800000 -7.578330 20.689505 485.486694
7.000000 -7.000000 -1.200000 -47.971161 -18.908279 2658.755127
7.000000 -7.000000 -1.160000 -58.846127 -69.548950 8299.923828
7.000000 -7.000000 -1.120000 -22.220028 -127.416183 16728.613281
7.000000 -7.000000 -1.080000 57.155884 -147.735962 25092.708984
7.000000 -7.000000 -1.040000 136.663803 -104.873917 29675.531250
7.000000 -7.000000 -1.000000 167.195236 -17.594313 28263.806641
7.000000 -7.000000 -0.960000 132.658722 63.373455 21614.531250
7.000000 -7.000000 -0.920000 61.853634 95.186462 12886.334961
7.000000 -7.000000 -0.880000 2.671401 74.393654 5541.551758
7.000000 -7.000000 -0.840000 -16.631878 33.273239 1383.727783
7.000000 -7.000000 -0.800000 -4.559406 7.771313 81.181488
7.000000 -6.960000 -1.200000 -22.205719 -40.096924 2100.857178
7.000000 -6.960000 -1.160000 -7.497181 -89.764755 8113.918945
7.000000 -6.960000 -1.120000 55.260994 -121.712631 17867.742188
7.000000 -6.960000 -1.080000 137.039642 -95.580620 27915.519531
7.000000 -6.960000 -1.040000 182.708984 -11.350496 33511.406250
7.000000 -6.960000 -1.000000 157.154510 84.050652 31762.052734
7.000000 -6.960000 -0.960000 76.802658 133.182648 23636.265625
7.000000 -6.960000 -0.920000 -3.861332 114.914917 13220.348633
7.000000 -6.960000 -0.880000 -38.349796 58.557423 4899.678711
7.000000 -6.960000 -0.840000 -23.859123 13.884212 762.029114
7.000000 -6.960000 -0.800000 4.532187 7.333427 74.319885
7.000000 -6.920000 -1.200000 4.273172 -30.369907 940.591309
7.000000 -6.920000 -1.160000 34.042976 -65.429291 5439.916504
7.000000 -6.920000 -1.120000 97.876213 -65.071091 13814.000000
7.000000 -6.920000 -1.080000 151.710770 -7.060848 23066.013672
7.000000 -6.920000 -1.040000 147.850494 82.242149 28623.541016
7.000000 -6.920000 -1.000000 79.732651 145.299927 27469.363281
7.000000 -6.920000 -0.960000 -8.979822 142.187256 20297.851562
7.000000 -6.920000 -0.920000 -61.380497 84.716240 10944.406250
7.000000 -6.920000 -0.880000 -55.516129 23.348793 3627.206543
7.000000 -6.920000 -0.840000 -18.462805 0.692760 341.355072
7.000000 -6.920000 -0.800000 4.522217 16.736162 300.549561
7.000000 -6.880000 -1.200000 5.584112 -6.459082 72.902039
7.000000 -6.880000 -1.160000 36.820587 -27.072178 2088.658447
7.000000 -6.880000 -1.120000 84.180290 -7.686024 7145.396484
7.000000 -6.880000 -1.080000 103.217087 53.197632 13483.754883
7.000000 -6.880000 -1.040000 66.482361 115.846741 17840.371094
7.000000 -6.880000 -1.000000 -7.397217 132.987625 17740.427734
7.000000 -6.880000 -0.960000 -68.099106 93.128700 13310.443359
7.000000 -6.880000 -0.920000 -78.517746 30.671442 7105.773926
7.000000 -6.880000 -0.880000 -46.305813 -6.996267 2193.176025
7.000000 -6.880000 -0.840000 -12.190231 -2.357531 154.159698
7.000000 -6.880000 -0.800000 -8.823088 20.989403 518.401917
7.000000 -6.840000 -1.200000 -15.932815 1.790056 257.058899
7.000000 -6.840000 -1.160000 12.087576 -12.488335 302.067993
7.000000 -6.840000 -1.120000 43.343842 9.001766 1959.720337
7.000000 -6.840000 -1.080000 43.004185 54.004814 4765.879883
7.000000 -6.840000 -1.040000 3.109673 84.750282 7192.280273
7.000000 -6.840000 -1.000000 -47.955288 73.867607 7756.132812
7.000000 -6.840000 -0.960000 -72.124947 30.603012 6138.552246
7.000000 -6.840000 -0.920000 -57.393761 -9.207657 3378.824707
7.000000 -6.840000 -0.880000 -26.660801 -18.394289 1049.148193
7.000000 -6.840000 -0.840000 -12.218439 -2.714907 156.660965
7.000000 -6.840000 -0.800000 -23.560574 9.214705 640.011414
7.000000 -6.800000 -1.200000 -33.284931 -17.292025 1406.900757
7.000000 -6.800000 -1.160000 -4.166677 -29.085621 863.334534
7.000000 -6.800000 -1.120000 21.116432 -10.811207 562.785889
7.000000 -6.800000 -1.080000 19.137306 20.142351 771.950806
7.000000 -6.800000 -1.040000 -7.409496 35.420517 1309.513672
7.000000 -6.800000 -1.000000 -33.995899 23.302452 1698.725464
7.000000 -6.800000 -0.960000 -39.666336 -1.986782 1577.365479
7.000000 -6.800000 -0.920000 -26.463110 -17.484589 1006.007080
7.000000 -6.800000 -0.880000 -13.558754 -15.394270 420.823364
7.000000 -6.800000 -0.840000 -14.622049 -8.445056 285.123291
7.000000 -6.800000 -0.800000 -23.748116 -12.993556 732.805481
7.040000 -7.200000 -1.200000 28.937271 -13.592732 1022.128052
7.040000 -7.200000 -1.160000 37.916862 2.505987 1443.968506
7.040000 -7.200000 -1.120000 32.041985 21.175652 1475.096924
7.040000 -7.200000 -1.080000 14.912910 30.224424 1135.910645
7.040000 -7.200000 -1.040000 -2.303316 25.292671 645.024475
7.040000 -7.200000 -1.000000 -10.120491 11.780607 241.207031
7.040000 -7.200000 -0.960000 -6.725159 -0.882926 46.007320
7.040000 -7.200000 -0.920000 3.051506 -6.127877 46.862564
7.040000 -7.200000 -0.880000 12.549949 -2.809315 165.393448
7.040000 -7.200000 -0.840000 16.866091 6.345843 324.734741
7.040000 -7.200000 -0.800000 13.715078 16.899628 473.700806
7.040000 -7.160000 -1.200000 28.506718 15.982281 1068.066284
7.040000 -7.160000 -1.160000 19.109863 33.744598 1503.884766
7.040000 -7.160000 -1.120000 -2.831973 39.848778 1595.945068
7.040000 -7.160000 -1.080000 -23.956825 28.227121 1370.699951
7.040000 -7.160000 -1.040000 -31.461561 5.288370 1017.796692
7.040000 -7.160000 -1.000000 -21.979156 -15.858664 734.580505
7.040000 -7.160000 -0.960000 -2.157982 -24.760756 617.751892
7.040000 -7.160000 -0.920000 17.248466 -18.853256 652.954834
7.040000 -7.160000 -0.880000 27.583647 -2.666042 767.965332
7.040000 -7.160000 -0.840000 25.179173 15.814956 884.103516
7.040000 -7.160000 -0.800000 11.656487 28.424454 943.823303
7.040000 -7.120000 -1.200000 1.019379 34.925087 1220.800903
7.040000 -7.120000 -1.160000 -24.429840 37.698399 2017.986328
7.040000 -7.120000 -1.120000 -48.222687 18.225098 2657.581543
7.040000 -7.120000 -1.080000 -52.534779 -15.667870 3005.385254
7.040000 -7.120000 -1.040000 -32.142780 -44.944252 3053.144043
7.040000 -7.120000 -1.000000 2.217598 -53.565262 2874.155029
7.040000 -7.120000 -0.960000 32.580082 -38.752480 2563.216309
7.040000 -7.120000 -0.920000 45.714798 -10.406569 2198.139404
7.040000 -7.120000 -0.880000 39.198502 17.137386 1830.212646
7.040000 -7.120000 -0.840000 19.577164 33.206108 1485.911011
7.040000 -7.120000 -0.800000 -3.024885 34.161583 1176.163696
7.040000 -7.080000 -1.200000 -33.341919 23.400482 1659.266113
7.040000 -7.080000 -1.160000 -58.906807 1.464106 3472.155518
7.040000 -7.080000 -1.120000 -62.466316 -40.379284 5532.527344
7.040000 -7.080000 -1.080000 -32.879807 -78.226715 7200.500488
7.040000 -7.080000 -1.040000 17.585894 -87.264420 7924.342773
7.040000 -7.080000 -1.000000 61.783894 -60.825081 7516.939941
7.040000 -7.080000 -0.960000 77.529205 -14.466785 6220.065918
7.040000 -7.080000 -0.920000 61.763790 26.782896 4532.089355
7.040000 -7.080000 -0.880000 29.050240 45.784714 2940.156494
7.040000 -7.080000 -0.840000 -1.436327 41.553093 1728.722534
7.040000 -7.080000 -0.800000 -18.281124 24.823256 950.393555
7.040000 -7.040000 -1.200000 -45.523407 -12.043917 2217.436523
7.040000 -7.040000 -1.160000 -52.549404 -52.269707 5493.562500
7.040000 -7.040000 -1.120000 -23.039089 -95.614403 9672.914062
7.040000 -7.040000 -1.080000 36.771824 -109.311020 13301.066406
7.040000 -7.040000 -1.040000 94.898499 -76.847488 14911.261719
7.040000 -7.040000 -1.000000 117.121857 -13.099463 13889.125000
7.040000 -7.040000 -0.960000 93.012993 46.342728 10799.065430
7.040000 -7.040000 -0.920000 42.121452 72.021423 6961.302246
7.040000 -7.040000 -0.880000 -3.445446 60.316444 3649.944580
7.040000 -7.040000 -0.840000 -23.380018 30.928654 1503.206787
7.040000 -7.040000 -0.800000 -20.062571 7.460983 458.173004
7.040000 -7.000000 -1.200000 -25.047737 -42.524906 2435.756836
7.040000 -7.000000 -1.160000 -6.617981 -82.550850 6858.440430
7.040000 -7.000000 -1.120000 47.955353 -103.263504 12963.067383
7.040000 -7.000000 -1.080000 112.498215 -76.522568 18511.552734
7.040000 -7.000000 -1.040000 144.854553 -6.611883 21026.558594
7.040000 -7.000000 -1.000000 121.079384 68.631607 19370.513672
7.040000 -7.000000 -0.960000 55.996964 106.322578 14440.150391
7.040000 -7.000000 -0.920000 -8.819876 91.743950 8494.742188
7.040000 -7.000000 -0.880000 -38.600029 46.954563 3694.693359
7.040000 -7.000000 -0.840000 -30.306473 8.849544 996.796753
7.040000 -7.000000 -0.800000 -8.518772 -1.788222 75.767220
7.040000 -6.960000 -1.200000 8.960425 -43.452957 1968.448730
7.040000 -6.960000 -1.160000 43.382507 -67.348274 6417.832031
7.040000 -6.960000 -1.120000 99.912544 -56.343224 13157.075195
7.040000 -6.960000 -1.080000 140.159698 1.759618 19647.835938
7.040000 -6.960000 -1.040000 127.951088 80.113358 22789.630859
7.040000 -6.960000 -1.000000 63.064560 130.466080 20998.537109
7.040000 -6.960000 -0.960000 -15.209569 122.620995 15267.239258
7.040000 -6.960000 -0.920000 -59.757088 69.467499 8396.642578
7.040000 -6.960000 -0.880000 -53.782700 14.209366 3094.484863
7.040000 -6.960000 -0.840000 -20.700397 -7.633395 486.775208
7.040000 -6.960000 -0.800000 1.426306 4.150332 19.259607
7.040000 -6.920000 -1.200000 25.556620 -18.322392 988.850830
7.040000 -6.920000 -1.160000 59.911060 -24.311068 4180.363281
7.040000 -6.920000 -1.120000 98.700790 7.219730 9793.969727
7.040000 -6.920000 -1.080000 103.797264 70.135307 15692.833984
7.040000 -6.920000 -1.040000 56.995335 125.099884 18898.449219
7.040000 -6.920000 -1.000000 -18.390606 131.645721 17668.810547
7.040000 -6.920000 -0.960000 -74.289574 84.931747 12732.342773
7.040000 -6.920000 -0.920000 -78.977051 21.012924 6678.917480
7.040000 -6.920000 -0.880000 -43.383171 -15.341743 2117.468506
7.040000 -6.920000 -0.840000 -7.877710 -9.448096 151.324844
7.040000 -6.920000 -0.800000 -3.470840 14.570501 224.346237
7.040000 -6.880000 -1.200000 12.118546 4.666349 168.633957
7.040000 -6.880000 -1.160000 38.199478 6.594360 1502.685669
7.040000 -6.880000 -1.120000 56.801579 39.699516 4802.471191
7.040000 -6.880000 -1.080000 39.089897 85.460800 8831.568359
7.040000 -6.880000 -1.040000 -14.264816 105.987335 11436.800781
7.040000 -6.880000 -1.000000 -68.900421 79.785774 11113.037109
7.040000 -6.880000 -0.960000 -86.740517 24.067875 8103.179688
7.040000 -6.880000 -0.920000 -61.100544 -20.120386 4138.106445
7.040000 -6.880000 -0.880000 -21.719902 -25.884146 1141.743164
7.040000 -6.880000 -0.840000 -4.891985 -3.761927 38.083611
7.040000 -6.880000 -0.800000 -19.177557 12.062623 513.285583
7.040000 -6.840000 -1.200000 -13.269373 0.724655 176.601395
7.040000 -6.840000 -1.160000 8.790831 1.966230 81.144760
7.040000 -6.840000 -1.120000 18.452682 27.196224 1080.136108
7.040000 -6.840000 -1.080000 -1.835030 53.428177 2857.937500
7.040000 -6.840000 -1.040000 -40.103752 52.642330 4379.525879
7.040000 -6.840000 -1.000000 -65.167130 20.845009 4681.269531
7.040000 -6.840000 -0.960000 -57.509590 -17.106869 3599.998047
7.040000 -6.840000 -0.920000 -28.378918 -32.374508 1853.471680
7.040000 -6.840000 -0.880000 -7.129345 -20.632023 476.507935
7.040000 -6.840000 -0.840000 -10.653715 -4.424808 133.080566
7.040000 -6.840000 -0.800000 -27.230755 -7.952982 804.763977
7.040000 -6.800000 -1.200000 -20.126966 -26.519403 1108.373535
7.040000 -6.800000 -1.160000 5.310202 -23.676857 588.791809
7.040000 -6.800000 -1.120000 15.296371 -1.597019 236.529449
7.040000 -6.800000 -1.080000 1.540840 16.978668 290.649353
7.040000 -6.800000 -1.040000 -20.718082 14.368187 635.683716
7.040000 -6.800000 -1.000000 -29.932201 -4.802261 918.998413
7.040000 -6.800000 -0.960000 -20.689640 -20.851416 862.842773
7.040000 -6.800000 -0.920000 -7.096813 -21.515118 513.265076
7.040000 -6.800000 -0.880000 -4.702362 -14.279785 226.024475
7.040000 -6.800000 -0.840000 -12.277231 -15.627348 394.944397
7.040000 -6.800000 -0.800000 -13.896447 -30.522976 1124.763306
7.080000 -7.200000 -1.200000 21.228128 13.127047 622.952759
7.080000 -7.200000 -1.160000 14.798794 29.383659 1082.403687
7.080000 -7.200000 -1.120000 -3.211910 34.873425 1226.472168
7.080000 -7.200000 -1.080000 -19.114391 24.884796 984.613037
7.080000 -7.200000 -1.040000 -21.912045 7.879232 542.219971
7.080000 -7.200000 -1.000000 -12.483904 -3.249900 166.409698
7.080000 -7.200000 -0.960000 -0.916985 -2.740368 8.350477
7.080000 -7.200000 -0.920000 3.832225 4.880014 38.500488
7.080000 -7.200000 -0.880000 0.928074 11.410919 131.070404
7.080000 -7.200000 -0.840000 -4.575833 13.041423 191.016953
7.080000 -7.200000 -0.800000 -8.696929 11.664927 211.707092
7.080000 -7.160000 -1.200000 4.281995 28.379902 823.754272
7.080000 -7.160000 -1.160000 -14.937108 35.203621 1462.412109
7.080000 -7.160000 -1.120000 -34.797295 23.154957 1747.003662
7.080000 -7.160000 -1.080000 -39.501614 -0.905447 1561.197266
7.080000 -7.160000 -1.040000 -25.692364 -20.614277 1085.045898
7.080000 -7.160000 -1.000000 -3.865616 -24.384192 609.531799
7.080000 -7.160000 -0.960000 12.024878 -13.419355 324.676788
7.080000 -7.160000 -0.920000 15.467554 2.357458 244.802826
7.080000 -7.160000 -0.880000 9.241598 14.008265 281.638611
7.080000 -7.160000 -0.840000 -0.576340 18.818663 354.474213
7.080000 -7.160000 -0.800000 -10.258499 18.101984 432.918640
7.080000 -7.120000 -1.200000 -22.144081 23.623203 1048.416016
7.080000 -7.120000 -1.160000 -43.240810 11.848848 2010.162842
7.080000 -7.120000 -1.120000 -49.134914 -16.608418 2690.079346
7.080000 -7.120000 -1.080000 -31.022724 -43.137024 2823.212402
7.080000 -7.120000 -1.040000 1.348063 -49.679768 2469.896729
7.080000 -7.120000 -1.000000 28.532604 -32.985695 1902.165527
7.080000 -7.120000 -0.960000 36.910141 -5.028866 1387.648071
7.080000 -7.120000 -0.920000 26.707102 18.326031 1049.112671
7.080000 -7.120000 -0.880000 7.799364 28.460936 870.854919
7.080000 -7.120000 -0.840000 -9.771660 26.238991 783.969971
7.080000 -7.120000 -0.800000 -21.159031 16.875216 732.477478
7.080000 -7.080000 -1.200000 -36.555634 -2.829561 1344.320801
7.080000 -7.080000 -1.160000 -44.030106 -30.163193 2848.468262
7.080000 -7.080000 -1.120000 -25.329805 -60.327686 4281.028809
7.080000 -7.080000 -1.080000 14.065516 -69.904320 5084.452637
7.080000 -7.080000 -1.040000 51.511753 -48.794926 5034.405273
7.080000 -7.080000 -1.000000 65.108780 -8.273361 4307.602051
7.080000 -7.080000 -0.960000 49.693810 28.723904 3294.537109
7.080000 -7.080000 -0.920000 18.072031 44.925289 2344.879883
7.080000 -7.080000 -0.880000 -11.054576 38.708721 1620.568726
7.080000 -7.080000 -0.840000 -26.276058 20.723297 1119.886230
7.080000 -7.080000 -0.800000 -27.705881 3.262391 778.259033
7.080000 -7.040000 -1.200000 -24.299742 -32.565655 1650.999268
7.080000 -7.040000 -1.160000 -10.349461 -60.698082 3791.368408
7.080000 -7.040000 -1.120000 28.194988 -73.417618 6185.104004
7.080000 -7.040000 -1.080000 71.248520 -53.118904 7897.969727
7.080000 -7.040000 -1.040000 90.850128 -5.303791 8281.875977
7.080000 -7.040000 -1.000000 73.307518 44.131897 7321.616699
7.080000 -7.040000 -0.960000 29.635296 68.389771 5555.411133
7.080000 -7.040000 -0.920000 -13.955107 59.026154 3678.832031
7.080000 -7.040000 -0.880000 -36.110291 29.354855 2165.660645
7.080000 -7.040000 -0.840000 -33.835709 1.269101 1146.465820
7.080000 -7.040000 -0.800000 -19.997303 -11.673042 536.152039
7.080000 -7.000000 -1.200000 7.051871 -41.641663 1783.756958
7.080000 -7.000000 -1.160000 35.730972 -55.223145 4326.297852
7.080000 -7.000000 -1.120000 75.841599 -41.536213 7477.205078
7.080000 -7.000000 -1.080000 99.960709 3.425888 10003.879883
7.080000 -7.000000 -1.040000 86.158424 58.339336 10826.751953
7.080000 -7.000000 -1.000000 37.596146 90.926720 9681.138672
7.080000 -7.000000 -0.960000 -18.186886 82.917816 7206.126953
7.080000 -7.000000 -0.920000 -50.258411 43.926819 4455.473633
7.080000 -7.000000 -0.880000 -47.416637 2.404543 2254.119141
7.080000 -7.000000 -0.840000 -23.920261 -17.653961 883.841248
7.080000 -7.000000 -0.800000 -4.414102 -13.857957 211.527267
7.080000 -6.960000 -1.200000 32.265022 -22.835257 1562.480469
7.080000 -6.960000 -1.160000 60.269901 -18.052856 3958.366699
7.080000 -6.960000 -1.120000 83.894722 13.827429 7229.521973
7.080000 -6.960000 -1.080000 78.371658 62.831448 10089.907227
7.080000 -6.960000 -1.040000 36.063232 99.565369 11213.819336
7.080000 -6.960000 -1.000000 -22.752048 97.922928 10106.554688
7.080000 -6.960000 -0.960000 -63.584347 57.820259 7386.151367
7.080000 -6.960000 -0.920000 -65.165932 6.509150 4288.967773
7.080000 -6.960000 -0.880000 -36.063328 -23.721790 1863.286865
7.080000 -6.960000 -0.840000 -5.476355 -21.574804 495.462616
7.080000 -6.960000 -0.800000 2.915251 -3.290884 19.328606
7.080000 -6.920000 -1.200000 31.059954 6.099401 1001.923401
7.080000 -6.920000 -1.160000 47.697407 19.995962 2674.881348
7.080000 -6.920000 -1.120000 50.553829 52.424107 5303.976562
7.080000 -6.920000 -1.080000 23.951101 85.288300 7847.749512
7.080000 -6.920000 -1.040000 -25.070038 91.696838 9036.817383
7.080000 -6.920000 -1.000000 -67.744492 60.580467 8259.308594
7.080000 -6.920000 -0.960000 -76.619644 9.612907 5962.978027
7.080000 -6.920000 -0.920000 -49.797325 -28.046307 3266.369141
7.080000 -6.920000 -0.880000 -12.781935 -32.063599 1191.452148
7.080000 -6.920000 -0.840000 4.684131 -11.738656 159.737137
7.080000 -6.920000 -0.800000 -5.106524 4.632900 47.540344
7.080000 -6.880000 -1.200000 7.817390 18.122084 389.521515
7.080000 -6.880000 -1.160000 15.143886 29.438251 1095.947876
7.080000 -6.880000 -1.120000 7.379301 50.672001 2622.105713
7.080000 -6.880000 -1.080000 -21.628887 62.379189 4358.971680
7.080000 -6.880000 -1.040000 -56.284073 46.905750 5368.046387
7.080000 -6.880000 -1.000000 -70.766441 8.210281 5075.297852
7.080000 -6.880000 -0.960000 -53.437191 -28.489388 3667.178711
7.080000 -6.880000 -0.920000 -19.268587 -39.040199 1895.415649
7.080000 -6.880000 -0.880000 3.557074 -22.989088 541.150940
7.080000 -6.880000 -0.840000 0.335214 -3.438215 11.933693
7.080000 -6.880000 -0.800000 -16.875017 -3.910982 300.061981
7.080000 -6.840000 -1.200000 -11.725960 2.856540 145.657959
7.080000 -6.840000 -1.160000 -4.208275 9.338009 104.907990
7.080000 -6.840000 -1.120000 -10.418051 21.587326 574.548401
7.080000 -6.840000 -1.080000 -29.674780 22.286188 1377.266846
7.080000 -6.840000 -1.040000 -44.888023 3.517719 2027.309082
7.080000 -6.840000 -1.000000 -39.903168 -22.727434 2108.799072
7.080000 -6.840000 -0.960000 -17.381117 -35.706223 1577.037598
7.080000 -6.840000 -0.920000 2.992271 -27.486538 764.463440
7.080000 -6.840000 -0.880000 4.860122 -11.565548 157.382690
7.080000 -6.840000 -0.840000 -7.447903 -8.619261 129.762909
7.080000 -6.840000 -0.800000 -13.458908 -24.324970 772.846375
7.080000 -6.800000 -1.200000 -5.155561 -22.565840 535.796936
7.080000 -6.800000 -1.160000 6.736389 -13.024511 215.016830
7.080000 -6.800000 -1.120000 3.906008 -0.309870 15.352917
7.080000 -6.800000 -1.080000 -7.820969 1.172077 62.541313
7.080000 -6.800000 -1.040000 -13.537563 -9.509636 273.698792
7.080000 -6.800000 -1.000000 -6.537128 -19.757418 433.089600
7.080000 -6.800000 -0.960000 4.548058 -18.937630 379.318634
7.080000 -6.800000 -0.920000 6.931265 -11.148495 172.331360
7.080000 -6.800000 -0.880000 -0.074570 -10.136080 102.745674
7.080000 -6.800000 -0.840000 -3.022174 -22.040806 494.930664
7.080000 -6.800000 -0.800000 10.377037 -36.150166 1414.517334
7.120000 -7.200000 -1.200000 -2.225113 21.070900 448.933960
7.120000 -7.200000 -1.160000 -16.864378 25.431183 931.152344
7.120000 -7.200000 -1.120000 -30.126556 14.755863 1125.344849
7.120000 -7.200000 -1.080000 -29.677532 -2.650241 887.779724
7.120000 -7.200000 -1.040000 -16.445389 -12.128977 417.562866
7.120000 -7.200000 -1.000000 -3.167048 -7.239703 62.443493
7.120000 -7.200000 -0.960000 -1.288617 4.622721 23.030079
7.120000 -7.200000 -0.920000 -10.146548 10.695929 217.355316
7.120000 -7.200000 -0.880000 -19.151386 5.775465 400.131592
7.120000 -7.200000 -0.840000 -19.567900 -3.848614 397.714539
7.120000 -7.200000 -0.800000 -12.912409 -8.549707 239.827789
7.120000 -7.160000 -1.200000 -17.886251 17.087908 611.914551
7.120000 -7.160000 -1.160000 -34.209480 10.008220 1270.453003
7.120000 -7.160000 -1.120000 -38.333401 -10.260731 1574.732178
7.120000 -7.160000 -1.080000 -24.230860 -27.250324 1329.714844
7.120000 -7.160000 -1.040000 -2.591806 -27.430145 759.130310
7.120000 -7.160000 -1.000000 10.173557 -12.550897 261.026276
7.120000 -7.160000 -0.960000 7.274785 3.708344 66.674316
7.120000 -7.160000 -0.920000 -4.185986 9.778440 113.140373
7.120000 -7.160000 -0.880000 -12.661957 5.804179 194.013641
7.120000 -7.160000 -0.840000 -13.815784 0.115853 190.889297
7.120000 -7.160000 -0.800000 -12.283388 -1.510662 153.163727
7.120000 -7.120000 -1.200000 -27.098053 0.088366 734.312317
7.120000 -7.120000 -1.160000 -34.989677 -17.441500 1528.483398
7.120000 -7.120000 -1.120000 -23.482046 -37.959793 1992.352417
7.120000 -7.120000 -1.080000 2.216531 -43.169708 1868.536621
7.120000 -7.120000 -1.040000 24.027122 -27.457188 1331.199707
7.120000 -7.120000 -1.000000 27.633635 -2.142361 768.207458
7.120000 -7.120000 -0.960000 13.949523 15.907578 447.640259
7.120000 -7.120000 -0.920000 -4.472846 18.722164 370.525787
7.120000 -7.120000 -0.880000 -16.239235 10.987240 384.432190
7.120000 -7.120000 -0.840000 -19.447287 1.978855 382.112823
7.120000 -7.120000 -0.800000 -18.990347 -3.864889 375.570648
7.120000 -7.080000 -1.200000 -19.781836 -20.837305 825.514282
7.120000 -7.080000 -1.160000 -13.049635 -39.272099 1712.590698
7.120000 -7.080000 -1.120000 10.804811 -47.575237 2380.147217
7.120000 -7.080000 -1.080000 36.726326 -33.968658 2502.692871
7.120000 -7.080000 -1.040000 46.044708 -4.168699 2137.493408
7.120000 -7.080000 -1.000000 32.289009 23.643715 1601.605347
7.120000 -7.080000 -0.960000 5.317095 34.018513 1185.530640
7.120000 -7.080000 -0.920000 -18.326876 25.174360 969.622803
7.120000 -7.080000 -0.880000 -28.421980 7.222811 859.977966
7.120000 -7.080000 -0.840000 -26.069714 -8.137208 745.844116
7.120000 -7.080000 -0.800000 -18.786798 -15.907944 606.006470
7.120000 -7.040000 -1.200000 2.764378 -30.192150 919.207703
7.120000 -7.040000 -1.160000 20.240801 -37.991592 1853.051147
7.120000 -7.040000 -1.120000 43.872299 -28.026047 2710.238037
7.120000 -7.040000 -1.080000 55.817474 0.262237 3115.659180
7.120000 -7.040000 -1.040000 44.261322 32.087646 2988.681641
7.120000 -7.040000 -1.000000 13.485769 48.503365 2534.442383
7.120000 -7.040000 -0.960000 -19.374756 40.751160 2036.038086
7.120000 -7.040000 -0.920000 -37.338333 15.834980 1644.897705
7.120000 -7.040000 -0.880000 -35.069660 -10.172641 1333.363770
7.120000 -7.040000 -0.840000 -20.368958 -24.347904 1007.714844
7.120000 -7.040000 -0.800000 -6.163018 -24.737457 649.924561
7.120000 -7.000000 -1.200000 25.832834 -18.822979 1021.639893
7.120000 -7.000000 -1.160000 42.337147 -11.857786 1933.041016
7.120000 -7.000000 -1.120000 52.592899 10.477663 2875.794434
7.120000 -7.000000 -1.080000 43.860512 39.364471 3473.306152
7.120000 -7.000000 -1.040000 14.932147 57.600590 3540.796875
7.120000 -7.000000 -1.000000 -20.897139 52.274780 3169.343018
7.120000 -7.000000 -0.960000 -44.457417 25.051617 2604.045410
7.120000 -7.000000 -0.920000 -44.380898 -8.458632 2041.212524
7.120000 -7.000000 -0.880000 -24.992104 -29.955765 1521.953125
7.120000 -7.000000 -0.840000 -2.239536 -31.509792 997.882507
7.120000 -7.000000 -0.800000 8.928248 -20.191631 487.415588
7.120000 -6.960000 -1.200000 32.037045 6.205594 1064.881592
7.120000 -6.960000 -1.160000 37.520756 21.226120 1858.355225
7.120000 -6.960000 -1.120000 30.685072 42.260986 2727.564697
7.120000 -6.960000 -1.080000 7.485974 57.385517 3349.137451
7.120000 -6.960000 -1.040000 -24.396366 53.903236 3500.741455
7.120000 -6.960000 -1.000000 -48.469067 28.992348 3189.806641
7.120000 -6.960000 -0.960000 -50.704903 -5.862329 2605.354004
7.120000 -6.960000 -0.920000 -30.707600 -31.744751 1950.685791
7.120000 -6.960000 -0.880000 -2.924736 -36.167343 1316.630737
7.120000 -6.960000 -0.840000 14.212094 -22.666740 715.764771
7.120000 -6.960000 -0.800000 12.853387 -7.565741 222.449982
7.120000 -6.920000 -1.200000 16.936657 25.510101 937.615601
7.120000 -6.920000 -1.160000 11.182339 37.402859 1524.018555
7.120000 -6.920000 -1.120000 -4.843817 46.553131 2190.656738
7.120000 -6.920000 -1.080000 -28.254414 43.595070 2698.842041
7.120000 -6.920000 -1.040000 -47.769554 23.743975 2845.706787
7.120000 -6.920000 -1.000000 -50.510780 -6.522422 2593.880859
7.120000 -6.920000 -0.960000 -32.815948 -31.528931 2070.959961
7.120000 -6.920000 -0.920000 -5.199121 -37.689922 1447.561157
7.120000 -6.920000 -0.880000 14.655170 -24.948818 837.217529
7.120000 -6.920000 -0.840000 16.185570 -7.535690 318.759277
7.120000 -6.920000 -0.800000 5.005899 -2.035069 29.200537
7.120000 -6.880000 -1.200000 -5.281522 23.966263 602.276245
7.120000 -6.880000 -1.160000 -13.910140 27.405611 944.559509
7.120000 -6.880000 -1.120000 -27.494453 24.902439 1376.076416
7.120000 -6.880000 -1.080000 -40.101597 11.415541 1738.452637
7.120000 -6.880000 -1.040000 -41.842648 -10.790846 1867.249512
7.120000 -6.880000 -1.000000 -27.677368 -30.623165 1703.814941
7.120000 -6.880000 -0.960000 -4.158357 -35.983818 1312.127075
7.120000 -6.880000 -0.920000 14.052191 -24.846237 814.799561
7.120000 -6.880000 -0.880000 16.481565 -8.454020 343.112427
7.120000 -6.880000 -0.840000 6.748264 -2.011086 49.583534
7.120000 -6.880000 -0.800000 -0.219376 -10.657496 113.630356
7.120000 -6.840000 -1.200000 -13.502977 5.417466 211.679337
7.120000 -6.840000 -1.160000 -17.628548 4.967358 335.440338
7.120000 -6.840000 -1.120000 -23.898306 -0.793215 571.758240
7.120000 -6.840000 -1.080000 -25.388367 -13.609760 829.794739
7.120000 -6.840000 -1.040000 -15.927204 -26.912495 977.958191
7.120000 -6.840000 -1.000000 1.627069 -30.428350 928.531860
7.120000 -6.840000 -0.960000 15.770719 -20.772158 680.198120
7.120000 -6.840000 -0.920000 16.863911 -6.652981 328.653625
7.120000 -6.840000 -0.880000 7.601763 -1.556903 60.210743
7.120000 -6.840000 -0.840000 1.668079 -10.172750 106.267319
7.120000 -6.840000 -0.800000 10.577859 -22.521624 619.114624
7.120000 -6.800000 -1.200000 0.484834 -9.476789 90.044601
7.120000 -6.800000 -1.160000 -0.841992 -5.889051 35.389877
7.120000 -6.800000 -1.120000 -4.500430 -8.460230 91.829361
7.120000 -6.800000 -1.080000 -2.271922 -15.918213 258.551117
7.120000 -6.800000 -1.040000 7.972702 -19.343616 437.739471
7.120000 -6.800000 -1.000000 18.124039 -12.589280 486.970764
7.120000 -6.800000 -0.960000 18.228395 -0.946438 333.170166
7.120000 -6.800000 -0.920000 8.802225 3.098036 87.076988
7.120000 -6.800000 -0.880000 2.505681 -6.138562 43.960377
7.120000 -6.800000 -0.840000 11.500250 -19.176258 499.984619
7.120000 -6.800000 -0.800000 33.247089 -19.196146 1473.860962
7.160000 -7.200000 -1.200000 -18.777489 6.893176 400.109955
7.160000 -7.200000 -1.160000 -27.914146 -0.658114 779.632690
7.160000 -7.200000 -1.120000 -25.818266 -14.700579 882.689819
7.160000 -7.200000 -1.080000 -11.963620 -21.342701 598.639099
7.160000 -7.200000 -1.040000 1.173744 -13.367256 180.061203
7.160000 -7.200000 -1.000000 0.864186 1.532242 3.094583
7.160000 -7.200000 -0.960000 -12.431755 8.159487 221.125763
7.160000 -7.200000 -0.920000 -25.181614 -0.707600 634.614380
7.160000 -7.200000 -0.880000 -24.408638 -17.007648 885.041748
7.160000 -7.200000 -0.840000 -10.550014 -25.743422 774.026550
7.160000 -7.200000 -0.800000 3.611938 -19.989017 412.606934
7.160000 -7.160000 -1.200000 -20.073570 -5.234669 430.349976
7.160000 -7.160000 -1.160000 -24.262173 -17.077240 880.285156
7.160000 -7.160000 -1.120000 -13.968599 -29.022564 1037.430908
7.160000 -7.160000 -1.080000 3.764960 -27.227358 755.503967
7.160000 -7.160000 -1.040000 13.020258 -11.358219 298.536255
7.160000 -7.160000 -1.000000 5.643629 4.694900 53.892632
7.160000 -7.160000 -0.960000 -10.432846 7.067088 158.788010
7.160000 -7.160000 -0.920000 -19.719597 -4.250823 406.931976
7.160000 -7.160000 -0.880000 -14.989137 -16.433346 494.729065
7.160000 -7.160000 -0.840000 -3.581575 -17.815212 330.209473
7.160000 -7.160000 -0.800000 1.746255 -9.455721 92.460068
7.160000 -7.120000 -1.200000 -12.232729 -16.003616 405.755371
7.160000 -7.120000 -1.160000 -9.001684 -27.164471 818.938782
7.160000 -7.120000 -1.120000 6.102496 -30.855038 989.273804
7.160000 -7.120000 -1.080000 20.316408 -19.096146 777.419189
7.160000 -7.120000 -1.040000 20.114786 0.684619 405.073303
7.160000 -7.120000 -1.000000 4.970048 12.987776 193.383698
7.160000 -7.120000 -0.960000 -12.515741 9.447076 245.891022
7.160000 -7.120000 -0.920000 -19.421488 -3.974386 392.989929
7.160000 -7.120000 -0.880000 -14.326349 -14.446310 413.940155
7.160000 -7.120000 -0.840000 -6.431221 -15.326464 276.261108
7.160000 -7.120000 -0.800000 -4.460954 -11.047821 141.954468
7.160000 -7.080000 -1.200000 2.194397 -18.917965 362.704773
7.160000 -7.080000 -1.160000 10.206265 -23.499706 656.404053
7.160000 -7.080000 -1.120000 22.373890 -17.234243 797.610107
7.160000 -7.080000 -1.080000 26.211067 -0.433590 687.208008
7.160000 -7.080000 -1.040000 15.266090 15.586149 475.981567
7.160000 -7.080000 -1.000000 -4.476253 19.018278 381.731750
7.160000 -7.080000 -0.960000 -20.177748 8.045589 471.873016
7.160000 -7.080000 -0.920000 -23.427597 -8.575521 622.391846
7.160000 -7.080000 -0.880000 -16.141682 -20.156467 666.837036
7.160000 -7.080000 -0.840000 -6.679846 -22.743000 561.864441
7.160000 -7.080000 -0.800000 -1.495278 -20.129299 407.424561
7.160000 -7.040000 -1.200000 16.044668 -10.464229 366.931458
7.160000 -7.040000 -1.160000 21.918846 -6.596119 523.944580
7.160000 -7.040000 -1.120000 24.224024 4.535871 607.377441
7.160000 -7.040000 -1.080000 16.518499 17.358437 574.176147
7.160000 -7.040000 -1.040000 -0.268662 22.651291 513.153198
7.160000 -7.040000 -1.000000 -17.873615 15.147440 548.911072
7.160000 -7.040000 -0.960000 -26.743761 -2.207448 720.101562
7.160000 -7.040000 -0.920000 -22.772570 -20.444401 936.563416
7.160000 -7.040000 -0.880000 -9.649915 -30.865452 1045.796997
7.160000 -7.040000 -0.840000 4.290645 -30.499702 948.641479
7.160000 -7.040000 -0.800000 11.873691 -23.244436 681.288330
7.160000 -7.000000 -1.200000 20.691221 6.394022 469.010162
7.160000 -7.000000 -1.160000 18.269239 14.250296 536.836060
7.160000 -7.000000 -1.120000 9.950936 21.328342 553.919312
7.160000 -7.000000 -1.080000 -3.312274 22.900364 535.397827
7.160000 -7.000000 -1.040000 -17.096535 15.851947 543.575745
7.160000 -7.000000 -1.000000 -25.401100 0.756669 645.788452
7.160000 -7.000000 -0.960000 -23.494343 -17.577208 860.942383
7.160000 -7.000000 -0.920000 -10.917386 -31.597122 1117.567383
7.160000 -7.000000 -0.880000 6.935050 -34.855209 1262.980591
7.160000 -7.000000 -0.840000 20.936600 -26.716364 1152.105347
7.160000 -7.000000 -0.800000 24.207630 -14.045551 783.286865
7.160000 -6.960000 -1.200000 12.064068 22.223469 639.424316
7.160000 -6.960000 -1.160000 1.032129 26.377743 696.850647
7.160000 -6.960000 -1.120000 -11.704891 23.023613 667.091187
7.160000 -6.960000 -1.080000 -21.194889 12.722446 611.083984
7.160000 -6.960000 -1.040000 -24.426495 -1.552990 599.065430
7.160000 -6.960000 -1.000000 -20.232386 -16.362965 677.096069
7.160000 -6.960000 -0.960000 -8.649162 -27.817802 848.638123
7.160000 -6.960000 -0.920000 7.854713 -31.470634 1052.097290
7.160000 -6.960000 -0.880000 23.105831 -24.875145 1152.652344
7.160000 -6.960000 -0.840000 29.705259 -11.445941 1013.411987
7.160000 -6.960000 -0.800000 25.294210 -0.273407 639.871826
7.160000 -6.920000 -1.200000 -4.722660 26.929146 747.482422
7.160000 -6.920000 -1.160000 -18.651882 22.681759 862.354858
7.160000 -6.920000 -1.120000 -27.413013 9.477879 841.303528
7.160000 -6.920000 -1.080000 -26.680029 -6.661719 756.202393
7.160000 -6.920000 -1.040000 -17.608913 -19.493650 690.076233
7.160000 -6.920000 -1.000000 -4.088462 -25.873493 686.153137
7.160000 -6.920000 -0.960000 10.133373 -25.214191 738.440674
7.160000 -6.920000 -0.920000 21.629078 -18.106094 795.647705
7.160000 -6.920000 -0.880000 26.925074 -6.998986 773.945435
7.160000 -6.920000 -0.840000 24.557274 2.846470 611.162109
7.160000 -6.920000 -0.800000 18.136841 5.792839 362.501984
7.160000 -6.880000 -1.200000 -17.653214 18.237703 644.249756
7.160000 -6.880000 -1.160000 -28.018669 7.441576 840.422913
7.160000 -6.880000 -1.120000 -28.547539 -9.475626 904.749451
7.160000 -6.880000 -1.080000 -17.664932 -23.594593 868.754639
7.160000 -6.880000 -1.040000 -0.742290 -28.164116 793.768433
7.160000 -6.880000 -1.000000 14.352895 -22.533192 713.750305
7.160000 -6.880000 -0.960000 22.254650 -11.247843 621.783386
7.160000 -6.880000 -0.920000 22.309799 -0.474898 497.952667
7.160000 -6.880000 -0.880000 17.837559 5.313294 346.409576
7.160000 -6.880000 -0.840000 14.031700 5.191004 223.835144
7.160000 -6.880000 -0.800000 15.238712 2.222829 237.159317
7.160000 -6.840000 -1.200000 -17.316931 5.194851 326.862579
7.160000 -6.840000 -1.160000 -22.723021 -6.473639 558.243713
7.160000 -6.840000 -1.120000 -17.125114 -21.300068 746.962402
7.160000 -6.840000 -1.080000 -0.998255 -29.212240 854.351501
7.160000 -6.840000 -1.040000 16.939636 -24.062929 865.975830
7.160000 -6.840000 -1.000000 26.181822 -9.035389 767.126038
7.160000 -6.840000 -0.960000 22.846375 5.540492 552.653931
7.160000 -6.840000 -0.920000 12.867889 10.491571 275.655640
7.160000 -6.840000 -0.880000 6.979984 5.342557 77.263092
7.160000 -6.840000 -0.840000 11.603642 -1.434457 136.702179
7.160000 -6.840000 -0.800000 23.371563 0.261290 546.298279
7.160000 -6.800000 -1.200000 -6.136277 1.496508 39.893433
7.160000 -6.800000 -1.160000 -10.782069 -7.995742 180.184906
7.160000 -6.800000 -1.120000 -3.820296 -20.079363 417.775482
7.160000 -6.800000 -1.080000 12.946145 -22.801847 687.526917
7.160000 -6.800000 -1.040000 27.357449 -10.937046 868.048950
7.160000 -6.800000 -1.000000 27.789690 7.442297 827.654602
7.160000 -6.800000 -0.960000 15.078106 17.513329 534.065918
7.160000 -6.800000 -0.920000 2.845923 12.097269 154.443192
7.160000 -6.800000 -0.880000 4.656569 -0.422876 21.862453
7.160000 -6.800000 -0.840000 20.140005 -3.485786 417.770508
7.160000 -6.800000 -0.800000 34.294315 11.438537 1306.940186
7.200000 -7.200000 -1.200000 -14.515942 -12.380355 363.985748
7.200000 -7.200000 -1.160000 -11.545245 -20.542645 555.292908
7.200000 -7.200000 -1.120000 0.217193 -23.048662 531.288025
7.200000 -7.200000 -1.080000 10.714373 -13.069276 285.603760
7.200000 -7.200000 -1.040000 7.966250 2.909331 71.925354
7.200000 -7.200000 -1.000000 -8.291197 9.809592 164.972046
7.200000 -7.200000 -0.960000 -24.173328 -0.958120 585.267761
7.200000 -7.200000 -0.920000 -24.236015 -21.664356 1056.728760
7.200000 -7.200000 -0.880000 -6.733078 -34.549351 1238.991943
7.200000 -7.200000 -0.840000 14.145014 -28.508200 1012.798889
7.200000 -7.200000 -0.800000 21.657635 -9.461745 558.577759
7.200000 -7.160000 -1.200000 -3.595393 -17.356001 314.157623
7.200000 -7.160000 -1.160000 1.535599 -21.795528 477.403107
7.200000 -7.160000 -1.120000 12.058542 -18.250202 478.478333
7.200000 -7.160000 -1.080000 16.362507 -4.399554 287.087708
7.200000 -7.160000 -1.040000 6.394881 9.133900 124.322624
7.200000 -7.160000 -1.000000 -11.755996 8.890807 217.249878
7.200000 -7.160000 -0.960000 -22.253990 -6.712557 540.298523
7.200000 -7.160000 -0.920000 -15.155914 -24.301371 820.258362
7.200000 -7.160000 -0.880000 3.112849 -28.143082 801.722839
7.200000 -7.160000 -0.840000 15.835423 -15.640436 495.383881
7.200000 -7.160000 -0.800000 12.501175 0.497005 156.526382
7.200000 -7.120000 -1.200000 7.221189 -12.988228 220.839630
7.200000 -7.120000 -1.160000 11.030885 -13.041214 291.753662
7.200000 -7.120000 -1.120000 15.738213 -5.975833 283.401917
7.200000 -7.120000 -1.080000 12.104426 5.842251 180.649033
7.200000 -7.120000 -1.040000 -1.836556 11.715549 140.627045
7.200000 -7.120000 -1.000000 -16.606550 4.031588 292.031189
7.200000 -7.120000 -0.960000 -19.952887 -12.581692 556.416626
7.200000 -7.120000 -0.920000 -9.339692 -24.776031 701.081604
7.200000 -7.120000 -0.880000 5.184582 -23.380230 573.515015
7.200000 -7.120000 -0.840000 10.931756 -12.145000 267.004333
7.200000 -7.120000 -0.800000 4.885399 -3.243724 34.388866
7.200000 -7.080000 -1.200000 12.074562 -2.654229 152.839981
7.200000 -7.080000 -1.160000 11.257035 -0.428208 126.904205
7.200000 -7.080000 -1.120000 8.738842 4.578296 97.328156
7.200000 -7.080000 -1.080000 0.676679 8.596210 74.352730
7.200000 -7.080000 -1.040000 -10.633047 5.526085 143.599304
7.200000 -7.080000 -1.000000 -17.687775 -5.880734 347.440399
7.200000 -7.080000 -0.960000 -14.797309 -19.469646 598.027466
7.200000 -7.080000 -0.920000 -3.848364 -26.744911 730.100220
7.200000 -7.080000 -0.880000 7.241382 -24.384911 647.061462
7.200000 -7.080000 -0.840000 11.640114 -16.710068 414.718628
7.200000 -7.080000 -0.800000 9.100384 -11.023689 204.338715
7.200000 -7.040000 -1.200000 9.477209 8.170048 156.567169
7.200000 -7.040000 -1.160000 3.059995 8.576359 82.917503
7.200000 -7.040000 -1.120000 -3.422101 6.416108 52.877216
7.200000 -7.040000 -1.080000 -9.020933 1.247667 82.933907
7.200000 -7.040000 -1.040000 -12.050074 -6.754761 190.831055
7.200000 -7.040000 -1.000000 -10.794271 -16.127026 376.597260
7.200000 -7.040000 -0.960000 -4.600181 -24.191280 606.379700
7.200000 -7.040000 -0.920000 5.237963 -27.951355 808.714539
7.200000 -7.040000 -0.880000 15.387858 -25.665297 895.493652
7.200000 -7.040000 -0.840000 21.713930 -18.359041 808.549133
7.200000 -7.040000 -0.800000 21.742580 -10.043848 573.618713
7.200000 -7.000000 -1.200000 1.424880 15.281380 235.550858
7.200000 -7.000000 -1.160000 -8.323565 10.171642 172.744049
7.200000 -7.000000 -1.120000 -12.826365 -0.300781 164.606094
7.200000 -7.000000 -1.080000 -10.344745 -10.668400 220.828491
7.200000 -7.000000 -1.040000 -4.053402 -17.004318 305.576904
7.200000 -7.000000 -1.000000 2.244228 -19.992241 404.726257
7.200000 -7.000000 -0.960000 8.377541 -22.190144 562.585632
7.200000 -7.000000 -0.920000 16.616516 -23.212013 814.906128
7.200000 -7.000000 -0.880000 26.539986 -19.430357 1081.909668
7.200000 -7.000000 -0.840000 32.943489 -9.244438 1170.733032
7.200000 -7.000000 -0.800000 30.627174 2.499725 944.272461
7.200000 -6.960000 -1.200000 -8.634644 16.781340 356.170441
7.200000 -6.960000 -1.160000 -17.616596 5.213542 337.525452
7.200000 -6.960000 -1.120000 -15.541967 -10.278839 347.207275
7.200000 -6.960000 -1.080000 -4.063889 -19.644096 402.405731
7.200000 -6.960000 -1.040000 8.068569 -19.510756 445.771393
7.200000 -6.960000 -1.000000 14.825315 -15.150111 449.315857
7.200000 -6.960000 -0.960000 18.375298 -12.648800 497.643677
7.200000 -6.960000 -0.920000 24.083759 -11.233307 706.214661
7.200000 -6.960000 -0.880000 31.784000 -5.276592 1038.065063
7.200000 -6.960000 -0.840000 34.723770 6.704703 1250.693237
7.200000 -6.960000 -0.800000 28.068928 17.690271 1100.810425
7.200000 -6.920000 -1.200000 -17.017597 12.966820 457.737000
7.200000 -6.920000 -1.160000 -22.133022 -2.957591 498.618011
7.200000 -6.920000 -1.120000 -12.847058 -18.680893 514.022705
7.200000 -6.920000 -1.080000 4.482928 -22.943329 546.492981
7.200000 -6.920000 -1.040000 17.831682 -15.482739 557.684143
7.200000 -6.920000 -1.000000 21.845308 -5.338881 505.721161
7.200000 -6.920000 -0.960000 21.288519 0.255859 453.266510
7.200000 -6.920000 -0.920000 22.888237 2.970628 532.696045
7.200000 -6.920000 -0.880000 26.386703 8.773730 773.236450
7.200000 -6.920000 -0.840000 25.704813 18.416950 999.921509
7.200000 -6.920000 -0.800000 18.170635 25.432558 976.987000
7.200000 -6.880000 -1.200000 -20.823181 6.454338 475.263336
7.200000 -6.880000 -1.160000 -21.801064 -10.868080 593.401550
7.200000 -6.880000 -1.120000 -7.692106 -24.089420 639.468689
7.200000 -6.880000 -1.080000 11.863234 -22.843475 662.560669
7.200000 -6.880000 -1.040000 23.770397 -9.614376 657.468018
7.200000 -6.880000 -1.000000 23.709881 4.470846 582.146912
7.200000 -6.880000 -0.960000 17.941883 11.441287 452.814209
7.200000 -6.880000 -0.920000 14.523394 12.763428 373.834045
7.200000 -6.880000 -0.880000 14.902157 14.684994 437.723328
7.200000 -6.880000 -0.840000 14.696543 19.831720 609.285522
7.200000 -6.880000 -0.800000 10.824613 25.132107 748.795044
7.200000 -6.840000 -1.200000 -19.786366 1.631289 394.161377
7.200000 -6.840000 -1.160000 -18.335798 -15.942326 590.359253
7.200000 -6.840000 -1.120000 -1.596525 -26.948284 728.758911
7.200000 -6.840000 -1.080000 18.831701 -21.448914 814.688843
7.200000 -6.840000 -1.040000 28.633448 -3.542741 832.425354
7.200000 -6.840000 -1.000000 23.567980 13.389185 734.719910
7.200000 -6.840000 -0.960000 11.761720 19.425932 515.704834
7.200000 -6.840000 -0.920000 4.551222 16.023388 277.462585
7.200000 -6.840000 -0.880000 5.912041 12.443420 189.790939
7.200000 -6.840000 -0.840000 10.404896 15.795031 357.744843
7.200000 -6.840000 -0.800000 10.006922 24.957113 722.995972
7.200000 -6.800000 -1.200000 -17.645710 1.945463 315.155914
7.200000 -6.800000 -1.160000 -14.742462 -17.181572 512.546631
7.200000 -6.800000 -1.120000 4.839754 -27.121269 758.986450
7.200000 -6.800000 -1.080000 26.484854 -17.356087 1002.681152
7.200000 -6.800000 -1.040000 33.242863 5.492675 1135.257324
7.200000 -6.800000 -1.000000 21.553646 23.842249 1033.012451
7.200000 -6.800000 -0.960000 3.971350 25.748358 678.749512
7.200000 -6.800000 -0.920000 -3.574156 15.610555 256.464020
7.200000 -6.800000 -0.880000 2.804162 8.703600 83.615982
7.200000 -6.800000 -0.840000 11.973436 15.458621 382.332153
7.200000 -6.800000 -0.800000 9.588356 31.213251 1066.203613
