#kx 	ky 	kz 	real 	imag 	intensity
0.800000 0.800000 -7.200000 -28.121216 -13.370293 969.567505
0.800000 0.800000 -7.160000 -10.505264 -36.192131 1420.230957
0.800000 0.800000 -7.120000 18.905525 -35.056747 1586.394531
0.800000 0.800000 -7.080000 35.103718 -11.301433 1359.993408
0.800000 0.800000 -7.040000 26.350941 14.042860 891.573975
0.800000 0.800000 -7.000000 3.467406 21.080427 456.407318
0.800000 0.800000 -6.960000 -12.854591 8.572960 238.736176
0.800000 0.800000 -6.920000 -12.130609 -8.359909 217.039734
0.800000 0.800000 -6.880000 -1.125444 -15.430414 239.364319
0.800000 0.800000 -6.840000 7.028228 -12.133624 196.620819
0.800000 0.800000 -6.800000 7.655295 -8.148732 125.005371
0.800000 0.840000 -7.200000 -10.877199 -28.801800 947.857117
0.800000 0.840000 -7.160000 15.012312 -37.034245 1596.904785
0.800000 0.840000 -7.120000 37.676815 -21.989559 1903.083008
0.800000 0.840000 -7.080000 40.201427 3.425887 1627.891479
0.800000 0.840000 -7.040000 24.076271 19.013103 941.164917
0.800000 0.840000 -7.000000 5.798127 15.772751 282.397949
0.800000 0.840000 -6.960000 0.211478 1.972654 3.936088
0.800000 0.840000 -6.920000 7.900908 -7.431843 117.656631
0.800000 0.840000 -6.880000 18.005846 -5.572834 355.266968
0.800000 0.840000 -6.840000 21.161295 2.219093 452.724792
0.800000 0.840000 -6.800000 18.091461 7.094421 377.631775
0.800000 0.880000 -7.200000 9.656097 -24.069668 672.589172
0.800000 0.880000 -7.160000 30.952545 -17.738186 1272.703369
0.800000 0.880000 -7.120000 40.106926 1.848141 1611.981201
0.800000 0.880000 -7.080000 32.477676 19.615253 1439.557617
0.800000 0.880000 -7.040000 17.463255 24.134529 887.440796
0.800000 0.880000 -7.000000 8.515200 16.993078 361.273346
0.800000 0.880000 -6.960000 10.727829 9.231520 200.307266
0.800000 0.880000 -6.920000 17.928734 9.678360 415.110138
0.800000 0.880000 -6.880000 20.671778 17.353926 728.481140
0.800000 0.880000 -6.840000 15.822114 24.528481 851.985657
0.800000 0.880000 -6.800000 8.163832 25.695240 726.893494
0.800000 0.920000 -7.200000 15.983844 -6.900123 303.094971
0.800000 0.920000 -7.160000 25.812675 4.822387 689.549622
0.800000 0.920000 -7.120000 24.293880 18.997038 951.080078
0.800000 0.920000 -7.080000 14.896135 26.230206 909.918518
0.800000 0.920000 -7.040000 6.730543 24.544128 647.714478
0.800000 0.920000 -7.000000 5.614960 20.198547 439.509094
0.800000 0.920000 -6.960000 9.075077 20.661367 509.249115
0.800000 0.920000 -6.920000 9.791203 27.151360 833.063965
0.800000 0.920000 -6.880000 3.381251 33.968147 1165.267944
0.800000 0.920000 -6.840000 -7.418290 34.616306 1253.319702
0.800000 0.920000 -6.800000 -15.852682 28.103201 1041.097412
0.800000 0.960000 -7.200000 6.047073 5.110227 62.681503
0.800000 0.960000 -7.160000 7.254973 13.146885 225.475204
0.800000 0.960000 -7.120000 2.932539 18.782387 361.377838
0.800000 0.960000 -7.080000 -2.195010 19.171474 372.363525
0.800000 0.960000 -7.040000 -3.485785 17.060759 303.220184
0.800000 0.960000 -7.000000 -1.358507 17.847164 320.366821
0.800000 0.960000 -6.960000 -1.137784 23.648737 560.557312
0.800000 0.960000 -6.920000 -7.645400 30.411402 983.305481
0.800000 0.960000 -6.880000 -19.848852 31.244873 1370.218994
0.800000 0.960000 -6.840000 -30.949640 22.899689 1482.276001
0.800000 0.960000 -6.800000 -34.047775 9.122165 1242.464844
0.800000 1.000000 -7.200000 -7.165162 2.377671 56.992867
0.800000 1.000000 -7.160000 -7.627724 4.837876 81.587212
0.800000 1.000000 -7.120000 -9.614551 5.219660 119.684433
0.800000 1.000000 -7.080000 -9.873610 3.465956 109.501030
0.800000 1.000000 -7.040000 -6.963568 3.167555 58.524681
0.800000 1.000000 -7.000000 -4.211700 7.762163 77.989601
0.800000 1.000000 -6.960000 -7.327296 15.599366 297.029480
0.800000 1.000000 -6.920000 -18.228876 19.739872 721.954468
0.800000 1.000000 -6.880000 -31.452766 13.772874 1178.968506
0.800000 1.000000 -6.840000 -37.600334 -1.520009 1416.095581
0.800000 1.000000 -6.800000 -31.296356 -17.565109 1287.994995
0.800000 1.040000 -7.200000 -10.522047 -8.970351 191.180664
0.800000 1.040000 -7.160000 -9.499952 -8.374586 160.382782
0.800000 1.040000 -7.120000 -9.375675 -9.744434 182.857285
0.800000 1.040000 -7.080000 -6.310009 -12.291976 190.908875
0.800000 1.040000 -7.040000 0.011667 -11.047740 122.052696
0.800000 1.040000 -7.000000 3.817046 -3.172506 24.634634
0.800000 1.040000 -6.960000 -1.417648 6.592642 45.472652
0.800000 1.040000 -6.920000 -14.818705 8.590250 293.386414
0.800000 1.040000 -6.880000 -26.483658 -2.359522 706.951477
0.800000 1.040000 -6.840000 -25.521389 -20.375408 1066.498535
0.800000 1.040000 -6.800000 -10.456205 -32.316620 1153.696167
0.800000 1.080000 -7.200000 -3.600492 -16.058718 270.845947
0.800000 1.080000 -7.160000 -3.345304 -14.976781 235.495026
0.800000 1.080000 -7.120000 -2.532891 -18.530930 349.810883
0.800000 1.080000 -7.080000 4.706511 -22.296495 519.284973
0.800000 1.080000 -7.040000 15.745686 -17.960096 570.491699
0.800000 1.080000 -7.000000 20.240597 -4.268028 427.897827
0.800000 1.080000 -6.960000 11.213869 8.831512 203.746475
0.800000 1.080000 -6.920000 -5.581848 8.871042 109.852409
0.800000 1.080000 -6.880000 -15.248060 -5.880987 267.089355
0.800000 1.080000 -6.840000 -7.810626 -23.005322 590.250671
0.800000 1.080000 -6.800000 11.447553 -26.897987 854.548157
0.800000 1.120000 -7.200000 3.324254 -13.733284 199.653748
0.800000 1.120000 -7.160000 0.593149 -14.919884 222.954758
0.800000 1.120000 -7.120000 4.273687 -22.499987 524.513794
0.800000 1.120000 -7.080000 18.466995 -25.028637 967.462585
0.800000 1.120000 -7.040000 33.216846 -12.906798 1269.944336
0.800000 1.120000 -7.000000 33.719814 8.890353 1216.064209
0.800000 1.120000 -6.960000 16.666088 23.512962 830.617859
0.800000 1.120000 -6.920000 -4.326904 18.715292 368.984253
0.800000 1.120000 -6.880000 -11.094870 -0.043421 123.098015
0.800000 1.120000 -6.840000 1.174612 -14.209230 203.281937
0.800000 1.120000 -6.800000 19.209551 -10.201686 473.081238
0.800000 1.160000 -7.200000 2.251602 -8.842849 83.265686
0.800000 1.160000 -7.160000 -0.370382 -16.445414 270.588806
0.800000 1.160000 -7.120000 10.920200 -25.865742 788.287415
0.800000 1.160000 -7.080000 31.677727 -20.904467 1440.475098
0.800000 1.160000 -7.040000 43.698135 2.431817 1915.440674
0.800000 1.160000 -7.000000 33.322231 29.155201 1960.396851
0.800000 1.160000 -6.960000 6.549302 38.694374 1540.147949
0.800000 1.160000 -6.920000 -15.533512 25.102131 871.406982
0.800000 1.160000 -6.880000 -16.870224 3.003958 293.628235
0.800000 1.160000 -6.840000 -1.442056 -7.018108 51.333370
0.800000 1.160000 -6.800000 12.020527 1.694519 147.364471
0.800000 1.200000 -7.200000 -3.581939 -11.001243 133.857620
0.800000 1.200000 -7.160000 0.778973 -24.002880 576.745056
0.800000 1.200000 -7.120000 20.968872 -28.060516 1227.086182
0.800000 1.200000 -7.080000 41.486267 -10.700829 1835.618042
0.800000 1.200000 -7.040000 42.123070 20.454075 2192.722168
0.800000 1.200000 -7.000000 18.349766 43.006691 2186.289307
0.800000 1.200000 -6.960000 -13.137978 40.550964 1816.987183
0.800000 1.200000 -6.920000 -29.713078 17.967306 1205.691162
0.800000 1.200000 -6.880000 -23.507174 -4.077330 569.211853
0.800000 1.200000 -6.840000 -6.868683 -9.238456 132.527878
0.800000 1.200000 -6.800000 1.785928 0.412651 3.359819
0.840000 0.800000 -7.200000 2.161458 -33.709755 1141.019409
0.840000 0.800000 -7.160000 31.123514 -33.130611 2066.310547
0.840000 0.800000 -7.120000 49.061508 -7.972455 2470.591553
0.840000 0.800000 -7.080000 40.713249 21.505013 2120.034180
0.840000 0.800000 -7.040000 14.969830 32.670670 1291.468506
0.840000 0.800000 -7.000000 -5.868415 21.593748 500.728241
0.840000 0.800000 -6.960000 -8.507898 3.731133 86.305679
0.840000 0.800000 -6.920000 0.921656 -4.222336 18.677568
0.840000 0.800000 -6.880000 7.380430 -0.623245 54.859184
0.840000 0.800000 -6.840000 4.642554 3.261310 32.189453
0.840000 0.800000 -6.800000 0.420098 -1.059297 1.298592
0.840000 0.840000 -7.200000 21.719704 -24.314463 1062.938599
0.840000 0.840000 -7.160000 45.896149 -12.807783 2270.495850
0.840000 0.840000 -7.120000 54.145267 14.470268 3141.098633
0.840000 0.840000 -7.080000 40.873875 38.962448 3188.746094
0.840000 0.840000 -7.040000 17.233749 46.595673 2468.158936
0.840000 0.840000 -7.000000 -0.943104 38.343140 1471.085815
0.840000 0.840000 -6.960000 -6.919636 25.561388 701.265930
0.840000 0.840000 -6.920000 -5.315762 17.350609 329.300964
0.840000 0.840000 -6.880000 -3.311234 13.873955 203.450882
0.840000 0.840000 -6.840000 -2.380611 10.782093 121.920845
0.840000 0.840000 -6.800000 0.738808 7.214896 52.600563
0.840000 0.880000 -7.200000 24.996161 -3.348752 636.022217
0.840000 0.880000 -7.160000 40.970634 12.439832 1833.342285
0.840000 0.880000 -7.120000 42.254005 37.787254 3213.277588
0.840000 0.880000 -7.080000 26.243479 59.135395 4185.714844
0.840000 0.880000 -7.040000 0.953672 66.082336 4367.784668
0.840000 0.880000 -7.000000 -21.692486 57.512257 3778.223633
0.840000 0.880000 -6.960000 -33.687904 40.148830 2746.803467
0.840000 0.880000 -6.920000 -34.019600 22.683447 1671.871826
0.840000 0.880000 -6.880000 -26.667444 10.995346 832.050232
0.840000 0.880000 -6.840000 -17.031296 6.877432 337.364105
0.840000 0.880000 -6.800000 -9.654306 9.036057 174.855972
0.840000 0.920000 -7.200000 10.154716 9.762721 198.428970
0.840000 0.920000 -7.160000 20.528023 25.012230 1047.011353
0.840000 0.920000 -7.120000 17.443251 48.462948 2652.924316
0.840000 0.920000 -7.080000 -3.219159 67.438400 4558.300781
0.840000 0.920000 -7.040000 -34.120911 69.407425 5981.626953
0.840000 0.920000 -7.000000 -60.326096 51.241806 6264.960449
0.840000 0.920000 -6.960000 -69.303604 21.979141 5286.072266
0.840000 0.920000 -6.920000 -59.368774 -3.405851 3536.251221
0.840000 0.920000 -6.880000 -39.958038 -14.362040 1802.912964
0.840000 0.920000 -6.840000 -23.880379 -11.073076 692.885498
0.840000 0.920000 -6.800000 -18.167345 -2.228388 335.018158
0.840000 0.960000 -7.200000 -7.168159 3.958389 67.051346
0.840000 0.960000 -7.160000 0.938621 19.071339 364.596985
0.840000 0.960000 -7.120000 -7.274866 41.339760 1761.899414
0.840000 0.960000 -7.080000 -34.482761 53.905876 4094.904297
0.840000 0.960000 -7.040000 -67.496658 43.088127 6412.385742
0.840000 0.960000 -7.000000 -86.110641 10.977794 7535.554199
0.840000 0.960000 -6.960000 -79.110237 -24.903706 6878.624023
0.840000 0.960000 -6.920000 -53.077053 -45.229813 4862.909668
0.840000 0.960000 -6.880000 -26.108253 -43.650684 2587.023193
0.840000 0.960000 -6.840000 -12.597241 -29.669222 1038.953247
0.840000 0.960000 -6.800000 -13.120039 -18.145699 501.401794
0.840000 1.000000 -7.200000 -10.168072 -12.921373 270.351562
0.840000 1.000000 -7.160000 -5.177207 4.461088 46.704781
0.840000 1.000000 -7.120000 -20.491671 22.764671 938.138855
0.840000 1.000000 -7.080000 -50.429668 22.592258 3053.561523
0.840000 1.000000 -7.040000 -74.186127 -2.979440 5512.458496
0.840000 1.000000 -7.000000 -73.116669 -40.524998 6988.322754
0.840000 1.000000 -6.960000 -46.923096 -66.877197 6674.336426
0.840000 1.000000 -6.920000 -13.420828 -68.443298 4864.603516
0.840000 1.000000 -6.880000 7.488773 -51.092022 2666.476562
0.840000 1.000000 -6.840000 9.903229 -32.230423 1136.874146
0.840000 1.000000 -6.800000 3.441001 -24.134012 594.291077
0.840000 1.040000 -7.200000 2.477881 -23.195595 544.175537
0.840000 1.040000 -7.160000 0.410615 -4.754940 22.778059
0.840000 1.040000 -7.120000 -20.099812 3.881253 419.066528
0.840000 1.040000 -7.080000 -42.873337 -10.538696 1949.187134
0.840000 1.040000 -7.040000 -46.886581 -41.448063 3916.293457
0.840000 1.040000 -7.000000 -25.561874 -67.283218 5180.440430
0.840000 1.040000 -6.960000 7.343287 -70.478485 5021.140625
0.840000 1.040000 -6.920000 30.606647 -52.157799 3657.202881
0.840000 1.040000 -6.880000 34.078911 -28.868002 1994.733643
0.840000 1.040000 -6.840000 24.993891 -15.951431 879.142761
0.840000 1.040000 -6.800000 17.532915 -14.792395 526.218018
0.840000 1.080000 -7.200000 16.662374 -17.719524 591.616272
0.840000 1.080000 -7.160000 6.293978 -4.244412 57.629196
0.840000 1.080000 -7.120000 -11.832582 -8.367346 210.022461
0.840000 1.080000 -7.080000 -18.250898 -29.323248 1192.948120
0.840000 1.080000 -7.040000 -3.070303 -49.702732 2479.788330
0.840000 1.080000 -7.000000 24.344337 -51.662304 3261.640381
0.840000 1.080000 -6.960000 44.340981 -33.296658 3074.790039
0.840000 1.080000 -6.920000 45.191883 -9.163614 2126.278076
0.840000 1.080000 -6.880000 32.286926 4.554253 1063.186768
0.840000 1.080000 -6.840000 20.229652 4.539497 429.845856
0.840000 1.080000 -6.800000 17.444969 0.377581 304.469513
0.840000 1.120000 -7.200000 18.474995 -4.194303 358.917603
0.840000 1.120000 -7.160000 5.064335 -1.492601 27.875347
0.840000 1.120000 -7.120000 -1.952367 -14.052949 201.297104
0.840000 1.120000 -7.080000 8.358927 -28.356750 873.976929
0.840000 1.120000 -7.040000 29.667696 -27.796555 1652.820557
0.840000 1.120000 -7.000000 44.270451 -9.189497 2044.319702
0.840000 1.120000 -6.960000 40.247597 14.213864 1821.902954
0.840000 1.120000 -6.920000 22.304008 25.901810 1168.372559
0.840000 1.120000 -6.880000 5.841235 21.490772 495.973328
0.840000 1.120000 -6.840000 1.339801 10.940363 121.486610
0.840000 1.120000 -6.800000 5.479588 6.566998 73.151352
0.840000 1.160000 -7.200000 8.298266 2.303634 74.167953
0.840000 1.160000 -7.160000 0.771591 -5.191270 27.544636
0.840000 1.160000 -7.120000 7.615470 -15.970124 313.040253
0.840000 1.160000 -7.080000 24.770884 -14.365118 819.953308
0.840000 1.160000 -7.040000 35.916214 3.990670 1305.899902
0.840000 1.160000 -7.000000 28.485962 26.924179 1536.361450
0.840000 1.160000 -6.960000 6.158630 37.091995 1413.744873
0.840000 1.160000 -6.920000 -14.763550 28.289080 1018.234436
0.840000 1.160000 -6.880000 -20.938232 10.337476 545.272949
0.840000 1.160000 -6.840000 -13.514441 -1.619999 185.264511
0.840000 1.160000 -6.800000 -4.613772 -1.657100 24.032875
0.840000 1.200000 -7.200000 -0.932459 -4.514801 21.252909
0.840000 1.200000 -7.160000 2.916024 -14.500977 218.781509
0.840000 1.200000 -7.120000 17.644896 -14.581172 523.952942
0.840000 1.200000 -7.080000 28.582003 1.595088 819.475159
0.840000 1.200000 -7.040000 21.948824 24.125759 1063.803101
0.840000 1.200000 -7.000000 -1.277450 35.296833 1247.498291
0.840000 1.200000 -6.960000 -25.583866 25.926943 1326.740479
0.840000 1.200000 -6.920000 -34.907143 3.449852 1230.410156
0.840000 1.200000 -6.880000 -26.400400 -15.669386 942.510803
0.840000 1.200000 -6.840000 -10.953603 -20.943529 558.612793
0.840000 1.200000 -6.800000 -1.349205 -15.390623 238.691635
0.880000 0.800000 -7.200000 39.955399 -19.727779 1985.619141
0.880000 0.800000 -7.160000 57.593716 7.218897 3369.148682
0.880000 0.800000 -7.120000 46.471951 40.727322 3818.356934
0.880000 0.800000 -7.080000 13.976624 53.714493 3080.592773
0.880000 0.800000 -7.040000 -13.554768 38.969315 1702.339111
0.880000 0.800000 -7.000000 -17.746567 14.532026 526.120422
0.880000 0.800000 -6.960000 -4.891174 3.163933 33.934055
0.880000 0.800000 -6.920000 4.186234 9.120789 100.713333
0.880000 0.800000 -6.880000 -1.809066 16.887070 288.445862
0.880000 0.800000 -6.840000 -13.539593 11.266910 310.263824
0.880000 0.800000 -6.800000 -13.895997 -4.819415 216.325500
0.880000 0.840000 -7.200000 38.573219 7.349682 1541.911011
0.880000 0.840000 -7.160000 46.572586 32.002327 3193.154785
0.880000 0.840000 -7.120000 33.937355 57.936829 4508.419922
0.880000 0.840000 -7.080000 7.468800 69.448906 4878.933594
0.880000 0.840000 -7.040000 -17.875877 63.269241 4322.543945
0.880000 0.840000 -7.000000 -32.663593 47.767426 3348.637207
0.880000 0.840000 -6.960000 -37.898708 32.104401 2467.004639
0.880000 0.840000 -6.920000 -38.490700 18.563656 1826.143311
0.880000 0.840000 -6.880000 -35.356209 5.413784 1279.370605
0.880000 0.840000 -6.840000 -25.937801 -5.817148 706.608765
0.880000 0.840000 -6.800000 -11.269706 -9.243598 212.450378
0.880000 0.880000 -7.200000 16.057587 22.575607 767.504150
0.880000 0.880000 -7.160000 22.644073 42.986061 2360.555420
0.880000 0.880000 -7.120000 11.904121 69.438881 4963.466309
0.880000 0.880000 -7.080000 -18.046427 86.946548 7885.375488
0.880000 0.880000 -7.040000 -57.043404 82.781296 10106.693359
0.880000 0.880000 -7.000000 -88.033981 54.918289 10766.000000
0.880000 0.880000 -6.960000 -96.897217 14.049713 9586.464844
0.880000 0.880000 -6.920000 -80.808556 -22.178684 7021.916504
0.880000 0.880000 -6.880000 -49.860783 -39.326122 4032.641602
0.880000 0.880000 -6.840000 -20.747149 -34.348442 1610.259644
0.880000 0.880000 -6.800000 -6.471842 -16.500647 314.156067
0.880000 0.920000 -7.200000 -8.289603 13.009424 237.962646
0.880000 0.920000 -7.160000 0.744333 35.829666 1284.319092
0.880000 0.920000 -7.120000 -15.565914 68.361656 4915.613770
0.880000 0.920000 -7.080000 -61.029640 84.277557 10827.323242
0.880000 0.920000 -7.040000 -114.471771 61.768723 16919.160156
0.880000 0.920000 -7.000000 -142.606689 3.983192 20352.533203
0.880000 0.920000 -6.960000 -125.643661 -59.769203 19358.687500
0.880000 0.920000 -6.920000 -73.677940 -94.988701 14451.292969
0.880000 0.920000 -6.880000 -18.958660 -87.820435 8071.859375
0.880000 0.920000 -6.840000 9.321093 -53.560028 2955.559326
0.880000 0.920000 -6.800000 5.689503 -21.491632 494.260712
0.880000 0.960000 -7.200000 -12.918713 -11.580813 301.008362
0.880000 0.960000 -7.160000 -7.363672 19.890251 449.845764
0.880000 0.960000 -7.120000 -39.200451 52.350620 4277.262695
0.880000 0.960000 -7.080000 -98.827477 49.020279 12169.857422
0.880000 0.960000 -7.040000 -146.209686 -5.206640 21404.380859
0.880000 0.960000 -7.000000 -142.227463 -85.166267 27481.943359
0.880000 0.960000 -6.960000 -82.975945 -142.314438 27138.406250
0.880000 0.960000 -6.920000 -4.713457 -143.638245 20654.162109
0.880000 0.960000 -6.880000 45.828358 -97.415405 11589.999023
0.880000 0.960000 -6.840000 48.537231 -42.921223 4198.094238
0.880000 0.960000 -6.800000 21.128969 -15.414413 684.037476
0.880000 1.000000 -7.200000 5.212646 -27.822968 801.289185
0.880000 1.000000 -7.160000 -2.812674 9.002315 88.952797
0.880000 1.000000 -7.120000 -50.039207 26.769917 3220.550781
0.880000 1.000000 -7.080000 -105.475021 -6.335493 11165.119141
0.880000 1.000000 -7.040000 -120.588547 -81.935074 21254.953125
0.880000 1.000000 -7.000000 -72.306076 -152.403076 28454.865234
0.880000 1.000000 -6.960000 13.827795 -169.157471 28805.457031
0.880000 1.000000 -6.920000 83.662186 -123.580917 22271.605469
0.880000 1.000000 -6.880000 99.434143 -52.419060 12634.906250
0.880000 1.000000 -6.840000 67.907547 -3.876915 4626.465332
0.880000 1.000000 -6.800000 27.528915 2.285943 763.066711
0.880000 1.040000 -7.200000 28.186687 -21.184395 1243.267944
0.880000 1.040000 -7.160000 3.296101 8.763681 87.666389
0.880000 1.040000 -7.120000 -45.563477 1.853102 2079.464600
0.880000 1.040000 -7.080000 -74.980949 -52.024632 8328.705078
0.880000 1.040000 -7.040000 -49.201450 -119.694473 16747.548828
0.880000 1.040000 -7.000000 24.808323 -149.765503 23045.158203
0.880000 1.040000 -6.960000 100.002579 -117.080154 23708.277344
0.880000 1.040000 -6.920000 128.635345 -44.551510 18531.890625
0.880000 1.040000 -6.880000 101.447853 18.059025 10617.794922
0.880000 1.040000 -6.840000 50.624641 37.171761 3944.593994
0.880000 1.040000 -6.800000 16.705406 19.343328 653.234985
0.880000 1.080000 -7.200000 35.079842 0.869071 1231.350586
0.880000 1.080000 -7.160000 1.907204 12.841164 168.532898
0.880000 1.080000 -7.120000 -30.929005 -14.044031 1153.838135
0.880000 1.080000 -7.080000 -27.135687 -65.198654 4987.210449
0.880000 1.080000 -7.040000 21.994896 -99.269859 10338.280273
0.880000 1.080000 -7.000000 85.905502 -83.907135 14420.162109
0.880000 1.080000 -6.960000 119.575714 -25.379826 14942.487305
0.880000 1.080000 -6.920000 102.011909 36.622639 11747.647461
0.880000 1.080000 -6.880000 52.193874 63.786537 6792.922852
0.880000 1.080000 -6.840000 8.783548 50.013100 2578.460693
0.880000 1.080000 -6.800000 -4.647268 20.373428 436.673676
0.880000 1.120000 -7.200000 21.751554 17.661764 785.068054
0.880000 1.120000 -7.160000 -5.296573 11.284824 155.400940
0.880000 1.120000 -7.120000 -14.329014 -19.083784 569.511475
0.880000 1.120000 -7.080000 9.714357 -47.470688 2347.834961
0.880000 1.120000 -7.040000 52.602005 -45.179241 4808.134766
0.880000 1.120000 -7.000000 81.229416 -7.572338 6655.558105
0.880000 1.120000 -6.960000 72.421234 40.501072 6885.171875
0.880000 1.120000 -6.920000 32.883850 66.218834 5466.281738
0.880000 1.120000 -6.880000 -8.228752 56.632225 3274.921387
0.880000 1.120000 -6.840000 -25.839041 26.734211 1382.374023
0.880000 1.120000 -6.800000 -18.452744 2.149583 345.124451
0.880000 1.160000 -7.200000 2.898677 16.016838 264.941406
0.880000 1.160000 -7.160000 -8.906313 1.633444 81.990547
0.880000 1.160000 -7.120000 -1.125490 -16.790188 283.177124
0.880000 1.160000 -7.080000 21.644489 -19.728134 857.683228
0.880000 1.160000 -7.040000 39.514275 0.011005 1561.378052
0.880000 1.160000 -7.000000 34.759525 29.439571 2074.913086
0.880000 1.160000 -6.960000 7.988407 46.194496 2197.746094
0.880000 1.160000 -6.920000 -22.352882 37.955154 1940.245117
0.880000 1.160000 -6.880000 -36.331257 12.220946 1469.311768
0.880000 1.160000 -6.840000 -28.854973 -12.001348 976.641785
0.880000 1.160000 -6.800000 -11.100171 -21.382254 580.414551
0.880000 1.200000 -7.200000 -4.144860 1.590848 19.710665
0.880000 1.200000 -7.160000 -2.561350 -8.642672 81.256287
0.880000 1.200000 -7.120000 7.903888 -11.193817 187.772980
0.880000 1.200000 -7.080000 16.104010 -1.379307 261.241608
0.880000 1.200000 -7.040000 11.549299 13.603493 318.441315
0.880000 1.200000 -7.000000 -5.631210 20.424643 448.876556
0.880000 1.200000 -6.960000 -24.113853 11.253586 708.121094
0.880000 1.200000 -6.920000 -30.758526 -9.401014 1034.465942
0.880000 1.200000 -6.880000 -21.287649 -28.671841 1275.238525
0.880000 1.200000 -6.840000 -2.750938 -35.980564 1302.168579
0.880000 1.200000 -6.800000 13.517356 -30.465626 1110.873291
0.920000 0.800000 -7.200000 52.956665 21.786922 3279.078369
0.920000 0.800000 -7.160000 41.390923 58.218071 5102.552246
0.920000 0.800000 -7.120000 2.180431 74.225647 5514.201172
0.920000 0.800000 -7.080000 -35.182278 55.060650 4269.467773
0.920000 0.800000 -7.040000 -43.174686 18.655394 2212.077393
0.920000 0.800000 -7.000000 -23.527237 -3.252256 564.108032
0.920000 0.800000 -6.960000 -3.318695 2.388588 16.719090
0.920000 0.800000 -6.920000 -5.010272 18.669563 373.655396
0.920000 0.800000 -6.880000 -23.444431 19.617397 934.483643
0.920000 0.800000 -6.840000 -33.888210 -0.742980 1148.962769
0.920000 0.800000 -6.800000 -20.785378 -22.863626 954.777344
0.920000 0.840000 -7.200000 22.601025 41.912086 2267.429443
0.920000 0.840000 -7.160000 9.754345 63.887943 4176.816406
0.920000 0.840000 -7.120000 -17.597105 73.363335 5691.836914
0.920000 0.840000 -7.080000 -45.167213 64.443817 6193.082520
0.920000 0.840000 -7.040000 -61.660133 44.380219 5771.576172
0.920000 0.840000 -7.000000 -66.775314 23.516350 5011.960938
0.920000 0.840000 -6.960000 -66.062332 5.274246 4392.049805
0.920000 0.840000 -6.920000 -61.158909 -12.697990 3901.651123
0.920000 0.840000 -6.880000 -48.309395 -29.675528 3214.434570
0.920000 0.840000 -6.840000 -26.588501 -38.187431 2165.228271
0.920000 0.840000 -6.800000 -4.439528 -31.442032 1008.310791
0.920000 0.880000 -7.200000 -11.457296 30.436676 1057.660889
0.920000 0.880000 -7.160000 -14.365416 49.678104 2674.279297
0.920000 0.880000 -7.120000 -37.374123 69.307571 6200.364746
0.920000 0.880000 -7.080000 -78.009102 70.973083 11122.598633
0.920000 0.880000 -7.040000 -118.682846 42.757725 15913.840820
0.920000 0.880000 -7.000000 -136.332001 -10.033333 18687.082031
0.920000 0.880000 -6.960000 -117.947983 -65.425018 18192.160156
0.920000 0.880000 -6.920000 -70.733246 -97.745514 14557.376953
0.920000 0.880000 -6.880000 -18.483921 -94.435715 9259.759766
0.920000 0.880000 -6.840000 14.001133 -64.148453 4311.055664
0.920000 0.880000 -6.800000 17.110350 -29.757568 1178.276978
0.920000 0.920000 -7.200000 -21.377071 -2.623358 463.861206
0.920000 0.920000 -7.160000 -20.697903 28.956837 1266.901611
0.920000 0.920000 -7.120000 -58.955223 58.119133 6853.551758
0.920000 0.920000 -7.080000 -123.691086 46.971416 17505.798828
0.920000 0.920000 -7.040000 -171.650497 -18.465900 29804.882812
0.920000 0.920000 -7.000000 -161.607513 -109.720001 38155.468750
0.920000 0.920000 -6.960000 -90.145554 -173.713669 38302.660156
0.920000 0.920000 -6.920000 2.642128 -173.783539 30207.699219
0.920000 0.920000 -6.880000 64.043037 -118.075905 18043.429688
0.920000 0.920000 -6.840000 69.128769 -50.358330 7314.748047
0.920000 0.920000 -6.800000 35.553391 -12.884098 1430.043579
0.920000 0.960000 -7.200000 -0.051891 -28.103056 789.784424
0.920000 0.960000 -7.160000 -13.627861 16.652092 463.010773
0.920000 0.960000 -7.120000 -76.640320 35.037064 7101.334473
0.920000 0.960000 -7.080000 -148.194244 -13.536093 22144.759766
0.920000 0.960000 -7.040000 -164.620285 -117.349442 40870.730469
0.920000 0.960000 -7.000000 -95.430405 -212.875275 54422.843750
0.920000 0.960000 -6.960000 25.238493 -234.440430 55599.296875
0.920000 0.960000 -6.920000 123.601151 -169.227020 43915.031250
0.920000 0.960000 -6.880000 146.158325 -66.779350 25821.738281
0.920000 0.960000 -6.840000 99.873650 4.965076 9999.398438
0.920000 0.960000 -6.800000 37.934807 14.971905 1663.207520
0.920000 1.000000 -7.200000 32.233212 -24.209322 1625.071289
0.920000 1.000000 -7.160000 -6.431275 17.004076 330.499908
0.920000 1.000000 -7.120000 -80.463997 3.172058 6484.516602
0.920000 1.000000 -7.080000 -124.932861 -82.320419 22384.871094
0.920000 1.000000 -7.040000 -83.792847 -190.147308 43177.242188
0.920000 1.000000 -7.000000 34.714119 -240.090088 58848.320312
0.920000 1.000000 -6.960000 157.989807 -189.558563 60893.226562
0.920000 1.000000 -6.920000 207.993454 -71.568565 48383.335938
0.920000 1.000000 -6.880000 165.232574 34.071915 28462.697266
0.920000 1.000000 -6.840000 78.985092 68.657669 10952.520508
0.920000 1.000000 -6.800000 17.875219 37.736282 1743.550415
0.920000 1.040000 -7.200000 46.973442 4.128023 2223.544678
0.920000 1.040000 -7.160000 -8.491434 21.942101 553.560242
0.920000 1.040000 -7.120000 -66.079086 -25.717676 5027.844727
0.920000 1.040000 -7.080000 -62.095936 -118.983498 18012.976562
0.920000 1.040000 -7.040000 24.762932 -187.137329 35633.582031
0.920000 1.040000 -7.000000 145.574692 -167.682541 49309.421875
0.920000 1.040000 -6.960000 217.878036 -63.718246 51530.855469
0.920000 1.040000 -6.920000 195.200058 56.198605 41261.343750
0.920000 1.040000 -6.880000 104.393112 116.569435 24486.355469
0.920000 1.040000 -6.840000 17.085953 96.427109 9590.117188
0.920000 1.040000 -6.800000 -14.471077 37.558716 1620.069214
0.920000 1.080000 -7.200000 33.403435 31.573345 2112.665527
0.920000 1.080000 -7.160000 -17.593477 20.540085 731.425537
0.920000 1.080000 -7.120000 -40.310116 -40.058365 3229.578125
0.920000 1.080000 -7.080000 2.707844 -106.267494 11300.112305
0.920000 1.080000 -7.040000 94.368523 -116.803894 22548.566406
0.920000 1.080000 -7.000000 170.427704 -49.070606 31453.525391
0.920000 1.080000 -6.960000 172.996796 56.450855 33114.589844
0.920000 1.080000 -6.920000 100.762283 128.924286 26774.507812
0.920000 1.080000 -6.880000 8.395905 126.985977 16195.929688
0.920000 1.080000 -6.840000 -43.060005 69.494232 6683.612305
0.920000 1.080000 -6.800000 -36.138817 11.009230 1427.217163
0.920000 1.120000 -7.200000 6.072400 36.989609 1405.105225
0.920000 1.120000 -7.160000 -23.819305 9.802795 663.454102
0.920000 1.120000 -7.120000 -16.067200 -37.835720 1689.696655
0.920000 1.120000 -7.080000 35.255531 -63.296509 5249.400391
0.920000 1.120000 -7.040000 94.966995 -35.085922 10249.751953
0.920000 1.120000 -7.000000 114.001236 35.106846 14228.772461
0.920000 1.120000 -6.960000 72.750389 98.757507 15045.664062
0.920000 1.120000 -6.920000 -0.748238 111.345261 12398.326172
0.920000 1.120000 -6.880000 -55.461586 69.569916 7915.960938
0.920000 1.120000 -6.840000 -60.982529 10.447694 3828.023193
0.920000 1.120000 -6.800000 -28.855984 -24.418297 1428.921021
0.920000 1.160000 -7.200000 -11.652637 21.505894 598.287415
0.920000 1.160000 -7.160000 -20.076735 -3.332387 414.180054
0.920000 1.160000 -7.120000 -1.918936 -26.843969 724.281006
0.920000 1.160000 -7.080000 31.818354 -24.898289 1632.332520
0.920000 1.160000 -7.040000 52.492863 7.180866 2807.065674
0.920000 1.160000 -7.000000 38.662735 46.960396 3700.085938
0.920000 1.160000 -6.960000 -3.356033 62.665264 3938.198242
0.920000 1.160000 -6.920000 -43.537766 40.753040 3556.347168
0.920000 1.160000 -6.880000 -53.723328 -2.576290 2892.833252
0.920000 1.160000 -6.840000 -30.665379 -36.528801 2274.718750
0.920000 1.160000 -6.800000 4.447672 -42.204491 1801.000732
0.920000 1.200000 -7.200000 -9.974879 3.517962 111.874268
0.920000 1.200000 -7.160000 -8.684909 -9.579741 167.199097
0.920000 1.200000 -7.120000 2.958301 -16.290192 274.121887
0.920000 1.200000 -7.080000 15.063038 -9.830223 323.528381
0.920000 1.200000 -7.040000 15.444214 4.820843 261.764282
0.920000 1.200000 -7.000000 1.287071 13.643320 187.796738
0.920000 1.200000 -6.960000 -16.624702 5.670927 308.540161
0.920000 1.200000 -6.920000 -22.242477 -16.385918 763.226074
0.920000 1.200000 -6.880000 -8.104447 -37.426315 1466.411133
0.920000 1.200000 -6.840000 18.113043 -42.372696 2123.527588
0.920000 1.200000 -6.800000 40.306019 -28.285027 2424.617920
0.960000 0.800000 -7.200000 28.179296 59.541641 4339.279785
0.960000 0.800000 -7.160000 -10.817575 79.919617 6504.165039
0.960000 0.800000 -7.120000 -56.420750 61.704807 6990.784180
0.960000 0.800000 -7.080000 -72.435974 15.276550 5480.343262
0.960000 0.800000 -7.040000 -49.123344 -22.340034 2912.180176
0.960000 0.800000 -7.000000 -13.119862 -24.306511 762.937256
0.960000 0.800000 -6.960000 0.358196 -0.186417 0.163056
0.960000 0.800000 -6.920000 -16.656586 16.143585 538.057190
0.960000 0.800000 -6.880000 -38.909920 3.131285 1523.786743
0.960000 0.800000 -6.840000 -36.964626 -26.768688 2082.946289
0.960000 0.800000 -6.800000 -8.878561 -42.545910 1888.983276
0.960000 0.840000 -7.200000 -15.222912 51.001595 2832.899658
0.960000 0.840000 -7.160000 -39.963432 56.448185 4783.473633
0.960000 0.840000 -7.120000 -66.044273 43.726524 6273.854980
0.960000 0.840000 -7.080000 -79.761253 18.456938 6702.516113
0.960000 0.840000 -7.040000 -78.747070 -6.574898 6244.330566
0.960000 0.840000 -7.000000 -70.629677 -24.735260 5600.384277
0.960000 0.840000 -6.960000 -61.338558 -39.166573 5296.438965
0.960000 0.840000 -6.920000 -48.202377 -53.741596 5211.628418
0.960000 0.840000 -6.880000 -26.243057 -63.975807 4781.602051
0.960000 0.840000 -6.840000 0.772179 -60.289597 3635.431641
0.960000 0.840000 -6.800000 19.455622 -40.600220 2026.899048
0.960000 0.880000 -7.200000 -34.242092 12.369337 1325.521362
0.960000 0.880000 -7.160000 -43.642151 26.391605 2601.154297
0.960000 0.880000 -7.120000 -72.947823 32.154282 6355.282715
0.960000 0.880000 -7.080000 -110.659348 11.621033 12380.540039
0.960000 0.880000 -7.040000 -132.272980 -38.305817 18963.476562
0.960000 0.880000 -7.000000 -117.037323 -99.228012 23543.933594
0.960000 0.880000 -6.960000 -64.652000 -141.025879 24068.179688
0.960000 0.880000 -6.920000 1.818130 -142.119110 20201.146484
0.960000 0.880000 -6.880000 50.524891 -104.957024 13568.741211
0.960000 0.880000 -6.840000 62.398979 -54.214424 6832.836426
0.960000 0.880000 -6.800000 43.051956 -18.770708 2205.810547
0.960000 0.920000 -7.200000 -14.491356 -23.810480 776.938354
0.960000 0.920000 -7.160000 -29.608490 10.283352 982.409973
0.960000 0.920000 -7.120000 -84.827545 18.451015 7536.152344
0.960000 0.920000 -7.080000 -142.870804 -31.636341 21412.923828
0.960000 0.920000 -7.040000 -149.491959 -126.865692 38442.750000
0.960000 0.920000 -7.000000 -80.505905 -210.995819 51000.433594
0.960000 0.920000 -6.960000 32.690666 -227.275925 52723.027344
0.960000 0.920000 -6.920000 124.786880 -164.987457 42792.625000
0.960000 0.920000 -6.880000 147.721191 -67.871407 26428.078125
0.960000 0.920000 -6.840000 106.032402 2.822613 11250.836914
0.960000 0.920000 -6.800000 46.558422 16.577873 2442.512695
0.960000 0.960000 -7.200000 25.086630 -27.415482 1380.947632
0.960000 0.960000 -7.160000 -17.087273 12.652426 452.058777
0.960000 0.960000 -7.120000 -94.484619 -7.338528 8981.196289
0.960000 0.960000 -7.080000 -137.180527 -102.917587 29410.525391
0.960000 0.960000 -7.040000 -86.443642 -219.519348 55661.250000
0.960000 0.960000 -7.000000 47.004539 -270.755371 75517.898438
0.960000 0.960000 -6.960000 183.693665 -211.526978 78487.031250
0.960000 0.960000 -6.920000 238.706329 -78.494873 63142.156250
0.960000 0.960000 -6.880000 190.573639 40.762806 37979.917969
0.960000 0.960000 -6.840000 93.100792 80.893631 15211.537109
0.960000 0.960000 -6.800000 22.699131 46.582867 2685.213867
0.960000 1.000000 -7.200000 49.713715 2.584002 2478.130371
0.960000 1.000000 -7.160000 -18.518112 21.199783 792.351318
0.960000 1.000000 -7.120000 -87.602905 -41.487396 9395.472656
0.960000 1.000000 -7.080000 -78.389420 -159.814850 31685.687500
0.960000 1.000000 -7.040000 35.139534 -244.810440 61166.937500
0.960000 1.000000 -7.000000 190.864685 -217.858658 83891.718750
0.960000 1.000000 -6.960000 284.130035 -82.915741 87604.898438
0.960000 1.000000 -6.920000 255.283966 72.812851 70471.617188
0.960000 1.000000 -6.880000 137.893127 152.233978 42189.695312
0.960000 1.000000 -6.840000 23.924494 127.051575 16714.484375
0.960000 1.000000 -6.800000 -17.782068 50.185600 2834.796387
0.960000 1.040000 -7.200000 40.143162 39.028316 3134.682861
0.960000 1.040000 -7.160000 -30.037853 20.926706 1340.199707
0.960000 1.040000 -7.120000 -59.808361 -67.290352 8105.031250
0.960000 1.040000 -7.080000 5.060551 -163.492813 26755.509766
0.960000 1.040000 -7.040000 141.162415 -179.026672 51977.375000
0.960000 1.040000 -7.000000 255.784729 -79.476151 71742.289062
0.960000 1.040000 -6.960000 263.122192 77.788330 75284.312500
0.960000 1.040000 -6.920000 158.700195 188.826233 60841.101562
0.960000 1.040000 -6.880000 21.429800 190.390320 36707.710938
0.960000 1.040000 -6.840000 -57.373352 107.644600 14879.061523
0.960000 1.040000 -6.800000 -48.940540 21.048534 2838.217285
0.960000 1.080000 -7.200000 7.729747 52.943012 2862.711670
0.960000 1.080000 -7.160000 -38.208908 8.326993 1529.259521
0.960000 1.080000 -7.120000 -23.595854 -70.800438 5569.466309
0.960000 1.080000 -7.080000 64.473022 -114.833710 17343.550781
0.960000 1.080000 -7.040000 169.848602 -68.641479 33560.199219
0.960000 1.080000 -7.000000 209.090439 52.237740 46447.593750
0.960000 1.080000 -6.960000 144.605881 167.522797 48974.750000
0.960000 1.080000 -6.920000 19.648506 198.869293 39935.058594
0.960000 1.080000 -6.880000 -79.267014 135.423065 24622.666016
0.960000 1.080000 -6.840000 -96.400940 37.166512 10674.491211
0.960000 1.080000 -6.800000 -47.216911 -23.485413 2781.001465
0.960000 1.120000 -7.200000 -19.721630 38.787270 1893.395020
0.960000 1.120000 -7.160000 -34.338329 -7.437005 1234.429932
0.960000 1.120000 -7.120000 2.365669 -54.234440 2946.970947
0.960000 1.120000 -7.080000 73.600128 -52.340244 8156.480469
0.960000 1.120000 -7.040000 123.371864 13.218918 15395.357422
0.960000 1.120000 -7.000000 103.900940 101.872818 21173.476562
0.960000 1.120000 -6.960000 20.906090 148.163284 22389.423828
0.960000 1.120000 -6.920000 -68.285782 117.974968 18581.041016
0.960000 1.120000 -6.880000 -103.592567 37.289719 12121.943359
0.960000 1.120000 -6.840000 -71.780075 -33.350407 6264.628906
0.960000 1.120000 -6.800000 -10.993425 -52.279827 2854.035889
0.960000 1.160000 -7.200000 -25.077417 14.942970 852.169250
0.960000 1.160000 -7.160000 -21.812117 -15.380832 712.338379
0.960000 1.160000 -7.120000 9.749687 -32.994064 1183.664673
0.960000 1.160000 -7.080000 47.594826 -15.311279 2499.702637
0.960000 1.160000 -7.040000 57.104347 30.900368 4215.739258
0.960000 1.160000 -7.000000 23.309593 70.287613 5483.685547
0.960000 1.160000 -6.960000 -31.996384 68.515709 5718.170898
0.960000 1.160000 -6.920000 -66.989388 23.603424 5044.699707
0.960000 1.160000 -6.880000 -55.815327 -31.563820 4111.625488
0.960000 1.160000 -6.840000 -9.765303 -58.161556 3478.127686
0.960000 1.160000 -6.800000 35.600822 -43.736588 3180.307617
0.960000 1.200000 -7.200000 -14.676407 2.149473 220.017151
0.960000 1.200000 -7.160000 -10.715858 -13.253286 290.479187
0.960000 1.200000 -7.120000 5.574185 -20.487108 450.793152
0.960000 1.200000 -7.080000 21.693672 -11.136620 594.639709
0.960000 1.200000 -7.040000 22.422127 7.694632 561.959106
0.960000 1.200000 -7.000000 5.690826 17.761715 347.864014
0.960000 1.200000 -6.960000 -12.991470 6.740379 214.211014
0.960000 1.200000 -6.920000 -13.677702 -18.578438 532.237915
0.960000 1.200000 -6.880000 9.277023 -36.913536 1448.672241
0.960000 1.200000 -6.840000 41.280968 -31.193850 2677.174561
0.960000 1.200000 -6.800000 60.250359 -3.377777 3641.515137
1.000000 0.800000 -7.200000 -16.028744 65.076469 4491.867188
1.000000 0.800000 -7.160000 -61.459419 54.435249 6740.456543
1.000000 0.800000 -7.120000 -86.164360 8.046648 7489.045410
1.000000 0.800000 -7.080000 -67.130753 -41.792385 6253.141602
1.000000 0.800000 -7.040000 -20.446152 -57.396893 3712.448486
1.000000 0.800000 -7.000000 13.277663 -32.954025 1262.264160
1.000000 0.800000 -6.960000 8.975624 0.292343 80.647293
1.000000 0.800000 -6.920000 -19.125160 6.600500 409.338348
1.000000 0.800000 -6.880000 -34.582977 -18.390587 1534.196045
1.000000 0.800000 -6.840000 -17.513573 -45.783291 2402.834961
1.000000 0.800000 -6.800000 16.221735 -45.926796 2372.415283
1.000000 0.840000 -7.200000 -45.292625 27.929079 2831.455322
1.000000 0.840000 -7.160000 -66.133179 14.803856 4592.751465
1.000000 0.840000 -7.120000 -76.064339 -11.951607 5928.624512
1.000000 0.840000 -7.080000 -68.570953 -39.225918 6240.648438
1.000000 0.840000 -7.040000 -50.786579 -55.577888 5668.178223
1.000000 0.840000 -7.000000 -33.976234 -61.518639 4938.927734
1.000000 0.840000 -6.960000 -20.981682 -65.193420 4690.413086
1.000000 0.840000 -6.920000 -5.568039 -69.675240 4885.642090
1.000000 0.840000 -6.880000 16.095802 -68.018387 4885.575684
1.000000 0.840000 -6.840000 36.589870 -52.512867 4096.419922
1.000000 0.840000 -6.800000 42.917923 -27.097649 2576.230713
1.000000 0.880000 -7.200000 -33.083870 -16.124908 1354.555176
1.000000 0.880000 -7.160000 -45.009926 -8.600361 2099.859619
1.000000 0.880000 -7.120000 -70.660065 -17.788143 5309.262695
1.000000 0.880000 -7.080000 -90.185638 -53.723991 11019.716797
1.000000 0.880000 -7.040000 -80.591736 -105.805023 17689.730469
1.000000 0.880000 -7.000000 -34.364624 -146.871262 22752.095703
1.000000 0.880000 -6.960000 31.840820 -151.481003 23960.332031
1.000000 0.880000 -6.920000 86.682709 -114.799019 20692.707031
1.000000 0.880000 -6.880000 105.388367 -56.981575 14353.607422
1.000000 0.880000 -6.840000 86.501801 -9.044699 7564.368164
1.000000 0.880000 -6.800000 51.098160 8.789585 2688.278809
1.000000 0.920000 -7.200000 8.311541 -30.419651 994.436890
1.000000 0.920000 -7.160000 -23.053261 -5.688019 563.806396
1.000000 0.920000 -7.120000 -76.628471 -27.193924 6611.432617
1.000000 0.920000 -7.080000 -100.027336 -102.425278 20496.406250
1.000000 0.920000 -7.040000 -52.575642 -188.304962 38222.957031
1.000000 0.920000 -7.000000 54.409698 -221.288910 51929.195312
1.000000 0.920000 -6.960000 160.483643 -170.102066 54689.710938
1.000000 0.920000 -6.920000 202.733673 -63.629967 45149.714844
1.000000 0.920000 -6.880000 165.391602 32.134148 28386.986328
1.000000 0.920000 -6.840000 88.559875 67.243622 12364.556641
1.000000 0.920000 -6.800000 30.496187 43.390701 2812.770508
1.000000 0.960000 -7.200000 42.096771 -4.918083 1796.325684
1.000000 0.960000 -7.160000 -19.974901 9.128433 482.324951
1.000000 0.960000 -7.120000 -79.419327 -52.080063 9019.762695
1.000000 0.960000 -7.080000 -64.061813 -161.526947 30194.871094
1.000000 0.960000 -7.040000 46.914272 -235.989288 57891.894531
1.000000 0.960000 -7.000000 193.545013 -204.651337 79341.843750
1.000000 0.960000 -6.960000 278.897278 -73.883911 83242.531250
1.000000 0.960000 -6.920000 249.278229 74.112282 67632.265625
1.000000 0.960000 -6.880000 137.248535 149.361298 41145.957031
1.000000 0.960000 -6.840000 28.875862 126.050308 16722.496094
1.000000 0.960000 -6.800000 -11.275848 53.727016 3013.737061
1.000000 1.000000 -7.200000 40.541359 36.195305 2953.701904
1.000000 1.000000 -7.160000 -33.502087 14.045591 1319.668457
1.000000 1.000000 -7.120000 -61.158131 -82.616379 10565.783203
1.000000 1.000000 -7.080000 14.186533 -184.594193 34276.273438
1.000000 1.000000 -7.040000 164.460419 -196.518250 65666.648438
1.000000 1.000000 -7.000000 288.182404 -83.530701 90026.476562
1.000000 1.000000 -6.960000 293.506409 90.133469 94270.054688
1.000000 1.000000 -6.920000 177.515015 211.448929 76222.226562
1.000000 1.000000 -6.880000 26.996283 212.788437 46007.718750
1.000000 1.000000 -6.840000 -58.842804 122.609909 18495.664062
1.000000 1.000000 -6.800000 -49.221695 29.054312 3266.928223
1.000000 1.040000 -7.200000 8.292416 58.553738 3497.304443
1.000000 1.040000 -7.160000 -45.478855 1.401955 2070.291748
1.000000 1.040000 -7.120000 -22.569042 -96.326851 9788.223633
1.000000 1.040000 -7.080000 90.869446 -147.550323 30028.353516
1.000000 1.040000 -7.040000 223.258484 -85.071831 57081.566406
1.000000 1.040000 -7.000000 270.758392 69.692642 78167.171875
1.000000 1.040000 -6.960000 187.994171 215.674530 81857.312500
1.000000 1.040000 -6.920000 30.281654 255.665314 66281.734375
1.000000 1.040000 -6.880000 -94.141571 177.256348 40282.449219
1.000000 1.040000 -6.840000 -116.330200 56.039177 16673.105469
1.000000 1.040000 -6.800000 -56.473606 -17.588356 3498.618408
1.000000 1.080000 -7.200000 -25.828514 48.607094 3029.761719
1.000000 1.080000 -7.160000 -42.085609 -17.545923 2079.057861
1.000000 1.080000 -7.120000 15.360399 -81.652458 6903.065918
1.000000 1.080000 -7.080000 120.392746 -73.422920 19885.337891
1.000000 1.080000 -7.040000 191.559357 26.834320 37415.070312
1.000000 1.080000 -7.000000 160.837021 159.028976 51158.761719
1.000000 1.080000 -6.960000 37.933212 228.516663 53658.792969
1.000000 1.080000 -6.920000 -93.775749 186.941208 43740.906250
1.000000 1.080000 -6.880000 -148.094772 72.470993 27184.107422
1.000000 1.080000 -6.840000 -106.780586 -27.887245 12179.791992
1.000000 1.080000 -6.800000 -25.044632 -55.166679 3670.596191
1.000000 1.120000 -7.200000 -37.947868 21.744198 1912.850952
1.000000 1.120000 -7.160000 -26.587036 -26.937014 1432.473145
1.000000 1.120000 -7.120000 31.354860 -50.179123 3501.071533
1.000000 1.120000 -7.080000 95.874496 -11.223213 9317.879883
1.000000 1.120000 -7.040000 107.649689 75.287231 17256.621094
1.000000 1.120000 -7.000000 43.160637 147.046692 23485.570312
1.000000 1.120000 -6.960000 -58.177284 145.837616 24653.205078
1.000000 1.120000 -6.920000 -124.573051 69.746201 20382.978516
1.000000 1.120000 -6.880000 -113.054291 -24.829189 13397.760742
1.000000 1.120000 -6.840000 -43.421455 -73.304077 7258.910645
1.000000 1.120000 -6.800000 25.418804 -56.370602 3823.760254
1.000000 1.160000 -7.200000 -29.079134 2.544077 852.068359
1.000000 1.160000 -7.160000 -13.113642 -22.865021 694.776794
1.000000 1.160000 -7.120000 23.610140 -25.005337 1182.705566
1.000000 1.160000 -7.080000 50.979103 8.453701 2670.333984
1.000000 1.160000 -7.040000 38.945580 56.130333 4667.372559
1.000000 1.160000 -7.000000 -11.013138 77.467232 6122.460938
1.000000 1.160000 -6.960000 -62.090523 49.445107 6300.051758
1.000000 1.160000 -6.920000 -72.861855 -10.097435 5410.807617
1.000000 1.160000 -6.880000 -34.049446 -56.658539 4369.554688
1.000000 1.160000 -6.840000 24.160776 -57.771263 3921.261963
1.000000 1.160000 -6.800000 60.445103 -18.958521 4013.035889
1.000000 1.200000 -7.200000 -18.007391 -0.056899 324.269379
1.000000 1.200000 -7.160000 -10.452130 -15.189318 339.962402
1.000000 1.200000 -7.120000 8.993376 -18.714666 431.119537
1.000000 1.200000 -7.080000 24.111660 -4.184000 598.877991
1.000000 1.200000 -7.040000 20.085869 16.280331 668.491333
1.000000 1.200000 -7.000000 0.365261 22.275368 496.325439
1.000000 1.200000 -6.960000 -14.346083 5.976891 241.533310
1.000000 1.200000 -6.920000 -5.627579 -18.107101 359.536774
1.000000 1.200000 -6.880000 23.913521 -25.598276 1227.128174
1.000000 1.200000 -6.840000 51.923870 -5.038737 2721.477295
1.000000 1.200000 -6.800000 56.450630 31.641953 4187.886719
1.040000 0.800000 -7.200000 -46.777000 37.301796 3579.511719
1.040000 0.800000 -7.160000 -74.414200 2.198362 5542.306152
1.040000 0.800000 -7.120000 -65.610970 -47.955620 6604.541016
1.040000 0.800000 -7.080000 -20.744957 -75.541733 6136.906250
1.040000 0.800000 -7.040000 26.663307 -59.861862 4294.374512
1.040000 0.800000 -7.000000 40.809753 -18.422035 2004.807251
1.040000 0.800000 -6.960000 17.855392 9.809074 415.032959
1.040000 0.800000 -6.920000 -11.898438 2.498594 147.815796
1.040000 0.800000 -6.880000 -15.829754 -25.851429 918.877502
1.040000 0.800000 -6.840000 8.774279 -41.673283 1813.650391
1.040000 0.800000 -6.800000 35.068165 -27.955070 2011.262207
1.040000 0.840000 -7.200000 -46.204315 -7.017139 2184.078857
1.040000 0.840000 -7.160000 -52.269817 -28.588490 3549.435547
1.040000 0.840000 -7.120000 -42.622002 -53.420677 4670.403809
1.040000 0.840000 -7.080000 -19.712902 -67.752052 4978.939453
1.040000 0.840000 -7.040000 3.756725 -66.528297 4440.126953
1.040000 0.840000 -7.000000 18.036644 -57.284790 3606.867676
1.040000 0.840000 -6.960000 25.141022 -50.162361 3148.333496
1.040000 0.840000 -6.920000 33.518982 -46.188683 3256.916504
1.040000 0.840000 -6.880000 45.539310 -37.690762 3494.422363
1.040000 0.840000 -6.840000 53.181469 -20.004963 3228.467041
1.040000 0.840000 -6.800000 47.549080 -0.089479 2260.923096
1.040000 0.880000 -7.200000 -10.785227 -30.986517 1076.485352
1.040000 0.880000 -7.160000 -21.996136 -29.086561 1329.858032
1.040000 0.880000 -7.120000 -36.043251 -46.890747 3497.858154
1.040000 0.880000 -7.080000 -32.336796 -81.663353 7714.571777
1.040000 0.880000 -7.040000 0.615318 -113.400696 12860.096680
1.040000 0.880000 -7.000000 53.891098 -118.549820 16958.310547
1.040000 0.880000 -6.960000 102.344574 -87.919006 18204.164062
1.040000 0.880000 -6.920000 121.674446 -34.589706 16001.119141
1.040000 0.880000 -6.880000 105.368118 14.699909 11318.527344
1.040000 0.880000 -6.840000 68.449280 38.058540 6133.756348
1.040000 0.880000 -6.800000 35.592522 32.519165 2324.323730
1.040000 0.920000 -7.200000 27.308544 -15.354193 981.507812
1.040000 0.920000 -7.160000 -10.856665 -9.416840 206.544037
1.040000 0.920000 -7.120000 -43.033440 -51.958675 4551.581055
1.040000 0.920000 -7.080000 -24.267006 -121.178497 15273.116211
1.040000 0.920000 -7.040000 54.361988 -162.555725 29379.589844
1.040000 0.920000 -7.000000 151.179932 -133.432434 40659.585938
1.040000 0.920000 -6.960000 204.206482 -41.506039 43423.039062
1.040000 0.920000 -6.920000 181.160904 58.855125 36283.199219
1.040000 0.920000 -6.880000 104.582596 110.134216 23067.066406
1.040000 0.920000 -6.840000 30.365887 96.073433 10152.191406
1.040000 0.920000 -6.800000 0.872177 48.417904 2345.054199
1.040000 0.960000 -7.200000 35.197983 23.808931 1805.763184
1.040000 0.960000 -7.160000 -23.414021 3.943487 563.767456
1.040000 0.960000 -7.120000 -40.886021 -74.801941 7266.997070
1.040000 0.960000 -7.080000 25.465710 -153.447540 24194.650391
1.040000 0.960000 -7.040000 148.876770 -156.094650 46529.832031
1.040000 0.960000 -7.000000 246.235687 -58.477123 64051.589844
1.040000 0.960000 -6.960000 245.719803 84.693428 67551.203125
1.040000 0.960000 -6.920000 148.107056 182.407043 55208.027344
1.040000 0.960000 -6.880000 24.738304 182.185287 33803.464844
1.040000 0.960000 -6.840000 -44.959236 108.620445 13819.734375
1.040000 0.960000 -6.800000 -37.114529 33.201946 2479.857422
1.040000 1.000000 -7.200000 8.721483 51.845493 2764.019287
1.040000 1.000000 -7.160000 -40.392921 -4.399523 1650.943970
1.040000 1.000000 -7.120000 -14.151009 -96.239395 9462.272461
1.040000 1.000000 -7.080000 96.559860 -139.979889 28918.175781
1.040000 1.000000 -7.040000 220.998566 -74.802391 54435.765625
1.040000 1.000000 -7.000000 261.680664 75.184769 74129.523438
1.040000 1.000000 -6.960000 179.081848 213.048584 77460.007812
1.040000 1.000000 -6.920000 28.198139 248.756500 62674.933594
1.040000 1.000000 -6.880000 -88.723404 173.449295 37956.500000
1.040000 1.000000 -6.840000 -108.567482 59.898613 15374.742188
1.040000 1.000000 -6.800000 -52.301804 -7.157932 2786.714844
1.040000 1.040000 -7.200000 -27.016748 48.142311 3047.586914
1.040000 1.040000 -7.160000 -41.010796 -25.337605 2323.879639
1.040000 1.040000 -7.120000 26.285646 -92.326965 9215.204102
1.040000 1.040000 -7.080000 142.174759 -77.185509 26171.265625
1.040000 1.040000 -7.040000 216.576843 37.482346 48310.453125
1.040000 1.040000 -7.000000 178.024338 183.076157 65209.542969
1.040000 1.040000 -6.960000 40.886265 257.063599 67753.382812
1.040000 1.040000 -6.920000 -102.668396 210.051956 54662.625000
1.040000 1.040000 -6.880000 -160.733154 86.206802 33266.757812
1.040000 1.040000 -6.840000 -116.474487 -20.031755 13967.578125
1.040000 1.040000 -6.800000 -31.349760 -47.004860 3192.264160
1.040000 1.080000 -7.200000 -44.189339 22.190220 2445.103516
1.040000 1.080000 -7.160000 -24.089104 -37.923111 2018.447266
1.040000 1.080000 -7.120000 52.872345 -60.656857 6474.739258
1.040000 1.080000 -7.080000 132.386932 -3.258404 17536.917969
1.040000 1.080000 -7.040000 140.594269 110.647835 32009.691406
1.040000 1.080000 -7.000000 52.516201 200.596558 42996.933594
1.040000 1.080000 -6.960000 -78.384476 196.000092 44560.160156
1.040000 1.080000 -6.920000 -162.176498 98.732498 36049.324219
1.040000 1.080000 -6.880000 -148.524811 -18.745678 22411.019531
1.040000 1.080000 -6.840000 -65.329208 -77.761551 10314.763672
1.040000 1.080000 -6.800000 14.057146 -57.981888 3559.502686
1.040000 1.120000 -7.200000 -37.619808 -0.711370 1415.756104
1.040000 1.120000 -7.160000 -6.602053 -32.574219 1104.666870
1.040000 1.120000 -7.120000 49.065334 -23.944340 2980.738281
1.040000 1.120000 -7.080000 81.713089 36.276302 7992.999023
1.040000 1.120000 -7.040000 51.076797 109.829025 14671.253906
1.040000 1.120000 -7.000000 -33.159306 136.495880 19730.664062
1.040000 1.120000 -6.960000 -112.725571 87.919960 20436.974609
1.040000 1.120000 -6.920000 -129.120514 -4.100693 16688.923828
1.040000 1.120000 -6.880000 -74.100304 -73.968758 10962.232422
1.040000 1.120000 -6.840000 5.821613 -78.687637 6225.635254
1.040000 1.120000 -6.800000 53.495811 -30.496199 3791.819824
1.040000 1.160000 -7.200000 -24.385719 -6.462433 636.426392
1.040000 1.160000 -7.160000 -3.464720 -19.739586 401.655518
1.040000 1.160000 -7.120000 25.289814 -7.584467 697.098877
1.040000 1.160000 -7.080000 33.253876 28.836681 1937.374390
1.040000 1.160000 -7.040000 4.604698 60.794388 3717.160645
1.040000 1.160000 -7.000000 -43.156548 56.270210 5028.824219
1.040000 1.160000 -6.960000 -70.746147 11.993500 5148.861816
1.040000 1.160000 -6.920000 -52.179874 -39.853119 4311.010254
1.040000 1.160000 -6.880000 0.653885 -58.893730 3468.898926
1.040000 1.160000 -6.840000 48.484421 -31.910654 3369.028809
1.040000 1.160000 -6.800000 59.628532 17.835892 3873.680664
1.040000 1.200000 -7.200000 -21.437141 -3.382542 470.992615
1.040000 1.200000 -7.160000 -11.611308 -16.383896 403.254517
1.040000 1.200000 -7.120000 7.118540 -15.583855 293.530121
1.040000 1.200000 -7.080000 17.513500 0.810761 307.380035
1.040000 1.200000 -7.040000 9.434196 17.424606 392.620972
1.040000 1.200000 -7.000000 -7.762668 17.184074 355.551422
1.040000 1.200000 -6.960000 -13.531204 0.222939 183.143188
1.040000 1.200000 -6.920000 2.582718 -14.465673 215.926132
1.040000 1.200000 -6.880000 28.980286 -7.307120 893.250916
1.040000 1.200000 -6.840000 42.158028 22.238846 2271.865479
1.040000 1.200000 -6.800000 28.666677 54.769978 3821.528809
1.080000 0.800000 -7.200000 -45.624428 1.227633 2083.095459
1.080000 0.800000 -7.160000 -45.899437 -36.785957 3459.964844
1.080000 0.800000 -7.120000 -13.808640 -66.806915 4653.842773
1.080000 0.800000 -7.080000 32.544582 -63.141991 5046.060547
1.080000 0.800000 -7.040000 59.808601 -26.762432 4293.296875
1.080000 0.800000 -7.000000 50.003693 13.388916 2679.632568
1.080000 0.800000 -6.960000 17.385506 26.862638 1023.857117
1.080000 0.800000 -6.920000 -6.063457 9.695229 130.762970
1.080000 0.800000 -6.880000 -1.733243 -14.300610 207.511566
1.080000 0.800000 -6.840000 19.652639 -19.284435 758.115662
1.080000 0.800000 -6.800000 32.410847 -2.801357 1058.310669
1.080000 0.840000 -7.200000 -22.808006 -26.399279 1217.127075
1.080000 0.840000 -7.160000 -15.027851 -43.026299 2077.098633
1.080000 0.840000 -7.120000 4.925995 -53.971573 2937.196045
1.080000 0.840000 -7.080000 28.822865 -50.240685 3354.884033
1.080000 0.840000 -7.040000 44.163048 -34.008507 3106.953125
1.080000 0.840000 -7.000000 46.184937 -16.556774 2407.175049
1.080000 0.840000 -6.960000 41.386566 -6.767410 1758.645752
1.080000 0.840000 -6.920000 38.974045 -3.135513 1528.807617
1.080000 0.840000 -6.880000 40.430019 2.039173 1638.744629
1.080000 0.840000 -6.840000 39.168159 11.786487 1673.066040
1.080000 0.840000 -6.800000 30.263714 20.050936 1317.932373
1.080000 0.880000 -7.200000 11.641657 -22.302618 632.934937
1.080000 0.880000 -7.160000 3.024603 -24.090219 589.486877
1.080000 0.880000 -7.120000 1.459202 -40.833622 1669.513916
1.080000 0.880000 -7.080000 19.282024 -60.268742 4004.117676
1.080000 0.880000 -7.040000 53.699894 -63.935570 6971.435547
1.080000 0.880000 -7.000000 87.489296 -41.979126 9416.624023
1.080000 0.880000 -6.960000 101.289154 -1.507065 10261.764648
1.080000 0.880000 -6.920000 87.602493 38.027412 9120.281250
1.080000 0.880000 -6.880000 55.719700 58.414665 6516.958008
1.080000 0.880000 -6.840000 24.451988 54.594788 3578.490479
1.080000 0.880000 -6.800000 8.933243 36.429283 1406.895508
1.080000 0.920000 -7.200000 26.136526 8.171936 749.898499
1.080000 0.920000 -7.160000 -4.870373 -4.078197 40.352226
1.080000 0.920000 -7.120000 -9.202272 -47.375732 2329.141846
1.080000 0.920000 -7.080000 33.184441 -85.647186 8436.647461
1.080000 0.920000 -7.040000 102.811066 -78.421928 16720.113281
1.080000 0.920000 -7.000000 152.608948 -16.896042 23574.966797
1.080000 0.920000 -6.960000 145.805420 65.516266 25551.601562
1.080000 0.920000 -6.920000 86.430130 118.993164 21629.541016
1.080000 0.920000 -6.880000 15.193596 116.944672 13906.902344
1.080000 0.920000 -6.840000 -24.757524 74.499428 6163.099609
1.080000 0.920000 -6.800000 -20.864506 31.313042 1415.834229
1.080000 0.960000 -7.200000 8.971622 36.294720 1397.796631
1.080000 0.960000 -7.160000 -24.640974 -4.859957 630.796814
1.080000 0.960000 -7.120000 -2.527729 -68.073914 4640.447266
1.080000 0.960000 -7.080000 77.153992 -93.549805 14704.304688
1.080000 0.960000 -7.040000 161.884567 -42.083618 27977.644531
1.080000 0.960000 -7.000000 184.883682 65.377670 38456.214844
1.080000 0.960000 -6.960000 122.442795 160.224823 40664.234375
1.080000 0.960000 -6.920000 15.483593 182.117706 33406.601562
1.080000 0.960000 -6.880000 -65.266693 127.794296 20591.123047
1.080000 0.960000 -6.840000 -77.962715 48.866009 8466.072266
1.080000 0.960000 -6.800000 -38.574547 3.500626 1500.250000
1.080000 1.000000 -7.200000 -22.476542 38.383282 1978.471313
1.080000 1.000000 -7.160000 -31.798050 -24.256969 1599.516602
1.080000 1.000000 -7.120000 27.106529 -77.401527 6725.760742
1.080000 1.000000 -7.080000 122.850739 -60.025547 18695.371094
1.080000 1.000000 -7.040000 180.409851 37.908943 33984.804688
1.080000 1.000000 -7.000000 144.147461 157.302887 45522.687500
1.080000 1.000000 -6.960000 29.499062 215.198364 47180.531250
1.080000 1.000000 -6.920000 -87.194672 174.505524 38055.089844
1.080000 1.000000 -6.880000 -132.863815 73.597855 23069.437500
1.080000 1.000000 -6.840000 -96.400307 -10.805975 9409.789062
1.080000 1.000000 -6.800000 -28.963562 -30.375521 1761.560181
1.080000 1.040000 -7.200000 -41.187393 16.939804 1983.358398
1.080000 1.040000 -7.160000 -17.708153 -40.626427 1964.085205
1.080000 1.040000 -7.120000 58.418083 -57.881783 6762.973145
1.080000 1.040000 -7.080000 132.189423 2.111492 17478.501953
1.080000 1.040000 -7.040000 134.957397 112.401901 30847.687500
1.080000 1.040000 -7.000000 47.411346 195.769302 40573.457031
1.080000 1.040000 -6.960000 -77.037346 188.454071 41449.691406
1.080000 1.040000 -6.920000 -154.516342 95.898621 33071.847656
1.080000 1.040000 -6.880000 -140.989426 -12.675859 20038.695312
1.080000 1.040000 -6.840000 -65.131454 -65.452148 8526.089844
1.080000 1.040000 -6.800000 4.539356 -46.344204 2168.390869
1.080000 1.080000 -7.200000 -37.035011 -5.827510 1405.551880
1.080000 1.080000 -7.160000 2.733854 -37.485634 1412.646729
1.080000 1.080000 -7.120000 64.688438 -20.192146 4592.316895
1.080000 1.080000 -7.080000 94.887329 52.121216 11720.226562
1.080000 1.080000 -7.040000 53.377342 133.076553 20558.509766
1.080000 1.080000 -7.000000 -43.591827 157.911270 26836.216797
1.080000 1.080000 -6.960000 -130.566467 100.650955 27178.216797
1.080000 1.080000 -6.920000 -146.897964 -0.302612 21579.103516
1.080000 1.080000 -6.880000 -88.077759 -74.434143 13298.132812
1.080000 1.080000 -6.840000 -5.995115 -79.184982 6306.202637
1.080000 1.080000 -6.800000 40.149712 -31.105371 2579.543457
1.080000 1.120000 -7.200000 -23.168278 -12.939060 704.188354
1.080000 1.120000 -7.160000 9.026728 -20.906248 518.552979
1.080000 1.120000 -7.120000 41.660076 6.541195 1778.349121
1.080000 1.120000 -7.080000 39.398952 58.805950 5010.417480
1.080000 1.120000 -7.040000 -9.832924 95.249794 9169.209961
1.080000 1.120000 -7.000000 -76.325371 79.383469 12127.296875
1.080000 1.120000 -6.960000 -109.756096 14.864002 12267.338867
1.080000 1.120000 -6.920000 -82.974785 -53.635250 9761.554688
1.080000 1.120000 -6.880000 -16.501724 -77.982025 6353.503418
1.080000 1.120000 -6.840000 40.345310 -47.291122 3864.194336
1.080000 1.120000 -6.800000 52.913830 6.781049 2845.855957
1.080000 1.160000 -7.200000 -17.899479 -8.695365 396.000732
1.080000 1.160000 -7.160000 -1.964104 -11.479025 135.625717
1.080000 1.160000 -7.120000 12.166609 3.887331 163.137711
1.080000 1.160000 -7.080000 5.985317 28.495365 847.809875
1.080000 1.160000 -7.040000 -22.052948 38.564957 1973.588379
1.080000 1.160000 -7.000000 -49.882980 18.722343 2838.837891
1.080000 1.160000 -6.960000 -50.277554 -19.619583 2912.760254
1.080000 1.160000 -6.920000 -17.435242 -45.520950 2376.144531
1.080000 1.160000 -6.880000 25.535465 -36.091228 1954.636719
1.080000 1.160000 -6.840000 46.714344 2.670067 2189.359131
1.080000 1.160000 -6.800000 33.305473 42.327232 2900.849121
1.080000 1.200000 -7.200000 -23.558056 -9.988993 654.761963
1.080000 1.200000 -7.160000 -13.080294 -20.707825 599.908081
1.080000 1.200000 -7.120000 2.936689 -18.097557 336.145721
1.080000 1.200000 -7.080000 9.943676 -4.124975 115.892113
1.080000 1.200000 -7.040000 3.196669 7.184460 61.835152
1.080000 1.200000 -7.000000 -6.652512 5.386391 73.269112
1.080000 1.200000 -6.960000 -5.261116 -4.256315 45.795563
1.080000 1.200000 -6.920000 9.000908 -5.824835 114.945053
1.080000 1.200000 -6.880000 22.008661 10.068384 585.753540
1.080000 1.200000 -6.840000 17.748825 35.523296 1576.925293
1.080000 1.200000 -6.800000 -5.689767 52.364353 2774.398926
1.120000 0.800000 -7.200000 -22.136017 -16.324139 756.480713
1.120000 0.800000 -7.160000 -4.928126 -38.300690 1491.229248
1.120000 0.800000 -7.120000 27.696299 -41.779137 2512.581055
1.120000 0.800000 -7.080000 55.068581 -18.796831 3385.869385
1.120000 0.800000 -7.040000 57.238907 17.446241 3580.663818
1.120000 0.800000 -7.000000 33.325127 42.259632 2896.440430
1.120000 0.800000 -6.960000 2.850365 40.825417 1674.839233
1.120000 0.800000 -6.920000 -12.012550 20.580460 567.856689
1.120000 0.800000 -6.880000 -5.899580 2.421524 40.668823
1.120000 0.800000 -6.840000 7.577557 0.127419 57.435600
1.120000 0.800000 -6.800000 11.950130 8.905772 222.118408
1.120000 0.840000 -7.200000 1.298081 -20.278444 412.900330
1.120000 0.840000 -7.160000 13.173943 -25.363316 816.850586
1.120000 0.840000 -7.120000 29.861946 -22.126225 1381.305664
1.120000 0.840000 -7.080000 42.683342 -7.577816 1879.291016
1.120000 0.840000 -7.040000 43.458504 12.021120 2033.148926
1.120000 0.840000 -7.000000 32.663708 26.004555 1743.154785
1.120000 0.840000 -6.960000 19.006657 28.887352 1195.732178
1.120000 0.840000 -6.920000 10.889011 24.475918 717.641113
1.120000 0.840000 -6.880000 9.135120 20.433029 500.959106
1.120000 0.840000 -6.840000 8.518518 19.864952 467.181488
1.120000 0.840000 -6.800000 5.574361 19.390930 407.081696
1.120000 0.880000 -7.200000 15.990217 -2.095003 260.076080
1.120000 0.880000 -7.160000 10.495017 -5.387938 139.175262
1.120000 0.880000 -7.120000 15.415670 -14.640306 451.981476
1.120000 0.880000 -7.080000 31.968359 -17.081205 1313.743530
1.120000 0.880000 -7.040000 49.931767 -4.273258 2511.442139
1.120000 0.880000 -7.000000 56.074776 20.483139 3563.939453
1.120000 0.880000 -6.960000 44.678707 44.635254 3988.492676
1.120000 0.880000 -6.920000 21.554970 55.903770 3589.848145
1.120000 0.880000 -6.880000 -0.793941 50.688431 2569.947266
1.120000 0.880000 -6.840000 -12.045184 35.348282 1394.587402
1.120000 0.880000 -6.800000 -10.012887 20.738026 530.323608
1.120000 0.920000 -7.200000 7.591276 19.650827 443.782501
1.120000 0.920000 -7.160000 -7.577040 -0.175629 57.442375
1.120000 0.920000 -7.120000 5.495472 -27.432920 782.765320
1.120000 0.920000 -7.080000 43.107437 -33.568466 2985.093018
1.120000 0.920000 -7.040000 78.242638 -4.168633 6139.287598
1.120000 0.920000 -7.000000 81.980515 46.934250 8923.628906
1.120000 0.920000 -6.960000 47.735367 87.579521 9948.837891
1.120000 0.920000 -6.920000 -3.104401 92.994965 8657.701172
1.120000 0.920000 -6.880000 -38.896225 64.847389 5718.100586
1.120000 0.920000 -6.840000 -42.721966 27.630610 2588.616943
1.120000 0.920000 -6.800000 -23.076254 7.153653 583.688232
1.120000 0.960000 -7.200000 -15.111861 24.008091 804.756775
1.120000 0.960000 -7.160000 -19.519884 -14.838037 601.193237
1.120000 0.960000 -7.120000 17.172802 -44.481670 2273.524170
1.120000 0.960000 -7.080000 72.547287 -30.655191 6202.849609
1.120000 0.960000 -7.040000 102.365463 28.548634 11293.712891
1.120000 0.960000 -7.000000 77.313980 96.641197 15316.972656
1.120000 0.960000 -6.960000 9.409723 126.977158 16211.741211
1.120000 0.960000 -6.920000 -56.882362 101.080254 13452.820312
1.120000 0.960000 -6.880000 -81.350304 42.646484 8436.594727
1.120000 0.960000 -6.840000 -59.401283 -4.723297 3550.822021
1.120000 0.960000 -6.800000 -20.840319 -14.384662 641.237366
1.120000 1.000000 -7.200000 -30.668613 8.523298 1013.210449
1.120000 1.000000 -7.160000 -11.292754 -32.738884 1199.360718
1.120000 1.000000 -7.120000 43.399174 -42.315971 3674.129883
1.120000 1.000000 -7.080000 93.049706 1.933587 8661.986328
1.120000 1.000000 -7.040000 92.094467 78.243607 14603.453125
1.120000 1.000000 -7.000000 30.508970 133.662521 18796.466797
1.120000 1.000000 -6.960000 -53.870018 127.119263 19061.285156
1.120000 1.000000 -6.920000 -105.263672 64.388382 15226.304688
1.120000 1.000000 -6.880000 -95.837898 -7.621590 9242.991211
1.120000 1.000000 -6.840000 -45.846966 -41.710236 3841.687988
1.120000 1.000000 -6.800000 -1.145227 -28.113670 791.690002
1.120000 1.040000 -7.200000 -27.550598 -10.313307 865.399780
1.120000 1.040000 -7.160000 8.555657 -34.185722 1241.862793
1.120000 1.040000 -7.120000 58.876789 -16.139521 3726.960449
1.120000 1.040000 -7.080000 80.240265 44.291435 8400.231445
1.120000 1.040000 -7.040000 44.196533 108.266495 13674.966797
1.120000 1.040000 -7.000000 -33.502884 126.206871 17050.617188
1.120000 1.040000 -6.960000 -101.342697 80.525986 16754.777344
1.120000 1.040000 -6.920000 -113.938553 2.504634 12988.267578
1.120000 1.040000 -6.880000 -69.576538 -53.905388 7746.685547
1.120000 1.040000 -6.840000 -8.681442 -57.420422 3372.472168
1.120000 1.040000 -6.800000 24.012928 -21.889103 1055.753540
1.120000 1.080000 -7.200000 -14.474968 -16.222511 472.694580
1.120000 1.080000 -7.160000 18.762997 -18.236288 684.612244
1.120000 1.080000 -7.120000 46.560265 13.236074 2343.051758
1.120000 1.080000 -7.080000 38.626476 63.482063 5521.977051
1.120000 1.080000 -7.040000 -11.237253 94.569977 9069.755859
1.120000 1.080000 -7.000000 -73.142151 76.549377 11209.582031
1.120000 1.080000 -6.960000 -102.611526 16.291920 10794.551758
1.120000 1.080000 -6.920000 -78.313408 -45.195702 8175.641113
1.120000 1.080000 -6.880000 -20.571796 -66.815918 4887.565430
1.120000 1.080000 -6.840000 27.292038 -41.329884 2453.014648
1.120000 1.080000 -6.800000 36.806587 2.343021 1360.214600
1.120000 1.120000 -7.200000 -8.351833 -10.282628 175.485565
1.120000 1.120000 -7.160000 9.209009 -3.631569 97.994141
1.120000 1.120000 -7.120000 16.537519 19.934029 670.855103
1.120000 1.120000 -7.080000 -0.728809 45.381790 2060.038086
1.120000 1.120000 -7.040000 -37.075314 48.681423 3744.459717
1.120000 1.120000 -7.000000 -66.399887 19.587986 4792.633789
1.120000 1.120000 -6.960000 -63.134842 -24.929264 4607.476562
1.120000 1.120000 -6.920000 -26.238447 -52.507168 3445.458740
1.120000 1.120000 -6.880000 18.118336 -43.123253 2187.889160
1.120000 1.120000 -6.840000 39.065826 -6.271187 1565.466553
1.120000 1.120000 -6.800000 27.205393 29.104351 1587.196655
1.120000 1.160000 -7.200000 -14.255974 -7.678463 262.191589
1.120000 1.160000 -7.160000 -7.504141 -7.899164 118.708923
1.120000 1.160000 -7.120000 -3.288298 -0.238204 10.869642
1.120000 1.160000 -7.080000 -9.358053 8.547818 160.638351
1.120000 1.160000 -7.040000 -22.340143 6.761086 544.794250
1.120000 1.160000 -7.000000 -28.342037 -8.457199 874.795288
1.120000 1.160000 -6.960000 -16.668167 -24.995747 902.615112
1.120000 1.160000 -6.920000 7.450462 -25.752262 718.688416
1.120000 1.160000 -6.880000 25.592993 -5.468800 684.909058
1.120000 1.160000 -6.840000 22.692331 23.116447 1049.312012
1.120000 1.160000 -6.800000 0.699923 40.682167 1655.528564
1.120000 1.200000 -7.200000 -19.856115 -18.647408 741.991089
1.120000 1.200000 -7.160000 -9.503646 -27.485111 845.750610
1.120000 1.200000 -7.120000 4.696243 -25.193865 656.785522
1.120000 1.200000 -7.080000 12.203741 -14.129711 348.580017
1.120000 1.200000 -7.040000 10.385935 -3.876087 122.891693
1.120000 1.200000 -7.000000 6.010878 -0.210705 36.175045
1.120000 1.200000 -6.960000 6.119522 0.756070 38.020191
1.120000 1.200000 -6.920000 9.195652 6.765868 130.336990
1.120000 1.200000 -6.880000 6.796186 19.125666 411.979218
1.120000 1.200000 -6.840000 -6.426378 29.924349 936.765015
1.120000 1.200000 -6.800000 -25.954851 29.884331 1566.727539
1.160000 0.800000 -7.200000 -0.953227 -9.412707 89.507698
1.160000 0.800000 -7.160000 15.352198 -12.117303 382.518982
1.160000 0.800000 -7.120000 31.859194 -1.308407 1016.720154
1.160000 0.800000 -7.080000 37.291443 20.456291 1809.111572
1.160000 0.800000 -7.040000 25.725414 41.668793 2398.085205
1.160000 0.800000 -7.000000 2.534604 49.664246 2472.961670
1.160000 0.800000 -6.960000 -18.925402 40.523529 2000.327148
1.160000 0.800000 -6.920000 -27.683498 21.922716 1246.981567
1.160000 0.800000 -6.880000 -23.175795 6.068501 573.944153
1.160000 0.800000 -6.840000 -13.695975 -0.505764 187.835541
1.160000 0.800000 -6.800000 -7.338502 -0.698136 54.341011
1.160000 0.840000 -7.200000 7.398396 -1.869506 58.231323
1.160000 0.840000 -7.160000 13.860295 1.313755 193.833740
1.160000 0.840000 -7.120000 19.855217 9.541790 485.275391
1.160000 0.840000 -7.080000 20.062456 22.482510 907.965332
1.160000 0.840000 -7.040000 11.062748 34.305576 1299.256958
1.160000 0.840000 -7.000000 -4.120337 37.861221 1450.449219
1.160000 0.840000 -6.960000 -17.569363 31.057529 1273.252686
1.160000 0.840000 -6.920000 -22.883160 18.715746 873.918091
1.160000 0.840000 -6.880000 -19.953526 8.093790 463.652618
1.160000 0.840000 -6.840000 -13.530774 2.839632 191.145355
1.160000 0.840000 -6.800000 -7.705483 1.567076 61.830193
1.160000 0.880000 -7.200000 3.309049 9.588457 102.888313
1.160000 0.880000 -7.160000 0.232446 6.587700 43.451820
1.160000 0.880000 -7.120000 4.099972 4.289556 35.210056
1.160000 0.880000 -7.080000 10.217230 8.940437 184.323212
1.160000 0.880000 -7.040000 10.837578 19.619522 502.378754
1.160000 0.880000 -7.000000 2.544013 29.226196 860.642517
1.160000 0.880000 -6.960000 -10.835240 30.885254 1071.301392
1.160000 0.880000 -6.920000 -21.732376 23.459867 1022.661499
1.160000 0.880000 -6.880000 -24.748833 11.731712 750.137756
1.160000 0.880000 -6.840000 -19.808178 2.252635 397.438293
1.160000 0.880000 -6.800000 -10.952600 -0.843512 120.670967
1.160000 0.920000 -7.200000 -9.946917 11.240451 225.288879
1.160000 0.920000 -7.160000 -11.550191 -3.687712 147.006119
1.160000 0.920000 -7.120000 1.721567 -12.762012 165.832733
1.160000 0.920000 -7.080000 18.868265 -5.629200 387.699341
1.160000 0.920000 -7.040000 24.775331 14.865414 834.797607
1.160000 0.920000 -7.000000 12.596174 34.761337 1367.014160
1.160000 0.920000 -6.960000 -10.768948 40.137886 1727.020142
1.160000 0.920000 -6.920000 -30.377855 27.902386 1701.357178
1.160000 0.920000 -6.880000 -34.924019 7.483390 1275.688232
1.160000 0.920000 -6.840000 -24.693604 -7.200461 661.620667
1.160000 0.920000 -6.800000 -9.955459 -8.264277 167.409424
1.160000 0.960000 -7.200000 -18.537861 0.064565 343.656464
1.160000 0.960000 -7.160000 -7.944592 -19.839489 456.721863
1.160000 0.960000 -7.120000 17.168423 -23.161026 831.187866
1.160000 0.960000 -7.080000 37.852669 -3.133854 1442.645630
1.160000 0.960000 -7.040000 36.233177 28.821363 2143.514160
1.160000 0.960000 -7.000000 10.220521 50.798923 2684.989502
1.160000 0.960000 -6.960000 -23.966034 47.375168 2818.777344
1.160000 0.960000 -6.920000 -44.300892 21.772175 2436.596680
1.160000 0.960000 -6.880000 -40.111668 -7.178871 1660.482056
1.160000 0.960000 -6.840000 -19.457115 -20.562309 801.387939
1.160000 0.960000 -6.800000 -0.927640 -13.870079 193.239609
1.160000 1.000000 -7.200000 -13.716184 -12.859569 353.502197
1.160000 1.000000 -7.160000 8.448009 -24.702799 681.597168
1.160000 1.000000 -7.120000 35.332947 -13.519072 1431.182373
1.160000 1.000000 -7.080000 45.903919 18.065758 2433.541260
1.160000 1.000000 -7.040000 28.103571 50.366035 3326.548340
1.160000 1.000000 -7.000000 -9.666257 60.314960 3731.331055
1.160000 1.000000 -6.960000 -43.252083 39.915462 3463.986816
1.160000 1.000000 -6.920000 -51.286312 3.381643 2641.721436
1.160000 1.000000 -6.880000 -32.042652 -24.150986 1610.001709
1.160000 1.000000 -6.840000 -3.768090 -26.957523 740.906555
1.160000 1.000000 -6.800000 11.688538 -10.254370 241.774017
1.160000 1.040000 -7.200000 -1.624946 -14.952286 226.211288
1.160000 1.040000 -7.160000 20.568745 -12.594474 581.694031
1.160000 1.040000 -7.120000 36.223000 8.823164 1389.953979
1.160000 1.040000 -7.080000 30.435417 39.019974 2448.873047
1.160000 1.040000 -7.040000 1.579630 57.565262 3316.254395
1.160000 1.040000 -7.000000 -33.989288 49.069061 3563.044434
1.160000 1.040000 -6.960000 -52.682213 17.005821 3064.613525
1.160000 1.040000 -6.920000 -42.422142 -17.271404 2097.939453
1.160000 1.040000 -6.880000 -12.855005 -31.290459 1144.343994
1.160000 1.040000 -6.840000 13.004095 -19.643213 554.962341
1.160000 1.040000 -6.800000 18.493763 2.989707 350.957611
1.160000 1.080000 -7.200000 3.829845 -6.460555 56.406490
1.160000 1.080000 -7.160000 15.161718 3.447965 241.766159
1.160000 1.080000 -7.120000 16.555407 21.777483 748.340210
1.160000 1.080000 -7.080000 2.231305 38.248100 1467.895874
1.160000 1.080000 -7.040000 -22.651218 39.564621 2078.437012
1.160000 1.080000 -7.000000 -42.397453 20.836823 2231.717285
1.160000 1.080000 -6.960000 -42.078133 -7.566983 1827.828491
1.160000 1.080000 -6.920000 -20.829769 -26.345634 1127.971680
1.160000 1.080000 -6.880000 6.037230 -22.945614 562.949341
1.160000 1.080000 -6.840000 19.591383 -2.301071 389.117218
1.160000 1.080000 -6.800000 13.306024 18.096588 504.536774
1.160000 1.120000 -7.200000 -2.899700 -0.278789 8.485985
1.160000 1.120000 -7.160000 -2.026834 5.012321 29.231422
1.160000 1.120000 -7.120000 -5.188921 11.184536 152.018738
1.160000 1.120000 -7.080000 -13.687267 14.158169 387.795044
1.160000 1.120000 -7.040000 -23.631479 8.843515 636.654602
1.160000 1.120000 -7.000000 -26.616842 -4.378826 727.630432
1.160000 1.120000 -6.960000 -17.165894 -16.890705 579.963867
1.160000 1.120000 -6.920000 0.242020 -17.902046 320.541809
1.160000 1.120000 -6.880000 13.223586 -4.636676 196.362000
1.160000 1.120000 -6.840000 12.042030 14.039575 342.120148
1.160000 1.120000 -6.800000 -1.535640 25.226851 638.752197
1.160000 1.160000 -7.200000 -12.018269 -7.143217 195.464325
1.160000 1.160000 -7.160000 -11.201551 -11.472023 257.082062
1.160000 1.160000 -7.120000 -6.854515 -13.466202 228.322968
1.160000 1.160000 -7.080000 -2.796618 -11.993555 151.666443
1.160000 1.160000 -7.040000 -0.825095 -9.708645 94.938560
1.160000 1.160000 -7.000000 1.071008 -8.358455 71.010818
1.160000 1.160000 -6.960000 4.839684 -5.763317 56.638359
1.160000 1.160000 -6.920000 8.174700 1.300375 68.516693
1.160000 1.160000 -6.880000 5.938479 11.820728 174.995148
1.160000 1.160000 -6.840000 -3.927280 19.844757 409.237915
1.160000 1.160000 -6.800000 -17.166079 19.948606 692.621155
1.160000 1.200000 -7.200000 -8.739171 -22.569086 585.736755
1.160000 1.200000 -7.160000 0.742020 -29.544815 873.446716
1.160000 1.200000 -7.120000 14.407358 -27.590237 968.793091
1.160000 1.200000 -7.080000 24.030344 -16.583944 852.484680
1.160000 1.200000 -7.040000 25.059902 -2.461275 634.056580
1.160000 1.200000 -7.000000 19.049547 8.764310 439.698364
1.160000 1.200000 -6.960000 10.106215 15.193946 332.991577
1.160000 1.200000 -6.920000 0.608407 17.898018 320.709198
1.160000 1.200000 -6.880000 -9.139928 17.508320 390.079529
1.160000 1.200000 -6.840000 -18.360336 13.377249 516.052734
1.160000 1.200000 -6.800000 -24.880474 5.734057 651.917358
1.200000 0.800000 -7.200000 2.261068 6.580110 48.410271
1.200000 0.800000 -7.160000 6.307265 12.199658 188.613266
1.200000 0.800000 -7.120000 6.692180 19.881464 440.057892
1.200000 0.800000 -7.080000 2.469997 28.072229 794.150940
1.200000 0.800000 -7.040000 -7.176783 34.102417 1214.481079
1.200000 0.800000 -7.000000 -20.946175 33.978092 1593.252930
1.200000 0.800000 -6.960000 -34.010872 24.989288 1781.203857
1.200000 0.800000 -6.920000 -40.034927 8.934370 1682.618408
1.200000 0.800000 -6.880000 -35.685623 -7.815716 1334.549194
1.200000 0.800000 -6.840000 -23.390863 -18.432640 886.894714
1.200000 0.800000 -6.800000 -9.351767 -20.313427 500.090851
1.200000 0.840000 -7.200000 -2.930326 8.882992 87.494347
1.200000 0.840000 -7.160000 -4.291741 12.275751 169.113098
1.200000 0.840000 -7.120000 -6.407585 15.773491 289.860168
1.200000 0.840000 -7.080000 -10.902267 19.651016 505.021881
1.200000 0.840000 -7.040000 -19.176037 21.349314 823.513550
1.200000 0.840000 -7.000000 -29.239407 17.156464 1149.287109
1.200000 0.840000 -6.960000 -35.886345 6.218515 1326.499634
1.200000 0.840000 -6.920000 -34.613827 -7.531443 1254.839600
1.200000 0.840000 -6.880000 -25.475685 -17.868313 968.287170
1.200000 0.840000 -6.840000 -12.971892 -20.882713 604.357666
1.200000 0.840000 -6.800000 -2.281921 -17.171329 300.061707
1.200000 0.880000 -7.200000 -10.143548 4.693728 124.922646
1.200000 0.880000 -7.160000 -12.285414 2.700758 158.225494
1.200000 0.880000 -7.120000 -12.690896 1.957672 164.891312
1.200000 0.880000 -7.080000 -14.265888 2.702446 210.818771
1.200000 0.880000 -7.040000 -18.219231 2.242185 336.967773
1.200000 0.880000 -7.000000 -22.440332 -1.882787 507.113403
1.200000 0.880000 -6.960000 -23.433006 -9.108039 632.062134
1.200000 0.880000 -6.920000 -19.514933 -16.154730 641.807861
1.200000 0.880000 -6.880000 -12.050337 -19.727602 534.388916
1.200000 0.880000 -6.840000 -3.999073 -18.630257 363.079041
1.200000 0.880000 -6.800000 2.135252 -13.632478 190.403748
1.200000 0.920000 -7.200000 -11.260433 -5.751402 159.875977
1.200000 0.920000 -7.160000 -9.111534 -10.591088 195.191208
1.200000 0.920000 -7.120000 -5.536788 -11.923427 172.824127
1.200000 0.920000 -7.080000 -3.389179 -10.864859 129.531677
1.200000 0.920000 -7.040000 -3.191602 -9.656931 103.442635
1.200000 0.920000 -7.000000 -3.857316 -9.547470 106.033066
1.200000 0.920000 -6.960000 -4.222353 -10.547366 129.075195
1.200000 0.920000 -6.920000 -3.549339 -12.167246 160.639679
1.200000 0.920000 -6.880000 -1.296019 -13.566009 185.716248
1.200000 0.920000 -6.840000 2.491627 -13.220971 181.002289
1.200000 0.920000 -6.800000 6.130714 -9.575173 129.269608
1.200000 0.960000 -7.200000 -2.359094 -13.795514 195.881531
1.200000 0.960000 -7.160000 4.213979 -15.699515 264.232391
1.200000 0.960000 -7.120000 9.596525 -13.856729 284.102234
1.200000 0.960000 -7.080000 12.884807 -10.178534 269.620789
1.200000 0.960000 -7.040000 14.028688 -5.582136 227.964340
1.200000 0.960000 -7.000000 12.484112 -0.972079 156.797974
1.200000 0.960000 -6.960000 8.321939 1.606510 71.835548
1.200000 0.960000 -6.920000 3.899179 0.377092 15.345792
1.200000 0.960000 -6.880000 2.696054 -3.451881 19.184189
1.200000 0.960000 -6.840000 5.612708 -5.683575 63.805519
1.200000 0.960000 -6.800000 8.988953 -3.072492 90.241478
1.200000 1.000000 -7.200000 10.035492 -10.950706 220.629059
1.200000 1.000000 -7.160000 15.790382 -6.992648 298.233307
1.200000 1.000000 -7.120000 18.475273 -2.305463 346.650879
1.200000 1.000000 -7.080000 19.823488 2.551777 399.482239
1.200000 1.000000 -7.040000 19.320299 8.564001 446.616089
1.200000 1.000000 -7.000000 14.895830 14.369317 428.363037
1.200000 1.000000 -6.960000 7.094899 16.092775 309.315002
1.200000 1.000000 -6.920000 0.579686 11.839780 140.516418
1.200000 1.000000 -6.880000 -0.041228 5.141148 26.433104
1.200000 1.000000 -6.840000 4.358783 2.194726 23.815813
1.200000 1.000000 -6.800000 7.629112 5.217963 85.430489
1.200000 1.040000 -7.200000 14.376335 1.039030 207.758606
1.200000 1.040000 -7.160000 13.945690 7.483366 250.483032
1.200000 1.040000 -7.120000 12.153685 10.443651 256.781891
1.200000 1.040000 -7.080000 11.905779 12.857920 307.073669
1.200000 1.040000 -7.040000 10.855144 17.430925 421.671295
1.200000 1.040000 -7.000000 5.650032 21.886448 510.939453
1.200000 1.040000 -6.960000 -2.291316 21.480827 466.676056
1.200000 1.040000 -6.920000 -7.277440 15.449135 291.636902
1.200000 1.040000 -6.880000 -5.775339 8.958258 113.604919
1.200000 1.040000 -6.840000 -0.896362 7.666021 59.571350
1.200000 1.040000 -6.800000 0.923607 11.224289 126.837715
1.200000 1.080000 -7.200000 6.270183 10.503452 149.637711
1.200000 1.080000 -7.160000 -0.071312 12.747084 162.493225
1.200000 1.080000 -7.120000 -2.704732 9.857592 104.487686
1.200000 1.080000 -7.080000 -0.440715 8.641577 74.871078
1.200000 1.080000 -7.040000 1.359993 12.228355 151.382248
1.200000 1.080000 -7.000000 -1.764334 16.846958 286.932892
1.200000 1.080000 -6.960000 -7.917135 17.153042 356.907867
1.200000 1.080000 -6.920000 -11.552638 12.886738 299.531433
1.200000 1.080000 -6.880000 -10.352397 8.866467 185.786346
1.200000 1.080000 -6.840000 -7.666738 8.869354 137.444321
1.200000 1.080000 -6.800000 -7.901516 11.281145 189.698196
1.200000 1.120000 -7.200000 -5.814095 7.408243 88.685768
1.200000 1.120000 -7.160000 -11.913703 2.110435 146.390259
1.200000 1.120000 -7.120000 -9.347811 -5.356016 116.068481
1.200000 1.120000 -7.080000 -1.070913 -6.383234 41.892525
1.200000 1.120000 -7.040000 4.543503 0.427909 20.826525
1.200000 1.120000 -7.000000 2.633368 9.000640 87.946144
1.200000 1.120000 -6.960000 -4.242991 12.913162 184.752731
1.200000 1.120000 -6.920000 -10.273928 11.367795 234.780350
1.200000 1.120000 -6.880000 -12.658546 8.156170 226.761902
1.200000 1.120000 -6.840000 -13.034229 6.426673 211.193253
1.200000 1.120000 -6.800000 -13.865361 5.940162 227.533768
1.200000 1.160000 -7.200000 -8.380590 -5.671134 102.396057
1.200000 1.160000 -7.160000 -7.995681 -14.886763 285.546631
1.200000 1.160000 -7.120000 2.019532 -20.495949 424.162445
1.200000 1.160000 -7.080000 14.499201 -15.487344 450.084656
1.200000 1.160000 -7.040000 19.827137 -1.938557 396.873352
1.200000 1.160000 -7.000000 14.345813 11.561962 339.481323
1.200000 1.160000 -6.960000 2.316622 17.660427 317.257416
1.200000 1.160000 -6.920000 -8.953678 15.321674 314.922058
1.200000 1.160000 -6.880000 -14.987869 8.671486 299.830902
1.200000 1.160000 -6.840000 -15.965660 2.517423 261.239716
1.200000 1.160000 -6.800000 -14.733635 -0.768630 217.670792
1.200000 1.200000 -7.200000 3.208424 -15.184160 240.852707
1.200000 1.200000 -7.160000 10.252964 -20.971128 544.911499
1.200000 1.200000 -7.120000 23.150909 -18.977404 896.106445
1.200000 1.200000 -7.080000 33.128284 -6.117336 1134.905029
1.200000 1.200000 -7.040000 32.122150 12.231911 1181.452148
1.200000 1.200000 -7.000000 19.175922 26.345150 1061.782959
1.200000 1.200000 -6.960000 0.831055 29.312134 859.891846
1.200000 1.200000 -6.920000 -13.955324 21.330288 649.732239
1.200000 1.200000 -6.880000 -19.749538 8.556334 463.255127
1.200000 1.200000 -6.840000 -17.346119 -1.655926 303.629944
1.200000 1.200000 -6.800000 -12.181878 -5.521116 178.880875
