#kx 	ky 	kz 	real 	imag 	intensity
0.800000 -9.200000 2.800000 -65.023361 -5.215638 4255.240234
0.800000 -9.200000 2.840000 -50.933971 -23.220575 3133.464600
0.800000 -9.200000 2.880000 -34.917244 -26.803776 1937.656250
0.800000 -9.200000 2.920000 -27.360031 -23.145573 1284.288818
0.800000 -9.200000 2.960000 -26.936832 -23.503046 1277.986084
0.800000 -9.200000 3.000000 -23.530067 -31.058308 1518.282471
0.800000 -9.200000 3.040000 -10.050658 -37.686119 1521.259277
0.800000 -9.200000 3.080000 9.114044 -32.595818 1145.553101
0.800000 -9.200000 3.120000 21.465353 -13.842919 652.387817
0.800000 -9.200000 3.160000 17.894102 8.848959 398.502960
0.800000 -9.200000 3.200000 0.865403 22.274393 496.897522
0.800000 -9.160000 2.800000 -48.576042 -37.686905 3779.934570
0.800000 -9.160000 2.840000 -26.586397 -42.483032 2511.644531
0.800000 -9.160000 2.880000 -13.308493 -34.831581 1390.354980
0.800000 -9.160000 2.920000 -11.548225 -27.807419 906.614075
0.800000 -9.160000 2.960000 -12.337753 -28.986765 992.452698
0.800000 -9.160000 3.000000 -5.994710 -33.832378 1180.566406
0.800000 -9.160000 3.040000 7.243596 -31.854517 1067.179932
0.800000 -9.160000 3.080000 17.510124 -18.402143 645.243347
0.800000 -9.160000 3.120000 15.349406 0.067211 235.608795
0.800000 -9.160000 3.160000 0.883358 11.827549 140.671234
0.800000 -9.160000 3.200000 -16.488392 10.223143 376.379700
0.800000 -9.120000 2.800000 -15.424006 -45.239510 2284.513184
0.800000 -9.120000 2.840000 1.555929 -35.991287 1297.793701
0.800000 -9.120000 2.880000 4.706471 -23.353624 567.542664
0.800000 -9.120000 2.920000 0.046649 -18.421724 339.362091
0.800000 -9.120000 2.960000 -1.559700 -21.210587 452.321655
0.800000 -9.120000 3.000000 3.977063 -23.093004 549.103882
0.800000 -9.120000 3.040000 10.831383 -17.360432 418.703430
0.800000 -9.120000 3.080000 10.562233 -6.416656 152.734253
0.800000 -9.120000 3.120000 1.254478 1.087591 2.756568
0.800000 -9.120000 3.160000 -10.753026 -1.009044 116.645737
0.800000 -9.120000 3.200000 -17.108452 -10.999426 413.686493
0.800000 -9.080000 2.800000 6.706097 -25.924412 717.046875
0.800000 -9.080000 2.840000 10.774085 -12.684568 276.979187
0.800000 -9.080000 2.880000 4.666603 -4.753576 44.373672
0.800000 -9.080000 2.920000 -2.195266 -5.889733 39.508148
0.800000 -9.080000 2.960000 -3.192752 -10.728436 125.292992
0.800000 -9.080000 3.000000 0.049517 -12.353666 152.615524
0.800000 -9.080000 3.040000 1.521597 -9.780530 97.974022
0.800000 -9.080000 3.080000 -1.600124 -7.823296 63.764351
0.800000 -9.080000 3.120000 -6.063606 -10.841362 154.302460
0.800000 -9.080000 3.160000 -6.525246 -17.898218 362.925049
0.800000 -9.080000 3.200000 -1.094444 -24.015280 577.931458
0.800000 -9.040000 2.800000 2.072714 -2.292959 9.553804
0.800000 -9.040000 2.840000 -2.770747 3.454727 19.612177
0.800000 -9.040000 2.880000 -9.804285 2.214085 101.026176
0.800000 -9.040000 2.920000 -13.073845 -3.766244 185.110016
0.800000 -9.040000 2.960000 -11.820044 -9.433682 228.707794
0.800000 -9.040000 3.000000 -9.244204 -12.669835 245.980011
0.800000 -9.040000 3.040000 -7.465322 -15.321538 290.480560
0.800000 -9.040000 3.080000 -5.008514 -19.357412 399.794617
0.800000 -9.040000 3.120000 0.671168 -23.476328 551.588440
0.800000 -9.040000 3.160000 9.360709 -24.220114 674.236755
0.800000 -9.040000 3.200000 17.666180 -19.794153 703.902405
0.800000 -9.000000 2.800000 -17.833899 1.600132 320.608368
0.800000 -9.000000 2.840000 -20.505812 -2.331463 425.924042
0.800000 -9.000000 2.880000 -20.691093 -8.178079 495.002319
0.800000 -9.000000 2.920000 -18.239836 -13.450598 513.610229
0.800000 -9.000000 2.960000 -14.866385 -17.395672 523.618835
0.800000 -9.000000 3.000000 -11.146323 -21.265705 576.470764
0.800000 -9.000000 3.040000 -5.401836 -25.529377 680.928894
0.800000 -9.000000 3.080000 3.833154 -27.859158 790.825745
0.800000 -9.000000 3.120000 14.815622 -24.892090 839.118835
0.800000 -9.000000 3.160000 23.043600 -15.993891 786.812012
0.800000 -9.000000 3.200000 25.063869 -4.572086 649.101562
0.800000 -8.960000 2.800000 -27.372492 -15.389907 986.102539
0.800000 -8.960000 2.840000 -21.275455 -20.886345 888.884399
0.800000 -8.960000 2.880000 -14.754465 -22.774738 736.382935
0.800000 -8.960000 2.920000 -10.186308 -22.630726 615.910645
0.800000 -8.960000 2.960000 -7.315903 -23.361898 599.300781
0.800000 -8.960000 3.000000 -3.163095 -25.982536 685.097351
0.800000 -8.960000 3.040000 4.822620 -27.814543 796.906494
0.800000 -8.960000 3.080000 15.322220 -24.613480 840.593750
0.800000 -8.960000 3.120000 23.385326 -14.946722 770.277954
0.800000 -8.960000 3.160000 24.587872 -2.259737 609.669800
0.800000 -8.960000 3.200000 19.041336 7.807477 423.529175
0.800000 -8.920000 2.800000 -14.305738 -31.618933 1204.411011
0.800000 -8.920000 2.840000 -3.597304 -29.734154 897.060486
0.800000 -8.920000 2.880000 2.320522 -23.914131 577.270508
0.800000 -8.920000 2.920000 3.135452 -19.046597 372.603882
0.800000 -8.920000 2.960000 2.473243 -18.157719 335.819702
0.800000 -8.920000 3.000000 4.743932 -19.864826 417.116211
0.800000 -8.920000 3.040000 11.023484 -19.621778 506.531403
0.800000 -8.920000 3.080000 17.839485 -14.033937 515.198608
0.800000 -8.920000 3.120000 20.249210 -4.242995 428.033539
0.800000 -8.920000 3.160000 16.417103 4.943581 293.960266
0.800000 -8.920000 3.200000 9.158674 9.455194 173.282013
0.800000 -8.880000 2.800000 7.640651 -26.860523 779.867249
0.800000 -8.880000 2.840000 13.359154 -17.556232 486.688293
0.800000 -8.880000 2.880000 12.141836 -8.658480 222.393448
0.800000 -8.880000 2.920000 6.845939 -4.466926 66.820297
0.800000 -8.880000 2.960000 2.351713 -5.695034 37.963970
0.800000 -8.880000 3.000000 2.127864 -9.242120 89.944580
0.800000 -8.880000 3.040000 5.861222 -10.730663 149.501068
0.800000 -8.880000 3.080000 10.066351 -8.014336 165.561005
0.800000 -8.880000 3.120000 11.295034 -2.628420 134.486389
0.800000 -8.880000 3.160000 9.028755 2.086447 85.871674
0.800000 -8.880000 3.200000 5.511691 4.307681 48.934849
0.800000 -8.840000 2.800000 14.301804 -4.330808 223.297470
0.800000 -8.840000 2.840000 10.812310 3.748509 130.957367
0.800000 -8.840000 2.880000 3.520914 7.852954 74.065720
0.800000 -8.840000 2.920000 -4.389432 6.640777 63.367027
0.800000 -8.840000 2.960000 -9.528761 0.921923 91.647232
0.800000 -8.840000 3.000000 -9.702698 -6.467816 135.974991
0.800000 -8.840000 3.040000 -5.141665 -11.907270 168.219818
0.800000 -8.840000 3.080000 1.567509 -12.976020 170.834167
0.800000 -8.840000 3.120000 7.168020 -9.730502 146.063187
0.800000 -8.840000 3.160000 9.699314 -4.118402 111.037933
0.800000 -8.840000 3.200000 8.991871 1.797830 84.085938
0.800000 -8.800000 2.800000 -2.610830 12.926947 173.922394
0.800000 -8.800000 2.840000 -9.463074 11.935793 232.012909
0.800000 -8.800000 2.880000 -15.377562 8.429838 307.531586
0.800000 -8.800000 2.920000 -20.048908 2.480042 408.109314
0.800000 -8.800000 2.960000 -22.024029 -6.139853 522.755615
0.800000 -8.800000 3.000000 -18.971737 -15.942210 614.080872
0.800000 -8.800000 3.040000 -10.088440 -23.122271 636.416016
0.800000 -8.800000 3.080000 2.023266 -23.757313 568.503540
0.800000 -8.800000 3.120000 12.272730 -16.816988 433.431000
0.800000 -8.800000 3.160000 16.146313 -5.171114 287.443817
0.800000 -8.800000 3.200000 12.287915 6.171761 189.083496
0.840000 -9.200000 2.800000 -64.450012 -31.744993 5161.548828
0.840000 -9.200000 2.840000 -42.076332 -42.695320 3593.308105
0.840000 -9.200000 2.880000 -25.836653 -39.183861 2202.907715
0.840000 -9.200000 2.920000 -20.813980 -34.223492 1604.469238
0.840000 -9.200000 2.960000 -18.582129 -36.780830 1698.125000
0.840000 -9.200000 3.000000 -8.420384 -42.523537 1879.154053
0.840000 -9.200000 3.040000 9.542603 -39.407150 1643.984741
0.840000 -9.200000 3.080000 23.260948 -21.800671 1016.340942
0.840000 -9.200000 3.120000 20.765310 1.939269 434.958893
0.840000 -9.200000 3.160000 2.572944 16.399485 275.563110
0.840000 -9.200000 3.200000 -18.212303 13.197170 505.853271
0.840000 -9.160000 2.800000 -31.831633 -61.873962 4841.640137
0.840000 -9.160000 2.840000 -6.481481 -55.357651 3106.479004
0.840000 -9.160000 2.880000 3.932899 -40.973038 1694.257446
0.840000 -9.160000 2.920000 3.694524 -32.371925 1061.591064
0.840000 -9.160000 2.960000 4.549755 -31.690331 1024.977295
0.840000 -9.160000 3.000000 12.074759 -30.263519 1061.680420
0.840000 -9.160000 3.040000 20.320671 -20.269104 823.766235
0.840000 -9.160000 3.080000 19.351540 -4.268904 392.705627
0.840000 -9.160000 3.120000 6.662660 7.075224 94.449829
0.840000 -9.160000 3.160000 -9.659391 5.790697 126.836014
0.840000 -9.160000 3.200000 -18.610703 -5.818830 380.217041
0.840000 -9.120000 2.800000 8.713173 -56.825813 3305.092529
0.840000 -9.120000 2.840000 24.549559 -37.833332 2034.041748
0.840000 -9.120000 2.880000 24.768373 -19.519594 994.486938
0.840000 -9.120000 2.920000 17.830088 -10.051042 418.935455
0.840000 -9.120000 2.960000 12.420202 -7.477355 210.172272
0.840000 -9.120000 3.000000 10.141680 -5.721424 135.588364
0.840000 -9.120000 3.040000 7.235787 -2.492472 58.569035
0.840000 -9.120000 3.080000 1.341944 -0.738483 2.346172
0.840000 -9.120000 3.120000 -5.049478 -3.718813 39.326794
0.840000 -9.120000 3.160000 -7.509171 -10.424269 165.053009
0.840000 -9.120000 3.200000 -4.623779 -16.420210 291.002625
0.840000 -9.080000 2.800000 26.222750 -27.169405 1425.809204
0.840000 -9.080000 2.840000 29.865166 -7.118589 942.602417
0.840000 -9.080000 2.880000 21.829048 8.684019 551.919556
0.840000 -9.080000 2.920000 8.102241 15.661423 310.926453
0.840000 -9.080000 2.960000 -5.448922 13.677649 216.768814
0.840000 -9.080000 3.000000 -14.581862 4.966396 237.295807
0.840000 -9.080000 3.040000 -16.640434 -6.791037 323.022217
0.840000 -9.080000 3.080000 -11.327354 -16.719744 407.858795
0.840000 -9.080000 3.120000 -1.820614 -20.568501 426.377838
0.840000 -9.080000 3.160000 6.409163 -17.664541 353.113403
0.840000 -9.080000 3.200000 9.460307 -11.735979 227.230621
0.840000 -9.040000 2.800000 14.209597 -3.508961 214.225449
0.840000 -9.040000 2.840000 12.456643 11.013645 276.468323
0.840000 -9.040000 2.880000 0.547188 22.542765 508.475647
0.840000 -9.040000 2.920000 -18.310390 23.743643 899.030945
0.840000 -9.040000 2.960000 -35.111046 10.765987 1348.692017
0.840000 -9.040000 3.000000 -39.287594 -11.907780 1685.310181
0.840000 -9.040000 3.040000 -26.687714 -32.153542 1746.084229
0.840000 -9.040000 3.080000 -4.300303 -38.236729 1480.539917
0.840000 -9.040000 3.120000 14.110196 -28.174118 992.878601
0.840000 -9.040000 3.160000 18.814999 -11.447830 485.057007
0.840000 -9.040000 3.200000 11.714550 -0.650857 137.654297
0.840000 -9.000000 2.800000 -5.209521 -5.044369 52.584770
0.840000 -9.000000 2.840000 -5.711297 6.821632 79.153580
0.840000 -9.000000 2.880000 -19.583458 15.581661 626.299988
0.840000 -9.000000 2.920000 -40.173393 8.831757 1691.901367
0.840000 -9.000000 2.960000 -51.271942 -15.405378 2866.137695
0.840000 -9.000000 3.000000 -40.458271 -43.781246 3553.669189
0.840000 -9.000000 3.040000 -11.359158 -57.017403 3380.014648
0.840000 -9.000000 3.080000 17.764050 -46.309834 2460.162109
0.840000 -9.000000 3.120000 29.122494 -21.162067 1295.952759
0.840000 -9.000000 3.160000 20.316599 -0.745658 413.320190
0.840000 -9.000000 3.200000 4.801674 3.190282 33.233974
0.840000 -8.960000 2.800000 -6.761081 -21.462523 506.352081
0.840000 -8.960000 2.840000 -7.376442 -6.311958 94.252716
0.840000 -8.960000 2.880000 -24.301249 -0.135975 590.569153
0.840000 -8.960000 2.920000 -42.243359 -14.835650 2004.597900
0.840000 -8.960000 2.960000 -41.489918 -43.457329 3609.952637
0.840000 -8.960000 3.000000 -16.634520 -64.529976 4440.824707
0.840000 -8.960000 3.040000 17.123192 -60.944675 4007.457031
0.840000 -8.960000 3.080000 37.005257 -35.517662 2630.893311
0.840000 -8.960000 3.120000 32.782520 -8.058765 1139.637329
0.840000 -8.960000 3.160000 14.624447 3.114961 223.577438
0.840000 -8.960000 3.200000 1.632786 -3.091974 12.226292
0.840000 -8.920000 2.800000 10.783088 -26.922178 841.078674
0.840000 -8.920000 2.840000 3.257279 -8.965279 90.986092
0.840000 -8.920000 2.880000 -16.749439 -8.410057 351.272766
0.840000 -8.920000 2.920000 -28.184784 -28.414825 1601.784302
0.840000 -8.920000 2.960000 -16.740768 -52.604317 3047.467529
0.840000 -8.920000 3.000000 11.581824 -59.900902 3722.256592
0.840000 -8.920000 3.040000 36.112858 -43.817352 3224.098877
0.840000 -8.920000 3.080000 40.673996 -17.589371 1963.759888
0.840000 -8.920000 3.120000 27.477825 -0.712967 755.539185
0.840000 -8.920000 3.160000 12.761320 -0.842169 163.560532
0.840000 -8.920000 3.200000 9.788377 -8.756506 172.488708
0.840000 -8.880000 2.800000 24.796930 -10.048182 715.853699
0.840000 -8.880000 2.840000 7.963084 2.438179 69.355423
0.840000 -8.880000 2.880000 -10.812210 -5.466624 146.787872
0.840000 -8.880000 2.920000 -14.110461 -26.146427 882.740784
0.840000 -8.880000 2.960000 1.317213 -41.481323 1722.435303
0.840000 -8.880000 3.000000 22.844999 -39.406796 2074.789551
0.840000 -8.880000 3.040000 34.732506 -23.587948 1762.738281
0.840000 -8.880000 3.080000 32.205048 -7.783550 1097.748657
0.840000 -8.880000 3.120000 23.532070 -1.742065 556.793091
0.840000 -8.880000 3.160000 19.524326 -3.048741 390.494141
0.840000 -8.880000 3.200000 22.186504 -2.133976 496.794830
0.840000 -8.840000 2.800000 15.337985 13.096210 406.764465
0.840000 -8.840000 2.840000 -3.342116 12.739339 173.460495
0.840000 -8.840000 2.880000 -14.349437 -1.368683 207.779633
0.840000 -8.840000 2.920000 -11.111424 -17.922388 444.675751
0.840000 -8.840000 2.960000 1.771861 -26.234552 691.391174
0.840000 -8.840000 3.000000 14.708705 -24.144129 799.284973
0.840000 -8.840000 3.040000 22.008308 -16.890963 769.670288
0.840000 -8.840000 3.080000 24.802073 -9.896272 713.079041
0.840000 -8.840000 3.120000 26.630814 -3.643973 722.478821
0.840000 -8.840000 3.160000 27.709375 4.612063 789.080627
0.840000 -8.840000 3.200000 24.370823 15.375997 830.358276
0.840000 -8.800000 2.800000 -11.696377 16.794168 418.849335
0.840000 -8.800000 2.840000 -20.592209 6.287268 463.568787
0.840000 -8.800000 2.880000 -21.094913 -6.330941 485.076172
0.840000 -8.800000 2.920000 -15.652969 -16.034519 502.121277
0.840000 -8.800000 2.960000 -7.597483 -22.097622 546.026672
0.840000 -8.800000 3.000000 2.360745 -25.234367 642.346436
0.840000 -8.800000 3.040000 14.570931 -23.967621 786.758911
0.840000 -8.800000 3.080000 26.524771 -15.306199 937.843201
0.840000 -8.800000 3.120000 32.220734 0.801043 1038.817383
0.840000 -8.800000 3.160000 26.547829 18.653046 1052.723389
0.840000 -8.800000 3.200000 10.460883 29.549160 982.582886
0.880000 -9.200000 2.800000 -50.770546 -56.579765 5778.917969
0.880000 -9.200000 2.840000 -24.159460 -57.904732 3936.637451
0.880000 -9.200000 2.880000 -9.474191 -48.122295 2405.515625
0.880000 -9.200000 2.920000 -5.488987 -41.411385 1745.031860
0.880000 -9.200000 2.960000 -0.750467 -41.721252 1741.226196
0.880000 -9.200000 3.000000 11.462104 -40.160957 1744.282227
0.880000 -9.200000 3.040000 24.396320 -27.100801 1329.633789
0.880000 -9.200000 3.080000 24.961308 -5.287321 651.022644
0.880000 -9.200000 3.120000 8.865103 10.799865 195.227127
0.880000 -9.200000 3.160000 -12.904934 9.005863 247.642899
0.880000 -9.200000 3.200000 -23.596554 -7.922925 619.570129
0.880000 -9.160000 2.800000 -3.568385 -74.203003 5518.818848
0.880000 -9.160000 2.840000 19.445139 -56.544716 3575.418457
0.880000 -9.160000 2.880000 25.057619 -36.422337 1954.470825
0.880000 -9.160000 2.920000 21.613962 -24.689569 1076.738159
0.880000 -9.160000 2.960000 19.678009 -19.821211 780.104431
0.880000 -9.160000 3.000000 21.069427 -13.818941 634.883911
0.880000 -9.160000 3.040000 19.322433 -3.620909 386.467438
0.880000 -9.160000 3.080000 9.555253 4.859549 114.918076
0.880000 -9.160000 3.120000 -4.087844 3.827701 31.361759
0.880000 -9.160000 3.160000 -11.785398 -6.794296 185.058060
0.880000 -9.160000 3.200000 -8.085846 -18.194637 396.425720
0.880000 -9.120000 2.800000 37.204758 -52.635208 4154.659180
0.880000 -9.120000 2.840000 47.681965 -24.606724 2879.060547
0.880000 -9.120000 2.880000 40.949928 0.023324 1676.897095
0.880000 -9.120000 2.920000 25.016106 13.499070 808.030457
0.880000 -9.120000 2.960000 8.541752 15.616299 316.830322
0.880000 -9.120000 3.000000 -3.499616 10.185703 115.995857
0.880000 -9.120000 3.040000 -9.530598 1.256721 92.411636
0.880000 -9.120000 3.080000 -9.513294 -7.833273 151.862930
0.880000 -9.120000 3.120000 -4.623964 -13.946030 215.872787
0.880000 -9.120000 3.160000 2.081648 -14.848051 224.797867
0.880000 -9.120000 3.200000 6.526120 -11.029419 164.238312
0.880000 -9.080000 2.800000 45.629387 -14.990911 2306.768311
0.880000 -9.080000 2.840000 44.051178 14.375635 2147.165039
0.880000 -9.080000 2.880000 24.172791 38.007820 2028.918213
0.880000 -9.080000 2.920000 -7.021303 44.259163 2008.172241
0.880000 -9.080000 2.960000 -35.006119 28.814342 2055.694824
0.880000 -9.080000 3.000000 -45.306862 -0.555164 2053.019775
0.880000 -9.080000 3.040000 -33.419342 -27.222565 1857.920410
0.880000 -9.080000 3.080000 -8.894382 -36.562286 1415.910767
0.880000 -9.080000 3.120000 11.239135 -26.504530 828.808289
0.880000 -9.080000 3.160000 15.348231 -8.513930 308.055206
0.880000 -9.080000 3.200000 5.494862 2.401240 35.959465
0.880000 -9.040000 2.800000 27.318764 7.119974 797.008911
0.880000 -9.040000 2.840000 17.626926 34.902931 1528.923096
0.880000 -9.040000 2.880000 -14.887618 51.785248 2903.353027
0.880000 -9.040000 2.920000 -55.876205 39.578163 4688.581543
0.880000 -9.040000 2.960000 -78.630066 -1.560780 6185.123535
0.880000 -9.040000 3.000000 -65.216553 -48.362022 6592.083984
0.880000 -9.040000 3.040000 -23.456085 -70.881233 5574.337402
0.880000 -9.040000 3.080000 17.674698 -57.048065 3566.876709
0.880000 -9.040000 3.120000 31.789913 -22.636068 1522.990234
0.880000 -9.040000 3.160000 16.534384 3.252840 283.966797
0.880000 -9.040000 3.200000 -7.065204 3.666865 63.363007
0.880000 -9.000000 2.800000 9.427758 4.163237 106.215164
0.880000 -9.000000 2.840000 -8.106572 30.832495 1016.359253
0.880000 -9.000000 2.880000 -49.931007 34.282875 3668.420898
0.880000 -9.000000 2.920000 -86.564857 -1.466249 7495.624512
0.880000 -9.000000 2.960000 -84.825615 -59.400856 10723.846680
0.880000 -9.000000 3.000000 -39.152813 -99.871689 11507.296875
0.880000 -9.000000 3.040000 20.317970 -94.355049 9315.695312
0.880000 -9.000000 3.080000 52.832748 -50.965775 5388.809570
0.880000 -9.000000 3.120000 42.295910 -6.621788 1832.791992
0.880000 -9.000000 3.160000 9.098938 6.665630 127.221298
0.880000 -9.000000 3.200000 -11.815981 -11.246865 266.109375
0.880000 -8.960000 2.800000 10.167849 -6.003342 139.425262
0.880000 -8.960000 2.840000 -18.013531 16.292223 589.923828
0.880000 -8.960000 2.880000 -60.837944 1.281331 3702.897217
0.880000 -8.960000 2.920000 -77.907928 -50.870354 8657.438477
0.880000 -8.960000 2.960000 -45.670372 -103.767082 12853.390625
0.880000 -8.960000 3.000000 18.012291 -115.786942 13731.058594
0.880000 -8.960000 3.040000 68.049423 -78.176559 10742.298828
0.880000 -8.960000 3.080000 72.439941 -22.805714 5767.645508
0.880000 -8.960000 3.120000 39.642220 8.020825 1635.839233
0.880000 -8.960000 3.160000 7.096558 -0.280151 50.439613
0.880000 -8.960000 3.200000 3.985160 -25.351351 658.572449
0.880000 -8.920000 2.800000 20.997171 -1.946258 444.669128
0.880000 -8.920000 2.840000 -16.229931 7.619921 321.473846
0.880000 -8.920000 2.880000 -48.313354 -24.308296 2925.073486
0.880000 -8.920000 2.920000 -39.951420 -76.221809 7405.879883
0.880000 -8.920000 2.960000 9.987060 -105.243912 11176.022461
0.880000 -8.920000 3.000000 65.840614 -86.543983 11824.847656
0.880000 -8.920000 3.040000 87.781876 -35.943069 8997.562500
0.880000 -8.920000 3.080000 67.624771 6.294379 4612.729004
0.880000 -8.920000 3.120000 33.058136 13.619421 1278.328979
0.880000 -8.920000 3.160000 17.954697 -4.733853 344.780487
0.880000 -8.920000 3.200000 30.064606 -17.852894 1222.606323
0.880000 -8.880000 2.800000 19.772995 15.892200 643.533325
0.880000 -8.880000 2.840000 -16.012434 6.884732 303.797577
0.880000 -8.880000 2.880000 -28.649549 -31.708626 1826.233643
0.880000 -8.880000 2.920000 -2.695305 -67.679001 4587.711914
0.880000 -8.880000 2.960000 43.413349 -70.530907 6859.327637
0.880000 -8.880000 3.000000 75.039909 -38.947113 7147.865234
0.880000 -8.880000 3.040000 73.323822 0.279800 5376.460938
0.880000 -8.880000 3.080000 49.908058 19.430973 2868.376953
0.880000 -8.880000 3.120000 31.507601 14.937659 1215.862549
0.880000 -8.880000 3.160000 32.071289 6.260519 1067.761719
0.880000 -8.880000 3.200000 41.197456 12.374339 1850.354736
0.880000 -8.840000 2.800000 -1.319263 26.148748 685.497498
0.880000 -8.840000 2.840000 -22.055325 3.800500 500.881165
0.880000 -8.840000 2.880000 -16.287338 -27.116467 1000.580078
0.880000 -8.840000 2.920000 11.358152 -42.322197 1920.176025
0.880000 -8.840000 2.960000 39.643944 -32.598091 2634.277832
0.880000 -8.840000 3.000000 51.045574 -9.258373 2691.368164
0.880000 -8.840000 3.040000 45.733368 9.757023 2186.740479
0.880000 -8.840000 3.080000 36.648460 17.338924 1643.747925
0.880000 -8.840000 3.120000 33.245869 20.708269 1534.120239
0.880000 -8.840000 3.160000 31.983654 29.443600 1889.879639
0.880000 -8.840000 3.200000 22.617359 42.669224 2332.207520
0.880000 -8.800000 2.800000 -24.825260 11.959698 759.327881
0.880000 -8.800000 2.840000 -25.486404 -8.411005 720.301819
0.880000 -8.800000 2.880000 -12.542414 -22.365589 657.531738
0.880000 -8.800000 2.920000 3.845434 -24.400465 610.170044
0.880000 -8.800000 2.960000 15.863143 -18.718838 602.034180
0.880000 -8.800000 3.000000 23.556467 -11.140545 679.018921
0.880000 -8.800000 3.040000 30.137459 -1.906573 911.901428
0.880000 -8.800000 3.080000 34.298027 12.463867 1331.702637
0.880000 -8.800000 3.120000 29.558569 31.340506 1855.936279
0.880000 -8.800000 3.160000 11.834757 46.397537 2292.792969
0.880000 -8.800000 3.200000 -13.636407 47.499619 2442.165527
0.920000 -9.200000 2.800000 -25.125160 -73.664322 6057.706055
0.920000 -9.200000 2.840000 1.870525 -64.409897 4152.133789
0.920000 -9.200000 2.880000 13.481483 -48.007870 2486.505859
0.920000 -9.200000 2.920000 15.066691 -37.202633 1611.041016
0.920000 -9.200000 2.960000 17.688972 -32.376148 1361.114746
0.920000 -9.200000 3.000000 24.111469 -24.649059 1188.939087
0.920000 -9.200000 3.040000 25.973793 -9.503399 764.952515
0.920000 -9.200000 3.080000 15.143856 5.233471 256.725586
0.920000 -9.200000 3.120000 -4.055671 6.765791 62.224396
0.920000 -9.200000 3.160000 -16.455200 -7.801790 331.641541
0.920000 -9.200000 3.200000 -10.747333 -25.982288 790.584473
0.920000 -9.160000 2.800000 28.173756 -70.581482 5775.505859
0.920000 -9.160000 2.840000 44.768333 -43.895195 3930.991699
0.920000 -9.160000 2.880000 42.974617 -18.909994 2204.405762
0.920000 -9.160000 2.920000 32.179520 -4.573055 1056.434326
0.920000 -9.160000 2.960000 21.943205 0.878103 482.275299
0.920000 -9.160000 3.000000 14.358306 3.403404 217.744110
0.920000 -9.160000 3.040000 6.370320 4.734097 62.992653
0.920000 -9.160000 3.080000 -2.511478 1.633459 8.975712
0.920000 -9.160000 3.120000 -7.286095 -7.402636 107.886192
0.920000 -9.160000 3.160000 -2.984915 -17.105946 301.523102
0.920000 -9.160000 3.200000 8.048679 -18.968832 424.597839
0.920000 -9.120000 2.800000 60.050095 -32.924774 4690.054688
0.920000 -9.120000 2.840000 60.971355 2.021805 3721.593750
0.920000 -9.120000 2.880000 41.542892 29.568724 2600.121338
0.920000 -9.120000 2.920000 11.603539 38.988388 1654.736450
0.920000 -9.120000 2.960000 -14.871494 29.000477 1062.188965
0.920000 -9.120000 3.000000 -27.297955 7.559303 802.321411
0.920000 -9.120000 3.040000 -23.395077 -13.254353 723.007446
0.920000 -9.120000 3.080000 -9.132341 -23.881790 653.739563
0.920000 -9.120000 3.120000 5.570609 -21.692175 501.582123
0.920000 -9.120000 3.160000 12.580902 -11.227761 284.341736
0.920000 -9.120000 3.200000 9.600293 -0.599491 92.525017
0.920000 -9.080000 2.800000 55.574425 8.805927 3166.061035
0.920000 -9.080000 2.840000 40.756741 45.045006 3690.164551
0.920000 -9.080000 2.880000 1.061161 65.691978 4316.562012
0.920000 -9.080000 2.920000 -45.924950 53.801056 5003.654785
0.920000 -9.080000 2.960000 -73.038559 11.975014 5478.031738
0.920000 -9.080000 3.000000 -63.708626 -35.837765 5343.134277
0.920000 -9.080000 3.040000 -26.023533 -60.887436 4384.503906
0.920000 -9.080000 3.080000 12.854748 -51.522411 2819.803467
0.920000 -9.080000 3.120000 28.055500 -21.343225 1242.644287
0.920000 -9.080000 3.160000 15.701177 3.492244 258.722717
0.920000 -9.080000 3.200000 -7.039627 6.119053 86.999161
0.920000 -9.040000 2.800000 30.169676 28.221935 1706.687012
0.920000 -9.040000 2.840000 -0.391843 60.747627 3690.427734
0.920000 -9.040000 2.880000 -56.648205 61.569584 6999.833008
0.920000 -9.040000 2.920000 -103.118820 15.523350 10874.465820
0.920000 -9.040000 2.960000 -102.777679 -55.337708 13625.512695
0.920000 -9.040000 3.000000 -50.966927 -105.085541 13640.598633
0.920000 -9.040000 3.040000 17.160751 -101.625717 10622.277344
0.920000 -9.040000 3.080000 55.165688 -54.232952 5984.466309
0.920000 -9.040000 3.120000 44.168228 -4.483689 1970.935913
0.920000 -9.040000 3.160000 6.076318 10.806292 153.697571
0.920000 -9.040000 3.200000 -19.872356 -10.433897 503.776764
0.920000 -9.000000 2.800000 10.085480 24.848282 719.154053
0.920000 -9.000000 2.840000 -35.978012 46.307297 3438.783203
0.920000 -9.000000 2.880000 -94.861755 17.264126 9296.802734
0.920000 -9.000000 2.920000 -115.261215 -58.164379 16668.242188
0.920000 -9.000000 2.960000 -69.369598 -130.985687 21969.390625
0.920000 -9.000000 3.000000 17.117779 -147.445114 22033.080078
0.920000 -9.000000 3.040000 84.185501 -97.420151 16577.884766
0.920000 -9.000000 3.080000 89.638550 -23.807098 8601.847656
0.920000 -9.000000 3.120000 44.594311 16.752274 2269.291260
0.920000 -9.000000 3.160000 -1.026104 3.717425 14.872141
0.920000 -9.000000 3.200000 -6.782999 -34.288952 1221.741211
0.920000 -8.960000 2.800000 5.685121 17.761238 347.782166
0.920000 -8.960000 2.840000 -49.832684 18.457018 2823.958008
0.920000 -8.960000 2.880000 -91.123726 -38.377411 9776.359375
0.920000 -8.960000 2.920000 -69.953667 -118.834427 19015.136719
0.920000 -8.960000 2.960000 11.726095 -159.833664 25684.302734
0.920000 -8.960000 3.000000 98.446640 -126.403732 25669.644531
0.920000 -8.960000 3.040000 129.666000 -44.905281 18829.755859
0.920000 -8.960000 3.080000 93.662262 21.264011 9224.777344
0.920000 -8.960000 3.120000 34.610771 29.749350 2082.929199
0.920000 -8.960000 3.160000 7.636772 -5.769861 91.611588
0.920000 -8.960000 3.200000 27.972916 -35.583309 2048.655762
0.920000 -8.920000 2.800000 5.459789 20.734608 459.733246
0.920000 -8.920000 2.840000 -44.984550 -3.979296 2039.444580
0.920000 -8.920000 2.880000 -54.048523 -71.496048 8032.927734
0.920000 -8.920000 2.920000 0.985107 -127.851608 16347.004883
0.920000 -8.920000 2.960000 85.816322 -122.395859 22345.187500
0.920000 -8.920000 3.000000 138.269226 -55.715752 22222.623047
0.920000 -8.920000 3.040000 124.860184 20.777363 16021.764648
0.920000 -8.920000 3.080000 69.247604 53.297775 7635.883301
0.920000 -8.920000 3.120000 25.673409 33.744347 1797.804810
0.920000 -8.920000 3.160000 25.983936 1.012096 676.189270
0.920000 -8.920000 3.200000 53.442467 -2.243611 2861.130859
0.920000 -8.880000 2.800000 -5.306315 27.193096 767.621460
0.920000 -8.880000 2.840000 -34.410149 -14.792601 1402.879395
0.920000 -8.880000 2.880000 -13.089939 -69.537766 5006.847656
0.920000 -8.880000 2.920000 49.387245 -88.116280 10203.578125
0.920000 -8.880000 2.960000 106.379135 -51.240055 13942.063477
0.920000 -8.880000 3.000000 116.741203 13.179932 13802.219727
0.920000 -8.880000 3.040000 81.344482 57.646221 9940.011719
0.920000 -8.880000 3.080000 37.896793 59.385284 4962.779297
0.920000 -8.880000 3.120000 21.522812 37.303097 1854.752441
0.920000 -8.880000 3.160000 32.325111 27.208239 1785.201172
0.920000 -8.880000 3.200000 41.111938 43.659756 3596.365723
0.920000 -8.840000 2.800000 -24.107418 20.632202 1006.855347
0.920000 -8.840000 2.840000 -26.085180 -19.507336 1060.972778
0.920000 -8.840000 2.880000 7.531742 -46.724747 2239.928955
0.920000 -8.840000 2.920000 51.424797 -37.605423 4058.677734
0.920000 -8.840000 2.960000 73.313507 0.042427 5374.872070
0.920000 -8.840000 3.000000 62.807873 37.187382 5327.730469
0.920000 -8.840000 3.040000 36.916206 52.173042 4084.832520
0.920000 -8.840000 3.080000 19.091526 48.442963 2711.207031
0.920000 -8.840000 3.120000 15.388824 45.144196 2274.814209
0.920000 -8.840000 3.160000 12.092557 53.332840 2990.621826
0.920000 -8.840000 3.200000 -5.266742 64.067711 4132.410156
0.920000 -8.800000 2.800000 -32.554020 -2.844429 1067.854980
0.920000 -8.800000 2.840000 -18.128500 -23.579597 884.639954
0.920000 -8.800000 2.880000 5.903250 -26.477818 735.923218
0.920000 -8.800000 2.920000 22.962318 -13.231155 702.331543
0.920000 -8.800000 2.960000 26.865623 3.761356 735.909546
0.920000 -8.800000 3.000000 23.654892 15.872154 811.479187
0.920000 -8.800000 3.040000 20.391792 25.192856 1050.505127
0.920000 -8.800000 3.080000 15.343597 37.495193 1641.315552
0.920000 -8.800000 3.120000 0.961224 50.990513 2600.956543
0.920000 -8.800000 3.160000 -24.436556 55.063560 3629.140869
0.920000 -8.800000 3.200000 -50.603340 40.960365 4238.449219
0.960000 -9.200000 2.800000 8.391143 -75.952087 5839.130859
0.960000 -9.200000 2.840000 31.421162 -55.999874 4123.275391
0.960000 -9.200000 2.880000 36.302864 -32.987991 2406.105469
0.960000 -9.200000 2.920000 30.776487 -18.523712 1290.320068
0.960000 -9.200000 2.960000 25.534117 -11.864988 792.769043
0.960000 -9.200000 3.000000 22.627911 -5.657295 544.027344
0.960000 -9.200000 3.040000 16.211573 2.052910 267.029541
0.960000 -9.200000 3.080000 3.637018 4.378420 32.398460
0.960000 -9.200000 3.120000 -7.381388 -4.936465 78.853577
0.960000 -9.200000 3.160000 -5.364697 -20.690498 456.876678
0.960000 -9.200000 3.200000 11.177584 -28.041792 911.280457
0.960000 -9.160000 2.800000 54.598846 -50.894989 5571.333984
0.960000 -9.160000 2.840000 61.615868 -18.090542 4123.782715
0.960000 -9.160000 2.880000 48.917183 8.690747 2468.419922
0.960000 -9.160000 2.920000 27.382523 20.170397 1156.647461
0.960000 -9.160000 2.960000 8.690891 17.986732 399.054138
0.960000 -9.160000 3.000000 -2.278178 9.348877 92.591591
0.960000 -9.160000 3.040000 -6.578297 -0.473175 43.497883
0.960000 -9.160000 3.080000 -5.673380 -9.817644 128.573380
0.960000 -9.160000 3.120000 0.737828 -16.807739 283.044495
0.960000 -9.160000 3.160000 11.254086 -17.185883 422.009033
0.960000 -9.160000 3.200000 19.582510 -8.135873 449.667114
0.960000 -9.120000 2.800000 69.159294 -3.397167 4794.548340
0.960000 -9.120000 2.840000 56.836956 33.779564 4371.498535
0.960000 -9.120000 2.880000 22.170324 55.504314 3572.252197
0.960000 -9.120000 2.920000 -17.987646 49.529510 2776.727783
0.960000 -9.120000 2.960000 -42.722885 20.134396 2230.638672
0.960000 -9.120000 3.000000 -41.263702 -14.618153 1916.383545
0.960000 -9.120000 3.040000 -19.412281 -35.616806 1645.393555
0.960000 -9.120000 3.080000 6.204145 -34.968750 1261.304932
0.960000 -9.120000 3.120000 20.343203 -18.958935 773.287109
0.960000 -9.120000 3.160000 18.074413 -1.144975 327.995392
0.960000 -9.120000 3.200000 5.077545 7.452051 81.314529
0.960000 -9.080000 2.800000 49.475838 35.757729 3726.473633
0.960000 -9.080000 2.840000 16.405102 69.096939 5043.514648
0.960000 -9.080000 2.880000 -39.051495 70.837257 6542.936523
0.960000 -9.080000 2.920000 -84.359039 29.899151 8010.407227
0.960000 -9.080000 2.960000 -88.178741 -33.078156 8869.654297
0.960000 -9.080000 3.000000 -47.286278 -78.948746 8468.896484
0.960000 -9.080000 3.040000 9.246784 -80.864716 6624.604980
0.960000 -9.080000 3.080000 43.429901 -45.238724 3932.698486
0.960000 -9.080000 3.120000 38.441956 -4.312235 1496.379272
0.960000 -9.080000 3.160000 8.907691 11.906890 221.121002
0.960000 -9.080000 3.200000 -15.665653 -1.624771 248.052567
0.960000 -9.040000 2.800000 16.246096 48.339241 2600.617676
0.960000 -9.040000 2.840000 -36.429688 67.176323 5839.780273
0.960000 -9.040000 2.880000 -98.558044 34.220482 10884.729492
0.960000 -9.040000 2.920000 -120.282272 -44.024151 16405.951172
0.960000 -9.040000 2.960000 -75.896049 -118.894379 19896.083984
0.960000 -9.040000 3.000000 8.941177 -138.366882 19225.339844
0.960000 -9.040000 3.040000 76.124695 -92.412384 14335.017578
0.960000 -9.040000 3.080000 84.239738 -21.561272 7561.221680
0.960000 -9.040000 3.120000 42.013992 19.629248 2150.482910
0.960000 -9.040000 3.160000 -4.171918 9.141136 100.965271
0.960000 -9.040000 3.200000 -14.296114 -28.900459 1039.615479
0.960000 -9.000000 2.800000 -7.961062 39.785271 1646.246338
0.960000 -9.000000 2.840000 -71.546066 32.312149 6162.915039
0.960000 -9.000000 2.880000 -115.188278 -36.846039 14625.970703
0.960000 -9.000000 2.920000 -88.306694 -129.018738 24443.906250
0.960000 -9.000000 2.960000 5.057577 -175.321182 30763.095703
0.960000 -9.000000 3.000000 103.191895 -138.113983 29724.039062
0.960000 -9.000000 3.040000 139.045944 -46.756939 21519.986328
0.960000 -9.000000 3.080000 98.790825 28.322067 10561.766602
0.960000 -9.000000 3.120000 30.534382 38.566921 2419.755859
0.960000 -9.000000 3.160000 -3.426045 -3.363111 23.048306
0.960000 -9.000000 3.200000 17.411238 -43.080723 2159.099854
0.960000 -8.960000 2.800000 -17.354914 27.386116 1051.192383
0.960000 -8.960000 2.840000 -73.925781 -11.276154 5592.172852
0.960000 -8.960000 2.880000 -77.360611 -97.713043 15532.502930
0.960000 -8.960000 2.920000 -2.450270 -165.986115 27557.394531
0.960000 -8.960000 2.960000 106.856247 -154.803238 35382.300781
0.960000 -8.960000 3.000000 172.477356 -66.281326 34141.652344
0.960000 -8.960000 3.040000 152.075684 33.664032 24260.281250
0.960000 -8.960000 3.080000 75.800888 75.095200 11385.063477
0.960000 -8.960000 3.120000 14.596884 45.611107 2293.442139
0.960000 -8.960000 3.160000 13.116341 -5.273087 199.843826
0.960000 -8.960000 3.200000 53.440170 -19.277735 3227.482910
0.960000 -8.920000 2.800000 -21.490620 20.489151 881.652039
0.960000 -8.920000 2.840000 -51.779785 -39.516075 4242.666504
0.960000 -8.920000 2.880000 -13.229816 -112.427673 12815.009766
0.960000 -8.920000 2.920000 80.055954 -131.043823 23581.439453
0.960000 -8.920000 2.960000 160.946808 -69.129715 30682.792969
0.960000 -8.920000 3.000000 169.261108 31.246330 29625.656250
0.960000 -8.920000 3.040000 106.549889 97.590645 20876.812500
0.960000 -8.920000 3.080000 31.704212 93.086014 9670.163086
0.960000 -8.920000 3.120000 3.103209 45.888401 2115.375244
0.960000 -8.920000 3.160000 26.010397 15.217850 908.123718
0.960000 -8.920000 3.200000 55.604073 31.717461 4097.810547
0.960000 -8.880000 2.800000 -28.727703 13.888845 1018.180969
0.960000 -8.880000 2.840000 -25.361675 -45.157539 2682.417969
0.960000 -8.880000 2.880000 33.766895 -81.857018 7840.774414
0.960000 -8.880000 2.920000 107.215210 -55.995125 14630.555664
0.960000 -8.880000 2.960000 137.303101 19.476326 19231.468750
0.960000 -8.880000 3.000000 103.172577 89.653763 18682.378906
0.960000 -8.880000 3.040000 38.034161 108.831039 13290.792969
0.960000 -8.880000 3.080000 -5.498880 80.410706 6496.119141
0.960000 -8.880000 3.120000 -5.582675 47.171452 2256.312012
0.960000 -8.880000 3.160000 13.376351 44.961559 2200.468750
0.960000 -8.880000 3.200000 12.064104 68.614006 4853.424316
0.960000 -8.840000 2.800000 -34.665737 -0.630371 1202.110718
0.960000 -8.840000 2.840000 -8.919838 -37.545853 1489.254517
0.960000 -8.840000 2.880000 40.855343 -38.551861 3155.405029
0.960000 -8.840000 2.920000 75.025208 1.549522 5631.182617
0.960000 -8.840000 2.960000 68.004143 53.126804 7447.020508
0.960000 -8.840000 3.000000 30.038567 80.606697 7399.754883
0.960000 -8.840000 3.040000 -6.476322 74.648582 5614.353516
0.960000 -8.840000 3.080000 -20.129871 55.815182 3520.546143
0.960000 -8.840000 3.120000 -18.453671 48.685974 2710.861816
0.960000 -8.840000 3.160000 -24.172468 55.650024 3681.233398
0.960000 -8.840000 3.200000 -47.251759 57.281815 5513.935059
0.960000 -8.800000 2.800000 -28.271467 -19.955280 1197.489136
0.960000 -8.800000 2.840000 -2.695259 -29.073490 852.532227
0.960000 -8.800000 2.880000 20.045549 -15.330441 636.846436
0.960000 -8.800000 2.920000 24.795979 8.621166 689.165100
0.960000 -8.800000 2.960000 14.006508 25.842148 863.998840
0.960000 -8.800000 3.000000 0.690445 31.488482 992.001160
0.960000 -8.800000 3.040000 -7.993111 33.449608 1182.765991
0.960000 -8.800000 3.080000 -17.406715 38.627693 1795.092407
0.960000 -8.800000 3.120000 -35.689262 42.071804 3043.760254
0.960000 -8.800000 3.160000 -60.104362 31.901163 4630.218750
0.960000 -8.800000 3.200000 -76.132858 4.147768 5813.416016
1.000000 -9.200000 2.800000 39.543449 -58.520634 4988.349121
1.000000 -9.200000 2.840000 53.333885 -30.060974 3748.165527
1.000000 -9.200000 2.880000 46.927048 -4.195365 2219.748779
1.000000 -9.200000 2.920000 30.974190 8.133906 1025.560913
1.000000 -9.200000 2.960000 17.546926 8.893036 386.980713
1.000000 -9.200000 3.000000 9.886284 6.113995 135.119537
1.000000 -9.200000 3.040000 4.205328 3.190632 27.864916
1.000000 -9.200000 3.080000 -0.809607 -2.797793 8.483110
1.000000 -9.200000 3.120000 -0.003429 -12.863359 165.466034
1.000000 -9.200000 3.160000 11.031114 -19.772461 512.635681
1.000000 -9.200000 3.200000 26.569195 -13.443204 886.641846
1.000000 -9.160000 2.800000 66.847435 -19.673225 4855.615234
1.000000 -9.160000 2.840000 61.871597 14.781527 4046.587891
1.000000 -9.160000 2.880000 36.939522 36.827335 2720.781006
1.000000 -9.160000 2.920000 7.116383 37.461369 1453.997070
1.000000 -9.160000 2.960000 -12.518797 21.683491 626.894043
1.000000 -9.160000 3.000000 -16.666021 1.844501 281.158447
1.000000 -9.160000 3.040000 -9.511223 -12.416367 244.629517
1.000000 -9.160000 3.080000 2.139088 -18.071074 331.139374
1.000000 -9.160000 3.120000 13.515059 -15.703033 429.242065
1.000000 -9.160000 3.160000 20.921597 -6.372957 478.327759
1.000000 -9.160000 3.200000 19.968832 7.047157 448.416656
1.000000 -9.120000 2.800000 60.816162 26.266857 4388.553223
1.000000 -9.120000 2.840000 34.653053 58.289402 4598.488281
1.000000 -9.120000 2.880000 -10.032564 64.495407 4260.310059
1.000000 -9.120000 2.920000 -47.725658 37.801949 3706.725830
1.000000 -9.120000 2.960000 -56.262951 -6.028442 3201.861572
1.000000 -9.120000 3.000000 -33.767986 -40.274620 2762.321777
1.000000 -9.120000 3.040000 1.402637 -47.397942 2248.532227
1.000000 -9.120000 3.080000 26.189289 -30.020422 1587.104492
1.000000 -9.120000 3.120000 29.248703 -5.219971 882.734741
1.000000 -9.120000 3.160000 15.400288 10.130560 339.797089
1.000000 -9.120000 3.200000 -2.196280 9.781582 100.502991
1.000000 -9.080000 2.800000 28.416824 54.179516 3742.935791
1.000000 -9.080000 2.840000 -18.663872 72.451225 5597.520508
1.000000 -9.080000 2.880000 -73.328514 47.144913 7599.713867
1.000000 -9.080000 2.920000 -95.606689 -15.528316 9381.767578
1.000000 -9.080000 2.960000 -65.510429 -77.186287 10249.338867
1.000000 -9.080000 3.000000 -2.290825 -97.671448 9544.959961
1.000000 -9.080000 3.040000 50.707718 -68.225342 7225.969727
1.000000 -9.080000 3.080000 61.793686 -17.079988 4110.185547
1.000000 -9.080000 3.120000 34.531944 16.424303 1462.212891
1.000000 -9.080000 3.160000 -0.355611 13.981344 195.604446
1.000000 -9.080000 3.200000 -13.985697 -11.629116 330.836060
1.000000 -9.040000 2.800000 -8.670834 54.234665 3016.582275
1.000000 -9.040000 2.840000 -68.417236 45.622604 6762.340820
1.000000 -9.040000 2.880000 -109.290344 -17.619347 12254.820312
1.000000 -9.040000 2.920000 -87.752213 -101.175819 17936.998047
1.000000 -9.040000 2.960000 -7.435848 -145.381042 21190.939453
1.000000 -9.040000 3.000000 78.891655 -117.317513 19987.291016
1.000000 -9.040000 3.040000 113.428116 -40.795746 14530.230469
1.000000 -9.040000 3.080000 82.386917 24.950970 7410.154785
1.000000 -9.040000 3.120000 24.154049 37.177170 1965.560059
1.000000 -9.040000 3.160000 -8.839364 2.974678 86.983063
1.000000 -9.040000 3.200000 4.070919 -34.582180 1212.499512
1.000000 -9.000000 2.800000 -31.998236 35.541313 2287.072021
1.000000 -9.000000 2.840000 -85.780380 -6.499655 7400.519043
1.000000 -9.000000 2.880000 -87.061653 -92.880638 16206.543945
1.000000 -9.000000 2.920000 -12.698503 -160.428192 25898.457031
1.000000 -9.000000 2.960000 94.846489 -150.599213 31675.980469
1.000000 -9.000000 3.000000 160.371033 -65.147545 29963.070312
1.000000 -9.000000 3.040000 142.117218 32.842281 21275.917969
1.000000 -9.000000 3.080000 67.550446 74.978485 10184.835938
1.000000 -9.000000 3.120000 4.901972 46.592300 2194.871826
1.000000 -9.000000 3.160000 0.011957 -6.829807 46.646408
1.000000 -9.000000 3.200000 39.887211 -27.931580 2371.162842
1.000000 -8.960000 2.800000 -38.167397 14.362740 1663.038452
1.000000 -8.960000 2.840000 -64.651337 -52.120232 6896.313965
1.000000 -8.960000 2.880000 -18.243179 -129.375870 17070.929688
1.000000 -8.960000 2.920000 85.232437 -146.617493 28761.257812
1.000000 -8.960000 2.960000 173.507111 -76.290855 35925.011719
1.000000 -8.960000 3.000000 181.127991 35.754139 34085.707031
1.000000 -8.960000 3.040000 109.132996 109.612122 23924.828125
1.000000 -8.960000 3.080000 22.321180 102.866661 11079.785156
1.000000 -8.960000 3.120000 -12.388382 44.767738 2157.622314
1.000000 -8.960000 3.160000 14.921117 2.038103 226.793594
1.000000 -8.960000 3.200000 56.542164 13.667940 3383.828857
1.000000 -8.920000 2.800000 -35.499249 -0.321298 1260.299927
1.000000 -8.920000 2.840000 -24.867727 -67.985695 5240.458496
1.000000 -8.920000 2.880000 50.333466 -106.829063 13945.907227
1.000000 -8.920000 2.920000 140.176544 -68.817261 24385.277344
1.000000 -8.920000 2.960000 173.562347 29.814486 31012.792969
1.000000 -8.920000 3.000000 123.919250 119.532104 29643.904297
1.000000 -8.920000 3.040000 33.746597 140.301117 20823.236328
1.000000 -8.920000 3.080000 -26.535034 94.595726 9652.459961
1.000000 -8.920000 3.120000 -23.799719 39.215183 2104.257324
1.000000 -8.920000 3.160000 12.777491 26.964781 890.363708
1.000000 -8.920000 3.200000 28.074083 58.224598 4178.257812
1.000000 -8.880000 2.800000 -31.672606 -10.477110 1112.923706
1.000000 -8.880000 2.840000 6.029390 -55.495682 3116.124268
1.000000 -8.880000 2.880000 76.020821 -50.301296 8309.385742
1.000000 -8.880000 2.920000 121.426941 14.473171 14953.974609
1.000000 -8.880000 2.960000 102.083649 94.998688 19445.822266
1.000000 -8.880000 3.000000 32.389393 133.658813 18913.750000
1.000000 -8.880000 3.040000 -33.446907 111.573685 13567.382812
1.000000 -8.880000 3.080000 -53.311256 62.162647 6706.285156
1.000000 -8.880000 3.120000 -33.707073 34.162086 2303.214844
1.000000 -8.880000 3.160000 -16.160236 43.677685 2168.893311
1.000000 -8.880000 3.200000 -31.064606 63.468185 4993.220215
1.000000 -8.840000 2.800000 -26.179489 -20.759193 1116.309814
1.000000 -8.840000 2.840000 15.104216 -34.525497 1420.147339
1.000000 -8.840000 2.880000 54.926445 -5.783215 3050.359863
1.000000 -8.840000 2.920000 57.974518 46.966885 5566.932617
1.000000 -8.840000 2.960000 20.552849 84.400887 7545.929199
1.000000 -8.840000 3.000000 -27.682560 83.130989 7677.085449
1.000000 -8.840000 3.040000 -53.985039 54.914696 5930.008301
1.000000 -8.840000 3.080000 -52.796432 30.241318 3702.000732
1.000000 -8.840000 3.120000 -45.724617 25.615280 2746.883057
1.000000 -8.840000 3.160000 -54.086090 29.198507 3777.857910
1.000000 -8.840000 3.200000 -74.983528 17.853554 5941.278809
1.000000 -8.800000 2.800000 -14.567558 -29.534544 1084.503052
1.000000 -8.800000 2.840000 10.045584 -22.907066 625.647461
1.000000 -8.800000 2.880000 19.406603 0.580559 376.953278
1.000000 -8.800000 2.920000 8.063637 21.523483 528.282593
1.000000 -8.800000 2.960000 -11.615448 26.962788 861.910583
1.000000 -8.800000 3.000000 -25.121792 20.960148 1070.432251
1.000000 -8.800000 3.040000 -31.042000 15.622200 1207.658936
1.000000 -8.800000 3.080000 -39.158672 14.522972 1744.318359
1.000000 -8.800000 3.120000 -54.964165 8.205297 3088.386230
1.000000 -8.800000 3.160000 -69.622566 -13.265049 5023.263184
1.000000 -8.800000 3.200000 -67.598602 -45.815281 6668.610840
1.040000 -9.200000 2.800000 54.273293 -25.516781 3596.696289
1.040000 -9.200000 2.840000 55.006138 5.336474 3054.153320
1.040000 -9.200000 2.880000 36.526989 26.363510 2029.255615
1.040000 -9.200000 2.920000 13.243277 29.005932 1016.728394
1.040000 -9.200000 2.960000 -1.583811 18.749268 354.043488
1.040000 -9.200000 3.000000 -5.305476 6.514187 70.582703
1.040000 -9.200000 3.040000 -3.014404 -2.003369 13.100122
1.040000 -9.200000 3.080000 1.549015 -7.612814 60.354393
1.040000 -9.200000 3.120000 9.207270 -10.696406 199.186920
1.040000 -9.200000 3.160000 19.618877 -7.148168 435.996674
1.040000 -9.200000 3.200000 25.789358 6.248761 704.138000
1.040000 -9.160000 2.800000 59.227798 12.563097 3665.763428
1.040000 -9.160000 2.840000 42.484741 42.346725 3598.198242
1.040000 -9.160000 2.880000 9.581237 52.551125 2853.420654
1.040000 -9.160000 2.920000 -19.698624 38.290340 1854.185913
1.040000 -9.160000 2.960000 -30.116669 11.218716 1032.873291
1.040000 -9.160000 3.000000 -21.060423 -11.560035 577.175781
1.040000 -9.160000 3.040000 -3.148298 -20.331272 423.272400
1.040000 -9.160000 3.080000 12.385418 -16.114979 413.091125
1.040000 -9.160000 3.120000 20.163925 -4.991230 431.496277
1.040000 -9.160000 3.160000 19.313240 7.654843 431.597870
1.040000 -9.160000 3.200000 10.197495 17.352257 405.089752
1.040000 -9.120000 2.800000 37.972279 45.209282 3485.772949
1.040000 -9.120000 2.840000 2.809662 64.981049 4230.430664
1.040000 -9.120000 2.880000 -40.227493 52.242584 4347.539062
1.040000 -9.120000 2.920000 -62.228897 11.139524 3996.524658
1.040000 -9.120000 2.960000 -48.855869 -32.355072 3433.746582
1.040000 -9.120000 3.000000 -11.627151 -51.646698 2802.572021
1.040000 -9.120000 3.040000 23.086626 -39.862389 2122.002441
1.040000 -9.120000 3.080000 35.608543 -11.871241 1408.894775
1.040000 -9.120000 3.120000 25.369602 10.836906 761.055237
1.040000 -9.120000 3.160000 6.050473 16.528614 309.803284
1.040000 -9.120000 3.200000 -8.037918 7.540322 121.464584
1.040000 -9.080000 2.800000 1.865822 56.088123 3149.358887
1.040000 -9.080000 2.840000 -46.548080 53.697319 5050.125977
1.040000 -9.080000 2.880000 -82.739311 8.829942 6923.761230
1.040000 -9.080000 2.920000 -73.750923 -53.971626 8352.134766
1.040000 -9.080000 2.960000 -20.586040 -91.574348 8809.646484
1.040000 -9.080000 3.000000 40.792503 -79.096992 7920.362305
1.040000 -9.080000 3.040000 69.894760 -30.519196 5816.698730
1.040000 -9.080000 3.080000 54.746651 15.388191 3233.992188
1.040000 -9.080000 3.120000 17.713669 28.825788 1144.700195
1.040000 -9.080000 3.160000 -7.961508 10.627552 176.330475
1.040000 -9.080000 3.200000 -6.329435 -15.106631 268.272064
1.040000 -9.040000 2.800000 -30.035126 42.530487 2710.951172
1.040000 -9.040000 2.840000 -76.123085 9.590456 5886.701172
1.040000 -9.040000 2.880000 -81.348549 -60.117271 10231.672852
1.040000 -9.040000 2.920000 -26.317297 -117.381714 14471.066406
1.040000 -9.040000 2.960000 57.364090 -115.654655 16666.638672
1.040000 -9.040000 3.000000 111.821976 -54.096741 15430.611328
1.040000 -9.040000 3.040000 103.115967 20.767244 11064.180664
1.040000 -9.040000 3.080000 49.088650 56.370792 5587.361816
1.040000 -9.040000 3.120000 -0.277020 38.460785 1479.308716
1.040000 -9.040000 3.160000 -8.696136 -2.350264 81.146530
1.040000 -9.040000 3.200000 18.587200 -23.877090 915.599487
1.040000 -9.000000 2.800000 -44.049252 15.993366 2196.124268
1.040000 -9.000000 2.840000 -67.006363 -42.120068 6263.952637
1.040000 -9.000000 2.880000 -27.867138 -110.009254 12878.613281
1.040000 -9.000000 2.920000 60.848045 -127.445221 19944.769531
1.040000 -9.000000 2.960000 138.272507 -69.867706 24000.781250
1.040000 -9.000000 3.000000 147.917603 25.211685 22515.246094
1.040000 -9.000000 3.040000 88.503494 90.007034 15934.134766
1.040000 -9.000000 3.080000 13.496328 86.336136 7636.079102
1.040000 -9.000000 3.120000 -19.175056 35.999989 1663.681885
1.040000 -9.000000 3.160000 2.647522 -5.286151 34.952766
1.040000 -9.000000 3.200000 41.867001 -1.463148 1754.986450
1.040000 -8.960000 2.800000 -39.911232 -7.775965 1653.372070
1.040000 -8.960000 2.840000 -27.445810 -70.408340 5710.606934
1.040000 -8.960000 2.880000 44.526711 -105.821167 13180.747070
1.040000 -8.960000 2.920000 129.911041 -69.039337 21643.308594
1.040000 -8.960000 2.960000 161.754913 25.324024 26805.958984
1.040000 -8.960000 3.000000 113.891449 111.645737 25436.031250
1.040000 -8.960000 3.040000 25.779621 131.530212 17964.785156
1.040000 -8.960000 3.080000 -34.436863 85.152000 8436.760742
1.040000 -8.960000 3.120000 -31.862513 26.310158 1707.444092
1.040000 -8.960000 3.160000 8.488527 8.572086 145.535767
1.040000 -8.960000 3.200000 32.950966 37.313465 2478.060791
1.040000 -8.920000 2.800000 -27.603060 -20.388432 1177.617065
1.040000 -8.920000 2.840000 13.656548 -63.369766 4202.228516
1.040000 -8.920000 2.880000 87.102791 -54.050980 10508.404297
1.040000 -8.920000 2.920000 133.300507 17.817987 18086.505859
1.040000 -8.920000 2.960000 108.894073 105.671684 23024.423828
1.040000 -8.920000 3.000000 28.838612 146.237198 22216.984375
1.040000 -8.920000 3.040000 -46.645752 117.020515 15869.626953
1.040000 -8.920000 3.080000 -67.885818 54.432518 7571.383301
1.040000 -8.920000 3.120000 -38.891228 15.798786 1762.129272
1.040000 -8.920000 3.160000 -6.704628 24.893703 664.648499
1.040000 -8.920000 3.200000 -11.331786 54.861916 3138.239258
1.040000 -8.880000 2.800000 -16.790659 -24.305964 872.706055
1.040000 -8.880000 2.840000 31.525343 -36.303013 2311.755859
1.040000 -8.880000 2.880000 77.519562 2.674030 6016.432617
1.040000 -8.880000 2.920000 76.454475 71.165970 10909.881836
1.040000 -8.880000 2.960000 21.760361 118.174751 14438.785156
1.040000 -8.880000 3.000000 -47.458260 110.075180 14368.831055
1.040000 -8.880000 3.040000 -83.181190 60.772148 10612.364258
1.040000 -8.880000 3.080000 -72.373474 15.344275 5473.366699
1.040000 -8.880000 3.120000 -44.398155 5.158004 1997.801147
1.040000 -8.880000 3.160000 -37.019264 20.526863 1791.778076
1.040000 -8.880000 3.200000 -57.977013 26.509945 4064.111084
1.040000 -8.840000 2.800000 -9.170971 -26.254850 773.423828
1.040000 -8.840000 2.840000 25.080780 -15.249708 861.599121
1.040000 -8.840000 2.880000 37.155117 24.213348 1966.788940
1.040000 -8.840000 2.920000 11.651649 61.432854 3909.756592
1.040000 -8.840000 2.960000 -33.827850 67.017014 5635.603516
1.040000 -8.840000 3.000000 -66.339760 40.111977 6009.934570
1.040000 -8.840000 3.040000 -69.253937 6.312878 4835.960449
1.040000 -8.840000 3.080000 -55.150646 -10.088932 3143.380371
1.040000 -8.840000 3.120000 -48.201115 -9.440439 2412.469238
1.040000 -8.840000 3.160000 -56.770172 -11.999825 3366.848389
1.040000 -8.840000 3.200000 -65.688057 -32.545479 5374.128906
1.040000 -8.800000 2.800000 -0.508427 -28.343105 803.590088
1.040000 -8.800000 2.840000 13.037279 -12.790285 333.562042
1.040000 -8.800000 2.880000 7.501686 6.955160 104.649551
1.040000 -8.800000 2.920000 -10.955883 13.984610 315.600677
1.040000 -8.800000 2.960000 -26.284355 5.767063 724.126343
1.040000 -8.800000 3.000000 -30.398947 -6.226013 962.859192
1.040000 -8.800000 3.040000 -29.934309 -12.146301 1043.595459
1.040000 -8.800000 3.080000 -35.038040 -15.682523 1473.605835
1.040000 -8.800000 3.120000 -44.271885 -28.381287 2765.497070
1.040000 -8.800000 3.160000 -44.039787 -53.327873 4783.364746
1.040000 -8.800000 3.200000 -23.739136 -77.793488 6615.373047
1.080000 -9.200000 2.800000 44.545387 7.521196 2040.859863
1.080000 -9.200000 2.840000 33.631229 32.564205 2191.487061
1.080000 -9.200000 2.880000 8.988093 42.079948 1851.507812
1.080000 -9.200000 2.920000 -12.977238 32.561592 1228.666016
1.080000 -9.200000 2.960000 -20.897751 13.885862 629.533203
1.080000 -9.200000 3.000000 -15.639860 -1.324225 246.358795
1.080000 -9.200000 3.040000 -5.310598 -7.737728 88.074890
1.080000 -9.200000 3.080000 4.030945 -7.395496 70.941879
1.080000 -9.200000 3.120000 11.195142 -2.963684 134.114624
1.080000 -9.200000 3.160000 15.235549 5.647734 264.018860
1.080000 -9.200000 3.200000 12.074342 17.253357 443.468048
1.080000 -9.160000 2.800000 34.715782 31.968456 2227.167725
1.080000 -9.160000 2.840000 11.022019 51.467278 2770.365479
1.080000 -9.160000 2.880000 -20.839676 47.618248 2701.789551
1.080000 -9.160000 2.920000 -40.131596 22.695045 2125.609863
1.080000 -9.160000 2.960000 -36.619404 -6.205742 1379.491943
1.080000 -9.160000 3.000000 -16.876335 -22.162125 775.970459
1.080000 -9.160000 3.040000 4.110014 -20.466629 435.775116
1.080000 -9.160000 3.080000 15.583973 -8.026514 307.285156
1.080000 -9.160000 3.120000 15.935436 5.675641 286.151031
1.080000 -9.160000 3.160000 8.631149 15.056224 301.186615
1.080000 -9.160000 3.200000 -2.683250 17.766426 322.845734
1.080000 -9.120000 2.800000 10.656136 46.319523 2259.051514
1.080000 -9.120000 2.840000 -24.521046 51.714966 3275.719482
1.080000 -9.120000 2.880000 -55.125404 26.271753 3729.015381
1.080000 -9.120000 2.920000 -57.421902 -15.254771 3529.982910
1.080000 -9.120000 2.960000 -29.502708 -44.913284 2887.612793
1.080000 -9.120000 3.000000 8.004152 -45.187153 2105.945312
1.080000 -9.120000 3.040000 30.538494 -21.645117 1401.110718
1.080000 -9.120000 3.080000 28.795551 5.188856 856.108032
1.080000 -9.120000 3.120000 11.913390 18.263563 475.486603
1.080000 -9.120000 3.160000 -4.474903 14.905488 242.198334
1.080000 -9.120000 3.200000 -11.096999 3.264540 133.800613
1.080000 -9.080000 2.800000 -17.656368 42.696484 2134.737061
1.080000 -9.080000 2.840000 -54.792809 25.261511 3640.395996
1.080000 -9.080000 2.880000 -66.864990 -21.380924 4928.070801
1.080000 -9.080000 2.920000 -37.530342 -65.006493 5634.371094
1.080000 -9.080000 2.960000 15.402014 -72.896614 5551.138672
1.080000 -9.080000 3.000000 55.006870 -40.742477 4685.705078
1.080000 -9.080000 3.040000 57.168289 4.852085 3291.756104
1.080000 -9.080000 3.080000 29.018341 31.109150 1809.843384
1.080000 -9.080000 3.120000 -1.487860 26.171923 687.183289
1.080000 -9.080000 3.160000 -11.794086 4.255227 157.207413
1.080000 -9.080000 3.200000 -1.086925 -11.904547 142.899643
1.080000 -9.040000 2.800000 -36.750961 22.760220 1868.660767
1.080000 -9.040000 2.840000 -59.098976 -17.092966 3784.858398
1.080000 -9.040000 2.880000 -38.035858 -68.419960 6128.017578
1.080000 -9.040000 2.920000 21.070913 -88.155357 8215.350586
1.080000 -9.040000 2.960000 77.574631 -55.896629 9142.255859
1.080000 -9.040000 3.000000 90.974205 6.053538 8312.951172
1.080000 -9.040000 3.040000 56.561691 52.397381 5944.710449
1.080000 -9.040000 3.080000 7.357398 54.834267 3060.928223
1.080000 -9.040000 3.120000 -17.684946 23.938122 885.791016
1.080000 -9.040000 3.160000 -7.084182 -5.586284 81.392197
1.080000 -9.040000 3.200000 18.701229 -8.522051 422.361328
1.080000 -9.000000 2.800000 -38.593346 -2.214619 1494.350830
1.080000 -9.000000 2.840000 -32.893139 -50.078049 3589.769531
1.080000 -9.000000 2.880000 18.413918 -80.665054 6845.923340
1.080000 -9.000000 2.920000 83.079033 -58.570679 10332.650391
1.080000 -9.000000 2.960000 111.055916 8.291162 12402.159180
1.080000 -9.000000 3.000000 80.305267 72.834129 11753.746094
1.080000 -9.000000 3.040000 17.116184 90.557907 8493.698242
1.080000 -9.000000 3.080000 -28.759012 58.344402 4231.150391
1.080000 -9.000000 3.120000 -29.068027 13.488461 1026.888794
1.080000 -9.000000 3.160000 1.377281 -3.692354 15.530382
1.080000 -9.000000 3.200000 24.477062 14.557564 811.049255
1.080000 -8.960000 2.800000 -26.487144 -19.256035 1072.363770
1.080000 -8.960000 2.840000 5.614609 -54.107903 2959.188965
1.080000 -8.960000 2.880000 64.593964 -48.213676 6496.938965
1.080000 -8.960000 2.920000 103.192719 8.369091 10718.779297
1.080000 -8.960000 2.960000 85.212067 79.396103 13564.837891
1.080000 -8.960000 3.000000 20.917814 113.195885 13250.863281
1.080000 -8.960000 3.040000 -41.311863 89.462860 9710.273438
1.080000 -8.960000 3.080000 -59.245857 36.168217 4818.211426
1.080000 -8.960000 3.120000 -33.331871 0.921997 1111.863770
1.080000 -8.960000 3.160000 -1.036470 6.551312 43.993965
1.080000 -8.960000 3.200000 2.288714 34.301468 1181.828857
1.080000 -8.920000 2.800000 -11.635818 -23.571419 691.004028
1.080000 -8.920000 2.840000 30.114670 -32.563190 1967.254639
1.080000 -8.920000 2.880000 69.936821 2.917540 4899.670898
1.080000 -8.920000 2.920000 67.664909 64.665192 8760.126953
1.080000 -8.920000 2.960000 16.457281 106.640411 11643.019531
1.080000 -8.920000 3.000000 -48.292923 97.017639 11744.627930
1.080000 -8.920000 3.040000 -80.992233 47.538673 8819.666992
1.080000 -8.920000 3.080000 -67.175812 0.934313 4513.462891
1.080000 -8.920000 3.120000 -33.426689 -10.159791 1220.564819
1.080000 -8.920000 3.160000 -17.948841 8.594454 396.025513
1.080000 -8.920000 3.200000 -33.295849 24.186449 1693.597900
1.080000 -8.880000 2.800000 -2.747733 -20.893126 444.072754
1.080000 -8.880000 2.840000 29.303972 -7.971731 922.271301
1.080000 -8.880000 2.880000 38.748806 33.378899 2615.620850
1.080000 -8.880000 2.920000 8.502861 71.656776 5206.992676
1.080000 -8.880000 2.960000 -43.329090 74.347977 7405.031738
1.080000 -8.880000 3.000000 -79.442070 38.966507 7829.431152
1.080000 -8.880000 3.040000 -78.210434 -5.375256 6145.765625
1.080000 -8.880000 3.080000 -52.072716 -26.995470 3440.322998
1.080000 -8.880000 3.120000 -31.814972 -21.059488 1455.694458
1.080000 -8.880000 3.160000 -34.551773 -10.077141 1295.373779
1.080000 -8.880000 3.200000 -48.754982 -17.388906 2679.422363
1.080000 -8.840000 2.800000 1.132002 -19.726000 390.396515
1.080000 -8.840000 2.840000 15.345502 -0.074499 235.489990
1.080000 -8.840000 2.880000 4.794918 26.139830 706.281921
1.080000 -8.840000 2.920000 -25.729767 34.336823 1841.038208
1.080000 -8.840000 2.960000 -52.741650 15.884964 3034.013672
1.080000 -8.840000 3.000000 -57.418179 -14.168724 3497.599854
1.080000 -8.840000 3.040000 -43.010109 -33.709229 2986.181641
1.080000 -8.840000 3.080000 -28.445862 -35.940315 2100.873291
1.080000 -8.840000 3.120000 -26.348516 -33.660446 1827.270020
1.080000 -8.840000 3.160000 -30.030968 -42.156292 2679.011963
1.080000 -8.840000 3.200000 -22.888859 -60.760651 4215.756348
1.080000 -8.800000 2.800000 7.144228 -21.539366 514.984253
1.080000 -8.800000 2.840000 9.177025 -7.919645 146.938568
1.080000 -8.800000 2.880000 -1.916153 -0.326277 3.778099
1.080000 -8.800000 2.920000 -14.062136 -6.145000 235.504700
1.080000 -8.800000 2.960000 -16.346275 -18.347015 603.813721
1.080000 -8.800000 3.000000 -10.812502 -25.472069 765.736511
1.080000 -8.800000 3.040000 -7.971634 -26.066719 743.020752
1.080000 -8.800000 3.080000 -11.865505 -30.004030 1041.031982
1.080000 -8.800000 3.120000 -13.047251 -44.883682 2184.775635
1.080000 -8.800000 3.160000 1.209560 -63.787209 4070.270996
1.080000 -8.800000 3.200000 30.710417 -69.790649 5813.864746
1.120000 -9.200000 2.800000 17.491194 22.354372 805.659790
1.120000 -9.200000 2.840000 2.277684 36.599648 1344.722046
1.120000 -9.200000 2.880000 -19.160727 34.805782 1578.575928
1.120000 -9.200000 2.920000 -32.492470 18.569702 1400.594482
1.120000 -9.200000 2.960000 -30.951012 -0.603655 958.329529
1.120000 -9.200000 3.000000 -18.957933 -11.877180 500.470642
1.120000 -9.200000 3.040000 -5.718581 -12.630709 192.236969
1.120000 -9.200000 3.080000 2.897714 -6.867918 55.565041
1.120000 -9.200000 3.120000 6.109106 1.009524 38.340317
1.120000 -9.200000 3.160000 4.385215 8.917921 98.759430
1.120000 -9.200000 3.200000 -2.730034 14.506426 217.889465
1.120000 -9.160000 2.800000 6.748625 29.736389 929.796814
1.120000 -9.160000 2.840000 -15.899719 38.196648 1711.784912
1.120000 -9.160000 2.880000 -38.758190 25.652060 2160.225342
1.120000 -9.160000 2.920000 -45.247055 -0.076379 2047.301880
1.120000 -9.160000 2.960000 -32.051201 -21.722429 1499.143311
1.120000 -9.160000 3.000000 -10.033491 -27.297855 845.843872
1.120000 -9.160000 3.040000 6.655064 -17.929491 365.756531
1.120000 -9.160000 3.080000 11.418896 -3.343541 141.570435
1.120000 -9.160000 3.120000 6.641772 7.736799 103.971207
1.120000 -9.160000 3.160000 -2.185605 12.167717 152.830200
1.120000 -9.160000 3.200000 -11.022066 10.153410 224.577667
1.120000 -9.120000 2.800000 -8.011211 31.244226 1040.381104
1.120000 -9.120000 2.840000 -35.315018 27.188633 1986.372314
1.120000 -9.120000 2.880000 -50.984917 0.729780 2599.994141
1.120000 -9.120000 2.920000 -41.037430 -29.888727 2577.406738
1.120000 -9.120000 2.960000 -12.346211 -43.066044 2007.113037
1.120000 -9.120000 3.000000 14.521740 -32.160847 1245.201050
1.120000 -9.120000 3.040000 23.532600 -8.875543 632.558533
1.120000 -9.120000 3.080000 14.640230 9.301643 300.856903
1.120000 -9.120000 3.120000 -0.354819 13.581545 184.584259
1.120000 -9.120000 3.160000 -10.194982 7.282771 156.976410
1.120000 -9.120000 3.200000 -11.687525 -1.463245 138.739319
1.120000 -9.080000 2.800000 -22.608658 23.702850 1072.976562
1.120000 -9.080000 2.840000 -44.733154 3.539876 2013.585815
1.120000 -9.080000 2.880000 -41.908463 -30.608025 2693.170410
1.120000 -9.080000 2.920000 -11.937551 -51.836227 2829.499512
1.120000 -9.080000 2.960000 23.869200 -43.240280 2439.460449
1.120000 -9.080000 3.000000 40.067871 -12.683132 1766.296143
1.120000 -9.080000 3.040000 29.060215 15.737236 1092.156738
1.120000 -9.080000 3.080000 5.074654 23.716774 588.237488
1.120000 -9.080000 3.120000 -11.346939 12.518695 285.470764
1.120000 -9.080000 3.160000 -11.303247 -2.582895 134.434753
1.120000 -9.080000 3.200000 -1.395620 -8.456747 73.464325
1.120000 -9.040000 2.800000 -30.079227 8.420607 975.666565
1.120000 -9.040000 2.840000 -35.593681 -21.642380 1735.302734
1.120000 -9.040000 2.880000 -11.045332 -47.832237 2409.922119
1.120000 -9.040000 2.920000 28.241514 -45.022621 2824.619629
1.120000 -9.040000 2.960000 52.047989 -12.366487 2861.923096
1.120000 -9.040000 3.000000 42.938591 25.438217 2490.825684
1.120000 -9.040000 3.040000 11.369529 40.940063 1805.354980
1.120000 -9.040000 3.080000 -15.631823 27.927797 1024.315674
1.120000 -9.040000 3.120000 -19.649189 4.009960 402.170410
1.120000 -9.040000 3.160000 -5.094065 -8.378925 96.155884
1.120000 -9.040000 3.200000 9.173231 -2.142809 88.739799
1.120000 -9.000000 2.800000 -26.519192 -7.293897 756.468445
1.120000 -9.000000 2.840000 -12.320107 -32.993057 1240.326904
1.120000 -9.000000 2.880000 22.792219 -37.067978 1893.520264
1.120000 -9.000000 2.920000 50.875595 -8.986912 2669.090820
1.120000 -9.000000 2.960000 47.028435 32.558975 3271.760498
1.120000 -9.000000 3.000000 13.276501 55.995457 3311.756592
1.120000 -9.000000 3.040000 -23.289438 45.762573 2636.611084
1.120000 -9.000000 3.080000 -35.851135 15.351889 1520.984375
1.120000 -9.000000 3.120000 -21.365385 -7.288866 509.607239
1.120000 -9.000000 3.160000 -0.093602 -6.135030 37.647354
1.120000 -9.000000 3.200000 6.020190 10.632440 149.291473
1.120000 -8.960000 2.800000 -15.736853 -15.591951 490.757477
1.120000 -8.960000 2.840000 9.000953 -24.998524 705.943359
1.120000 -8.960000 2.880000 35.817249 -6.523550 1325.432129
1.120000 -8.960000 2.920000 38.001472 30.834082 2394.852539
1.120000 -8.960000 2.960000 8.636392 58.233047 3465.675049
1.120000 -8.960000 3.000000 -31.353069 53.639690 3860.231201
1.120000 -8.960000 3.040000 -52.209450 22.403122 3227.726562
1.120000 -8.960000 3.080000 -42.525940 -8.569083 1881.884766
1.120000 -8.960000 3.120000 -17.880367 -16.564005 594.073792
1.120000 -8.960000 3.160000 -3.725339 -2.815540 21.805416
1.120000 -8.960000 3.200000 -10.969621 12.023405 264.894836
1.120000 -8.920000 2.800000 -6.065765 -15.473827 276.232849
1.120000 -8.920000 2.840000 14.852100 -8.163937 287.234741
1.120000 -8.920000 2.880000 21.502457 18.715939 812.641968
1.120000 -8.920000 2.920000 1.182967 44.026936 1939.770508
1.120000 -8.920000 2.960000 -34.208454 44.707779 3169.003906
1.120000 -8.920000 3.000000 -58.261322 18.304008 3729.418213
1.120000 -8.920000 3.040000 -54.722324 -14.547022 3206.148438
1.120000 -8.920000 3.080000 -31.867704 -30.031473 1917.439941
1.120000 -8.920000 3.120000 -12.704074 -23.011292 690.913025
1.120000 -8.920000 3.160000 -12.031183 -9.314535 231.509949
1.120000 -8.920000 3.200000 -23.805626 -7.839281 628.162170
1.120000 -8.880000 2.800000 -1.763572 -13.208659 177.578857
1.120000 -8.880000 2.840000 7.260518 1.050947 53.819611
1.120000 -8.880000 2.880000 -2.539738 19.791920 398.170349
1.120000 -8.880000 2.920000 -27.460068 23.470261 1304.908447
1.120000 -8.880000 2.960000 -48.122749 5.049288 2341.294434
1.120000 -8.880000 3.000000 -48.339985 -22.554996 2845.481934
1.120000 -8.880000 3.040000 -30.593658 -39.415756 2489.573730
1.120000 -8.880000 3.080000 -12.146746 -37.989311 1590.731201
1.120000 -8.880000 3.120000 -6.720965 -28.739700 871.141785
1.120000 -8.880000 3.160000 -11.491375 -27.134211 868.317078
1.120000 -8.880000 3.200000 -12.351063 -36.950432 1517.883179
1.120000 -8.840000 2.800000 1.218278 -14.316592 206.449020
1.120000 -8.840000 2.840000 0.995949 -3.007074 10.034410
1.120000 -8.840000 2.880000 -11.743629 1.960606 141.756805
1.120000 -8.840000 2.920000 -24.980247 -7.926249 686.838196
1.120000 -8.840000 2.960000 -25.584900 -25.994005 1330.275391
1.120000 -8.840000 3.000000 -13.322733 -37.940132 1616.948853
1.120000 -8.840000 3.040000 -0.155077 -37.493969 1405.821777
1.120000 -8.840000 3.080000 4.011000 -32.380814 1064.605225
1.120000 -8.840000 3.120000 2.515169 -34.050262 1165.746460
1.120000 -8.840000 3.160000 7.320494 -43.388958 1936.191284
1.120000 -8.840000 3.200000 24.112402 -48.998539 2982.264893
1.120000 -8.800000 2.800000 9.380588 -16.084541 346.707886
1.120000 -8.800000 2.840000 7.107430 -9.769152 145.951889
1.120000 -8.800000 2.880000 1.176933 -11.704420 138.378632
1.120000 -8.800000 2.920000 1.453404 -19.674829 389.211304
1.120000 -8.800000 2.960000 9.198671 -24.014114 661.293213
1.120000 -8.800000 3.000000 15.737112 -20.545441 669.771851
1.120000 -8.800000 3.040000 14.250963 -16.624260 479.455994
1.120000 -8.800000 3.080000 10.174871 -22.023371 588.556885
1.120000 -8.800000 3.120000 16.461863 -35.016506 1497.148682
1.120000 -8.800000 3.160000 37.807022 -41.004879 3110.770996
1.120000 -8.800000 3.200000 62.141685 -27.264034 4604.916504
1.160000 -9.200000 2.800000 -7.061797 12.521246 206.650574
1.160000 -9.200000 2.840000 -17.976576 18.380836 661.012451
1.160000 -9.200000 2.880000 -30.757744 12.712576 1107.648438
1.160000 -9.200000 2.920000 -35.675674 -1.579187 1275.247559
1.160000 -9.200000 2.960000 -29.358662 -15.446104 1100.513184
1.160000 -9.200000 3.000000 -16.406540 -21.364002 725.595154
1.160000 -9.200000 3.040000 -4.413720 -18.273853 353.414642
1.160000 -9.200000 3.080000 1.848972 -10.232497 108.122704
1.160000 -9.200000 3.120000 1.912175 -2.013314 7.709846
1.160000 -9.200000 3.160000 -2.486587 3.311434 17.148710
1.160000 -9.200000 3.200000 -8.969939 3.859420 95.354927
1.160000 -9.160000 2.800000 -7.709803 10.169118 162.852020
1.160000 -9.160000 2.840000 -23.305950 13.183162 716.963013
1.160000 -9.160000 2.880000 -36.257610 1.252491 1316.182983
1.160000 -9.160000 2.920000 -35.589275 -17.546228 1574.466675
1.160000 -9.160000 2.960000 -21.476421 -30.119617 1368.427979
1.160000 -9.160000 3.000000 -3.783577 -29.373459 877.115540
1.160000 -9.160000 3.040000 7.166273 -18.440737 391.416229
1.160000 -9.160000 3.080000 7.986752 -5.757996 96.942719
1.160000 -9.160000 3.120000 1.981213 2.269604 9.076305
1.160000 -9.160000 3.160000 -5.792574 4.037320 49.853867
1.160000 -9.160000 3.200000 -11.782974 0.690344 139.315063
1.160000 -9.120000 2.800000 -9.493081 10.944647 209.903885
1.160000 -9.120000 2.840000 -27.422161 6.219625 790.658630
1.160000 -9.120000 2.880000 -34.838490 -12.643265 1373.572510
1.160000 -9.120000 2.920000 -24.558649 -31.209671 1577.170898
1.160000 -9.120000 2.960000 -4.163418 -35.866997 1303.775513
1.160000 -9.120000 3.000000 11.842211 -25.106243 770.561401
1.160000 -9.120000 3.040000 14.737664 -8.768679 294.088470
1.160000 -9.120000 3.080000 6.969831 2.078846 52.900154
1.160000 -9.120000 3.120000 -3.012930 3.663467 22.498741
1.160000 -9.120000 3.160000 -9.008628 -0.627282 81.548866
1.160000 -9.120000 3.200000 -10.122125 -5.969379 138.090881
1.160000 -9.080000 2.800000 -14.860878 10.500344 331.102905
1.160000 -9.080000 2.840000 -28.353405 -3.025118 813.066956
1.160000 -9.080000 2.880000 -25.173058 -23.431980 1182.740479
1.160000 -9.080000 2.920000 -6.814960 -33.993797 1202.021973
1.160000 -9.080000 2.960000 12.355388 -27.003384 881.838379
1.160000 -9.080000 3.000000 18.748638 -9.720159 445.992920
1.160000 -9.080000 3.040000 10.959229 3.825454 134.738815
1.160000 -9.080000 3.080000 -1.379278 5.727646 34.708336
1.160000 -9.080000 3.120000 -8.152012 -0.837110 67.156052
1.160000 -9.080000 3.160000 -7.167035 -7.504782 107.688141
1.160000 -9.080000 3.200000 -3.124079 -9.475458 99.544174
1.160000 -9.040000 2.800000 -20.430342 5.161822 444.043274
1.160000 -9.040000 2.840000 -23.986851 -11.702356 712.314148
1.160000 -9.040000 2.880000 -11.655238 -25.247478 773.279785
1.160000 -9.040000 2.920000 6.603313 -23.685818 604.621704
1.160000 -9.040000 2.960000 15.879868 -9.152862 335.945068
1.160000 -9.040000 3.000000 10.306686 5.209534 133.367020
1.160000 -9.040000 3.040000 -2.635613 8.227909 74.644943
1.160000 -9.040000 3.080000 -10.675473 0.351587 114.089340
1.160000 -9.040000 3.120000 -8.529194 -8.804151 150.260223
1.160000 -9.040000 3.160000 -1.197622 -11.017112 122.811050
1.160000 -9.040000 3.200000 2.969162 -6.655924 53.117245
1.160000 -9.000000 2.800000 -21.475561 -3.344248 472.383728
1.160000 -9.000000 2.840000 -16.231129 -15.652376 508.446411
1.160000 -9.000000 2.880000 -2.781030 -18.251841 340.863831
1.160000 -9.000000 2.920000 6.570458 -8.897772 122.341263
1.160000 -9.000000 2.960000 3.827630 3.101646 24.270962
1.160000 -9.000000 3.000000 -7.157846 6.466931 93.055962
1.160000 -9.000000 3.040000 -15.177908 -1.119189 231.621475
1.160000 -9.000000 3.080000 -12.954428 -11.589753 302.139587
1.160000 -9.000000 3.120000 -3.609870 -15.230315 244.993652
1.160000 -9.000000 3.160000 3.539193 -10.066498 113.860268
1.160000 -9.000000 3.200000 2.625123 -2.733114 14.361185
1.160000 -8.960000 2.800000 -17.540047 -10.349460 414.764526
1.160000 -8.960000 2.840000 -10.120101 -14.588339 315.236084
1.160000 -8.960000 2.880000 -3.399765 -10.298706 117.621750
1.160000 -8.960000 2.920000 -4.615370 -2.895130 29.683416
1.160000 -8.960000 2.960000 -12.331818 -1.236017 153.601471
1.160000 -8.960000 3.000000 -18.089586 -8.269150 395.611969
1.160000 -8.960000 3.040000 -15.217358 -18.084702 558.624390
1.160000 -8.960000 3.080000 -5.453560 -22.082256 517.367371
1.160000 -8.960000 3.120000 3.142453 -17.457121 314.626068
1.160000 -8.960000 3.160000 4.300403 -9.458479 107.956284
1.160000 -8.960000 3.200000 -0.790329 -5.752290 33.713455
1.160000 -8.920000 2.800000 -11.920517 -13.913601 335.687012
1.160000 -8.920000 2.840000 -7.973016 -13.076901 234.574341
1.160000 -8.920000 2.880000 -8.888660 -9.914902 177.313568
1.160000 -8.920000 2.920000 -13.857656 -11.002453 313.088593
1.160000 -8.920000 2.960000 -16.323021 -18.342560 602.890503
1.160000 -8.920000 3.000000 -11.354493 -26.751722 844.579163
1.160000 -8.920000 3.040000 -1.187967 -29.236156 856.164124
1.160000 -8.920000 3.080000 7.036072 -24.251080 637.621155
1.160000 -8.920000 3.120000 8.542303 -16.979607 361.277985
1.160000 -8.920000 3.160000 5.287424 -13.739471 216.729919
1.160000 -8.920000 3.200000 3.204681 -15.838280 261.121094
1.160000 -8.880000 2.800000 -6.368657 -15.876862 292.634521
1.160000 -8.880000 2.840000 -6.061440 -14.803024 255.870590
1.160000 -8.880000 2.880000 -9.080570 -16.942001 369.488159
1.160000 -8.880000 2.920000 -9.393597 -24.388924 683.059204
1.160000 -8.880000 2.960000 -2.390682 -31.859863 1020.766235
1.160000 -8.880000 3.000000 8.916731 -32.393158 1128.824707
1.160000 -8.880000 3.040000 16.612843 -25.472122 924.815552
1.160000 -8.880000 3.080000 16.566187 -17.949476 596.622192
1.160000 -8.880000 3.120000 12.998295 -16.482967 440.643860
1.160000 -8.880000 3.160000 13.571441 -20.144142 589.970459
1.160000 -8.880000 3.200000 20.634609 -21.672493 895.484070
1.160000 -8.840000 2.800000 1.112677 -16.972233 289.294739
1.160000 -8.840000 2.840000 0.820253 -16.781055 282.276642
1.160000 -8.840000 2.880000 0.747447 -21.577847 466.162140
1.160000 -8.840000 2.920000 7.093082 -27.861889 826.596680
1.160000 -8.840000 2.960000 18.524515 -27.780678 1114.923706
1.160000 -8.840000 3.000000 26.439621 -19.299591 1071.527710
1.160000 -8.840000 3.040000 24.973442 -10.009937 723.871643
1.160000 -8.840000 3.080000 18.889038 -8.998711 437.772522
1.160000 -8.840000 3.120000 19.121952 -15.697489 612.060181
1.160000 -8.840000 3.160000 30.143736 -19.203217 1277.408325
1.160000 -8.840000 3.200000 43.546543 -9.970921 1995.720703
1.160000 -8.800000 2.800000 11.659069 -13.318432 313.314514
1.160000 -8.800000 2.840000 11.358450 -11.566954 262.808807
1.160000 -8.800000 2.880000 13.438877 -14.317339 385.589600
1.160000 -8.800000 2.920000 21.215302 -14.853442 670.713745
1.160000 -8.800000 2.960000 28.557058 -7.720390 875.109985
1.160000 -8.800000 3.000000 27.347216 2.422417 753.738281
1.160000 -8.800000 3.040000 19.226202 4.957057 394.219269
1.160000 -8.800000 3.080000 16.177729 -3.195371 271.929291
1.160000 -8.800000 3.120000 27.224529 -11.034315 862.931091
1.160000 -8.800000 3.160000 45.814415 -3.722816 2112.820068
1.160000 -8.800000 3.200000 53.841423 20.231848 3308.226562
1.200000 -9.200000 2.800000 -11.417139 -9.983452 230.020370
1.200000 -9.200000 2.840000 -14.963103 -4.395729 243.216888
1.200000 -9.200000 2.880000 -22.008495 -5.685596 516.699890
1.200000 -9.200000 2.920000 -25.324753 -14.030782 838.205933
1.200000 -9.200000 2.960000 -20.508593 -23.643099 979.598450
1.200000 -9.200000 3.000000 -9.521948 -27.651857 855.292725
1.200000 -9.200000 3.040000 1.243155 -23.497667 553.685791
1.200000 -9.200000 3.080000 6.143521 -14.349466 243.650040
1.200000 -9.200000 3.120000 4.062173 -6.057405 53.193398
1.200000 -9.200000 3.160000 -1.680954 -2.902447 11.249806
1.200000 -9.200000 3.200000 -6.149030 -5.313062 66.039192
1.200000 -9.160000 2.800000 -0.562186 -10.230583 104.980888
1.200000 -9.160000 2.840000 -9.836969 -4.556552 117.528137
1.200000 -9.160000 2.880000 -19.463459 -9.988159 478.589539
1.200000 -9.160000 2.920000 -20.261909 -22.034245 896.052917
1.200000 -9.160000 2.960000 -10.667537 -30.924236 1070.104736
1.200000 -9.160000 3.000000 2.700253 -30.038044 909.575439
1.200000 -9.160000 3.040000 11.312747 -20.590389 551.942383
1.200000 -9.160000 3.080000 11.313290 -9.204502 212.713379
1.200000 -9.160000 3.120000 4.928193 -2.106171 28.723038
1.200000 -9.160000 3.160000 -2.738775 -1.438973 9.571531
1.200000 -9.160000 3.200000 -7.408812 -5.520541 85.366867
1.200000 -9.120000 2.800000 3.977510 -0.498850 16.069441
1.200000 -9.120000 2.840000 -10.120766 0.327563 102.537201
1.200000 -9.120000 2.880000 -18.913099 -10.995689 478.610504
1.200000 -9.120000 2.920000 -15.078859 -25.078709 856.313660
1.200000 -9.120000 2.960000 -1.907997 -31.090822 970.279663
1.200000 -9.120000 3.000000 10.680565 -25.647255 771.856140
1.200000 -9.120000 3.040000 14.962040 -14.092833 422.470581
1.200000 -9.120000 3.080000 10.546123 -4.542459 131.854645
1.200000 -9.120000 3.120000 2.454727 -1.461029 8.160288
1.200000 -9.120000 3.160000 -4.045988 -4.187562 33.905701
1.200000 -9.120000 3.200000 -6.466261 -9.551846 133.050293
1.200000 -9.080000 2.800000 -3.181021 8.809307 87.722778
1.200000 -9.080000 2.840000 -17.637011 2.287511 316.296844
1.200000 -9.080000 2.880000 -21.811546 -13.544227 659.189636
1.200000 -9.080000 2.920000 -12.800907 -26.968672 891.172485
1.200000 -9.080000 2.960000 2.058773 -29.318367 863.805176
1.200000 -9.080000 3.000000 12.430497 -21.333755 609.646362
1.200000 -9.080000 3.040000 13.444360 -10.721586 295.703217
1.200000 -9.080000 3.080000 7.845393 -4.687593 83.523720
1.200000 -9.080000 3.120000 1.604804 -4.995181 27.527224
1.200000 -9.080000 3.160000 -1.392664 -8.915629 81.427963
1.200000 -9.080000 3.200000 -0.806890 -13.089653 171.990097
1.200000 -9.040000 2.800000 -16.193974 8.106897 327.966553
1.200000 -9.040000 2.840000 -26.450500 -4.225398 717.482971
1.200000 -9.040000 2.880000 -24.426943 -21.109573 1042.289551
1.200000 -9.040000 2.920000 -11.403229 -31.702326 1135.071045
1.200000 -9.040000 2.960000 3.812768 -30.787354 962.398315
1.200000 -9.040000 3.000000 12.630291 -21.814724 635.406433
1.200000 -9.040000 3.040000 12.900808 -12.538834 323.653198
1.200000 -9.040000 3.080000 8.717410 -8.267071 144.337708
1.200000 -9.040000 3.120000 5.386737 -8.880526 107.880669
1.200000 -9.040000 3.160000 5.150535 -11.083101 149.363144
1.200000 -9.040000 3.200000 7.000448 -12.276741 199.724640
1.200000 -9.000000 2.800000 -24.564480 -2.882510 611.722534
1.200000 -9.000000 2.840000 -28.776344 -17.330086 1128.409912
1.200000 -9.000000 2.880000 -21.509941 -32.214619 1500.459229
1.200000 -9.000000 2.920000 -6.146379 -39.136658 1569.455933
1.200000 -9.000000 2.960000 9.113556 -35.369343 1334.047241
1.200000 -9.000000 3.000000 17.489475 -25.045568 933.162231
1.200000 -9.000000 3.040000 17.962864 -15.091246 550.410156
1.200000 -9.000000 3.080000 14.538511 -9.822395 307.847778
1.200000 -9.000000 3.120000 11.909388 -8.780655 218.933411
1.200000 -9.000000 3.160000 11.810148 -8.819790 217.268295
1.200000 -9.000000 3.200000 12.901990 -7.712365 225.941925
1.200000 -8.960000 2.800000 -22.690161 -16.548040 788.681030
1.200000 -8.960000 2.840000 -21.548843 -29.973824 1362.782715
1.200000 -8.960000 2.880000 -10.921794 -41.409096 1833.998779
1.200000 -8.960000 2.920000 5.590953 -44.502422 2011.724365
1.200000 -8.960000 2.960000 20.688519 -37.406708 1827.276611
1.200000 -8.960000 3.000000 28.108253 -24.207382 1376.071289
1.200000 -8.960000 3.040000 26.819408 -11.948722 862.052612
1.200000 -8.960000 3.080000 21.137171 -5.456015 476.548096
1.200000 -8.960000 3.120000 16.653538 -4.298761 295.819672
1.200000 -8.960000 3.160000 15.667519 -4.445944 265.237549
1.200000 -8.960000 3.200000 16.245714 -2.710298 271.268921
1.200000 -8.920000 2.800000 -12.799631 -25.191029 798.418518
1.200000 -8.920000 2.840000 -7.803494 -35.744331 1338.551758
1.200000 -8.920000 2.880000 4.562697 -43.162685 1883.835693
1.200000 -8.920000 2.920000 21.137196 -42.095158 2218.783447
1.200000 -8.920000 2.960000 34.717346 -30.915152 2161.040527
1.200000 -8.920000 3.000000 38.693806 -14.465867 1706.471924
1.200000 -8.920000 3.040000 32.627319 -1.283785 1066.190063
1.200000 -8.920000 3.080000 22.952034 3.189463 536.968506
1.200000 -8.920000 3.120000 17.334845 0.996793 301.490417
1.200000 -8.920000 3.160000 17.842812 -0.959474 319.286530
1.200000 -8.920000 3.200000 19.867933 1.870955 398.235229
1.200000 -8.880000 2.800000 -0.481256 -26.107395 681.827698
1.200000 -8.880000 2.840000 6.571787 -32.383530 1091.881348
1.200000 -8.880000 2.880000 18.863863 -35.393536 1608.547729
1.200000 -8.880000 2.920000 33.657761 -30.107212 2039.289062
1.200000 -8.880000 2.960000 43.313129 -15.445839 2114.601074
1.200000 -8.880000 3.000000 41.396317 1.932687 1717.390259
1.200000 -8.880000 3.040000 29.843580 11.979000 1034.135742
1.200000 -8.880000 3.080000 18.492496 10.553577 453.350403
1.200000 -8.880000 3.120000 16.047485 3.862494 272.440643
1.200000 -8.880000 3.160000 21.405991 2.311325 463.558655
1.200000 -8.880000 3.200000 25.005360 9.618795 717.789246
1.200000 -8.840000 2.800000 10.101025 -20.202957 510.190186
1.200000 -8.840000 2.840000 16.239967 -21.424435 722.742920
1.200000 -8.840000 2.880000 25.891682 -20.667761 1097.535522
1.200000 -8.840000 2.920000 36.739223 -12.681795 1510.598389
1.200000 -8.840000 2.960000 40.838501 2.718803 1675.175049
1.200000 -8.840000 3.000000 33.175087 17.039663 1390.936523
1.200000 -8.840000 3.040000 19.284779 20.387743 787.562744
1.200000 -8.840000 3.080000 11.522449 12.629875 292.280579
1.200000 -8.840000 3.120000 16.313171 5.152458 292.667389
1.200000 -8.840000 3.160000 26.257288 9.446380 778.679260
1.200000 -8.840000 3.200000 27.079100 24.123447 1315.218384
1.200000 -8.800000 2.800000 16.173494 -8.804688 339.104431
1.200000 -8.800000 2.840000 17.553015 -6.679448 352.723358
1.200000 -8.800000 2.880000 22.548462 -5.066140 534.098938
1.200000 -8.800000 2.920000 28.878677 2.396742 839.722412
1.200000 -8.800000 2.960000 28.406553 15.079368 1034.319580
1.200000 -8.800000 3.000000 18.290001 23.564041 889.788208
1.200000 -8.800000 3.040000 7.172788 20.318914 464.307159
1.200000 -8.800000 3.080000 6.971714 10.528479 159.453659
1.200000 -8.800000 3.120000 18.301357 8.691632 410.484131
1.200000 -8.800000 3.160000 27.030739 22.602394 1241.529053
1.200000 -8.800000 3.200000 18.317890 42.329338 2127.317871
