#kx 	ky 	kz 	real 	imag 	intensity
1.800000 7.800000 -4.200000 10.168997 -48.176781 2424.410645
1.800000 7.800000 -4.160000 25.567265 -35.289833 1899.057373
1.800000 7.800000 -4.120000 26.444660 -19.874231 1094.305176
1.800000 7.800000 -4.080000 19.271231 -13.390753 550.692627
1.800000 7.800000 -4.040000 15.367417 -15.842770 487.150879
1.800000 7.800000 -4.000000 19.209209 -18.736801 720.061401
1.800000 7.800000 -3.960000 26.074539 -15.506861 920.344299
1.800000 7.800000 -3.920000 29.341959 -7.315071 914.460815
1.800000 7.800000 -3.880000 27.599630 0.676457 762.197205
1.800000 7.800000 -3.840000 23.944796 6.080958 610.331238
1.800000 7.800000 -3.800000 20.253380 10.582417 522.186951
1.800000 7.840000 -4.200000 27.283112 -32.703663 1813.897705
1.800000 7.840000 -4.160000 33.662769 -20.572704 1556.418213
1.800000 7.840000 -4.120000 30.982986 -12.107551 1106.538208
1.800000 7.840000 -4.080000 28.049929 -11.210363 912.470764
1.800000 7.840000 -4.040000 31.157345 -12.187551 1119.316528
1.800000 7.840000 -4.000000 37.743877 -7.756895 1484.769775
1.800000 7.840000 -3.960000 40.601624 2.584668 1655.172363
1.800000 7.840000 -3.920000 36.452328 12.984350 1497.365601
1.800000 7.840000 -3.880000 28.652973 18.546663 1164.971558
1.800000 7.840000 -3.840000 21.954128 20.087536 885.492798
1.800000 7.840000 -3.800000 16.823627 21.135658 729.750488
1.800000 7.880000 -4.200000 29.362692 -13.673561 1049.133911
1.800000 7.880000 -4.160000 31.930431 -7.131929 1070.416870
1.800000 7.880000 -4.120000 32.229637 -3.753215 1052.836182
1.800000 7.880000 -4.080000 35.072754 -1.902468 1233.717407
1.800000 7.880000 -4.040000 40.179329 3.381162 1625.810669
1.800000 7.880000 -4.000000 42.487789 13.610512 1990.458252
1.800000 7.880000 -3.960000 38.272305 24.649269 2072.355713
1.800000 7.880000 -3.920000 29.334579 31.322292 1841.603516
1.800000 7.880000 -3.880000 20.481724 32.764584 1493.018921
1.800000 7.880000 -3.840000 13.986074 32.075191 1224.428101
1.800000 7.880000 -3.800000 8.147098 31.309446 1046.656616
1.800000 7.920000 -4.200000 21.446289 -2.331686 465.380096
1.800000 7.920000 -4.160000 25.970322 0.398598 674.616455
1.800000 7.920000 -4.120000 30.420252 4.636160 946.885681
1.800000 7.920000 -4.080000 34.163719 11.505472 1299.535522
1.800000 7.920000 -4.040000 34.889832 20.920185 1654.954468
1.800000 7.920000 -4.000000 30.982210 30.382633 1883.001709
1.800000 7.920000 -3.960000 23.565510 36.934341 1919.478882
1.800000 7.920000 -3.920000 15.369882 39.881706 1826.783813
1.800000 7.920000 -3.880000 7.795516 40.667198 1714.591064
1.800000 7.920000 -3.840000 0.113958 40.066032 1605.299927
1.800000 7.920000 -3.800000 -7.928679 36.629616 1404.592773
1.800000 7.960000 -4.200000 14.020853 -0.149120 196.606552
1.800000 7.960000 -4.160000 21.033827 4.018295 458.568573
1.800000 7.960000 -4.120000 24.800463 12.263449 765.455078
1.800000 7.960000 -4.080000 23.714138 21.300747 1016.082153
1.800000 7.960000 -4.040000 19.190578 28.091167 1157.391968
1.800000 7.960000 -4.000000 14.030617 32.224789 1235.295166
1.800000 7.960000 -3.960000 9.368170 35.695648 1361.941895
1.800000 7.960000 -3.920000 3.404807 39.829132 1597.952393
1.800000 7.960000 -3.880000 -6.162628 42.628227 1855.143799
1.800000 7.960000 -3.840000 -18.198662 39.897270 1922.983398
1.800000 7.960000 -3.800000 -27.255005 29.900707 1636.887573
1.800000 8.000000 -4.200000 12.164652 0.100229 147.988800
1.800000 8.000000 -4.160000 16.864780 7.864105 346.264954
1.800000 8.000000 -4.120000 14.932781 16.498928 495.202576
1.800000 8.000000 -4.080000 9.274776 20.736248 516.013428
1.800000 8.000000 -4.040000 5.609617 20.881924 467.522552
1.800000 8.000000 -4.000000 5.743305 22.340919 532.102234
1.800000 8.000000 -3.960000 4.821315 29.011660 864.921448
1.800000 8.000000 -3.920000 -3.642942 37.494015 1419.072144
1.800000 8.000000 -3.880000 -19.724007 39.056290 1914.430176
1.800000 8.000000 -3.840000 -34.831875 28.305851 2014.480713
1.800000 8.000000 -3.800000 -38.652611 9.908165 1592.196045
1.800000 8.040000 -4.200000 11.611347 4.684732 156.770096
1.800000 8.040000 -4.160000 9.641850 11.873383 233.942474
1.800000 8.040000 -4.120000 3.296043 13.855523 202.839432
1.800000 8.040000 -4.080000 0.253136 9.843102 96.950729
1.800000 8.040000 -4.040000 4.668123 7.227734 74.031509
1.800000 8.040000 -4.000000 10.847013 13.802481 308.166168
1.800000 8.040000 -3.960000 7.730838 27.761963 830.492432
1.800000 8.040000 -3.920000 -9.136274 36.981731 1451.119995
1.800000 8.040000 -3.880000 -30.762548 30.027561 1847.988770
1.800000 8.040000 -3.840000 -41.357216 8.343274 1780.029541
1.800000 8.040000 -3.800000 -32.957119 -13.406828 1265.914795
1.800000 8.080000 -4.200000 5.369160 11.449980 159.929916
1.800000 8.080000 -4.160000 -1.416107 11.176727 126.924591
1.800000 8.080000 -4.120000 -4.352592 3.614380 32.008804
1.800000 8.080000 -4.080000 2.883600 -3.692203 21.947510
1.800000 8.080000 -4.040000 15.930257 0.179842 253.805435
1.800000 8.080000 -4.000000 21.074760 17.183475 739.417358
1.800000 8.080000 -3.960000 8.192175 35.014629 1293.135986
1.800000 8.080000 -3.920000 -17.208439 36.721085 1644.568481
1.800000 8.080000 -3.880000 -36.490841 17.176826 1626.624756
1.800000 8.080000 -3.840000 -34.283554 -10.337937 1282.234985
1.800000 8.080000 -3.800000 -13.091069 -25.318363 812.395630
1.800000 8.120000 -4.200000 -6.946632 12.504756 204.624634
1.800000 8.120000 -4.160000 -10.835665 2.180536 122.166367
1.800000 8.120000 -4.120000 -2.732388 -9.465328 97.058380
1.800000 8.120000 -4.080000 15.066492 -9.905436 325.116821
1.800000 8.120000 -4.040000 28.646330 6.801788 866.876587
1.800000 8.120000 -4.000000 23.398321 31.174620 1519.338379
1.800000 8.120000 -3.960000 -1.108522 43.762039 1916.344971
1.800000 8.120000 -3.920000 -27.768711 32.270622 1812.494385
1.800000 8.120000 -3.880000 -35.756538 4.185565 1296.048950
1.800000 8.120000 -3.840000 -19.370770 -18.655516 723.255005
1.800000 8.120000 -3.800000 6.645075 -19.447884 422.377197
1.800000 8.160000 -4.200000 -17.626997 3.725473 324.590179
1.800000 8.160000 -4.160000 -11.443807 -11.602676 265.582825
1.800000 8.160000 -4.120000 7.822616 -17.271030 359.481812
1.800000 8.160000 -4.080000 27.605806 -4.131279 779.148010
1.800000 8.160000 -4.040000 31.061785 22.561436 1473.852783
1.800000 8.160000 -4.000000 11.850023 44.352207 2107.541260
1.800000 8.160000 -3.960000 -17.992676 44.040630 2263.313477
1.800000 8.160000 -3.920000 -36.485760 21.335241 1786.403198
1.800000 8.160000 -3.880000 -30.436001 -5.684809 958.667236
1.800000 8.160000 -3.840000 -7.035501 -16.041229 306.819336
1.800000 8.160000 -3.800000 13.094023 -3.998242 187.439362
1.800000 8.200000 -4.200000 -18.812698 -9.807126 450.097351
1.800000 8.200000 -4.160000 -2.158084 -21.257099 456.521576
1.800000 8.200000 -4.120000 20.211750 -14.618248 622.208008
1.800000 8.200000 -4.080000 31.155149 9.361111 1058.273682
1.800000 8.200000 -4.040000 19.935705 35.622948 1666.426758
1.800000 8.200000 -4.000000 -7.748746 45.457100 2126.390869
1.800000 8.200000 -3.960000 -32.927650 31.881832 2100.681396
1.800000 8.200000 -3.920000 -38.506058 6.040870 1519.208496
1.800000 8.200000 -3.880000 -23.426125 -12.006760 692.945618
1.800000 8.200000 -3.840000 -2.760058 -10.221752 112.102135
1.800000 8.200000 -3.800000 6.170712 6.302725 77.802017
1.840000 7.800000 -4.200000 52.002884 -27.160961 3442.017822
1.840000 7.800000 -4.160000 51.882729 -3.943915 2707.372070
1.840000 7.800000 -4.120000 38.037056 8.717890 1522.819214
1.840000 7.800000 -4.080000 25.617514 6.671799 700.769897
1.840000 7.800000 -4.040000 24.395718 0.042765 595.152893
1.840000 7.800000 -4.000000 30.232121 0.537034 914.269531
1.840000 7.800000 -3.960000 32.178551 9.118256 1118.601685
1.840000 7.800000 -3.920000 25.617662 17.077452 947.903992
1.840000 7.800000 -3.880000 16.293503 17.545591 573.326050
1.840000 7.800000 -3.840000 11.972002 13.142805 316.062134
1.840000 7.800000 -3.800000 12.783680 11.418509 293.804810
1.840000 7.840000 -4.200000 48.743881 4.987107 2400.837402
1.840000 7.840000 -4.160000 41.977619 16.467392 2033.295410
1.840000 7.840000 -4.120000 34.081017 19.418564 1538.596436
1.840000 7.840000 -4.080000 31.773201 19.396399 1385.756592
1.840000 7.840000 -4.040000 32.284721 23.903099 1613.661377
1.840000 7.840000 -4.000000 27.709488 32.511883 1824.838379
1.840000 7.840000 -3.960000 15.702176 37.103233 1623.208252
1.840000 7.840000 -3.920000 3.412709 31.888401 1028.516724
1.840000 7.840000 -3.880000 -0.306048 21.084455 444.647919
1.840000 7.840000 -3.840000 4.721624 14.774799 240.588425
1.840000 7.840000 -3.800000 9.503354 17.535002 397.790039
1.840000 7.880000 -4.200000 25.978420 21.883486 1153.765259
1.840000 7.880000 -4.160000 24.741203 23.537262 1166.129883
1.840000 7.880000 -4.120000 26.365303 27.555676 1454.444458
1.840000 7.880000 -4.080000 25.596386 37.161404 2036.145020
1.840000 7.880000 -4.040000 15.953470 47.894699 2548.415283
1.840000 7.880000 -4.000000 -1.510798 50.149811 2517.285889
1.840000 7.880000 -3.960000 -16.538567 39.250591 1814.133057
1.840000 7.880000 -3.920000 -18.750137 22.110510 840.442261
1.840000 7.880000 -3.880000 -8.565135 11.888109 214.688660
1.840000 7.880000 -3.840000 2.355320 15.121376 234.203537
1.840000 7.880000 -3.800000 2.688452 25.023239 633.390259
1.840000 7.920000 -4.200000 3.991371 16.460903 286.892365
1.840000 7.920000 -4.160000 12.460583 19.217880 524.593079
1.840000 7.920000 -4.120000 15.904199 32.343643 1299.054688
1.840000 7.920000 -4.080000 5.589380 47.383213 2276.410156
1.840000 7.920000 -4.040000 -15.818286 50.732296 2823.984131
1.840000 7.920000 -4.000000 -34.124054 36.539547 2499.589600
1.840000 7.920000 -3.960000 -35.653530 14.011459 1467.495239
1.840000 7.920000 -3.920000 -20.546785 0.300767 422.260834
1.840000 7.920000 -3.880000 -3.457813 4.708727 34.128582
1.840000 7.920000 -3.840000 0.179293 19.819746 392.854462
1.840000 7.920000 -3.800000 -11.114038 29.112255 971.045227
1.840000 7.960000 -4.200000 -1.492100 1.189001 3.640085
1.840000 7.960000 -4.160000 9.129694 13.636547 269.306732
1.840000 7.960000 -4.120000 3.401522 32.583450 1073.251587
1.840000 7.960000 -4.080000 -18.260229 40.427013 1967.779297
1.840000 7.960000 -4.040000 -39.645790 27.287682 2316.406250
1.840000 7.960000 -4.000000 -42.680695 1.908604 1825.284546
1.840000 7.960000 -3.960000 -24.833424 -15.037996 842.840210
1.840000 7.960000 -3.920000 -2.422706 -10.066118 107.196236
1.840000 7.960000 -3.880000 4.504652 10.214033 124.618355
1.840000 7.960000 -3.840000 -8.822842 25.676945 737.148010
1.840000 7.960000 -3.800000 -28.072660 22.403357 1289.984619
1.840000 8.000000 -4.200000 6.898410 -5.736550 80.496063
1.840000 8.000000 -4.160000 8.324259 13.618797 254.764923
1.840000 8.000000 -4.120000 -9.147439 26.371180 779.114746
1.840000 8.000000 -4.080000 -31.386524 18.158569 1314.847534
1.840000 8.000000 -4.040000 -37.506950 -6.188397 1445.067627
1.840000 8.000000 -4.000000 -20.332453 -25.349649 1056.013428
1.840000 8.000000 -3.960000 5.223392 -21.406670 485.529358
1.840000 8.000000 -3.920000 15.612638 2.290070 248.998901
1.840000 8.000000 -3.880000 1.296740 23.813080 568.744263
1.840000 8.000000 -3.840000 -24.136663 23.815331 1149.748535
1.840000 8.000000 -3.800000 -37.729946 3.929784 1438.992065
1.840000 8.040000 -4.200000 13.301779 1.326483 178.696869
1.840000 8.040000 -4.160000 2.257263 15.749973 253.156891
1.840000 8.040000 -4.120000 -17.324005 13.169039 473.544739
1.840000 8.040000 -4.080000 -25.731396 -6.758076 707.776306
1.840000 8.040000 -4.040000 -11.831304 -25.899160 810.746216
1.840000 8.040000 -4.000000 13.826262 -24.101189 772.032837
1.840000 8.040000 -3.960000 27.271820 0.113344 743.765015
1.840000 8.040000 -3.920000 14.133259 26.289822 890.903748
1.840000 8.040000 -3.880000 -15.558297 30.917730 1197.966675
1.840000 8.040000 -3.840000 -36.493469 10.080181 1433.383423
1.840000 8.040000 -3.800000 -32.348270 -17.115377 1339.346802
1.840000 8.080000 -4.200000 6.503810 11.372360 171.630127
1.840000 8.080000 -4.160000 -8.214579 11.405169 197.557190
1.840000 8.080000 -4.120000 -16.166050 -3.400716 272.906036
1.840000 8.080000 -4.080000 -5.631079 -20.146580 437.593719
1.840000 8.080000 -4.040000 17.713600 -20.103809 717.934814
1.840000 8.080000 -4.000000 32.922668 2.162203 1088.577271
1.840000 8.080000 -3.960000 22.924829 30.514545 1456.685303
1.840000 8.080000 -3.920000 -7.605611 40.432846 1692.660400
1.840000 8.080000 -3.880000 -34.696011 22.168890 1695.272827
1.840000 8.080000 -3.840000 -36.897381 -9.345222 1448.749878
1.840000 8.080000 -3.800000 -15.125075 -28.414873 1036.172974
1.840000 8.120000 -4.200000 -8.563004 10.101799 175.371368
1.840000 8.120000 -4.160000 -13.849997 -2.091107 196.195129
1.840000 8.120000 -4.120000 -4.623880 -15.792269 270.776031
1.840000 8.120000 -4.080000 15.943079 -16.217028 517.173706
1.840000 8.120000 -4.040000 31.462463 3.195765 1000.099487
1.840000 8.120000 -4.000000 25.326544 31.221512 1616.216553
1.840000 8.120000 -3.960000 -2.611714 45.760376 2100.833008
1.840000 8.120000 -3.920000 -32.971535 33.216805 2190.478027
1.840000 8.120000 -3.880000 -42.681709 2.100002 1826.138306
1.840000 8.120000 -3.840000 -25.608208 -23.565512 1211.113525
1.840000 8.120000 -3.800000 2.174178 -25.619659 661.093994
1.840000 8.160000 -4.200000 -17.151167 -4.297796 312.633575
1.840000 8.160000 -4.160000 -7.358103 -16.813086 336.821533
1.840000 8.160000 -4.120000 11.692801 -17.259972 434.628204
1.840000 8.160000 -4.080000 26.965910 -0.469633 727.380859
1.840000 8.160000 -4.040000 24.396509 25.608280 1250.973633
1.840000 8.160000 -4.000000 1.248628 43.038597 1853.879883
1.840000 8.160000 -3.960000 -28.802149 37.510521 2236.603027
1.840000 8.160000 -3.920000 -44.919037 11.379490 2147.212646
1.840000 8.160000 -3.880000 -36.213005 -16.792322 1593.363770
1.840000 8.160000 -3.840000 -11.105843 -27.303593 868.825867
1.840000 8.160000 -3.800000 10.225559 -15.602002 347.984528
1.840000 8.200000 -4.200000 -11.038005 -19.745598 511.726196
1.840000 8.200000 -4.160000 7.684354 -21.669903 528.633972
1.840000 8.200000 -4.120000 23.239143 -7.645866 598.517090
1.840000 8.200000 -4.080000 23.909485 15.620529 815.664368
1.840000 8.200000 -4.040000 6.453952 33.942322 1193.734619
1.840000 8.200000 -4.000000 -20.129715 34.652798 1606.021851
1.840000 8.200000 -3.960000 -39.570297 16.185490 1827.778564
1.840000 8.200000 -3.920000 -39.852333 -9.716100 1682.611084
1.840000 8.200000 -3.880000 -22.399399 -26.263390 1191.498657
1.840000 8.200000 -3.840000 -0.809190 -24.246767 588.560486
1.840000 8.200000 -3.800000 10.077892 -8.331511 170.977982
1.880000 7.800000 -4.200000 65.066681 26.019358 4910.679688
1.880000 7.800000 -4.160000 43.826851 44.107487 3866.263184
1.880000 7.800000 -4.120000 20.275225 41.663471 2146.929688
1.880000 7.800000 -4.080000 10.764837 27.568245 875.889832
1.880000 7.800000 -4.040000 15.448936 18.960024 598.152161
1.880000 7.800000 -4.000000 20.543404 22.914858 947.122131
1.880000 7.800000 -3.960000 15.078358 30.607931 1164.202393
1.880000 7.800000 -3.920000 2.821450 29.429125 874.033936
1.880000 7.800000 -3.880000 -3.511566 18.245417 345.226318
1.880000 7.800000 -3.840000 1.923277 8.293571 72.482307
1.880000 7.800000 -3.800000 11.115549 9.366355 211.284042
1.880000 7.840000 -4.200000 29.233355 51.613136 3518.504883
1.880000 7.840000 -4.160000 14.006227 50.852921 2782.193848
1.880000 7.840000 -4.120000 7.156381 45.388977 2111.373047
1.880000 7.840000 -4.080000 5.462498 45.079914 2062.037598
1.880000 7.840000 -4.040000 -1.422806 50.090294 2511.062012
1.880000 7.840000 -4.000000 -17.331196 49.782127 2778.630615
1.880000 7.840000 -3.960000 -32.636776 35.320202 2312.675781
1.880000 7.840000 -3.920000 -33.246368 12.006495 1249.476929
1.880000 7.840000 -3.880000 -16.575356 -3.601694 287.714600
1.880000 7.840000 -3.840000 3.591881 -0.117710 12.915463
1.880000 7.840000 -3.800000 9.981941 16.266941 364.252533
1.880000 7.880000 -4.200000 -10.621765 41.710678 1852.602539
1.880000 7.880000 -4.160000 -8.068068 37.007145 1434.622559
1.880000 7.880000 -4.120000 -5.845824 44.395836 2005.163940
1.880000 7.880000 -4.080000 -17.895405 56.793083 3545.699951
1.880000 7.880000 -4.040000 -44.423168 56.048832 5114.889648
1.880000 7.880000 -4.000000 -67.393707 31.455254 5531.344727
1.880000 7.880000 -3.960000 -65.758530 -6.150267 4362.009766
1.880000 7.880000 -3.920000 -36.794479 -31.102037 2321.170410
1.880000 7.880000 -3.880000 -1.297003 -26.017368 678.585632
1.880000 7.880000 -3.840000 14.407072 1.352825 209.393860
1.880000 7.880000 -3.800000 2.618524 25.253529 644.597412
1.880000 7.920000 -4.200000 -25.483362 8.837708 727.506836
1.880000 7.920000 -4.160000 -11.748872 17.779535 454.147888
1.880000 7.920000 -4.120000 -18.223499 39.234875 1871.471313
1.880000 7.920000 -4.080000 -49.074738 47.067612 4623.689941
1.880000 7.920000 -4.040000 -81.688110 22.253689 7168.173828
1.880000 7.920000 -4.000000 -85.042099 -25.364244 7875.503418
1.880000 7.920000 -3.960000 -49.619850 -62.060028 6313.576660
1.880000 7.920000 -3.920000 0.887726 -59.866390 3584.772705
1.880000 7.920000 -3.880000 29.530966 -22.719233 1388.241455
1.880000 7.920000 -3.840000 19.260365 17.079435 662.668762
1.880000 7.920000 -3.800000 -13.019675 29.036957 1012.656799
1.880000 7.960000 -4.200000 -10.043785 -17.021145 390.596985
1.880000 7.960000 -4.160000 -3.614760 8.817654 90.817505
1.880000 7.960000 -4.120000 -29.064386 29.024881 1687.182251
1.880000 7.960000 -4.080000 -67.568970 14.923976 4788.290527
1.880000 7.960000 -4.040000 -81.591675 -32.480034 7712.153809
1.880000 7.960000 -4.000000 -50.235573 -78.516052 8688.382812
1.880000 7.960000 -3.960000 8.074940 -84.660324 7232.575195
1.880000 7.960000 -3.920000 49.875313 -44.612923 4477.859863
1.880000 7.960000 -3.880000 45.705112 9.074418 2171.302246
1.880000 7.960000 -3.840000 6.059962 35.069744 1266.610107
1.880000 7.960000 -3.800000 -30.892002 20.482552 1373.850708
1.880000 8.000000 -4.200000 14.477817 -16.575668 484.359955
1.880000 8.000000 -4.160000 1.196913 11.824165 141.243484
1.880000 8.000000 -4.120000 -35.194500 13.240095 1413.953003
1.880000 8.000000 -4.080000 -59.357285 -23.120296 4057.835205
1.880000 8.000000 -4.040000 -40.984528 -70.819260 6695.099121
1.880000 8.000000 -4.000000 13.540869 -87.269753 7799.364746
1.880000 8.000000 -3.960000 63.166126 -53.639168 6867.120117
1.880000 8.000000 -3.920000 68.594856 5.701235 4737.758301
1.880000 8.000000 -3.880000 28.375450 44.667431 2800.345459
1.880000 8.000000 -3.840000 -20.942490 37.524559 1846.680420
1.880000 8.000000 -3.800000 -40.279003 0.177412 1622.429565
1.880000 8.040000 -4.200000 22.609070 2.434711 517.097839
1.880000 8.040000 -4.160000 -4.711063 15.119436 250.791458
1.880000 8.040000 -4.120000 -32.318100 -5.315882 1072.718140
1.880000 8.040000 -4.080000 -28.620609 -45.570625 2895.821289
1.880000 8.040000 -4.040000 12.373267 -68.604187 4859.632324
1.880000 8.040000 -4.000000 60.573856 -47.537399 5928.996582
1.880000 8.040000 -3.960000 74.939545 6.539238 5658.697266
1.880000 8.040000 -3.920000 41.719906 52.113747 4456.393066
1.880000 8.040000 -3.880000 -12.035618 54.711357 3138.188721
1.880000 8.040000 -3.840000 -43.764992 17.892197 2235.505127
1.880000 8.040000 -3.800000 -34.470589 -22.569769 1697.615967
1.880000 8.080000 -4.200000 8.994804 16.026276 337.748047
1.880000 8.080000 -4.160000 -14.035978 7.815905 258.097046
1.880000 8.080000 -4.120000 -18.975420 -19.969685 758.854858
1.880000 8.080000 -4.080000 6.007021 -42.383667 1832.459595
1.880000 8.080000 -4.040000 44.511784 -33.317993 3091.387451
1.880000 8.080000 -4.000000 62.827606 7.733248 4007.111328
1.880000 8.080000 -3.960000 40.619011 51.006226 4251.539062
1.880000 8.080000 -3.920000 -8.126730 61.637222 3865.190918
1.880000 8.080000 -3.880000 -46.190483 31.654978 3135.598389
1.880000 8.080000 -3.840000 -46.653038 -12.849234 2341.608643
1.880000 8.080000 -3.800000 -16.264946 -36.678509 1609.861450
1.880000 8.120000 -4.200000 -9.192046 9.278032 170.575592
1.880000 8.120000 -4.160000 -13.879631 -7.867868 254.547516
1.880000 8.120000 -4.120000 0.333808 -23.895180 571.091064
1.880000 8.120000 -4.080000 26.417513 -20.862101 1133.112305
1.880000 8.120000 -4.040000 42.551525 6.291161 1850.211060
1.880000 8.120000 -4.000000 30.044720 40.562225 2547.979248
1.880000 8.120000 -3.960000 -7.531631 54.479801 3024.774414
1.880000 8.120000 -3.920000 -44.104584 34.368580 3126.413574
1.880000 8.120000 -3.880000 -52.683823 -5.927965 2810.726074
1.880000 8.120000 -3.840000 -29.138737 -36.425381 2175.874268
1.880000 8.120000 -3.800000 4.941092 -37.429115 1425.353149
1.880000 8.160000 -4.200000 -12.225679 -10.154737 252.585907
1.880000 8.160000 -4.160000 -0.460726 -19.032459 362.446777
1.880000 8.160000 -4.120000 16.678635 -15.544978 519.823181
1.880000 8.160000 -4.080000 27.325279 2.651930 753.703613
1.880000 8.160000 -4.040000 19.942410 26.556898 1102.968506
1.880000 8.160000 -4.000000 -5.892262 39.083183 1562.213989
1.880000 8.160000 -3.960000 -35.391735 27.848372 2028.106689
1.880000 8.160000 -3.920000 -48.013397 -2.795167 2313.099365
1.880000 8.160000 -3.880000 -34.162327 -32.952473 2252.930176
1.880000 8.160000 -3.840000 -3.980886 -42.643742 1834.336060
1.880000 8.160000 -3.800000 20.950377 -28.061035 1226.339966
1.880000 8.200000 -4.200000 2.057639 -22.661285 517.767761
1.880000 8.200000 -4.160000 16.423428 -16.070045 527.975342
1.880000 8.200000 -4.120000 22.598854 -0.754162 511.276947
1.880000 8.200000 -4.080000 16.369364 16.013203 524.378784
1.880000 8.200000 -4.040000 -1.128643 25.167400 634.671936
1.880000 8.200000 -4.000000 -22.199173 19.659586 879.302612
1.880000 8.200000 -3.960000 -34.895813 -0.261445 1217.786133
1.880000 8.200000 -3.920000 -30.114065 -24.745432 1519.193359
1.880000 8.200000 -3.880000 -9.103302 -39.253342 1623.694946
1.880000 8.200000 -3.840000 15.770041 -34.682804 1451.591064
1.880000 8.200000 -3.800000 29.334852 -14.568979 1072.788696
1.920000 7.800000 -4.200000 31.439304 76.495392 6839.974609
1.920000 7.800000 -4.160000 -2.574636 73.940582 5473.838379
1.920000 7.800000 -4.120000 -22.236740 51.213943 3117.340576
1.920000 7.800000 -4.080000 -19.628712 28.596504 1203.046387
1.920000 7.800000 -4.040000 -7.404945 21.948797 536.582886
1.920000 7.800000 -4.000000 -3.633242 27.716412 781.399902
1.920000 7.800000 -3.960000 -12.110898 29.596390 1022.620117
1.920000 7.800000 -3.920000 -19.885120 18.589308 740.980347
1.920000 7.800000 -3.880000 -14.004093 3.455070 208.052124
1.920000 7.800000 -3.840000 2.331047 -0.057402 5.437075
1.920000 7.800000 -3.800000 12.865242 11.748377 303.538818
1.920000 7.840000 -4.200000 -24.503819 68.731201 5324.415039
1.920000 7.840000 -4.160000 -35.937737 52.037621 3999.435059
1.920000 7.840000 -4.120000 -35.446655 40.698669 2912.847168
1.920000 7.840000 -4.080000 -36.317688 39.415390 2872.547363
1.920000 7.840000 -4.040000 -47.748291 37.311333 3672.034912
1.920000 7.840000 -4.000000 -62.121918 20.667786 4286.290039
1.920000 7.840000 -3.960000 -61.288872 -9.044834 3838.134766
1.920000 7.840000 -3.920000 -36.803638 -32.540775 2413.409912
1.920000 7.840000 -3.880000 -2.304604 -30.648251 944.626465
1.920000 7.840000 -3.840000 17.013748 -4.807899 312.583527
1.920000 7.840000 -3.800000 8.504251 22.253092 567.522400
1.920000 7.880000 -4.200000 -53.859173 22.578049 3410.578857
1.920000 7.880000 -4.160000 -42.367203 17.520510 2101.948242
1.920000 7.880000 -4.120000 -43.119461 28.489470 2670.937988
1.920000 7.880000 -4.080000 -66.354980 32.497009 5459.039062
1.920000 7.880000 -4.040000 -94.413658 7.425686 8969.079102
1.920000 7.880000 -4.000000 -95.625786 -41.726215 10885.368164
1.920000 7.880000 -3.960000 -56.115265 -82.010147 9874.586914
1.920000 7.880000 -3.920000 2.547600 -81.248962 6607.884277
1.920000 7.880000 -3.880000 39.837627 -39.269272 3129.112305
1.920000 7.880000 -3.840000 32.596550 10.205994 1166.697388
1.920000 7.880000 -3.800000 -4.377537 30.073816 923.597290
1.920000 7.920000 -4.200000 -37.838181 -25.178738 2065.696777
1.920000 7.920000 -4.160000 -25.154861 -4.597872 653.907471
1.920000 7.920000 -4.120000 -47.789917 15.564572 2526.132080
1.920000 7.920000 -4.080000 -88.764687 -0.968025 7880.106445
1.920000 7.920000 -4.040000 -103.846619 -58.145416 14165.009766
1.920000 7.920000 -4.000000 -63.780785 -116.900375 17733.687500
1.920000 7.920000 -3.960000 13.358633 -127.889046 16534.060547
1.920000 7.920000 -3.920000 74.151505 -77.947449 11574.250000
1.920000 7.920000 -3.880000 77.002129 -4.259506 5947.471191
1.920000 7.920000 -3.840000 29.074184 38.873108 2356.426758
1.920000 7.920000 -3.800000 -22.878626 28.466682 1333.783447
1.920000 7.960000 -4.200000 4.245262 -39.276260 1560.646851
1.920000 7.960000 -4.160000 -5.264864 -4.106171 44.579430
1.920000 7.960000 -4.120000 -49.214962 0.110872 2422.124756
1.920000 7.960000 -4.080000 -81.994568 -47.365070 8966.559570
1.920000 7.960000 -4.040000 -58.135914 -115.533638 16727.806641
1.920000 7.960000 -4.000000 20.418474 -144.840881 21395.794922
1.920000 7.960000 -3.960000 99.854309 -102.268112 20429.648438
1.920000 7.960000 -3.920000 120.893570 -14.734066 14832.347656
1.920000 7.960000 -3.880000 72.373016 53.615078 8112.430176
1.920000 7.960000 -3.840000 -0.311192 58.959099 3476.272217
1.920000 7.960000 -3.800000 -39.269024 14.157660 1742.495605
1.920000 8.000000 -4.200000 34.400925 -16.538914 1456.959229
1.920000 8.000000 -4.160000 -0.444515 7.660557 58.881725
1.920000 8.000000 -4.120000 -43.665470 -17.437696 2210.746582
1.920000 8.000000 -4.080000 -43.982964 -79.466446 8249.416992
1.920000 8.000000 -4.040000 16.757710 -123.595695 15556.716797
1.920000 8.000000 -4.000000 99.523483 -101.412773 20189.474609
1.920000 8.000000 -3.960000 139.119583 -18.972441 19714.210938
1.920000 8.000000 -3.920000 103.237640 64.903137 14870.427734
1.920000 8.000000 -3.880000 22.165188 90.705818 8718.841797
1.920000 8.000000 -3.840000 -40.184986 50.539013 4169.024902
1.920000 8.000000 -3.800000 -44.769318 -9.749627 2099.346924
1.920000 8.040000 -4.200000 31.206863 14.892277 1195.648193
1.920000 8.040000 -4.160000 -9.580602 11.852128 232.260864
1.920000 8.040000 -4.120000 -28.508648 -31.697556 1817.478027
1.920000 8.040000 -4.080000 4.555290 -78.630920 6203.572266
1.920000 8.040000 -4.040000 72.892273 -79.097961 11569.771484
1.920000 8.040000 -4.000000 121.625870 -18.782160 15145.622070
1.920000 8.040000 -3.960000 106.049675 62.627457 15168.731445
1.920000 8.040000 -3.920000 34.054222 104.306068 12039.446289
1.920000 8.040000 -3.880000 -39.900848 78.570267 7765.364258
1.920000 8.040000 -3.840000 -64.194481 13.967028 4316.008789
1.920000 8.040000 -3.800000 -34.466564 -34.497356 2378.011719
1.920000 8.080000 -4.200000 6.438089 24.937460 663.325867
1.920000 8.080000 -4.160000 -16.949244 1.554943 289.694702
1.920000 8.080000 -4.120000 -7.039999 -35.616478 1318.094971
1.920000 8.080000 -4.080000 36.983845 -49.533394 3821.361816
1.920000 8.080000 -4.040000 80.967682 -16.834555 6839.167969
1.920000 8.080000 -4.000000 83.007195 45.598671 8969.433594
1.920000 8.080000 -3.960000 32.878670 90.772888 9320.723633
1.920000 8.080000 -3.920000 -35.362534 82.341904 8030.697754
1.920000 8.080000 -3.880000 -72.223206 27.641306 5980.233398
1.920000 8.080000 -3.840000 -56.264885 -29.619133 4043.030273
1.920000 8.080000 -3.800000 -10.333977 -49.719452 2578.814941
1.920000 8.120000 -4.200000 -11.035160 9.161366 205.705383
1.920000 8.120000 -4.160000 -10.267735 -12.891246 271.610596
1.920000 8.120000 -4.120000 12.127310 -26.775295 863.988098
1.920000 8.120000 -4.080000 41.581818 -14.118084 1928.367920
1.920000 8.120000 -4.040000 50.895901 23.274187 3132.080566
1.920000 8.120000 -4.000000 24.186764 59.100403 4077.857178
1.920000 8.120000 -3.960000 -25.080042 62.572979 4544.386230
1.920000 8.120000 -3.920000 -62.052254 26.339584 4544.255859
1.920000 8.120000 -3.880000 -59.755005 -24.960526 4193.688477
1.920000 8.120000 -3.840000 -22.481714 -55.362358 3570.418213
1.920000 8.120000 -3.800000 19.306480 -48.403366 2715.625977
1.920000 8.160000 -4.200000 -5.117460 -11.645927 161.816025
1.920000 8.160000 -4.160000 6.871937 -16.549219 321.100159
1.920000 8.160000 -4.120000 21.139248 -10.307257 553.107361
1.920000 8.160000 -4.080000 27.295746 7.908573 807.603271
1.920000 8.160000 -4.040000 15.696114 28.493011 1058.219727
1.920000 8.160000 -4.000000 -11.879877 34.780544 1350.817749
1.920000 8.160000 -3.960000 -38.760155 16.380180 1770.659912
1.920000 8.160000 -3.920000 -44.262154 -19.065449 2322.629395
1.920000 8.160000 -3.880000 -21.276264 -48.885323 2842.454102
1.920000 8.160000 -3.840000 16.079317 -52.925255 3059.626953
1.920000 8.160000 -3.800000 43.372917 -30.171310 2791.518066
1.920000 8.200000 -4.200000 14.502302 -15.927993 464.017731
1.920000 8.200000 -4.160000 20.136509 -5.800405 439.123718
1.920000 8.200000 -4.120000 18.762409 4.720809 374.314026
1.920000 8.200000 -4.080000 11.431488 12.924848 297.730591
1.920000 8.200000 -4.040000 -1.168919 15.587334 244.331329
1.920000 8.200000 -4.000000 -15.250622 8.113739 298.414246
1.920000 8.200000 -3.960000 -21.842527 -10.461250 586.533752
1.920000 8.200000 -3.920000 -12.106469 -32.022808 1172.026855
1.920000 8.200000 -3.880000 13.232466 -41.943020 1934.315063
1.920000 8.200000 -3.840000 40.691360 -30.278225 2572.557861
1.920000 8.200000 -3.800000 52.711441 -1.611894 2781.094238
1.960000 7.800000 -4.200000 -30.932827 87.763344 8659.244141
1.960000 7.800000 -4.160000 -59.981316 59.837826 7178.323730
1.960000 7.800000 -4.120000 -61.678455 23.349007 4349.408203
1.960000 7.800000 -4.080000 -42.198486 1.986259 1784.657471
1.960000 7.800000 -4.040000 -23.359432 2.340179 551.139526
1.960000 7.800000 -4.000000 -19.737289 10.056648 490.696777
1.960000 7.800000 -3.960000 -25.167236 8.011200 697.569092
1.960000 7.800000 -3.920000 -22.878159 -4.154365 540.668884
1.960000 7.800000 -3.880000 -6.950111 -10.955727 168.332001
1.960000 7.800000 -3.840000 9.772872 -0.737225 96.052528
1.960000 7.800000 -3.800000 10.391788 19.061569 471.332672
1.960000 7.840000 -4.200000 -76.101807 38.973930 7310.452148
1.960000 7.840000 -4.160000 -72.951096 13.195627 5495.986816
1.960000 7.840000 -4.120000 -62.352875 2.042612 3892.053467
1.960000 7.840000 -4.080000 -60.308018 -0.337757 3637.170898
1.960000 7.840000 -4.040000 -67.099052 -10.747082 4617.782715
1.960000 7.840000 -4.000000 -65.720139 -35.817978 5602.064453
1.960000 7.840000 -3.960000 -41.170067 -60.649258 5373.306641
1.960000 7.840000 -3.920000 -0.496140 -61.691162 3806.045654
1.960000 7.840000 -3.880000 29.491718 -32.055347 1897.306763
1.960000 7.840000 -3.840000 26.943687 7.833290 787.322693
1.960000 7.840000 -3.800000 -2.662977 27.429144 759.449341
1.960000 7.880000 -4.200000 -68.541267 -26.222221 5385.510254
1.960000 7.880000 -4.160000 -50.435696 -24.009697 3120.224854
1.960000 7.880000 -4.120000 -56.271664 -13.135346 3339.037598
1.960000 7.880000 -4.080000 -80.100342 -24.627819 7022.594238
1.960000 7.880000 -4.040000 -88.211029 -68.049362 12411.901367
1.960000 7.880000 -4.000000 -52.826271 -115.444229 16117.985352
1.960000 7.880000 -3.960000 15.524727 -124.237648 15676.010742
1.960000 7.880000 -3.920000 71.946320 -78.885544 11399.202148
1.960000 7.880000 -3.880000 76.681847 -9.304657 5966.682129
1.960000 7.880000 -3.840000 32.159859 34.261036 2208.075195
1.960000 7.880000 -3.800000 -19.515434 26.388546 1077.207520
1.960000 7.920000 -4.200000 -16.916033 -59.994335 3885.472412
1.960000 7.920000 -4.160000 -15.084179 -30.454456 1155.006348
1.960000 7.920000 -4.120000 -49.481857 -24.336498 3040.719238
1.960000 7.920000 -4.080000 -78.033287 -67.631882 10663.265625
1.960000 7.920000 -4.040000 -52.801659 -134.104279 20771.972656
1.960000 7.920000 -4.000000 28.893108 -163.812317 27669.287109
1.960000 7.920000 -3.960000 114.287277 -119.405174 27319.177734
1.960000 7.920000 -3.920000 140.117279 -25.115757 20263.652344
1.960000 7.920000 -3.880000 90.558777 52.132130 10918.650391
1.960000 7.920000 -3.840000 11.203833 62.507240 4032.680908
1.960000 7.920000 -3.800000 -34.404697 15.744349 1431.567749
1.960000 7.960000 -4.200000 35.705750 -42.718071 3099.734131
1.960000 7.960000 -4.160000 5.102211 -12.409904 180.038284
1.960000 7.960000 -4.120000 -41.036686 -35.836208 2968.243652
1.960000 7.960000 -4.080000 -42.094330 -104.682388 12730.334961
1.960000 7.960000 -4.040000 28.315022 -157.130951 25491.875000
1.960000 7.960000 -4.000000 128.723267 -133.263382 34328.808594
1.960000 7.960000 -3.960000 181.863129 -34.961773 34296.523438
1.960000 7.960000 -3.920000 144.718292 70.618469 25930.353516
1.960000 7.960000 -3.880000 48.481483 110.084587 14469.070312
1.960000 7.960000 -3.840000 -31.097191 68.462357 5654.129395
1.960000 7.960000 -3.800000 -43.002106 -2.826885 1857.172485
1.960000 8.000000 -4.200000 51.044365 2.368872 2611.138672
1.960000 8.000000 -4.160000 1.318624 5.952414 37.169998
1.960000 8.000000 -4.120000 -26.303600 -46.225315 2828.659180
1.960000 8.000000 -4.080000 13.425193 -109.266235 12119.345703
1.960000 8.000000 -4.040000 104.776207 -115.055771 24215.882812
1.960000 8.000000 -4.000000 176.845886 -38.056145 32722.736328
1.960000 8.000000 -3.960000 165.822144 74.494949 33046.480469
1.960000 8.000000 -3.920000 74.910492 141.337143 25587.769531
1.960000 8.000000 -3.880000 -27.559864 119.423264 15021.461914
1.960000 8.000000 -3.840000 -70.401917 39.739193 6535.633301
1.960000 8.000000 -3.800000 -40.965874 -26.570196 2384.178223
1.960000 8.040000 -4.200000 27.546474 34.002220 1914.959229
1.960000 8.040000 -4.160000 -12.104300 7.064281 196.418152
1.960000 8.040000 -4.120000 -5.211514 -48.618553 2390.923584
1.960000 8.040000 -4.080000 57.479607 -76.804916 9202.900391
1.960000 8.040000 -4.040000 129.220535 -35.637207 17967.957031
1.960000 8.040000 -4.000000 144.559540 57.587582 24213.791016
1.960000 8.040000 -3.960000 79.957787 135.565857 24771.349609
1.960000 8.040000 -3.920000 -21.510139 139.373077 19887.541016
1.960000 8.040000 -3.880000 -87.445999 70.821198 12662.445312
1.960000 8.040000 -3.840000 -79.884621 -11.849833 6521.971191
1.960000 8.040000 -3.800000 -24.040161 -49.264263 3004.896973
1.960000 8.080000 -4.200000 -4.078410 31.090502 983.252747
1.960000 8.080000 -4.160000 -15.571693 -5.476287 272.467346
1.960000 8.080000 -4.120000 14.738929 -38.454445 1695.980469
1.960000 8.080000 -4.080000 68.008720 -29.060722 5469.711426
1.960000 8.080000 -4.040000 96.523300 28.897482 10151.811523
1.960000 8.080000 -4.000000 65.578545 96.062286 13528.507812
1.960000 8.080000 -3.960000 -11.360085 118.339996 14133.406250
1.960000 8.080000 -3.920000 -80.615860 75.025635 12127.762695
1.960000 8.080000 -3.880000 -94.310699 -2.003178 8898.520508
1.960000 8.080000 -3.840000 -51.010399 -57.202759 5874.216309
1.960000 8.080000 -3.800000 7.472725 -60.080605 3665.520508
1.960000 8.120000 -4.200000 -13.745560 7.344853 242.887283
1.960000 8.120000 -4.160000 -3.928644 -14.736506 232.598846
1.960000 8.120000 -4.120000 24.463217 -19.673981 985.514526
1.960000 8.120000 -4.080000 49.038086 5.282114 2432.634521
1.960000 8.120000 -4.040000 42.818459 47.084198 4050.342041
1.960000 8.120000 -4.000000 0.388508 72.366280 5237.029297
1.960000 8.120000 -3.960000 -51.984634 55.109909 5739.503906
1.960000 8.120000 -3.920000 -75.628860 1.660534 5722.481934
1.960000 8.120000 -3.880000 -52.383553 -52.158493 5464.544922
1.960000 8.120000 -3.840000 -0.173959 -70.929352 5031.003418
1.960000 8.120000 -3.800000 43.763950 -48.621689 4279.352051
1.960000 8.160000 -4.200000 1.129717 -8.313845 70.396271
1.960000 8.160000 -4.160000 11.248166 -9.671866 220.066238
1.960000 8.160000 -4.120000 21.668354 -2.094998 473.906586
1.960000 8.160000 -4.080000 23.274570 14.388508 748.734802
1.960000 8.160000 -4.040000 8.451183 29.540115 944.040894
1.960000 8.160000 -4.000000 -18.036346 27.724882 1093.978882
1.960000 8.160000 -3.960000 -37.619133 2.305637 1420.515137
1.960000 8.160000 -3.920000 -31.377361 -34.238552 2156.817383
1.960000 8.160000 -3.880000 2.376678 -57.038567 3259.046875
1.960000 8.160000 -3.840000 43.965405 -48.702694 4304.909180
1.960000 8.160000 -3.800000 67.365425 -14.178095 4739.119141
1.960000 8.200000 -4.200000 19.339193 -1.938295 377.761383
1.960000 8.200000 -4.160000 16.216854 4.891226 286.910461
1.960000 8.200000 -4.120000 12.452173 7.178932 206.593689
1.960000 8.200000 -4.080000 9.390701 8.685215 163.618225
1.960000 8.200000 -4.040000 3.684666 9.356192 101.115082
1.960000 8.200000 -4.000000 -4.306329 3.529533 31.002075
1.960000 8.200000 -3.960000 -6.016492 -11.685284 172.744019
1.960000 8.200000 -3.920000 8.065083 -28.004623 849.304443
1.960000 8.200000 -3.880000 35.886543 -29.567305 2162.069580
1.960000 8.200000 -3.840000 60.778816 -7.447664 3749.532227
1.960000 8.200000 -3.800000 63.681423 29.410143 4920.280273
2.000000 7.800000 -4.200000 -82.005089 51.997314 9428.554688
2.000000 7.800000 -4.160000 -90.154221 8.231134 8195.535156
2.000000 7.800000 -4.120000 -68.288376 -26.925484 5388.284180
2.000000 7.800000 -4.080000 -35.306747 -35.752083 2524.777832
2.000000 7.800000 -4.040000 -14.464195 -24.008842 785.637451
2.000000 7.800000 -4.000000 -11.697769 -11.940765 279.419678
2.000000 7.800000 -3.960000 -13.634796 -11.689965 322.562958
2.000000 7.800000 -3.920000 -6.243111 -16.034363 296.077240
2.000000 7.800000 -3.880000 7.815641 -10.144920 164.003662
2.000000 7.800000 -3.840000 12.827206 8.237782 232.398254
2.000000 7.800000 -3.800000 -0.036814 24.099621 580.793091
2.000000 7.840000 -4.200000 -90.061745 -18.467487 8452.166016
2.000000 7.840000 -4.160000 -70.128487 -41.167648 6612.779785
2.000000 7.840000 -4.120000 -51.232677 -45.837402 4725.854492
2.000000 7.840000 -4.080000 -44.166374 -46.359192 4099.843262
2.000000 7.840000 -4.040000 -40.193920 -56.859402 4848.542969
2.000000 7.840000 -4.000000 -22.229698 -73.181076 5849.629395
2.000000 7.840000 -3.960000 12.600487 -75.065018 5793.529297
2.000000 7.840000 -3.920000 44.472298 -48.590618 4338.833496
2.000000 7.840000 -3.880000 48.081238 -5.216682 2339.019287
2.000000 7.840000 -3.840000 19.142317 24.895418 986.210144
2.000000 7.840000 -3.800000 -18.207304 20.660553 758.364380
2.000000 7.880000 -4.200000 -42.246994 -70.352409 6734.270020
2.000000 7.880000 -4.160000 -24.849106 -58.515041 4041.488037
2.000000 7.880000 -4.120000 -33.407398 -51.712875 3790.275635
2.000000 7.880000 -4.080000 -45.038620 -73.764542 7469.684570
2.000000 7.880000 -4.040000 -25.186619 -113.363129 13485.565430
2.000000 7.880000 -4.000000 33.211109 -130.241028 18065.703125
2.000000 7.880000 -3.960000 95.480141 -94.714043 18087.207031
2.000000 7.880000 -3.920000 114.075806 -21.242420 13464.529297
2.000000 7.880000 -3.880000 73.971725 40.059464 7076.577148
2.000000 7.880000 -3.840000 8.878897 48.058025 2388.408447
2.000000 7.880000 -3.800000 -29.125643 7.850672 909.936096
2.000000 7.920000 -4.200000 24.449726 -67.736473 5186.019043
2.000000 7.920000 -4.160000 11.379999 -39.886353 1720.425537
2.000000 7.920000 -4.120000 -20.871609 -52.730892 3216.170898
2.000000 7.920000 -4.080000 -20.191511 -105.413605 11519.725586
2.000000 7.920000 -4.040000 40.524715 -147.217987 23315.386719
2.000000 7.920000 -4.000000 128.647720 -124.033104 31934.447266
2.000000 7.920000 -3.960000 176.018936 -34.345787 32162.298828
2.000000 7.920000 -3.920000 141.842468 62.999599 24088.234375
2.000000 7.920000 -3.880000 52.519135 100.117981 12781.870117
2.000000 7.920000 -3.840000 -21.997881 61.130516 4220.846680
2.000000 7.920000 -3.800000 -32.152977 -6.689426 1078.562378
2.000000 7.960000 -4.200000 60.973488 -19.991621 4117.431152
2.000000 7.960000 -4.160000 17.933439 -9.198130 406.213837
2.000000 7.960000 -4.120000 -9.226374 -54.767479 3084.602783
2.000000 7.960000 -4.080000 28.980263 -115.266220 14126.157227
2.000000 7.960000 -4.040000 121.087601 -120.727959 29237.447266
2.000000 7.960000 -4.000000 196.128601 -41.515217 40189.941406
2.000000 7.960000 -3.960000 186.608521 76.475304 40671.210938
2.000000 7.960000 -3.920000 92.993378 149.009155 30851.496094
2.000000 7.960000 -3.880000 -14.802526 129.077377 16880.083984
2.000000 7.960000 -3.840000 -61.135216 47.233643 5968.531738
2.000000 7.960000 -3.800000 -30.749290 -21.511990 1408.284546
2.000000 8.000000 -4.200000 48.412048 29.941620 3240.227051
2.000000 8.000000 -4.160000 2.598721 6.706553 51.731197
2.000000 8.000000 -4.120000 6.885656 -54.255184 2991.037354
2.000000 8.000000 -4.080000 77.239166 -87.881866 13689.111328
2.000000 8.000000 -4.040000 162.091980 -41.825161 28023.154297
2.000000 8.000000 -4.000000 183.898804 67.678070 38399.089844
2.000000 8.000000 -3.960000 111.628952 163.214264 39099.917969
2.000000 8.000000 -3.920000 -7.162828 173.916351 30298.203125
2.000000 8.000000 -3.880000 -87.875931 98.837990 17491.126953
2.000000 8.000000 -3.840000 -84.027870 4.476030 7080.717773
2.000000 8.000000 -3.800000 -23.093769 -39.076324 2060.281250
2.000000 8.040000 -4.200000 9.711356 45.907707 2201.828125
2.000000 8.040000 -4.160000 -11.350479 1.515369 131.129715
2.000000 8.040000 -4.120000 24.308025 -44.094685 2535.221191
2.000000 8.040000 -4.080000 95.361176 -35.573017 10359.193359
2.000000 8.040000 -4.040000 137.827286 39.989861 20595.550781
2.000000 8.040000 -4.000000 102.083344 132.668533 28021.949219
2.000000 8.040000 -3.960000 2.196884 169.782394 28830.886719
2.000000 8.040000 -3.920000 -92.635559 120.817490 23178.212891
2.000000 8.040000 -3.880000 -118.472763 24.566692 14639.318359
2.000000 8.040000 -3.840000 -70.900215 -47.643814 7296.773438
2.000000 8.040000 -3.800000 -2.047091 -55.521042 3086.776855
2.000000 8.080000 -4.200000 -17.038374 27.709522 1058.123779
2.000000 8.080000 -4.160000 -9.558943 -10.132531 194.041580
2.000000 8.080000 -4.120000 33.399536 -24.406799 1711.220947
2.000000 8.080000 -4.080000 76.062897 10.353649 5892.762695
2.000000 8.080000 -4.040000 72.792419 76.407677 11136.869141
2.000000 8.080000 -4.000000 11.659779 121.755089 14960.251953
2.000000 8.080000 -3.960000 -69.300156 104.463867 15715.210938
2.000000 8.080000 -3.920000 -112.196907 31.417601 13575.210938
2.000000 8.080000 -3.880000 -88.931625 -46.528938 10073.776367
2.000000 8.080000 -3.840000 -23.464409 -78.939766 6782.065430
2.000000 8.080000 -3.800000 33.348972 -56.993729 4360.438965
2.000000 8.120000 -4.200000 -14.485977 3.615280 222.913788
2.000000 8.120000 -4.160000 2.488110 -11.680951 142.635315
2.000000 8.120000 -4.120000 28.859550 -4.704586 855.006775
2.000000 8.120000 -4.080000 39.778641 26.776443 2299.318115
2.000000 8.120000 -4.040000 16.801594 60.299923 3918.374268
2.000000 8.120000 -4.000000 -31.221207 64.218506 5098.780273
2.000000 8.120000 -3.960000 -70.431412 26.141708 5643.972656
2.000000 8.120000 -3.920000 -68.886856 -32.729160 5816.596680
2.000000 8.120000 -3.880000 -24.381905 -73.076660 5934.675781
2.000000 8.120000 -3.840000 33.361359 -69.723511 5974.348633
2.000000 8.120000 -3.800000 68.280518 -30.773302 5609.225098
2.000000 8.160000 -4.200000 3.589171 -1.438589 14.951691
2.000000 8.160000 -4.160000 9.914696 -1.199884 99.740913
2.000000 8.160000 -4.120000 16.119259 5.231312 287.197144
2.000000 8.160000 -4.080000 14.374393 17.330217 506.959595
2.000000 8.160000 -4.040000 -0.334648 25.058304 628.030579
2.000000 8.160000 -4.000000 -20.509596 15.706997 667.353271
2.000000 8.160000 -3.960000 -27.977669 -11.990837 926.530151
2.000000 8.160000 -3.920000 -9.016787 -41.583614 1810.499512
2.000000 8.160000 -3.880000 30.803255 -49.642326 3413.201172
2.000000 8.160000 -3.840000 67.873566 -25.558216 5260.042969
2.000000 8.160000 -3.800000 78.642410 18.358547 6521.665039
2.000000 8.200000 -4.200000 12.838342 12.031721 309.585327
2.000000 8.200000 -4.160000 5.725901 10.319071 139.269165
2.000000 8.200000 -4.120000 5.719849 5.034496 58.062820
2.000000 8.200000 -4.080000 9.854139 4.328373 115.838875
2.000000 8.200000 -4.040000 10.219357 7.290770 157.590576
2.000000 8.200000 -4.000000 6.225703 5.464424 68.619308
2.000000 8.200000 -3.960000 7.695292 -4.615322 80.518707
2.000000 8.200000 -3.920000 23.631105 -13.087433 729.710022
2.000000 8.200000 -3.880000 48.636787 -4.180641 2383.014893
2.000000 8.200000 -3.840000 63.435722 26.793274 4741.970215
2.000000 8.200000 -3.800000 51.218094 65.022339 6851.198242
2.040000 7.800000 -4.200000 -92.135086 -4.670511 8510.687500
2.040000 7.800000 -4.160000 -74.982529 -46.608067 7794.691406
2.040000 7.800000 -4.120000 -36.150688 -65.604721 5610.851562
2.040000 7.800000 -4.080000 -0.364139 -55.520725 3082.683594
2.040000 7.800000 -4.040000 14.766876 -31.828598 1231.120239
2.040000 7.800000 -4.000000 12.328918 -14.542860 363.497009
2.040000 7.800000 -3.960000 7.891800 -9.256063 147.955215
2.040000 7.800000 -3.920000 10.184593 -6.055092 140.390076
2.040000 7.800000 -3.880000 12.645266 4.408466 179.337311
2.040000 7.800000 -3.840000 4.414850 17.508284 326.030914
2.040000 7.800000 -3.800000 -13.363740 19.718790 567.420227
2.040000 7.840000 -4.200000 -60.963470 -64.900764 7928.654297
2.040000 7.840000 -4.160000 -30.955330 -75.125107 6602.014160
2.040000 7.840000 -4.120000 -9.095698 -69.527649 4916.825684
2.040000 7.840000 -4.080000 1.280426 -63.346592 4014.430176
2.040000 7.840000 -4.040000 11.701942 -63.767239 4203.196289
2.040000 7.840000 -4.000000 31.853676 -61.260040 4767.449219
2.040000 7.840000 -3.960000 54.287655 -41.588512 4676.753906
2.040000 7.840000 -3.920000 59.205276 -5.829346 3539.245850
2.040000 7.840000 -3.880000 36.042744 24.916685 1919.920532
2.040000 7.840000 -3.840000 -1.384623 27.843262 777.164429
2.040000 7.840000 -3.800000 -24.389660 1.992031 598.823730
2.040000 7.880000 -4.200000 4.579486 -80.786850 6547.486816
2.040000 7.880000 -4.160000 15.613762 -63.419678 4265.845215
2.040000 7.880000 -4.120000 9.059036 -60.580757 3752.094238
2.040000 7.880000 -4.080000 12.978119 -79.634537 6510.091309
2.040000 7.880000 -4.040000 47.351540 -95.858398 11431.000977
2.040000 7.880000 -4.000000 97.413452 -76.486694 15339.595703
2.040000 7.880000 -3.960000 122.797562 -17.677616 15391.739258
2.040000 7.880000 -3.920000 96.446976 45.073742 11333.662109
2.040000 7.880000 -3.880000 34.235710 67.018333 5663.541016
2.040000 7.880000 -3.840000 -16.520792 36.270134 1588.459106
2.040000 7.880000 -3.800000 -19.995785 -14.439140 608.320190
2.040000 7.920000 -4.200000 56.346924 -43.852028 5097.976074
2.040000 7.920000 -4.160000 34.765976 -27.720245 1977.085083
2.040000 7.920000 -4.120000 17.496197 -51.456406 2953.878662
2.040000 7.920000 -4.080000 44.057648 -89.376816 9929.291992
2.040000 7.920000 -4.040000 110.296051 -89.590408 20191.660156
2.040000 7.920000 -4.000000 164.515259 -27.246889 27807.662109
2.040000 7.920000 -3.960000 154.258179 64.373962 27939.593750
2.040000 7.920000 -3.920000 78.739304 119.767700 20544.179688
2.040000 7.920000 -3.880000 -6.779451 101.162224 10279.756836
2.040000 7.920000 -3.840000 -40.847176 33.315971 2778.445801
2.040000 7.920000 -3.800000 -10.970387 -21.338264 575.670959
2.040000 7.960000 -4.200000 61.191376 12.759336 3907.185303
2.040000 7.960000 -4.160000 23.516376 1.365561 554.884705
2.040000 7.960000 -4.120000 24.911171 -45.940624 2731.107422
2.040000 7.960000 -4.080000 83.837540 -73.138458 12377.966797
2.040000 7.960000 -4.040000 157.360535 -31.606573 25761.312500
2.040000 7.960000 -4.000000 176.046844 66.750885 35448.171875
2.040000 7.960000 -3.960000 110.437866 153.130554 35645.488281
2.040000 7.960000 -3.920000 2.795231 162.776199 26503.904297
2.040000 7.960000 -3.880000 -69.474144 94.493637 13755.705078
2.040000 7.960000 -3.840000 -63.577953 9.975288 4141.662598
2.040000 7.960000 -3.800000 -6.008587 -25.284695 675.418884
2.040000 8.000000 -4.200000 26.947460 46.258125 2865.979736
2.040000 8.000000 -4.160000 2.800823 7.221443 59.993855
2.040000 8.000000 -4.120000 35.372181 -37.380184 2648.469238
2.040000 8.000000 -4.080000 106.201004 -29.172327 12129.677734
2.040000 8.000000 -4.040000 150.060791 48.008827 24823.087891
2.040000 8.000000 -4.000000 114.309013 144.346710 33902.523438
2.040000 8.000000 -3.960000 11.946490 184.652069 34239.105469
2.040000 8.000000 -3.920000 -85.995972 136.669815 26073.945312
2.040000 8.000000 -3.880000 -113.385254 40.310402 14481.144531
2.040000 8.000000 -3.840000 -66.192230 -30.561043 5315.388672
2.040000 8.000000 -3.800000 0.599874 -35.005962 1225.777222
2.040000 8.040000 -4.200000 -10.498411 41.115215 1800.677612
2.040000 8.040000 -4.160000 -6.353594 -2.261754 45.483685
2.040000 8.040000 -4.120000 42.259079 -20.517933 2206.815186
2.040000 8.040000 -4.080000 93.240967 19.638653 9079.554688
2.040000 8.040000 -4.040000 90.808868 98.685020 17984.984375
2.040000 8.040000 -4.000000 19.392830 154.812958 24343.134766
2.040000 8.040000 -3.960000 -76.557785 137.892303 24875.380859
2.040000 8.040000 -3.920000 -129.167404 55.881199 19806.927734
2.040000 8.040000 -3.880000 -106.333878 -31.937515 12326.898438
2.040000 8.040000 -3.840000 -36.784767 -68.155746 5998.324707
2.040000 8.040000 -3.800000 21.114624 -44.818707 2454.543701
2.040000 8.080000 -4.200000 -22.891483 16.455914 794.817139
2.040000 8.080000 -4.160000 -1.441795 -8.833513 80.109734
2.040000 8.080000 -4.120000 37.016850 -0.974557 1371.196899
2.040000 8.080000 -4.080000 53.981426 44.239716 4871.146973
2.040000 8.080000 -4.040000 22.008987 93.417206 9211.169922
2.040000 8.080000 -4.000000 -45.602036 101.327789 12346.867188
2.040000 8.080000 -3.960000 -101.426331 51.927361 12983.751953
2.040000 8.080000 -3.920000 -103.522034 -24.792645 11331.486328
2.040000 8.080000 -3.880000 -51.365974 -77.521149 8647.992188
2.040000 8.080000 -3.840000 15.680651 -76.783264 6141.552246
2.040000 8.080000 -3.800000 54.443939 -35.955269 4256.923828
2.040000 8.120000 -4.200000 -11.963537 1.280014 144.764664
2.040000 8.120000 -4.160000 4.963241 -4.292275 43.057384
2.040000 8.120000 -4.120000 21.174694 9.578991 540.124756
2.040000 8.120000 -4.080000 17.305141 35.800770 1581.162964
2.040000 8.120000 -4.040000 -12.280724 50.882271 2739.821533
2.040000 8.120000 -4.000000 -49.257294 34.281990 3601.535889
2.040000 8.120000 -3.960000 -63.312706 -10.848061 4126.179199
2.040000 8.120000 -3.920000 -37.710602 -56.427776 4606.183594
2.040000 8.120000 -3.880000 15.002844 -71.019333 5268.831055
2.040000 8.120000 -3.840000 62.455975 -45.176712 5941.684082
2.040000 8.120000 -3.800000 78.431992 2.471152 6157.683594
2.040000 8.160000 -4.200000 0.204060 5.895229 34.795372
2.040000 8.160000 -4.160000 2.587379 4.312744 25.294294
2.040000 8.160000 -4.120000 6.395923 6.658167 85.239014
2.040000 8.160000 -4.080000 5.074112 12.713072 187.368805
2.040000 8.160000 -4.040000 -4.317123 14.175270 219.575836
2.040000 8.160000 -4.000000 -13.822348 2.616829 197.905090
2.040000 8.160000 -3.960000 -9.084995 -18.866001 438.463135
2.040000 8.160000 -3.920000 16.501869 -33.721111 1409.425049
2.040000 8.160000 -3.880000 51.897243 -24.467289 3291.972168
2.040000 8.160000 -3.840000 74.307098 10.962194 5641.714844
2.040000 8.160000 -3.800000 67.027313 55.125900 7531.525391
2.040000 8.200000 -4.200000 -2.273210 17.421652 308.681427
2.040000 8.200000 -4.160000 -6.006142 6.633050 80.071091
2.040000 8.200000 -4.120000 2.080972 -1.640853 7.022841
2.040000 8.200000 -4.080000 13.038101 0.658386 170.425552
2.040000 8.200000 -4.040000 16.684898 8.849922 356.706970
2.040000 8.200000 -4.000000 13.968967 12.264946 345.560944
2.040000 8.200000 -3.960000 15.797661 8.570204 323.014465
2.040000 8.200000 -3.920000 28.865499 8.746187 909.712830
2.040000 8.200000 -3.880000 44.491669 25.695473 2639.765869
2.040000 8.200000 -3.840000 44.134602 58.093281 5322.692383
2.040000 8.200000 -3.800000 17.332253 87.381020 7935.849609
2.080000 7.800000 -4.200000 -63.755913 -45.459572 6131.389160
2.080000 7.800000 -4.160000 -30.196878 -70.659882 5904.670410
2.080000 7.800000 -4.120000 10.848100 -67.604843 4688.096191
2.080000 7.800000 -4.080000 36.917625 -41.344696 3072.294922
2.080000 7.800000 -4.040000 39.280609 -11.210907 1668.650757
2.080000 7.800000 -4.000000 27.019196 6.971302 778.635986
2.080000 7.800000 -3.960000 14.569050 12.344727 364.649475
2.080000 7.800000 -3.920000 7.320768 13.838989 245.111267
2.080000 7.800000 -3.880000 0.364822 16.565348 274.543823
2.080000 7.800000 -3.840000 -10.539167 16.153614 372.013306
2.080000 7.800000 -3.800000 -20.401230 6.710927 461.246704
2.080000 7.840000 -4.200000 -14.904100 -74.825058 5820.921387
2.080000 7.840000 -4.160000 14.895174 -70.704041 5220.927734
2.080000 7.840000 -4.120000 33.065491 -55.221146 4142.701660
2.080000 7.840000 -4.080000 40.524162 -40.474163 3280.365723
2.080000 7.840000 -4.040000 45.940323 -29.227230 2964.744141
2.080000 7.840000 -4.000000 52.261189 -14.643051 2945.650879
2.080000 7.840000 -3.960000 51.443840 7.318047 2700.022461
2.080000 7.840000 -3.920000 34.500645 27.932858 1970.538940
2.080000 7.840000 -3.880000 5.774906 31.510693 1026.273315
2.080000 7.840000 -3.840000 -16.076128 12.382593 411.770508
2.080000 7.840000 -3.800000 -14.159753 -15.531153 441.715302
2.080000 7.880000 -4.200000 38.571636 -57.685715 4815.412598
2.080000 7.880000 -4.160000 43.133163 -40.638802 3511.981934
2.080000 7.880000 -4.120000 40.649300 -37.661461 3070.751221
2.080000 7.880000 -4.080000 51.095016 -43.625011 4513.842285
2.080000 7.880000 -4.040000 77.289490 -36.213680 7285.095703
2.080000 7.880000 -4.000000 97.263695 -1.815403 9463.522461
2.080000 7.880000 -3.960000 85.175919 44.684181 9251.613281
2.080000 7.880000 -3.920000 40.399422 69.724312 6493.592773
2.080000 7.880000 -3.880000 -6.719791 53.119118 2866.796143
2.080000 7.880000 -3.840000 -21.083826 9.886684 542.274231
2.080000 7.880000 -3.800000 4.062659 -21.840580 493.516113
2.080000 7.920000 -4.200000 59.458805 -9.856129 3632.492920
2.080000 7.920000 -4.160000 40.967999 -6.203629 1716.861938
2.080000 7.920000 -4.120000 40.099461 -26.200825 2294.449951
2.080000 7.920000 -4.080000 72.332397 -37.823242 6662.573242
2.080000 7.920000 -4.040000 114.093109 -9.390682 13105.421875
2.080000 7.920000 -4.000000 121.885025 53.671547 17736.593750
2.080000 7.920000 -3.960000 76.050774 107.727272 17388.884766
2.080000 7.920000 -3.920000 4.432735 110.197098 12163.049805
2.080000 7.920000 -3.880000 -40.542679 61.084229 5374.991699
2.080000 7.920000 -3.840000 -30.164154 4.232937 927.793945
2.080000 7.920000 -3.800000 14.850598 -13.762133 409.936584
2.080000 7.960000 -4.200000 39.991604 31.387123 2584.479980
2.080000 7.960000 -4.160000 20.803059 10.090103 534.577393
2.080000 7.960000 -4.120000 41.192123 -19.100117 2061.605469
2.080000 7.960000 -4.080000 90.991135 -11.873908 8420.375977
2.080000 7.960000 -4.040000 122.147247 46.455200 17078.035156
2.080000 7.960000 -4.000000 93.686104 119.507767 23059.191406
2.080000 7.960000 -3.960000 14.708168 149.583176 22591.457031
2.080000 7.960000 -3.920000 -59.681267 111.627136 16022.470703
2.080000 7.960000 -3.880000 -77.837242 37.758888 7484.370117
2.080000 7.960000 -3.840000 -38.101364 -12.810447 1615.821533
2.080000 7.960000 -3.800000 13.231480 -8.343630 244.688202
2.080000 8.000000 -4.200000 4.183069 41.143620 1710.295532
2.080000 8.000000 -4.160000 4.300945 7.084144 68.683228
2.080000 8.000000 -4.120000 43.759716 -8.175888 1981.757812
2.080000 8.000000 -4.080000 87.221962 26.796759 8325.736328
2.080000 8.000000 -4.040000 84.850677 96.679581 16546.578125
2.080000 8.000000 -4.000000 21.625549 147.089630 22103.023438
2.080000 8.000000 -3.960000 -63.386982 133.146027 21745.775391
2.080000 8.000000 -3.920000 -109.736320 62.149239 15904.587891
2.080000 8.000000 -3.880000 -89.614929 -12.367469 8183.789551
2.080000 8.000000 -3.840000 -30.595486 -39.588566 2503.338379
2.080000 8.000000 -3.800000 13.841852 -14.990309 416.306213
2.080000 8.040000 -4.200000 -18.209877 25.077948 960.503052
2.080000 8.040000 -4.160000 0.848426 -0.435992 0.909916
2.080000 8.040000 -4.120000 39.141403 7.352162 1586.103760
2.080000 8.040000 -4.080000 56.211617 54.269993 6104.978027
2.080000 8.040000 -4.040000 22.772278 105.858490 11724.595703
2.080000 8.040000 -4.000000 -47.472496 115.125061 15507.416992
2.080000 8.040000 -3.960000 -105.507507 66.048073 15494.181641
2.080000 8.040000 -3.920000 -109.223328 -9.755672 12024.908203
2.080000 8.040000 -3.880000 -60.096771 -60.372147 7256.417969
2.080000 8.040000 -3.840000 0.707939 -58.524506 3425.618896
2.080000 8.040000 -3.800000 31.256454 -21.092438 1421.856934
2.080000 8.080000 -4.200000 -18.181564 7.166695 381.930786
2.080000 8.080000 -4.160000 3.081091 -0.904930 10.312019
2.080000 8.080000 -4.120000 23.497234 17.661041 864.032349
2.080000 8.080000 -4.080000 16.927275 52.040359 2994.731689
2.080000 8.080000 -4.040000 -22.306398 70.939247 5529.952148
2.080000 8.080000 -4.000000 -69.239349 49.925121 7286.605469
2.080000 8.080000 -3.960000 -87.146217 -4.277519 7612.760742
2.080000 8.080000 -3.920000 -59.259773 -56.846088 6743.198242
2.080000 8.080000 -3.880000 -3.448494 -73.571701 5424.687500
2.080000 8.080000 -3.840000 43.734932 -48.405655 4255.851562
2.080000 8.080000 -3.800000 57.701588 -4.849669 3352.992432
2.080000 8.120000 -4.200000 -9.491089 3.378735 101.496613
2.080000 8.120000 -4.160000 0.427835 3.226291 10.591994
2.080000 8.120000 -4.120000 5.543780 13.882954 223.469910
2.080000 8.120000 -4.080000 -3.985853 26.176304 701.085938
2.080000 8.120000 -4.040000 -25.066250 24.384399 1222.915771
2.080000 8.120000 -4.000000 -40.463516 1.284809 1638.946899
2.080000 8.120000 -3.960000 -32.132713 -31.990520 2055.904541
2.080000 8.120000 -3.920000 2.103207 -52.254467 2734.952881
2.080000 8.120000 -3.880000 44.397152 -42.500515 3777.400879
2.080000 8.120000 -3.840000 69.876068 -5.857782 4916.978516
2.080000 8.120000 -3.800000 65.337822 37.177399 5651.189453
2.080000 8.160000 -4.200000 -8.708217 9.053029 157.790375
2.080000 8.160000 -4.160000 -7.357310 2.658707 61.198738
2.080000 8.160000 -4.120000 -1.609936 0.053215 2.594725
2.080000 8.160000 -4.080000 2.290607 2.157949 9.903628
2.080000 8.160000 -4.040000 1.478879 3.018955 11.301175
2.080000 8.160000 -4.000000 1.564205 -2.717854 9.833466
2.080000 8.160000 -3.960000 11.559669 -11.214014 259.380066
2.080000 8.160000 -3.920000 32.788620 -10.113386 1177.374268
2.080000 8.160000 -3.880000 53.569180 10.290480 2975.551025
2.080000 8.160000 -3.840000 56.733231 45.836857 5319.676758
2.080000 8.160000 -3.800000 34.044083 78.866188 7378.875000
2.080000 8.200000 -4.200000 -17.231827 9.828474 393.534760
2.080000 8.200000 -4.160000 -11.719450 -5.032454 162.671097
2.080000 8.200000 -4.120000 4.705806 -9.754269 117.290367
2.080000 8.200000 -4.080000 18.971256 -0.465820 360.125549
2.080000 8.200000 -4.040000 21.950956 13.938810 676.134888
2.080000 8.200000 -4.000000 17.270435 22.455070 802.498169
2.080000 8.200000 -3.960000 15.633202 24.552402 847.217468
2.080000 8.200000 -3.920000 20.873959 30.463074 1363.720947
2.080000 8.200000 -3.880000 23.468960 48.389912 2892.375488
2.080000 8.200000 -3.840000 9.491760 72.467880 5341.687500
2.080000 8.200000 -3.800000 -23.840023 85.174026 7822.961426
2.120000 7.800000 -4.200000 -24.403988 -52.032459 3302.931396
2.120000 7.800000 -4.160000 9.938196 -56.487007 3289.549805
2.120000 7.800000 -4.120000 39.228283 -37.244999 2926.048096
2.120000 7.800000 -4.080000 48.482151 -5.447305 2380.192139
2.120000 7.800000 -4.040000 36.740238 21.354042 1805.840210
2.120000 7.800000 -4.000000 15.369473 32.583359 1297.895996
2.120000 7.800000 -3.960000 -3.033621 29.907743 903.676025
2.120000 7.800000 -3.920000 -13.613967 21.330017 640.309753
2.120000 7.800000 -3.880000 -18.496206 12.229371 491.667175
2.120000 7.800000 -3.840000 -19.990643 2.929893 408.210083
2.120000 7.800000 -3.800000 -16.925642 -6.698241 331.343781
2.120000 7.840000 -4.200000 15.763518 -53.713058 3133.581055
2.120000 7.840000 -4.160000 37.526840 -40.233177 3026.972168
2.120000 7.840000 -4.120000 47.009232 -19.608536 2594.362549
2.120000 7.840000 -4.080000 45.546623 -0.886960 2075.281494
2.120000 7.840000 -4.040000 38.580563 12.874201 1654.204834
2.120000 7.840000 -4.000000 28.574541 23.056797 1348.120361
2.120000 7.840000 -3.960000 14.393634 29.052399 1051.218506
2.120000 7.840000 -3.920000 -2.622509 26.216248 694.169189
2.120000 7.840000 -3.880000 -14.662906 11.872487 355.956757
2.120000 7.840000 -3.840000 -12.486445 -7.649227 214.421997
2.120000 7.840000 -3.800000 4.472128 -18.831821 374.637451
2.120000 7.880000 -4.200000 42.751282 -26.108105 2509.305176
2.120000 7.880000 -4.160000 44.302940 -12.119222 2109.625977
2.120000 7.880000 -4.120000 43.239273 -5.593227 1900.918945
2.120000 7.880000 -4.080000 47.865837 -0.428013 2291.321533
2.120000 7.880000 -4.040000 54.148399 13.596378 3116.910645
2.120000 7.880000 -4.000000 48.864429 35.888054 3675.684814
2.120000 7.880000 -3.960000 25.707222 51.453896 3308.364746
2.120000 7.880000 -3.920000 -3.540993 44.940762 2032.210571
2.120000 7.880000 -3.880000 -16.971275 18.510368 630.657959
2.120000 7.880000 -3.840000 -3.594733 -6.470127 54.784653
2.120000 7.880000 -3.800000 24.046778 -7.978902 641.910400
2.120000 7.920000 -4.200000 40.877991 8.446566 1742.354614
2.120000 7.920000 -4.160000 32.201916 7.966875 1100.434448
2.120000 7.920000 -4.120000 37.736893 0.718432 1424.589233
2.120000 7.920000 -4.080000 56.439159 6.917721 3233.233643
2.120000 7.920000 -4.040000 67.235817 35.411633 5774.639160
2.120000 7.920000 -4.000000 49.993370 69.923065 7388.572266
2.120000 7.920000 -3.960000 9.006775 81.942245 6795.653809
2.120000 7.920000 -3.920000 -27.026754 59.176750 4232.333008
2.120000 7.920000 -3.880000 -31.059862 20.178358 1371.881104
2.120000 7.920000 -3.840000 -4.261537 -1.564150 20.607262
2.120000 7.920000 -3.800000 24.433245 10.759139 712.742554
2.120000 7.960000 -4.200000 18.877773 26.789696 1074.058105
2.120000 7.960000 -4.160000 16.357677 12.561031 425.353119
2.120000 7.960000 -4.120000 35.780910 5.848092 1314.473755
2.120000 7.960000 -4.080000 59.015396 26.692101 4195.285156
2.120000 7.960000 -4.040000 56.485241 68.300430 7855.531250
2.120000 7.960000 -4.000000 17.819881 98.761131 10071.308594
2.120000 7.960000 -3.960000 -33.858082 90.288788 9298.435547
2.120000 7.960000 -3.920000 -61.009510 47.371899 5966.256836
2.120000 7.960000 -3.880000 -46.654121 4.385851 2195.842529
2.120000 7.960000 -3.840000 -10.218831 -6.231287 143.253448
2.120000 7.960000 -3.800000 11.866066 16.285320 406.015198
2.120000 8.000000 -4.200000 -2.329302 24.260328 593.989197
2.120000 8.000000 -4.160000 7.779919 9.270292 146.465454
2.120000 8.000000 -4.120000 32.115456 15.149806 1260.919067
2.120000 8.000000 -4.080000 43.240574 48.172337 4190.321289
2.120000 8.000000 -4.040000 19.363068 85.506607 7686.308105
2.120000 8.000000 -4.000000 -31.147638 93.594162 9730.042969
2.120000 8.000000 -3.960000 -73.563560 60.203976 9036.116211
2.120000 8.000000 -3.920000 -77.429207 7.961093 6058.661133
2.120000 8.000000 -3.880000 -44.408615 -25.366234 2615.570801
2.120000 8.000000 -3.840000 -5.705200 -20.885462 468.751831
2.120000 8.000000 -3.800000 7.933926 6.450751 104.559372
2.120000 8.040000 -4.200000 -10.536414 13.612623 296.319519
2.120000 8.040000 -4.160000 4.498277 7.899214 82.632072
2.120000 8.040000 -4.120000 19.828007 23.525248 946.587097
2.120000 8.040000 -4.080000 13.292406 52.607563 2944.243652
2.120000 8.040000 -4.040000 -20.615253 69.185837 5211.668945
2.120000 8.040000 -4.000000 -61.302013 52.544704 6518.882812
2.120000 8.040000 -3.960000 -78.117371 8.337061 6171.830078
2.120000 8.040000 -3.920000 -57.632740 -34.244614 4494.226562
2.120000 8.040000 -3.880000 -15.733730 -47.491100 2502.954834
2.120000 8.040000 -3.840000 17.168447 -28.451975 1104.270508
2.120000 8.040000 -3.800000 22.888540 1.441593 525.963440
2.120000 8.080000 -4.200000 -10.259953 7.971101 168.805069
2.120000 8.080000 -4.160000 -1.049295 8.657321 76.050224
2.120000 8.080000 -4.120000 2.263513 20.745081 435.481873
2.120000 8.080000 -4.080000 -10.340603 33.421959 1223.955444
2.120000 8.080000 -4.040000 -34.165604 30.279551 2084.139648
2.120000 8.080000 -4.000000 -50.786633 5.522507 2609.780029
2.120000 8.080000 -3.960000 -43.341370 -27.978966 2661.296875
2.120000 8.080000 -3.920000 -12.170500 -47.752808 2428.451660
2.120000 8.080000 -3.880000 24.347586 -40.142899 2204.257324
2.120000 8.080000 -3.840000 44.650841 -11.057086 2115.956787
2.120000 8.080000 -3.800000 40.587181 20.343014 2061.157471
2.120000 8.120000 -4.200000 -12.244602 7.678305 208.886642
2.120000 8.120000 -4.160000 -9.662191 4.542755 113.994568
2.120000 8.120000 -4.120000 -7.721613 5.214124 86.810394
2.120000 8.120000 -4.080000 -10.295718 5.778610 139.394150
2.120000 8.120000 -4.040000 -14.793127 0.080200 218.843048
2.120000 8.120000 -4.000000 -12.871124 -12.640369 325.444763
2.120000 8.120000 -3.960000 1.823500 -24.224468 590.150024
2.120000 8.120000 -3.920000 25.949827 -22.857355 1195.852295
2.120000 8.120000 -3.880000 46.673225 -3.123929 2188.148926
2.120000 8.120000 -3.840000 50.541294 28.203423 3349.855469
2.120000 8.120000 -3.800000 33.545296 56.143612 4277.392090
2.120000 8.160000 -4.200000 -18.856607 4.008966 371.643463
2.120000 8.160000 -4.160000 -13.550314 -6.918657 231.478821
2.120000 8.160000 -4.120000 -1.647296 -11.099428 125.910889
2.120000 8.160000 -4.080000 9.197241 -6.949936 132.890854
2.120000 8.160000 -4.040000 14.434765 0.309750 208.458389
2.120000 8.160000 -4.000000 16.718121 5.302933 307.616638
2.120000 8.160000 -3.960000 21.687042 9.208063 555.116211
2.120000 8.160000 -3.920000 29.762161 18.852116 1241.188477
2.120000 8.160000 -3.880000 33.067650 38.491867 2575.093262
2.120000 8.160000 -3.840000 21.668444 62.620056 4390.792969
2.120000 8.160000 -3.800000 -6.345227 77.869858 6103.976562
2.120000 8.200000 -4.200000 -22.050621 -7.129841 537.064514
2.120000 8.200000 -4.160000 -6.676247 -18.071688 371.158173
2.120000 8.200000 -4.120000 13.682963 -13.964514 382.231140
2.120000 8.200000 -4.080000 25.764051 3.287854 674.596375
2.120000 8.200000 -4.040000 24.017223 22.374699 1077.454102
2.120000 8.200000 -4.000000 14.335434 33.794888 1347.599121
2.120000 8.200000 -3.960000 6.168262 38.294750 1504.535400
2.120000 8.200000 -3.920000 1.644517 43.828880 1923.675171
2.120000 8.200000 -3.880000 -6.524974 54.566322 3020.058838
2.120000 8.200000 -3.840000 -26.064211 64.041092 4780.604492
2.120000 8.200000 -3.800000 -54.613510 60.129082 6598.141602
2.160000 7.800000 -4.200000 -0.967081 -33.790859 1142.757446
2.160000 7.800000 -4.160000 21.493397 -25.005371 1087.234619
2.160000 7.800000 -4.120000 33.749191 -2.675180 1146.164551
2.160000 7.800000 -4.080000 28.666504 22.477045 1326.985962
2.160000 7.800000 -4.040000 9.243641 37.859913 1518.817993
2.160000 7.800000 -4.000000 -13.727585 37.255917 1576.449829
2.160000 7.800000 -3.960000 -29.273441 23.901733 1428.227295
2.160000 7.800000 -3.920000 -32.737946 6.665486 1116.201782
2.160000 7.800000 -3.880000 -26.648741 -6.537989 752.900696
2.160000 7.800000 -3.840000 -16.702374 -12.689463 439.991730
2.160000 7.800000 -3.800000 -7.368917 -12.940264 221.751373
2.160000 7.840000 -4.200000 18.691977 -27.107256 1084.193359
2.160000 7.840000 -4.160000 30.177301 -12.167717 1058.722778
2.160000 7.840000 -4.120000 30.531870 6.434956 973.603699
2.160000 7.840000 -4.080000 20.480265 20.837439 853.640137
2.160000 7.840000 -4.040000 5.283323 26.253613 717.165710
2.160000 7.840000 -4.000000 -8.939013 22.300304 577.209534
2.160000 7.840000 -3.960000 -17.595936 11.579610 443.704315
2.160000 7.840000 -3.920000 -18.070461 -1.766711 329.662842
2.160000 7.840000 -3.880000 -9.983838 -12.538166 256.882629
2.160000 7.840000 -3.840000 3.667435 -15.501458 253.745285
2.160000 7.840000 -3.800000 16.349102 -8.223595 334.920654
2.160000 7.880000 -4.200000 27.237164 -10.523456 852.606201
2.160000 7.880000 -4.160000 28.496510 1.057059 813.168457
2.160000 7.880000 -4.120000 24.987537 9.982616 724.029663
2.160000 7.880000 -4.080000 19.836432 15.942850 647.658447
2.160000 7.880000 -4.040000 13.496282 20.148319 588.104370
2.160000 7.880000 -4.000000 5.074187 21.446505 485.699921
2.160000 7.880000 -3.960000 -3.335123 16.834501 294.523468
2.160000 7.880000 -3.920000 -5.791716 6.606075 77.184204
2.160000 7.880000 -3.880000 1.958748 -2.335465 9.291090
2.160000 7.880000 -3.840000 15.949491 -0.732102 254.922226
2.160000 7.880000 -3.800000 24.688883 13.915802 803.190491
2.160000 7.920000 -4.200000 23.706375 4.345934 580.879395
2.160000 7.920000 -4.160000 21.928631 8.601905 554.857605
2.160000 7.920000 -4.120000 22.583908 11.365358 639.204285
2.160000 7.920000 -4.080000 24.523033 17.835670 919.490295
2.160000 7.920000 -4.040000 21.367855 28.336704 1259.554077
2.160000 7.920000 -4.000000 9.771435 35.667042 1367.618774
2.160000 7.920000 -3.960000 -4.294681 32.264236 1059.425293
2.160000 7.920000 -3.920000 -9.729921 19.944304 492.446594
2.160000 7.920000 -3.880000 -2.040358 10.568772 115.862015
2.160000 7.920000 -3.840000 10.027299 15.058381 327.301575
2.160000 7.920000 -3.800000 11.435448 31.374641 1115.137573
2.160000 7.960000 -4.200000 15.342077 11.977841 378.848022
2.160000 7.960000 -4.160000 15.953264 12.314609 406.156219
2.160000 7.960000 -4.120000 20.901398 16.190002 698.984619
2.160000 7.960000 -4.080000 23.239075 28.059198 1327.373169
2.160000 7.960000 -4.040000 14.488939 42.518547 2017.756226
2.160000 7.960000 -4.000000 -4.552774 47.737938 2299.638428
2.160000 7.960000 -3.960000 -21.913448 37.663109 1898.708984
2.160000 7.960000 -3.920000 -25.222641 19.982887 1035.497437
2.160000 7.960000 -3.880000 -14.659389 10.019426 315.286560
2.160000 7.960000 -3.840000 -3.918029 15.660881 260.614136
2.160000 7.960000 -3.800000 -6.995606 28.816868 879.350403
2.160000 8.000000 -4.200000 7.811981 15.000788 286.050690
2.160000 8.000000 -4.160000 9.709723 15.930046 348.045074
2.160000 8.000000 -4.120000 13.081655 22.731884 687.868225
2.160000 8.000000 -4.080000 9.445630 35.393288 1341.904785
2.160000 8.000000 -4.040000 -5.864964 44.609886 2024.439819
2.160000 8.000000 -4.000000 -26.201370 40.092518 2293.921875
2.160000 8.000000 -3.960000 -37.836105 21.966076 1914.079346
2.160000 8.000000 -3.920000 -32.864517 2.600962 1086.841553
2.160000 8.000000 -3.880000 -17.540279 -4.239342 325.633423
2.160000 8.000000 -3.840000 -6.817255 3.479463 58.581623
2.160000 8.000000 -3.800000 -9.960036 14.269855 302.831085
2.160000 8.040000 -4.200000 0.224153 16.985947 288.572601
2.160000 8.040000 -4.160000 -0.425713 17.668261 312.348663
2.160000 8.040000 -4.120000 -1.431342 21.992340 485.711761
2.160000 8.040000 -4.080000 -8.410744 27.611908 833.158081
2.160000 8.040000 -4.040000 -21.526527 26.892689 1186.608154
2.160000 8.040000 -4.000000 -32.796211 15.074038 1302.817993
2.160000 8.040000 -3.960000 -32.597626 -3.048492 1071.898560
2.160000 8.040000 -3.920000 -19.312958 -15.779851 621.994019
2.160000 8.040000 -3.880000 -1.998693 -14.706639 220.279999
2.160000 8.040000 -3.840000 7.231523 -2.413620 58.120487
2.160000 8.040000 -3.800000 3.837067 10.078770 116.304680
2.160000 8.080000 -4.200000 -10.173550 16.005787 359.686340
2.160000 8.080000 -4.160000 -12.645077 11.550621 293.314819
2.160000 8.080000 -4.120000 -12.682447 8.597875 234.767914
2.160000 8.080000 -4.080000 -13.705287 6.826499 234.435974
2.160000 8.080000 -4.040000 -15.953489 2.707644 261.845154
2.160000 8.080000 -4.000000 -15.225328 -5.326874 260.186218
2.160000 8.080000 -3.960000 -7.258276 -13.321854 230.154358
2.160000 8.080000 -3.920000 6.720928 -14.227409 247.590042
2.160000 8.080000 -3.880000 19.312294 -4.355049 391.931152
2.160000 8.080000 -3.840000 22.379454 12.445475 655.729736
2.160000 8.080000 -3.800000 13.705521 27.214115 928.449402
2.160000 8.120000 -4.200000 -20.611767 7.225122 477.047333
2.160000 8.120000 -4.160000 -18.232632 -3.722222 346.283813
2.160000 8.120000 -4.120000 -9.366722 -10.120444 190.158875
2.160000 8.120000 -4.080000 0.369630 -9.829632 96.758286
2.160000 8.120000 -4.040000 6.967385 -5.751034 81.618851
2.160000 8.120000 -4.000000 11.069610 -1.589615 125.063133
2.160000 8.120000 -3.960000 15.690393 2.579262 252.841034
2.160000 8.120000 -3.920000 21.269865 10.207361 556.597412
2.160000 8.120000 -3.880000 23.499697 23.656296 1111.855957
2.160000 8.120000 -3.840000 16.624004 39.816925 1861.745117
2.160000 8.120000 -3.800000 -0.728500 50.843071 2585.548584
2.160000 8.160000 -4.200000 -22.951632 -8.811743 604.424194
2.160000 8.160000 -4.160000 -10.174773 -19.554758 485.914551
2.160000 8.160000 -4.120000 7.893288 -18.927574 420.557037
2.160000 8.160000 -4.080000 21.508368 -6.943651 510.824158
2.160000 8.160000 -4.040000 25.106321 9.311964 717.040039
2.160000 8.160000 -4.000000 20.762383 22.367884 931.398804
2.160000 8.160000 -3.960000 14.386948 30.513222 1138.041016
2.160000 8.160000 -3.920000 8.810459 37.480419 1482.406006
2.160000 8.160000 -3.880000 0.967463 46.353615 2149.593750
2.160000 8.160000 -3.840000 -13.950932 54.296715 3142.761719
2.160000 8.160000 -3.800000 -35.688046 53.848892 4173.339844
2.160000 8.200000 -4.200000 -12.333975 -22.916018 677.270813
2.160000 8.200000 -4.160000 7.475966 -23.705870 617.858337
2.160000 8.200000 -4.120000 24.618805 -9.848596 703.080383
2.160000 8.200000 -4.080000 29.355776 12.411684 1015.811523
2.160000 8.200000 -4.040000 20.377289 32.120316 1446.948608
2.160000 8.200000 -4.000000 4.576058 42.290588 1809.434204
2.160000 8.200000 -3.960000 -10.094285 44.113827 2047.924316
2.160000 8.200000 -3.920000 -21.436195 43.212574 2326.836914
2.160000 8.200000 -3.880000 -33.048744 42.346230 2885.422607
2.160000 8.200000 -3.840000 -48.145386 38.151127 3773.486816
2.160000 8.200000 -3.800000 -63.931362 25.089361 4716.695312
2.200000 7.800000 -4.200000 -0.419312 -13.150497 173.111404
2.200000 7.800000 -4.160000 7.007645 -4.062860 65.613922
2.200000 7.800000 -4.120000 7.568477 9.543583 148.361816
2.200000 7.800000 -4.080000 -1.807971 21.849342 480.662537
2.200000 7.800000 -4.040000 -18.550957 25.215303 979.949524
2.200000 7.800000 -4.000000 -34.181908 15.932163 1422.236694
2.200000 7.800000 -3.960000 -39.611435 -1.764471 1572.179199
2.200000 7.800000 -3.920000 -32.055668 -17.930767 1349.078247
2.200000 7.800000 -3.880000 -17.276310 -24.252705 886.664551
2.200000 7.800000 -3.840000 -4.656643 -20.131008 426.941803
2.200000 7.800000 -3.800000 0.442589 -11.900255 141.811966
2.200000 7.840000 -4.200000 5.578646 -15.400696 268.302734
2.200000 7.840000 -4.160000 9.937024 -5.761672 131.941315
2.200000 7.840000 -4.120000 6.237348 5.304564 67.042908
2.200000 7.840000 -4.080000 -4.888091 10.827331 141.124512
2.200000 7.840000 -4.040000 -17.110220 6.343521 332.999878
2.200000 7.840000 -4.000000 -22.422832 -6.156528 540.686279
2.200000 7.840000 -3.960000 -16.945652 -19.112160 652.429810
2.200000 7.840000 -3.920000 -3.751385 -24.653805 621.882996
2.200000 7.840000 -3.880000 9.552197 -19.918556 487.993347
2.200000 7.840000 -3.840000 16.262342 -8.354055 334.254028
2.200000 7.840000 -3.800000 14.619699 3.590483 226.627182
2.200000 7.880000 -4.200000 14.082899 -14.616942 411.983032
2.200000 7.880000 -4.160000 15.651394 -4.486073 265.090973
2.200000 7.880000 -4.120000 9.695639 2.851307 102.135361
2.200000 7.880000 -4.080000 1.403017 2.621771 8.842142
2.200000 7.880000 -4.040000 -2.413473 -3.911880 21.127659
2.200000 7.880000 -4.000000 1.304098 -10.839239 119.189774
2.200000 7.880000 -3.960000 10.133072 -12.407110 256.615540
2.200000 7.880000 -3.920000 18.673576 -6.721237 393.877472
2.200000 7.880000 -3.880000 22.284222 4.059733 513.067993
2.200000 7.880000 -3.840000 19.040371 15.839520 613.426147
2.200000 7.880000 -3.800000 9.627663 24.582657 696.998901
2.200000 7.920000 -4.200000 23.144905 -7.513816 592.144104
2.200000 7.920000 -4.160000 20.718317 2.979899 438.128448
2.200000 7.920000 -4.120000 13.769018 6.710370 234.614929
2.200000 7.920000 -4.080000 9.829992 4.106782 113.494400
2.200000 7.920000 -4.040000 12.105696 1.236445 148.076660
2.200000 7.920000 -4.000000 17.429535 3.414129 315.444977
2.200000 7.920000 -3.960000 20.354044 10.817134 531.297485
2.200000 7.920000 -3.920000 18.124550 19.844341 722.297180
2.200000 7.920000 -3.880000 11.474388 27.220722 872.629272
2.200000 7.920000 -3.840000 1.907332 31.711273 1009.242798
2.200000 7.920000 -3.800000 -9.916805 32.400780 1148.153564
2.200000 7.960000 -4.200000 26.704910 6.810104 759.529724
2.200000 7.960000 -4.160000 18.580650 15.253234 577.901733
2.200000 7.960000 -4.120000 11.121883 14.803943 342.853027
2.200000 7.960000 -4.080000 10.438215 11.659033 244.889374
2.200000 7.960000 -4.040000 14.140501 13.287428 376.509521
2.200000 7.960000 -4.000000 15.133770 20.859661 664.156433
2.200000 7.960000 -3.960000 9.435831 29.134682 937.864563
2.200000 7.960000 -3.920000 -0.648872 32.792007 1075.736816
2.200000 7.960000 -3.880000 -10.481180 31.307301 1090.002197
2.200000 7.960000 -3.840000 -18.367821 27.342062 1084.965210
2.200000 7.960000 -3.800000 -25.646482 21.826674 1134.145752
2.200000 8.000000 -4.200000 18.539566 22.638865 856.233704
2.200000 8.000000 -4.160000 5.720088 24.296768 623.052368
2.200000 8.000000 -4.120000 -0.273342 18.144358 329.292419
2.200000 8.000000 -4.080000 2.138879 14.125318 204.099396
2.200000 8.000000 -4.040000 5.650782 17.758247 347.286682
2.200000 8.000000 -4.000000 2.683661 25.356144 650.136047
2.200000 8.000000 -3.960000 -6.949636 29.120785 896.317505
2.200000 8.000000 -3.920000 -17.057468 25.553040 943.915039
2.200000 8.000000 -3.880000 -22.430145 17.976652 826.271484
2.200000 8.000000 -3.840000 -23.666664 11.327106 688.414307
2.200000 8.000000 -3.800000 -24.429766 6.293711 636.424255
2.200000 8.040000 -4.200000 -0.654342 29.327307 860.519104
2.200000 8.040000 -4.160000 -12.414582 20.800846 586.797058
2.200000 8.040000 -4.120000 -12.385561 9.335678 240.557007
2.200000 8.040000 -4.080000 -4.760404 5.343759 51.217201
2.200000 8.040000 -4.040000 0.344572 10.391565 108.103355
2.200000 8.040000 -4.000000 -2.826466 17.196203 303.698334
2.200000 8.040000 -3.960000 -10.968227 18.052845 446.207214
2.200000 8.040000 -3.920000 -16.593817 12.369699 428.364227
2.200000 8.040000 -3.880000 -16.266804 5.818745 298.466705
2.200000 8.040000 -3.840000 -13.179482 3.168491 183.738098
2.200000 8.040000 -3.800000 -12.134287 3.399939 158.800507
2.200000 8.080000 -4.200000 -20.532887 19.634914 807.129272
2.200000 8.080000 -4.160000 -23.246399 3.418913 552.084045
2.200000 8.080000 -4.120000 -13.101006 -8.130893 237.747772
2.200000 8.080000 -4.080000 0.718416 -7.526059 57.157688
2.200000 8.080000 -4.040000 7.703389 2.140377 63.923412
2.200000 8.080000 -4.000000 4.998200 11.476096 156.682800
2.200000 8.080000 -3.960000 -1.738680 14.078665 201.231812
2.200000 8.080000 -3.920000 -5.402322 11.527412 162.066315
2.200000 8.080000 -3.880000 -4.599870 9.848986 118.161316
2.200000 8.080000 -3.840000 -3.785162 12.190500 162.935745
2.200000 8.080000 -3.800000 -7.211655 15.711648 298.863831
2.200000 8.120000 -4.200000 -27.436623 -2.403962 758.547302
2.200000 8.120000 -4.160000 -17.133083 -17.381330 595.653198
2.200000 8.120000 -4.120000 1.565770 -20.640553 428.484039
2.200000 8.120000 -4.080000 17.117777 -10.154448 396.131104
2.200000 8.120000 -4.040000 21.271011 6.696443 497.298279
2.200000 8.120000 -4.000000 14.757263 19.941460 615.438599
2.200000 8.120000 -3.960000 4.836785 25.065245 651.660950
2.200000 8.120000 -3.920000 -2.220963 25.020920 630.979126
2.200000 8.120000 -3.880000 -6.268566 25.222828 675.485962
2.200000 8.120000 -3.840000 -11.490973 27.219267 872.930969
2.200000 8.120000 -3.800000 -20.477980 27.441311 1172.373169
2.200000 8.160000 -4.200000 -15.634375 -22.455275 748.673035
2.200000 8.160000 -4.160000 3.014832 -26.423428 707.286743
2.200000 8.160000 -4.120000 21.512106 -16.422613 732.472900
2.200000 8.160000 -4.080000 29.975029 3.638822 911.743408
2.200000 8.160000 -4.040000 24.829288 24.108837 1197.729614
2.200000 8.160000 -4.000000 10.501255 36.642586 1452.955444
2.200000 8.160000 -3.960000 -5.080676 39.422493 1579.946167
2.200000 8.160000 -3.920000 -16.846680 36.481743 1614.728271
2.200000 8.160000 -3.880000 -25.263622 32.493065 1694.049927
2.200000 8.160000 -3.840000 -33.498287 28.253033 1920.369141
2.200000 8.160000 -3.800000 -42.540974 20.926861 2247.667969
2.200000 8.200000 -4.200000 6.667001 -26.563873 750.088257
2.200000 8.200000 -4.160000 22.512005 -16.730450 786.698364
2.200000 8.200000 -4.120000 30.378021 2.476178 928.955627
2.200000 8.200000 -4.080000 25.718729 23.755344 1225.769409
2.200000 8.200000 -4.040000 10.305998 38.909603 1620.170898
2.200000 8.200000 -4.000000 -9.420035 43.577873 1987.768066
2.200000 8.200000 -3.960000 -26.778900 38.898930 2230.236328
2.200000 8.200000 -3.920000 -38.578613 29.315300 2347.696289
2.200000 8.200000 -3.880000 -45.614380 18.689627 2429.973877
2.200000 8.200000 -3.840000 -50.082779 7.910273 2570.857178
2.200000 8.200000 -3.800000 -52.484573 -4.271617 2772.877197
