#kx 	ky 	kz 	real 	imag 	intensity
0.800000 8.800000 0.800000 17.932667 -30.289530 1239.036133
0.800000 8.800000 0.840000 19.204449 -11.660612 504.780731
0.800000 8.800000 0.880000 6.427738 -3.178329 51.417595
0.800000 8.800000 0.920000 -4.624506 -10.833833 138.757980
0.800000 8.800000 0.960000 -1.273218 -24.563820 605.002319
0.800000 8.800000 1.000000 14.410104 -28.986847 1047.888428
0.800000 8.800000 1.040000 28.864944 -18.166161 1163.194336
0.800000 8.800000 1.080000 30.632729 0.072901 938.369385
0.800000 8.800000 1.120000 20.079996 13.137497 575.800049
0.800000 8.800000 1.160000 6.550324 15.399179 280.041473
0.800000 8.800000 1.200000 -2.113920 10.887903 123.015099
0.800000 8.840000 0.800000 20.340694 -16.613380 689.748230
0.800000 8.840000 0.840000 14.611023 -3.870919 228.466003
0.800000 8.840000 0.880000 2.207106 -4.459341 24.757032
0.800000 8.840000 0.920000 -1.376778 -17.195038 297.564819
0.800000 8.840000 0.960000 10.573268 -27.877010 888.921692
0.800000 8.840000 1.000000 29.095592 -23.361368 1392.307129
0.800000 8.840000 1.040000 38.227932 -4.446260 1481.144043
0.800000 8.840000 1.080000 30.219288 15.178229 1143.583984
0.800000 8.840000 1.120000 11.992437 22.185078 635.996216
0.800000 8.840000 1.160000 -2.741485 15.215147 239.016449
0.800000 8.840000 1.200000 -6.554364 3.727332 56.852695
0.800000 8.880000 0.800000 17.000103 -10.297392 395.039795
0.800000 8.880000 0.840000 10.865211 -4.476270 138.089813
0.800000 8.880000 0.880000 4.500875 -9.874528 117.764183
0.800000 8.880000 0.920000 9.121147 -20.496128 503.286621
0.800000 8.880000 0.960000 24.736855 -22.922606 1137.357910
0.800000 8.880000 1.000000 39.034550 -10.116613 1626.041870
0.800000 8.880000 1.040000 39.106159 10.762358 1645.120117
0.800000 8.880000 1.080000 24.074986 24.785381 1193.920044
0.800000 8.880000 1.120000 5.744209 23.284782 575.177002
0.800000 8.880000 1.160000 -3.013896 11.171255 133.880508
0.800000 8.880000 1.200000 0.211352 0.639063 0.453072
0.800000 8.920000 0.800000 17.544430 -8.991411 388.652466
0.800000 8.920000 0.840000 14.456121 -5.890592 243.678513
0.800000 8.920000 0.880000 13.542552 -9.841534 280.256500
0.800000 8.920000 0.920000 21.109287 -14.072471 643.636475
0.800000 8.920000 0.960000 33.578720 -9.235261 1212.820435
0.800000 8.920000 1.000000 40.180855 6.130763 1652.087402
0.800000 8.920000 1.040000 33.693253 22.994152 1663.966309
0.800000 8.920000 1.080000 18.007217 30.133091 1232.263062
0.800000 8.920000 1.120000 4.497358 24.792717 634.905090
0.800000 8.920000 1.160000 1.110482 14.654079 215.975220
0.800000 8.920000 1.200000 5.613621 9.476967 121.325645
0.800000 8.960000 0.800000 22.937904 -3.631563 539.335693
0.800000 8.960000 0.840000 20.808243 0.613518 433.359375
0.800000 8.960000 0.880000 20.257378 0.120878 410.375977
0.800000 8.960000 0.920000 25.018951 0.129164 625.964600
0.800000 8.960000 0.960000 31.734625 6.524232 1049.651978
0.800000 8.960000 1.000000 33.108902 19.056656 1459.355469
0.800000 8.960000 1.040000 25.414639 30.942331 1603.331787
0.800000 8.960000 1.080000 12.421294 35.268562 1398.160034
0.800000 8.960000 1.120000 1.721429 31.397015 988.735840
0.800000 8.960000 1.160000 -2.440894 24.830067 622.490173
0.800000 8.960000 1.200000 -2.226965 21.140160 451.865723
0.800000 9.000000 0.800000 24.679728 9.839298 705.900696
0.800000 9.000000 0.840000 19.572786 14.282092 587.072144
0.800000 9.000000 0.880000 15.929997 13.623186 439.356018
0.800000 9.000000 0.920000 17.311600 12.326645 451.637665
0.800000 9.000000 0.960000 21.577883 15.800859 715.272156
0.800000 9.000000 1.000000 22.726789 25.074718 1145.248535
0.800000 9.000000 1.040000 16.400831 35.504272 1529.540649
0.800000 9.000000 1.080000 3.847662 40.701942 1671.452637
0.800000 9.000000 1.120000 -9.209793 37.827480 1515.738525
0.800000 9.000000 1.160000 -17.377016 29.386890 1165.550049
0.800000 9.000000 1.200000 -19.354553 20.422363 791.671631
0.800000 9.040000 0.800000 14.875044 24.659336 829.349854
0.800000 9.040000 0.840000 6.415638 24.808044 656.599487
0.800000 9.040000 0.880000 1.849706 19.383469 379.140259
0.800000 9.040000 0.920000 4.504822 14.150808 220.538788
0.800000 9.040000 0.960000 11.281157 15.768593 375.913025
0.800000 9.040000 1.000000 14.211887 25.645657 859.677429
0.800000 9.040000 1.040000 6.968009 37.624748 1464.174805
0.800000 9.040000 1.080000 -9.190862 42.321709 1875.598999
0.800000 9.040000 1.120000 -25.679661 34.852474 1874.139893
0.800000 9.040000 1.160000 -33.301521 19.026417 1470.995850
0.800000 9.040000 1.200000 -29.458029 4.147408 884.976440
0.800000 9.080000 0.800000 -4.091027 29.662468 896.598511
0.800000 9.080000 0.840000 -11.463557 22.796473 651.092285
0.800000 9.080000 0.880000 -11.441753 12.597277 289.605103
0.800000 9.080000 0.920000 -3.073627 6.691363 54.221527
0.800000 9.080000 0.960000 7.124037 11.399994 180.711761
0.800000 9.080000 1.000000 8.857964 24.992262 703.076660
0.800000 9.080000 1.040000 -3.110525 37.009659 1379.390259
0.800000 9.080000 1.080000 -22.950256 36.100037 1829.927002
0.800000 9.080000 1.120000 -37.306297 20.114140 1796.338379
0.800000 9.080000 1.160000 -36.250984 -1.220091 1315.622559
0.800000 9.080000 1.200000 -21.708538 -14.201508 672.943420
0.800000 9.120000 0.800000 -20.848684 20.906559 871.751831
0.800000 9.120000 0.840000 -22.069593 9.516275 577.626465
0.800000 9.120000 0.880000 -14.498234 -0.327960 210.306335
0.800000 9.120000 0.920000 -1.303025 -1.120183 2.952685
0.800000 9.120000 0.960000 7.934155 9.813205 159.249802
0.800000 9.120000 1.000000 3.956967 25.408195 661.234009
0.800000 9.120000 1.040000 -13.023656 32.518986 1227.099976
0.800000 9.120000 1.080000 -31.222042 22.881002 1498.356201
0.800000 9.120000 1.120000 -36.179794 1.509179 1311.255127
0.800000 9.120000 1.160000 -23.414379 -16.417774 817.776489
0.800000 9.120000 1.200000 -2.723208 -18.369793 344.865143
0.800000 9.160000 0.800000 -26.019077 5.970295 712.636780
0.800000 9.160000 0.840000 -20.294121 -4.384854 431.078308
0.800000 9.160000 0.880000 -7.955128 -8.530643 136.055908
0.800000 9.160000 0.920000 4.406837 -1.907660 23.059383
0.800000 9.160000 0.960000 7.397574 12.781879 218.100540
0.800000 9.160000 1.000000 -3.162531 24.933834 631.697693
0.800000 9.160000 1.040000 -20.478056 23.703978 981.229309
0.800000 9.160000 1.080000 -30.653423 8.184581 1006.619751
0.800000 9.160000 1.120000 -24.384575 -10.150868 697.647583
0.800000 9.160000 1.160000 -5.838913 -16.598999 309.619659
0.800000 9.160000 1.200000 10.374674 -6.080500 144.606339
0.800000 9.200000 0.800000 -21.168701 -3.701417 461.814423
0.800000 9.200000 0.840000 -12.321014 -9.650091 244.931671
0.800000 9.200000 0.880000 -0.922497 -7.550306 57.858128
0.800000 9.200000 0.920000 5.638223 2.943531 40.453934
0.800000 9.200000 0.960000 1.581965 15.315586 237.069794
0.800000 9.200000 1.000000 -11.160173 19.878847 519.718018
0.800000 9.200000 1.040000 -22.733288 12.096718 663.132935
0.800000 9.200000 1.080000 -23.063354 -2.193296 536.728882
0.800000 9.200000 1.120000 -11.171519 -10.782802 241.071655
0.800000 9.200000 1.160000 3.141486 -5.682344 42.157967
0.800000 9.200000 1.200000 7.528235 9.554789 147.968307
0.840000 8.800000 0.800000 37.465004 -6.893825 1451.151245
0.840000 8.800000 0.840000 24.478899 6.993958 648.131958
0.840000 8.800000 0.880000 8.995121 4.614438 102.205238
0.840000 8.800000 0.920000 5.004659 -7.683583 84.084061
0.840000 8.800000 0.960000 14.380210 -15.601674 450.202667
0.840000 8.800000 1.000000 26.739788 -10.700475 829.516418
0.840000 8.800000 1.040000 30.586338 3.011031 944.590332
0.840000 8.800000 1.080000 23.554056 15.022529 780.469971
0.840000 8.800000 1.120000 12.134734 18.957479 506.637787
0.840000 8.800000 1.160000 3.227131 16.623262 286.747223
0.840000 8.800000 1.200000 -2.114206 12.880547 170.378342
0.840000 8.840000 0.800000 25.424911 9.439100 735.522766
0.840000 8.840000 0.840000 13.618265 11.597998 319.970703
0.840000 8.840000 0.880000 7.700250 4.327980 78.025253
0.840000 8.840000 0.920000 12.208911 -2.372623 154.686859
0.840000 8.840000 0.960000 20.987087 0.093020 440.466492
0.840000 8.840000 1.000000 23.929758 10.737708 687.931702
0.840000 8.840000 1.040000 16.975857 20.810709 721.265320
0.840000 8.840000 1.080000 5.132986 22.884995 550.070496
0.840000 8.840000 1.120000 -3.617800 17.345566 313.957123
0.840000 8.840000 1.160000 -6.158001 10.148946 140.922073
0.840000 8.840000 1.200000 -5.512992 5.570428 61.422745
0.840000 8.880000 0.800000 11.368326 10.172275 232.714020
0.840000 8.880000 0.840000 8.481367 7.942989 135.024658
0.840000 8.880000 0.880000 10.565742 6.044194 148.167206
0.840000 8.880000 0.920000 14.181216 9.147680 284.786926
0.840000 8.880000 0.960000 13.438581 16.193888 442.837463
0.840000 8.880000 1.000000 6.476710 21.273561 494.512207
0.840000 8.880000 1.040000 -2.382339 19.767342 396.423340
0.840000 8.880000 1.080000 -7.044900 13.056715 220.108429
0.840000 8.880000 1.120000 -5.725623 6.792536 78.921295
0.840000 8.880000 1.160000 -2.146946 4.866782 28.294949
0.840000 8.880000 1.200000 -0.803864 5.768623 33.923214
0.840000 8.920000 0.800000 7.622471 3.773848 72.343987
0.840000 8.920000 0.840000 11.156715 6.892805 171.983063
0.840000 8.920000 0.880000 11.538340 13.860950 325.259216
0.840000 8.920000 0.920000 5.702188 20.339689 446.217926
0.840000 8.920000 0.960000 -3.927456 20.648350 441.779266
0.840000 8.920000 1.000000 -10.584414 13.635616 297.959869
0.840000 8.920000 1.040000 -9.295073 4.693164 108.424164
0.840000 8.920000 1.080000 -1.937809 1.148875 5.075018
0.840000 8.920000 1.120000 4.258934 5.341864 46.674030
0.840000 8.920000 1.160000 3.650080 12.397836 167.029419
0.840000 8.920000 1.200000 -2.417640 15.191391 236.623352
0.840000 8.960000 0.800000 12.221294 3.554428 161.993988
0.840000 8.960000 0.840000 12.752874 14.146397 362.756348
0.840000 8.960000 0.880000 3.701683 22.955658 540.664673
0.840000 8.960000 0.920000 -10.101873 21.674454 571.829773
0.840000 8.960000 0.960000 -17.906841 9.681146 414.379547
0.840000 8.960000 1.000000 -12.678988 -3.669348 174.220840
0.840000 8.960000 1.040000 1.468690 -6.677537 46.746552
0.840000 8.960000 1.080000 12.084236 3.796406 160.441467
0.840000 8.960000 1.120000 9.593247 18.990547 452.671265
0.840000 8.960000 1.160000 -3.928672 26.199635 701.855286
0.840000 8.960000 1.200000 -16.967556 20.452618 706.207520
0.840000 9.000000 0.800000 13.057534 12.802408 334.400879
0.840000 9.000000 0.840000 4.476663 23.477552 571.236023
0.840000 9.000000 0.880000 -11.499873 23.649899 691.564758
0.840000 9.000000 0.920000 -22.406572 9.968721 601.429871
0.840000 9.000000 0.960000 -17.400177 -7.829320 364.064423
0.840000 9.000000 1.000000 1.127228 -13.910395 194.769730
0.840000 9.000000 1.040000 17.592577 -1.033398 310.566681
0.840000 9.000000 1.080000 16.616117 21.423405 735.057617
0.840000 9.000000 1.120000 -2.561014 35.022263 1233.117676
0.840000 9.000000 1.160000 -25.026138 28.894239 1461.184692
0.840000 9.000000 1.200000 -33.872398 9.363387 1235.012329
0.840000 9.040000 0.800000 2.458202 21.869831 484.332275
0.840000 9.040000 0.840000 -11.563179 23.624195 691.809692
0.840000 9.040000 0.880000 -23.843380 11.902962 710.187256
0.840000 9.040000 0.920000 -21.767448 -7.208793 525.788513
0.840000 9.040000 0.960000 -3.318290 -17.590446 320.434845
0.840000 9.040000 1.000000 17.593428 -7.373030 363.890259
0.840000 9.040000 1.040000 21.710018 17.974937 794.423279
0.840000 9.040000 1.080000 2.409188 38.156853 1461.749634
0.840000 9.040000 1.120000 -26.703632 35.677299 1985.953735
0.840000 9.040000 1.160000 -43.262913 12.025320 2016.287842
0.840000 9.040000 1.200000 -36.217094 -13.661066 1498.302734
0.840000 9.080000 0.800000 -13.971452 19.576675 578.447693
0.840000 9.080000 0.840000 -23.748104 11.050388 686.083557
0.840000 9.080000 0.880000 -23.861404 -5.238531 596.808838
0.840000 9.080000 0.920000 -9.038343 -17.442316 385.926025
0.840000 9.080000 0.960000 12.261356 -12.368633 303.323975
0.840000 9.080000 1.000000 21.864510 10.341743 585.008423
0.840000 9.080000 1.040000 8.029253 34.071003 1225.302124
0.840000 9.080000 1.080000 -21.566473 38.139481 1919.732788
0.840000 9.080000 1.120000 -44.390167 16.900427 2256.111328
0.840000 9.080000 1.160000 -42.661808 -13.882038 2012.740845
0.840000 9.080000 1.200000 -19.440405 -30.742859 1323.052734
0.840000 9.120000 0.800000 -23.519634 5.865109 587.572754
0.840000 9.120000 0.840000 -23.015259 -5.585311 560.897827
0.840000 9.120000 0.880000 -12.453284 -15.686271 401.143372
0.840000 9.120000 0.920000 5.105476 -14.459613 235.146286
0.840000 9.120000 0.960000 17.020876 2.135357 294.269958
0.840000 9.120000 1.000000 10.651278 24.438255 710.678040
0.840000 9.120000 1.040000 -13.219418 34.233021 1346.652710
0.840000 9.120000 1.080000 -37.631294 20.727869 1845.758789
0.840000 9.120000 1.120000 -42.802319 -7.819172 1893.177856
0.840000 9.120000 1.160000 -24.099304 -29.698124 1462.755127
0.840000 9.120000 1.200000 3.081316 -28.709179 833.711487
0.840000 9.160000 0.800000 -20.236425 -8.099808 475.119812
0.840000 9.160000 0.840000 -12.364710 -14.141785 352.876099
0.840000 9.160000 0.880000 -0.262171 -13.851940 191.944992
0.840000 9.160000 0.920000 9.867428 -3.544927 109.932640
0.840000 9.160000 0.960000 8.944156 13.208012 254.449493
0.840000 9.160000 1.000000 -6.189078 24.691633 647.981445
0.840000 9.160000 1.040000 -26.599304 19.842123 1101.232910
0.840000 9.160000 1.080000 -36.365585 -0.411271 1322.625000
0.840000 9.160000 1.120000 -26.370224 -21.439651 1155.047363
0.840000 9.160000 1.160000 -3.697271 -26.618977 722.239685
0.840000 9.160000 1.200000 13.601508 -12.223037 334.403656
0.840000 9.200000 0.800000 -11.059077 -12.176889 270.579834
0.840000 9.200000 0.840000 -3.516404 -11.436777 143.164963
0.840000 9.200000 0.880000 2.805846 -5.796085 41.467377
0.840000 9.200000 0.920000 3.958748 3.925872 31.084162
0.840000 9.200000 0.960000 -3.118118 12.708915 171.239166
0.840000 9.200000 1.000000 -15.838723 13.375284 429.763367
0.840000 9.200000 1.040000 -25.433018 3.206577 657.120544
0.840000 9.200000 1.080000 -23.489216 -11.519156 684.434265
0.840000 9.200000 1.120000 -10.269334 -19.269945 476.790009
0.840000 9.200000 1.160000 4.010334 -13.199257 190.303162
0.840000 9.200000 1.200000 7.439778 2.071499 59.641407
0.880000 8.800000 0.800000 31.695856 27.506098 1761.212646
0.880000 8.800000 0.840000 12.455484 25.861908 823.977356
0.880000 8.800000 0.880000 4.106209 13.269830 192.949341
0.880000 8.800000 0.920000 8.977036 3.400867 92.153061
0.880000 8.800000 0.960000 17.596424 4.370166 328.732513
0.880000 8.800000 1.000000 19.749828 12.419830 544.307922
0.880000 8.800000 1.040000 14.331221 18.373631 542.974182
0.880000 8.800000 1.080000 7.934100 18.309540 398.189209
0.880000 8.800000 1.120000 5.378452 16.328888 295.560303
0.880000 8.800000 1.160000 4.057056 17.321945 316.509491
0.880000 8.800000 1.200000 -1.426984 19.451952 380.414734
0.880000 8.840000 0.800000 4.868246 31.825039 1036.532959
0.880000 8.840000 0.840000 -0.606355 22.134628 490.309448
0.880000 8.840000 0.880000 3.318481 17.493515 317.035400
0.880000 8.840000 0.920000 5.942787 22.311174 533.105225
0.880000 8.840000 0.960000 -0.891783 28.869637 834.251221
0.880000 8.840000 1.000000 -13.413199 26.571774 885.973083
0.880000 8.840000 1.040000 -20.152637 14.372070 612.685181
0.880000 8.840000 1.080000 -14.997200 2.393775 230.646179
0.880000 8.840000 1.120000 -4.362789 0.784385 19.649189
0.880000 8.840000 1.160000 -0.255822 8.331299 69.475983
0.880000 8.840000 1.200000 -6.847971 13.660992 233.517410
0.880000 8.880000 0.800000 -11.651986 16.443974 406.173035
0.880000 8.880000 0.840000 -3.682406 14.543682 225.078812
0.880000 8.880000 0.880000 -1.455417 25.097439 631.999634
0.880000 8.880000 0.920000 -14.939672 35.197201 1462.036743
0.880000 8.880000 0.960000 -36.575657 28.789597 2166.619629
0.880000 8.880000 1.000000 -47.147984 4.627743 2244.348389
0.880000 8.880000 1.040000 -35.137207 -20.314182 1647.289307
0.880000 8.880000 1.080000 -9.363939 -26.673874 799.178894
0.880000 8.880000 1.120000 8.920450 -11.822434 219.344391
0.880000 8.880000 1.160000 6.739549 7.756824 105.589851
0.880000 8.880000 1.200000 -8.485456 13.330683 249.710052
0.880000 8.920000 0.800000 -8.834482 -0.441256 78.242783
0.880000 8.920000 0.840000 -1.407588 13.261521 177.849258
0.880000 8.920000 0.880000 -14.912039 29.980421 1121.194580
0.880000 8.920000 0.920000 -43.412399 26.913511 2608.973389
0.880000 8.920000 0.960000 -61.754303 -2.895014 3821.975098
0.880000 8.920000 1.000000 -49.232086 -40.070911 4029.476318
0.880000 8.920000 1.040000 -11.374296 -55.103542 3165.774902
0.880000 8.920000 1.080000 23.282578 -36.241932 1855.556152
0.880000 8.920000 1.120000 29.419325 -0.954388 866.407532
0.880000 8.920000 1.160000 8.089437 20.999535 506.419434
0.880000 8.920000 1.200000 -16.239161 15.701000 510.231750
0.880000 8.960000 0.800000 2.969757 -3.478096 20.916609
0.880000 8.960000 0.840000 -4.081655 17.632463 327.563690
0.880000 8.960000 0.880000 -32.756165 22.896404 1597.211670
0.880000 8.960000 0.920000 -58.708523 -3.116174 3456.401123
0.880000 8.960000 0.960000 -53.172630 -46.187981 4960.658203
0.880000 8.960000 1.000000 -12.407137 -71.639969 5286.222168
0.880000 8.960000 1.040000 35.070717 -56.054070 4372.013672
0.880000 8.960000 1.080000 53.021439 -10.506582 2921.661133
0.880000 8.960000 1.120000 30.653357 28.813398 1769.840210
0.880000 8.960000 1.160000 -8.422508 34.002861 1227.133179
0.880000 8.960000 1.200000 -30.052740 9.790659 999.024170
0.880000 9.000000 0.800000 7.117358 5.489721 80.793823
0.880000 9.000000 0.840000 -14.522642 17.784372 527.191040
0.880000 9.000000 0.880000 -42.547264 2.289268 1815.510376
0.880000 9.000000 0.920000 -46.978920 -37.059860 3580.452148
0.880000 9.000000 0.960000 -13.721715 -69.359192 4998.982910
0.880000 9.000000 1.000000 37.229477 -63.264969 5388.490234
0.880000 9.000000 1.040000 66.324432 -18.036129 4724.231934
0.880000 9.000000 1.080000 50.123199 32.860924 3592.175537
0.880000 9.000000 1.120000 3.353589 51.197598 2632.440674
0.880000 9.000000 1.160000 -35.014004 28.363569 2030.472534
0.880000 9.000000 1.200000 -38.086624 -8.994864 1531.498535
0.880000 9.040000 0.800000 -1.486399 12.077900 148.085052
0.880000 9.040000 0.840000 -24.101252 7.082869 631.037354
0.880000 9.040000 0.880000 -34.805748 -20.979912 1651.596802
0.880000 9.040000 0.920000 -14.602212 -52.234177 2941.633789
0.880000 9.040000 0.960000 28.978775 -56.158607 3993.558594
0.880000 9.040000 1.000000 63.031452 -21.131264 4419.494141
0.880000 9.040000 1.040000 57.381348 30.424101 4218.245117
0.880000 9.040000 1.080000 13.674263 59.240555 3696.428711
0.880000 9.040000 1.120000 -34.225426 44.324257 3136.019531
0.880000 9.040000 1.160000 -50.554031 1.831586 2559.064941
0.880000 9.040000 1.200000 -29.489143 -31.077274 1835.406494
0.880000 9.080000 0.800000 -12.680080 6.433513 202.174530
0.880000 9.080000 0.840000 -22.403828 -9.025371 583.388794
0.880000 9.080000 0.880000 -13.353020 -31.726931 1184.901245
0.880000 9.080000 0.920000 16.262115 -40.292847 1887.969971
0.880000 9.080000 0.960000 46.421535 -19.224052 2524.523193
0.880000 9.080000 1.000000 49.786751 22.365227 2978.923828
0.880000 9.080000 1.040000 17.664968 53.986065 3226.546143
0.880000 9.080000 1.080000 -28.499985 49.584530 3270.874512
0.880000 9.080000 1.120000 -54.042816 12.103172 3067.112793
0.880000 9.080000 1.160000 -41.843639 -28.167351 2544.289795
0.880000 9.080000 1.200000 -7.143989 -41.017883 1733.503418
0.880000 9.120000 0.800000 -14.050358 -6.492749 239.568329
0.880000 9.120000 0.840000 -9.514856 -18.070801 417.086334
0.880000 9.120000 0.880000 6.616212 -24.263592 632.496094
0.880000 9.120000 0.920000 26.446995 -13.902813 892.731750
0.880000 9.120000 0.960000 32.796158 12.669819 1236.112305
0.880000 9.120000 1.000000 14.318965 38.418579 1681.019897
0.880000 9.120000 1.040000 -20.556793 41.610893 2154.048096
0.880000 9.120000 1.080000 -47.092308 16.018173 2474.267334
0.880000 9.120000 1.120000 -44.828934 -20.819065 2443.066895
0.880000 9.120000 1.160000 -16.485332 -41.492367 1993.382568
0.880000 9.120000 1.200000 14.014261 -32.859409 1276.140259
0.880000 9.160000 0.800000 -5.111621 -13.935806 220.335358
0.880000 9.160000 0.840000 3.169947 -14.044977 207.309952
0.880000 9.160000 0.880000 11.931301 -7.991667 206.222687
0.880000 9.160000 0.920000 15.328724 5.349389 263.585724
0.880000 9.160000 0.960000 6.656468 20.232128 453.647583
0.880000 9.160000 1.000000 -13.401733 25.052128 807.215576
0.880000 9.160000 1.040000 -33.018356 12.013067 1234.525635
0.880000 9.160000 1.080000 -36.892624 -13.273708 1537.256958
0.880000 9.160000 1.120000 -20.069542 -33.603798 1532.001709
0.880000 9.160000 1.160000 5.781322 -34.083817 1195.130249
0.880000 9.160000 1.200000 21.369251 -15.642666 701.337891
0.880000 9.200000 0.800000 3.037033 -10.580544 121.171486
0.880000 9.200000 0.840000 4.877928 -4.251829 41.872234
0.880000 9.200000 0.880000 3.332355 1.389870 13.036325
0.880000 9.200000 0.920000 -1.037884 5.909545 35.999924
0.880000 9.200000 0.960000 -8.692957 7.618897 133.615082
0.880000 9.200000 1.000000 -17.671957 3.119601 322.029968
0.880000 9.200000 1.040000 -22.027889 -8.451023 556.647705
0.880000 9.200000 1.080000 -16.147629 -21.528288 724.213135
0.880000 9.200000 1.120000 -1.405333 -26.717375 715.793091
0.880000 9.200000 1.160000 12.715356 -19.005499 522.889282
0.880000 9.200000 1.200000 15.849426 -3.518053 263.581024
0.920000 8.800000 0.800000 -0.700247 48.552803 2357.864990
0.920000 8.800000 0.840000 -12.592765 30.768881 1105.301758
0.920000 8.800000 0.880000 -8.211700 15.893131 320.023621
0.920000 8.800000 0.920000 1.077225 13.752069 190.279800
0.920000 8.800000 0.960000 2.844982 19.435650 385.838409
0.920000 8.800000 1.000000 -3.362253 21.097858 456.424377
0.920000 8.800000 1.040000 -7.459818 14.606449 268.997253
0.920000 8.800000 1.080000 -2.440617 8.121708 71.918755
0.920000 8.800000 1.120000 6.036552 11.490337 168.467804
0.920000 8.800000 1.160000 5.658299 23.041231 562.914673
0.920000 8.800000 1.200000 -7.592793 29.653557 936.983948
0.920000 8.840000 0.800000 -29.467503 30.184855 1779.459106
0.920000 8.840000 0.840000 -20.838657 18.327421 770.144043
0.920000 8.840000 0.880000 -13.637215 23.697697 747.554443
0.920000 8.840000 0.920000 -23.104328 33.145596 1632.440430
0.920000 8.840000 0.960000 -43.385117 26.730511 2596.788574
0.920000 8.840000 1.000000 -52.667995 0.942039 2774.805176
0.920000 8.840000 1.040000 -36.876686 -25.158165 1992.823242
0.920000 8.840000 1.080000 -6.483482 -28.729668 867.429321
0.920000 8.840000 1.120000 12.536015 -7.387012 211.719604
0.920000 8.840000 1.160000 4.847470 17.312908 323.234741
0.920000 8.840000 1.200000 -18.581476 21.438993 804.901733
0.920000 8.880000 0.800000 -33.118515 -0.872585 1097.597412
0.920000 8.880000 0.840000 -18.706764 8.862690 428.490295
0.920000 8.880000 0.880000 -29.819180 27.869072 1665.868652
0.920000 8.880000 0.920000 -62.521606 24.635939 4515.880859
0.920000 8.880000 0.960000 -84.474663 -13.063038 7306.611816
0.920000 8.880000 1.000000 -66.842758 -61.239708 8218.255859
0.920000 8.880000 1.040000 -15.713135 -80.387054 6708.981445
0.920000 8.880000 1.080000 30.777445 -54.165031 3881.101562
0.920000 8.880000 1.120000 38.189651 -6.278141 1497.864502
0.920000 8.880000 1.160000 8.302310 22.370827 569.382263
0.920000 8.880000 1.200000 -24.581184 12.929948 771.418152
0.920000 8.920000 0.800000 -14.135830 -19.695251 587.724609
0.920000 8.920000 0.840000 -15.829901 7.134431 301.485870
0.920000 8.920000 0.880000 -51.012608 16.552065 2876.257080
0.920000 8.920000 0.920000 -86.713989 -18.034451 7844.557129
0.920000 8.920000 0.960000 -79.481621 -79.706497 12670.453125
0.920000 8.920000 1.000000 -20.470253 -118.703995 14509.669922
0.920000 8.920000 1.040000 50.936279 -98.890053 12373.747070
0.920000 8.920000 1.080000 81.591621 -33.866402 7804.125977
0.920000 8.920000 1.120000 53.847343 24.722130 3510.720215
0.920000 8.920000 1.160000 0.366760 35.550423 1263.967041
0.920000 8.920000 1.200000 -29.667566 4.129585 897.217957
0.920000 8.960000 0.800000 6.746822 -16.143272 306.124878
0.920000 8.960000 0.840000 -19.032381 6.376640 402.893066
0.920000 8.960000 0.880000 -60.748688 -12.211311 3839.519287
0.920000 8.960000 0.920000 -70.328568 -71.191513 10014.338867
0.920000 8.960000 0.960000 -21.007477 -124.559898 15956.482422
0.920000 8.960000 1.000000 60.593876 -121.124893 18342.857422
0.920000 8.960000 1.040000 113.927460 -54.752113 15977.259766
0.920000 8.960000 1.080000 99.383629 26.542030 10581.584961
0.920000 8.960000 1.120000 34.702599 63.708073 5262.988770
0.920000 8.960000 1.160000 -23.378756 39.856697 2135.122559
0.920000 8.960000 1.200000 -33.165466 -8.720860 1176.001465
0.920000 9.000000 0.800000 12.314186 -1.643175 154.339203
0.920000 9.000000 0.840000 -23.740662 -1.679965 566.441284
0.920000 9.000000 0.880000 -46.077393 -43.680161 4031.082520
0.920000 9.000000 0.920000 -17.927353 -97.868340 9899.601562
0.920000 9.000000 0.960000 54.163368 -111.901299 15455.570312
0.920000 9.000000 1.000000 118.544373 -60.707180 17738.130859
0.920000 9.000000 1.040000 122.802635 25.081194 15709.553711
0.920000 9.000000 1.080000 62.701546 83.412872 10889.191406
0.920000 9.000000 1.120000 -13.196635 76.226242 5984.591309
0.920000 9.000000 1.160000 -48.540188 22.033188 2841.611328
0.920000 9.000000 1.200000 -29.355707 -25.567810 1515.470459
0.920000 9.040000 0.800000 4.224439 5.781200 51.268162
0.920000 9.040000 0.840000 -19.827490 -15.071671 620.284607
0.920000 9.040000 0.880000 -12.026995 -56.475826 3334.167725
0.920000 9.040000 0.920000 36.874504 -79.240814 7638.835449
0.920000 9.040000 0.960000 95.193314 -50.731243 11635.425781
0.920000 9.040000 1.000000 113.781471 19.916033 13342.872070
0.920000 9.040000 1.040000 71.123100 83.926155 12102.095703
0.920000 9.040000 1.080000 -4.009835 94.388519 8925.271484
0.920000 9.040000 1.120000 -56.714249 48.302750 5549.661621
0.920000 9.040000 1.160000 -54.727737 -12.027746 3139.791992
0.920000 9.040000 1.200000 -14.578157 -39.466343 1770.114868
0.920000 9.080000 0.800000 -2.817328 0.621607 8.323735
0.920000 9.080000 0.840000 -4.944291 -22.330503 523.097412
0.920000 9.080000 0.880000 19.739594 -41.636375 2123.239258
0.920000 9.080000 0.920000 59.138214 -31.256062 4474.269531
0.920000 9.080000 0.960000 80.321198 13.727612 6639.941895
0.920000 9.080000 1.000000 57.844341 65.914612 7690.703613
0.920000 9.080000 1.040000 0.216518 85.600983 7327.575195
0.920000 9.080000 1.080000 -53.406391 55.962208 5984.011719
0.920000 9.080000 1.120000 -66.144974 -0.454582 4375.364258
0.920000 9.080000 1.160000 -35.423954 -41.334259 2963.377441
0.920000 9.080000 1.200000 6.850759 -42.075905 1817.314575
0.920000 9.120000 0.800000 0.665161 -7.176386 51.942955
0.920000 9.120000 0.840000 10.587961 -15.466022 351.302765
0.920000 9.120000 0.880000 28.905500 -11.931473 977.888000
0.920000 9.120000 0.920000 41.657242 9.832298 1831.999878
0.920000 9.120000 0.960000 32.334541 40.275818 2667.664062
0.920000 9.120000 1.000000 -1.378557 56.955708 3245.853027
0.920000 9.120000 1.040000 -40.568233 42.671906 3466.673096
0.920000 9.120000 1.080000 -57.951645 2.811884 3366.299805
0.920000 9.120000 1.120000 -41.078529 -36.319809 3006.574219
0.920000 9.120000 1.160000 -3.979395 -48.952698 2412.202393
0.920000 9.120000 1.200000 25.003139 -31.661270 1627.593018
0.920000 9.160000 0.800000 9.293150 -6.459136 128.083069
0.920000 9.160000 0.840000 13.893177 -0.260769 193.088364
0.920000 9.160000 0.880000 14.458780 8.947830 289.119995
0.920000 9.160000 0.920000 8.270357 19.174145 436.046631
0.920000 9.160000 0.960000 -6.290684 24.763142 652.785889
0.920000 9.160000 1.000000 -24.796535 18.297691 949.673706
0.920000 9.160000 1.040000 -36.073738 -2.107834 1305.757568
0.920000 9.160000 1.080000 -29.777264 -27.418457 1638.457275
0.920000 9.160000 1.120000 -6.591459 -42.014915 1808.700562
0.920000 9.160000 1.160000 19.735878 -36.090431 1692.024048
0.920000 9.160000 1.200000 32.581062 -14.773154 1279.771729
0.920000 9.200000 0.800000 11.461438 1.440592 133.439865
0.920000 9.200000 0.840000 3.846948 8.506911 87.166542
0.920000 9.200000 0.880000 -5.127445 7.635342 84.589142
0.920000 9.200000 0.920000 -10.286304 2.231044 110.785614
0.920000 9.200000 0.960000 -12.040581 -3.642760 158.245285
0.920000 9.200000 1.000000 -12.434769 -9.909382 252.819321
0.920000 9.200000 1.040000 -10.135360 -18.164892 432.688843
0.920000 9.200000 1.080000 -1.489164 -26.220362 689.724976
0.920000 9.200000 1.120000 13.301914 -27.516304 934.087891
0.920000 9.200000 1.160000 26.951830 -17.493946 1032.439209
0.920000 9.200000 1.200000 30.108381 -0.065996 906.518982
0.960000 8.800000 0.800000 -40.678612 39.444332 3210.604980
0.960000 8.800000 0.840000 -36.100842 15.143109 1532.584473
0.960000 8.800000 0.880000 -21.111179 6.784895 491.716675
0.960000 8.800000 0.920000 -13.392418 12.071476 325.077393
0.960000 8.800000 0.960000 -18.022984 15.570930 567.281799
0.960000 8.800000 1.000000 -23.363094 7.480927 601.798401
0.960000 8.800000 1.040000 -16.163246 -4.614193 282.541290
0.960000 8.800000 1.080000 1.195061 -4.555070 22.176834
0.960000 8.800000 1.120000 11.408968 12.606153 289.079651
0.960000 8.800000 1.160000 1.047328 32.404785 1051.166992
0.960000 8.800000 1.200000 -23.169828 34.680206 1739.557617
0.960000 8.840000 0.800000 -53.530918 1.618526 2868.178711
0.960000 8.840000 0.840000 -34.308655 -0.961338 1178.007935
0.960000 8.840000 0.880000 -33.254299 12.340055 1258.125366
0.960000 8.840000 0.920000 -53.648869 13.338631 3056.120117
0.960000 8.840000 0.960000 -70.138947 -13.610321 5104.712402
0.960000 8.840000 1.000000 -55.496128 -51.549198 5737.140137
0.960000 8.840000 1.040000 -11.885551 -65.860748 4478.904297
0.960000 8.840000 1.080000 27.576252 -40.115120 2369.672607
0.960000 8.840000 1.120000 30.505339 4.937759 954.957153
0.960000 8.840000 1.160000 -2.200434 30.343552 925.573059
0.960000 8.840000 1.200000 -37.099724 16.920086 1662.678833
0.960000 8.880000 0.800000 -34.194252 -31.615473 2168.784912
0.960000 8.880000 0.840000 -26.176243 -8.483894 757.172119
0.960000 8.880000 0.880000 -54.302448 3.500160 2961.007080
0.960000 8.880000 0.920000 -87.806122 -27.325249 8456.583984
0.960000 8.880000 0.960000 -80.512627 -87.560265 14149.083008
0.960000 8.880000 1.000000 -20.204826 -126.450386 16397.935547
0.960000 8.880000 1.040000 53.549862 -104.782272 13846.912109
0.960000 8.880000 1.080000 84.355713 -35.640343 8386.120117
0.960000 8.880000 1.120000 52.702675 25.920092 3449.423096
0.960000 8.880000 1.160000 -6.128205 34.859856 1252.764526
0.960000 8.880000 1.200000 -37.844437 -2.796949 1440.024292
0.960000 8.920000 0.800000 -0.331264 -38.102638 1451.920776
0.960000 8.920000 0.840000 -21.558880 -9.899429 562.783997
0.960000 8.920000 0.880000 -66.470039 -26.440552 5117.369141
0.960000 8.920000 0.920000 -78.182800 -91.673882 14516.650391
0.960000 8.920000 0.960000 -21.889992 -153.521637 24048.064453
0.960000 8.920000 1.000000 73.836266 -150.474121 28094.253906
0.960000 8.920000 1.040000 137.956314 -73.057037 24369.275391
0.960000 8.920000 1.080000 122.437897 23.075777 15523.529297
0.960000 8.920000 1.120000 47.255440 67.664841 6811.607422
0.960000 8.920000 1.160000 -20.339735 40.033569 2016.391479
0.960000 8.920000 1.200000 -30.445744 -16.711395 1206.213989
0.960000 8.960000 0.800000 21.920694 -20.328651 893.770874
0.960000 8.960000 0.840000 -20.768312 -14.038506 628.402466
0.960000 8.960000 0.880000 -51.084991 -63.805626 6680.833984
0.960000 8.960000 0.920000 -17.370113 -133.755386 18192.224609
0.960000 8.960000 0.960000 75.769379 -154.683319 29667.927734
0.960000 8.960000 1.000000 162.469147 -90.780754 34637.371094
0.960000 8.960000 1.040000 173.208282 20.776508 30432.773438
0.960000 8.960000 1.080000 99.976212 100.045105 20004.265625
0.960000 8.960000 1.120000 3.811317 96.527084 9332.003906
0.960000 8.960000 1.160000 -42.947056 32.325150 2889.364746
0.960000 8.960000 1.200000 -21.627775 -24.939228 1089.725708
0.960000 9.000000 0.800000 22.087084 0.820142 488.511902
0.960000 9.000000 0.840000 -15.208038 -22.944593 757.738770
0.960000 9.000000 0.880000 -8.882660 -81.763901 6764.237305
0.960000 9.000000 0.920000 59.230358 -118.346581 17514.148438
0.960000 9.000000 0.960000 145.863815 -82.057610 28009.703125
0.960000 9.000000 1.000000 179.548691 17.834734 32555.810547
0.960000 9.000000 1.040000 126.341743 113.620171 28871.779297
0.960000 9.000000 1.080000 23.534752 137.852844 19557.291016
0.960000 9.000000 1.120000 -53.419441 83.300362 9792.586914
0.960000 9.000000 1.160000 -58.773235 5.695387 3486.730713
0.960000 9.000000 1.200000 -12.768274 -31.610636 1162.261108
0.960000 9.040000 0.800000 11.148619 8.624959 198.681610
0.960000 9.040000 0.840000 0.048962 -27.568336 760.015564
0.960000 9.040000 0.880000 35.472404 -63.763687 5324.099609
0.960000 9.040000 0.920000 100.587799 -53.630302 12994.114258
0.960000 9.040000 0.960000 141.667389 15.057373 20296.373047
0.960000 9.040000 1.000000 115.016495 101.181671 23466.523438
0.960000 9.040000 1.040000 30.020836 142.080688 21088.171875
0.960000 9.040000 1.080000 -55.455765 108.770996 14906.471680
0.960000 9.040000 1.120000 -85.205162 31.509460 8252.765625
0.960000 9.040000 1.160000 -52.531128 -29.270187 3616.263184
0.960000 9.040000 1.200000 -0.378314 -37.570900 1411.715576
0.960000 9.080000 0.800000 5.594598 4.890615 55.217644
0.960000 9.080000 0.840000 17.145006 -18.251890 627.082764
0.960000 9.080000 0.880000 52.477867 -20.820782 3187.431396
0.960000 9.080000 0.920000 83.387329 14.362091 7159.716309
0.960000 9.080000 0.960000 75.628006 71.579208 10843.177734
0.960000 9.080000 1.000000 21.652912 109.768837 12518.045898
0.960000 9.080000 1.040000 -47.582588 96.604790 11596.587891
0.960000 9.080000 1.080000 -86.137115 38.167770 8876.380859
0.960000 9.080000 1.120000 -71.816940 -24.964182 5780.883301
0.960000 9.080000 1.160000 -23.757820 -52.636383 3335.022949
0.960000 9.080000 1.200000 17.349480 -38.037003 1747.818115
0.960000 9.120000 0.800000 9.319956 2.680894 94.048775
0.960000 9.120000 0.840000 21.855400 1.958673 481.494904
0.960000 9.120000 0.880000 33.894691 16.039125 1406.103638
0.960000 9.120000 0.920000 30.672873 41.534599 2665.947998
0.960000 9.120000 0.960000 4.539566 61.691841 3826.490967
0.960000 9.120000 1.000000 -34.585236 57.398186 4490.690430
0.960000 9.120000 1.040000 -62.947361 24.029007 4539.763672
0.960000 9.120000 1.080000 -60.637566 -21.500126 4139.169922
0.960000 9.120000 1.120000 -28.475040 -52.124348 3527.775391
0.960000 9.120000 1.160000 11.889900 -51.802887 2824.908691
0.960000 9.120000 1.200000 35.723850 -27.556181 2035.536621
0.960000 9.160000 0.800000 12.789673 8.593676 237.426987
0.960000 9.160000 0.840000 9.393332 17.564175 396.734924
0.960000 9.160000 0.880000 0.275267 22.775864 518.815735
0.960000 9.160000 0.920000 -11.428778 22.158728 621.626160
0.960000 9.160000 0.960000 -23.000969 14.807041 748.293030
0.960000 9.160000 1.000000 -30.706728 0.042011 942.904907
0.960000 9.160000 1.040000 -28.903564 -20.057178 1237.706421
0.960000 9.160000 1.080000 -13.591618 -37.960190 1625.708008
0.960000 9.160000 1.120000 11.878523 -43.329216 2018.520264
0.960000 9.160000 1.160000 35.891335 -30.963320 2246.915039
0.960000 9.160000 1.200000 45.860123 -6.722284 2148.340088
0.960000 9.200000 0.800000 7.837506 15.730404 308.872101
0.960000 9.200000 0.840000 -8.391114 15.871671 322.320740
0.960000 9.200000 0.880000 -18.287308 3.131517 344.232025
0.960000 9.200000 0.920000 -15.500343 -11.627653 375.462952
0.960000 9.200000 0.960000 -5.399748 -18.946457 388.125519
0.960000 9.200000 1.000000 3.226801 -19.276337 381.989380
0.960000 9.200000 1.040000 8.515879 -19.150620 439.266418
0.960000 9.200000 1.080000 15.868704 -20.831863 685.782288
0.960000 9.200000 1.120000 28.619503 -18.387531 1157.177246
0.960000 9.200000 1.160000 40.877052 -5.125150 1697.200562
0.960000 9.200000 1.200000 41.805695 16.438332 2017.934814
1.000000 8.800000 0.800000 -62.944954 4.542044 3982.697266
1.000000 8.800000 0.840000 -42.753242 -14.000271 2023.847290
1.000000 8.800000 0.880000 -23.995491 -11.863171 716.518372
1.000000 8.800000 0.920000 -20.436378 -2.949982 426.347961
1.000000 8.800000 0.960000 -25.836737 -4.148758 684.749207
1.000000 8.800000 1.000000 -22.894760 -15.798218 773.753723
1.000000 8.800000 1.040000 -4.971085 -21.227974 475.338562
1.000000 8.800000 1.080000 13.914433 -6.579823 236.905502
1.000000 8.800000 1.120000 12.995283 20.965408 608.425720
1.000000 8.800000 1.160000 -11.772068 37.662022 1557.009399
1.000000 8.800000 1.200000 -40.705967 27.039948 2388.134521
1.000000 8.840000 0.800000 -50.283394 -36.626343 3869.908691
1.000000 8.840000 0.840000 -30.918713 -26.533939 1660.016724
1.000000 8.840000 0.880000 -38.636707 -14.070850 1690.783936
1.000000 8.840000 0.920000 -57.559326 -27.317608 4059.327637
1.000000 8.840000 0.960000 -53.696846 -63.633869 6932.620605
1.000000 8.840000 1.000000 -13.103485 -88.740219 8046.527832
1.000000 8.840000 1.040000 38.750610 -71.411781 6601.252441
1.000000 8.840000 1.080000 59.173454 -18.235336 3834.025391
1.000000 8.840000 1.120000 30.733374 29.167780 1795.299683
1.000000 8.840000 1.160000 -20.078600 33.437317 1521.204346
1.000000 8.840000 1.200000 -48.080032 -2.637375 2318.645264
1.000000 8.880000 0.800000 -12.037594 -54.822144 3150.371094
1.000000 8.880000 0.840000 -18.853413 -28.755444 1182.326660
1.000000 8.880000 0.880000 -51.830162 -36.169815 3994.621094
1.000000 8.880000 0.920000 -61.964569 -86.524261 11326.055664
1.000000 8.880000 0.960000 -15.075073 -137.426727 19113.363281
1.000000 8.880000 1.000000 67.227554 -133.657928 22383.984375
1.000000 8.880000 1.040000 122.447998 -64.265862 19123.613281
1.000000 8.880000 1.080000 106.100998 21.855484 11735.083984
1.000000 8.880000 1.120000 35.398945 60.143276 4870.298828
1.000000 8.880000 1.160000 -27.254139 30.646759 1682.011963
1.000000 8.880000 1.200000 -34.104507 -26.213614 1850.270996
1.000000 8.920000 0.800000 23.899860 -40.614536 2220.743896
1.000000 8.920000 0.840000 -12.235096 -28.114334 940.113342
1.000000 8.920000 0.880000 -42.036144 -71.636681 6898.851562
1.000000 8.920000 0.920000 -10.468681 -138.853058 19389.765625
1.000000 8.920000 0.960000 81.613777 -159.679749 32158.431641
1.000000 8.920000 1.000000 168.906525 -95.443054 37638.789062
1.000000 8.920000 1.040000 179.808609 17.717648 32645.050781
1.000000 8.920000 1.080000 105.002815 98.096535 20648.519531
1.000000 8.920000 1.120000 7.071079 93.276489 8750.503906
1.000000 8.920000 1.160000 -38.886215 26.194653 2198.297607
1.000000 8.920000 1.200000 -13.614662 -32.258904 1225.995850
1.000000 8.960000 0.800000 35.814663 -10.561871 1394.243164
1.000000 8.960000 0.840000 -5.973429 -30.707087 978.606995
1.000000 8.960000 0.880000 -1.761042 -94.387726 8912.144531
1.000000 8.960000 0.920000 73.414581 -136.621155 24055.041016
1.000000 8.960000 0.960000 172.376343 -97.114319 39144.796875
1.000000 8.960000 1.000000 212.974548 16.007599 45614.402344
1.000000 8.960000 1.040000 154.852417 126.152534 39893.734375
1.000000 8.960000 1.080000 39.611763 155.875504 25866.263672
1.000000 8.960000 1.120000 -46.869389 96.518158 11512.494141
1.000000 8.960000 1.160000 -52.726799 11.571123 2914.006104
1.000000 8.960000 1.200000 -1.680497 -27.200613 742.697449
1.000000 9.000000 0.800000 25.525408 11.265645 778.461182
1.000000 9.000000 0.840000 6.871857 -32.007587 1071.708008
1.000000 9.000000 0.880000 49.022251 -80.263748 8845.450195
1.000000 9.000000 0.920000 133.181366 -70.705460 22736.537109
1.000000 9.000000 0.960000 189.696701 15.695440 36231.187500
1.000000 9.000000 1.000000 160.320938 127.510529 41961.738281
1.000000 9.000000 1.040000 55.276237 184.198181 36984.429688
1.000000 9.000000 1.080000 -52.634979 147.985382 24670.115234
1.000000 9.000000 1.120000 -92.749672 56.354263 11778.304688
1.000000 9.000000 1.160000 -56.998371 -15.811024 3498.802734
1.000000 9.000000 1.200000 1.366339 -25.169060 635.348450
1.000000 9.040000 0.800000 11.172482 15.717464 371.863037
1.000000 9.040000 0.840000 22.928375 -22.135981 1015.712036
1.000000 9.040000 0.880000 75.736336 -31.902847 6753.784180
1.000000 9.040000 0.920000 126.783203 16.796719 16356.110352
1.000000 9.040000 0.960000 122.086884 102.522568 25416.083984
1.000000 9.040000 1.000000 48.002285 164.137543 29245.351562
1.000000 9.040000 1.040000 -51.400833 153.186264 26108.076172
1.000000 9.040000 1.080000 -110.441261 77.407143 18189.138672
1.000000 9.040000 1.120000 -98.054604 -6.846601 9661.581055
1.000000 9.040000 1.160000 -40.716755 -45.400513 3719.060547
1.000000 9.040000 1.200000 7.652491 -30.668406 999.111694
1.000000 9.080000 0.800000 6.071964 12.287415 187.849304
1.000000 9.080000 0.840000 28.950800 0.005276 838.148804
1.000000 9.080000 0.880000 59.368149 19.182343 3892.539307
1.000000 9.080000 0.920000 63.858086 66.951996 8560.424805
1.000000 9.080000 0.960000 23.806217 110.631920 12806.158203
1.000000 9.080000 1.000000 -43.754570 112.899841 14660.835938
1.000000 9.080000 1.040000 -96.504951 64.629417 13490.167969
1.000000 9.080000 1.080000 -100.976288 -5.510517 10226.577148
1.000000 9.080000 1.120000 -59.575783 -54.437775 6512.745117
1.000000 9.080000 1.160000 -5.950888 -59.528702 3579.079346
1.000000 9.080000 1.200000 25.544563 -33.122238 1749.607422
1.000000 9.120000 0.800000 7.328690 13.509083 236.205002
1.000000 9.120000 0.840000 16.187923 21.083141 706.547729
1.000000 9.120000 0.880000 15.004549 38.557724 1711.834595
1.000000 9.120000 0.920000 -3.543350 54.343376 2965.758057
1.000000 9.120000 0.960000 -34.624680 53.316940 4041.564453
1.000000 9.120000 1.000000 -61.751240 28.406834 4620.163574
1.000000 9.120000 1.040000 -67.114662 -12.041706 4649.380859
1.000000 9.120000 1.080000 -44.615562 -48.092674 4303.453613
1.000000 9.120000 1.120000 -5.120770 -61.433121 3800.250488
1.000000 9.120000 1.160000 30.896904 -47.857101 3244.920898
1.000000 9.120000 1.200000 47.623852 -19.017786 2629.707520
1.000000 9.160000 0.800000 4.463183 19.920319 416.739105
1.000000 9.160000 0.840000 -7.424951 24.934032 676.835876
1.000000 9.160000 0.880000 -20.888439 19.254314 807.055542
1.000000 9.160000 0.920000 -28.013706 5.800346 818.411804
1.000000 9.160000 0.960000 -26.876284 -9.016857 803.638306
1.000000 9.160000 1.000000 -19.876209 -21.693657 865.678467
1.000000 9.160000 1.040000 -8.218480 -31.968834 1089.549805
1.000000 9.160000 1.080000 9.349390 -38.027481 1533.500488
1.000000 9.160000 1.120000 31.665642 -34.296875 2178.988525
1.000000 9.160000 1.160000 50.913269 -16.407133 2861.354980
1.000000 9.160000 1.200000 56.153786 11.633857 3288.594238
1.000000 9.200000 0.800000 -4.978666 22.232632 519.077026
1.000000 9.200000 0.840000 -22.601257 9.965880 610.135620
1.000000 9.200000 0.880000 -23.471729 -13.157564 724.043579
1.000000 9.200000 0.920000 -6.381014 -28.861006 873.674988
1.000000 9.200000 0.960000 14.505697 -27.389637 960.607422
1.000000 9.200000 1.000000 25.368082 -15.565075 885.811157
1.000000 9.200000 1.040000 26.380161 -6.682245 740.565308
1.000000 9.200000 1.080000 28.458920 -4.495934 830.123535
1.000000 9.200000 1.120000 37.803581 0.258842 1429.177734
1.000000 9.200000 1.160000 46.521637 17.190681 2459.782227
1.000000 9.200000 1.200000 40.506180 42.316944 3431.474365
1.040000 8.800000 0.800000 -55.184322 -34.234116 4217.284180
1.040000 8.800000 0.840000 -27.655251 -40.010578 2365.659180
1.040000 8.800000 0.880000 -11.359550 -28.837034 960.613892
1.040000 8.800000 0.920000 -10.953604 -18.937309 478.603119
1.040000 8.800000 0.960000 -13.132256 -21.139156 619.320068
1.040000 8.800000 1.000000 -3.685364 -27.166080 751.577820
1.040000 8.800000 1.040000 14.314545 -20.042229 606.597107
1.040000 8.800000 1.080000 22.027237 4.484974 505.314148
1.040000 8.800000 1.120000 5.552650 29.593536 906.609314
1.040000 8.800000 1.160000 -26.576849 32.765163 1779.884766
1.040000 8.800000 1.200000 -49.107445 9.341278 2498.800537
1.040000 8.840000 0.800000 -22.618877 -61.151554 4251.125977
1.040000 8.840000 0.840000 -10.702243 -44.108162 2060.067871
1.040000 8.840000 0.880000 -21.171942 -38.424370 1924.683350
1.040000 8.840000 0.920000 -27.129696 -58.104202 4112.118652
1.040000 8.840000 0.960000 -3.216202 -83.322632 6953.004883
1.040000 8.840000 1.000000 43.365547 -79.538216 8206.898438
1.040000 8.840000 1.040000 75.443329 -35.469528 6949.783203
1.040000 8.840000 1.080000 62.007690 20.505249 4265.418945
1.040000 8.840000 1.120000 11.173498 44.921196 2142.760986
1.040000 8.840000 1.160000 -35.213627 21.014940 1681.627197
1.040000 8.840000 1.200000 -40.976982 -25.070787 2307.657471
1.040000 8.880000 0.800000 18.827450 -56.265892 3520.323486
1.040000 8.880000 0.840000 1.591917 -39.954346 1598.883911
1.040000 8.880000 0.880000 -18.438038 -63.253269 4340.937500
1.040000 8.880000 0.920000 2.355537 -107.591034 11581.379883
1.040000 8.880000 0.960000 68.180359 -121.177177 19332.468750
1.040000 8.880000 1.000000 132.051102 -71.916611 22609.492188
1.040000 8.880000 1.040000 138.193283 15.043316 19323.683594
1.040000 8.880000 1.080000 77.426483 76.376541 11828.236328
1.040000 8.880000 1.120000 -1.475262 69.326225 4808.301758
1.040000 8.880000 1.160000 -37.220093 11.335997 1513.840088
1.040000 8.880000 1.200000 -12.652752 -39.176903 1694.921875
1.040000 8.920000 0.800000 42.053993 -26.116053 2450.586426
1.040000 8.920000 0.840000 8.857512 -35.614128 1346.821655
1.040000 8.920000 0.880000 10.634766 -85.360153 7399.454102
1.040000 8.920000 0.920000 73.358887 -120.255219 19842.843750
1.040000 8.920000 0.960000 158.469330 -85.483337 32419.929688
1.040000 8.920000 1.000000 193.416626 14.210411 37611.929688
1.040000 8.920000 1.040000 140.981903 111.516678 32311.867188
1.040000 8.920000 1.080000 37.753899 136.576859 20078.595703
1.040000 8.920000 1.120000 -38.466377 81.310425 8091.047363
1.040000 8.920000 1.160000 -40.294941 4.015468 1639.806274
1.040000 8.920000 1.200000 9.857799 -28.838846 928.855286
1.040000 8.960000 0.800000 37.922455 5.262653 1465.808105
1.040000 8.960000 0.840000 17.567078 -32.350780 1355.175171
1.040000 8.960000 0.880000 56.694077 -78.993332 9454.164062
1.040000 8.960000 0.920000 139.700623 -70.144112 24436.460938
1.040000 8.960000 0.960000 196.979446 15.960909 39055.652344
1.040000 8.960000 1.000000 168.507629 128.694275 44957.039062
1.040000 8.960000 1.040000 63.671474 186.464951 38823.234375
1.040000 8.960000 1.080000 -43.852043 150.805206 24665.212891
1.040000 8.960000 1.120000 -82.562531 60.219254 10442.929688
1.040000 8.960000 1.160000 -45.394493 -8.922094 2140.263672
1.040000 8.960000 1.200000 12.107105 -13.582285 331.060486
1.040000 9.000000 0.800000 19.595085 19.619267 768.882996
1.040000 9.000000 0.840000 29.332155 -23.017530 1390.182007
1.040000 9.000000 0.880000 88.914513 -36.377884 9229.140625
1.040000 9.000000 0.920000 149.617096 18.025930 22710.208984
1.040000 9.000000 0.960000 147.316925 117.289993 35459.218750
1.040000 9.000000 1.000000 64.621010 190.615021 40509.960938
1.040000 9.000000 1.040000 -48.062416 181.549072 35270.062500
1.040000 9.000000 1.080000 -115.417343 99.130898 23148.097656
1.040000 9.000000 1.120000 -103.000992 8.040489 10673.853516
1.040000 9.000000 1.160000 -42.486130 -31.313683 2785.617920
1.040000 9.000000 1.200000 5.065567 -13.118443 197.753510
1.040000 9.040000 0.800000 5.651949 18.430244 371.618439
1.040000 9.040000 0.840000 35.207695 -3.026751 1248.743042
1.040000 9.040000 0.880000 80.542847 19.376938 6862.616211
1.040000 9.040000 0.920000 92.678406 85.130089 15836.418945
1.040000 9.040000 0.960000 42.721428 149.022293 24032.765625
1.040000 9.040000 1.000000 -47.084335 158.267532 27265.546875
1.040000 9.040000 1.040000 -119.006165 99.859589 24134.404297
1.040000 9.040000 1.080000 -128.698288 12.625023 16722.640625
1.040000 9.040000 1.120000 -81.147102 -47.229683 8815.495117
1.040000 9.040000 1.160000 -20.935766 -53.312325 3280.510254
1.040000 9.040000 1.200000 10.511207 -24.743839 722.743042
1.040000 9.080000 0.800000 1.793009 15.194382 234.084106
1.040000 9.080000 0.840000 24.647583 19.534645 989.105713
1.040000 9.080000 0.880000 35.180275 50.713783 3809.539551
1.040000 9.080000 0.920000 11.421875 87.856537 7849.230469
1.040000 9.080000 0.960000 -41.690014 98.095215 11360.728516
1.040000 9.080000 1.000000 -92.814743 64.785721 12811.765625
1.040000 9.080000 1.040000 -108.574982 3.015984 11797.622070
1.040000 9.080000 1.080000 -80.050339 -51.936413 9105.447266
1.040000 9.080000 1.120000 -28.015108 -72.338028 6017.636719
1.040000 9.080000 1.160000 16.063030 -56.978416 3504.561035
1.040000 9.080000 1.200000 34.397362 -26.370640 1878.589111
1.040000 9.120000 0.800000 -0.063811 17.739380 314.689667
1.040000 9.120000 0.840000 -0.279693 28.603622 818.245483
1.040000 9.120000 0.880000 -13.487936 38.473549 1662.138428
1.040000 9.120000 0.920000 -35.555054 35.901188 2553.057129
1.040000 9.120000 0.960000 -54.447010 16.312481 3230.573730
1.040000 9.120000 1.000000 -58.179222 -14.522308 3595.719238
1.040000 9.120000 1.040000 -42.076508 -44.003506 3706.740967
1.040000 9.120000 1.080000 -10.981184 -59.721199 3687.208008
1.040000 9.120000 1.120000 23.683056 -55.362606 3625.905273
1.040000 9.120000 1.160000 49.348179 -33.044533 3527.183838
1.040000 9.120000 1.200000 57.619667 -1.942850 3323.800781
1.040000 9.160000 0.800000 -7.635688 21.154228 505.805115
1.040000 9.160000 0.840000 -22.838602 16.612007 797.560547
1.040000 9.160000 0.880000 -30.891689 -0.508355 954.554871
1.040000 9.160000 0.920000 -24.565987 -19.576252 986.717285
1.040000 9.160000 0.960000 -8.643848 -29.774979 961.265503
1.040000 9.160000 1.000000 7.014801 -29.983414 948.212585
1.040000 9.160000 1.040000 18.629051 -26.590517 1054.097168
1.040000 9.160000 1.080000 30.499138 -22.871420 1453.299316
1.040000 9.160000 1.120000 45.813595 -13.568284 2282.983887
1.040000 9.160000 1.160000 58.068905 8.028934 3436.461670
1.040000 9.160000 1.200000 54.707802 38.512314 4476.142090
1.040000 9.200000 0.800000 -17.644508 17.478687 616.833191
1.040000 9.200000 0.840000 -26.691938 -5.419733 741.833130
1.040000 9.200000 0.880000 -12.335487 -29.432259 1018.422119
1.040000 9.200000 0.920000 16.582117 -34.412170 1459.164062
1.040000 9.200000 0.960000 38.650452 -17.571959 1802.631104
1.040000 9.200000 1.000000 41.533081 5.023548 1750.232910
1.040000 9.200000 1.040000 32.901470 16.768005 1363.672729
1.040000 9.200000 1.080000 29.118578 18.019556 1172.595947
1.040000 9.200000 1.120000 34.913990 23.442442 1768.534790
1.040000 9.200000 1.160000 37.303230 42.599243 3206.226562
1.040000 9.200000 1.200000 20.702589 66.096603 4797.357910
1.080000 8.800000 0.800000 -26.093657 -54.659035 3668.489014
1.080000 8.800000 0.840000 -0.267260 -48.231606 2326.359375
1.080000 8.800000 0.880000 10.577776 -31.716862 1117.848633
1.080000 8.800000 0.920000 8.803261 -20.739904 507.641052
1.080000 8.800000 0.960000 7.758629 -19.324692 433.640045
1.080000 8.800000 1.000000 15.084293 -17.114784 520.451721
1.080000 8.800000 1.040000 22.956493 -3.303097 537.911072
1.080000 8.800000 1.080000 16.646450 18.292660 611.725708
1.080000 8.800000 1.120000 -7.497360 30.430170 982.205627
1.080000 8.800000 1.160000 -34.761993 19.849524 1602.399780
1.080000 8.800000 1.200000 -44.663063 -7.560829 2051.955322
1.080000 8.840000 0.800000 10.531847 -60.317749 3749.150879
1.080000 8.840000 0.840000 15.412259 -43.937180 2168.013428
1.080000 8.840000 0.880000 9.438791 -42.501225 1895.444946
1.080000 8.840000 0.920000 15.663708 -54.941025 3263.867920
1.080000 8.840000 0.960000 42.622410 -58.216827 5205.868652
1.080000 8.840000 1.000000 71.155197 -32.777023 6137.395508
1.080000 8.840000 1.040000 71.731499 12.880795 5311.322754
1.080000 8.840000 1.080000 35.731434 46.065735 3398.787354
1.080000 8.840000 1.120000 -12.344524 40.410172 1785.369263
1.080000 8.840000 1.160000 -36.050503 2.308668 1304.968750
1.080000 8.840000 1.200000 -21.067154 -34.365200 1624.791870
1.080000 8.880000 0.800000 39.681717 -38.756432 3076.699707
1.080000 8.880000 0.840000 24.616867 -35.034203 1833.385498
1.080000 8.880000 0.880000 24.525227 -57.458290 3902.941895
1.080000 8.880000 0.920000 59.815178 -74.899368 9187.771484
1.080000 8.880000 0.960000 110.174789 -51.485813 14789.273438
1.080000 8.880000 1.000000 129.957581 12.835480 17053.722656
1.080000 8.880000 1.040000 93.206696 75.876884 14444.790039
1.080000 8.880000 1.080000 22.466274 90.619339 8716.597656
1.080000 8.880000 1.120000 -29.654814 49.971565 3376.565186
1.080000 8.880000 1.160000 -28.965670 -6.525554 881.592834
1.080000 8.880000 1.200000 10.247844 -30.970274 1064.176147
1.080000 8.920000 0.800000 44.793285 -6.647251 2050.624268
1.080000 8.920000 0.840000 30.178812 -26.892765 1633.981445
1.080000 8.920000 0.880000 56.504520 -56.945927 6435.599609
1.080000 8.920000 0.920000 115.641174 -48.605171 15735.343750
1.080000 8.920000 0.960000 156.718750 16.628418 24837.269531
1.080000 8.920000 1.000000 133.555023 102.000664 28241.078125
1.080000 8.920000 1.040000 52.271538 145.201797 23815.876953
1.080000 8.920000 1.080000 -30.427315 116.026337 14387.931641
1.080000 8.920000 1.120000 -58.427467 44.525642 5396.301758
1.080000 8.920000 1.160000 -26.224499 -8.534176 760.556458
1.080000 8.920000 1.200000 21.129093 -8.529907 519.197876
1.080000 8.960000 0.800000 29.881887 15.037446 1119.052002
1.080000 8.960000 0.840000 36.211704 -17.413849 1614.529541
1.080000 8.960000 0.880000 85.492447 -27.458992 8062.954590
1.080000 8.960000 0.920000 137.097748 20.135830 19201.244141
1.080000 8.960000 0.960000 134.722443 107.035919 29606.824219
1.080000 8.960000 1.000000 62.217979 171.557343 33303.000000
1.080000 8.960000 1.040000 -36.330719 163.837173 28162.541016
1.080000 8.960000 1.080000 -94.372337 92.155457 17398.765625
1.080000 8.960000 1.120000 -82.078697 14.410744 6944.582031
1.080000 8.960000 1.160000 -29.066525 -15.997038 1100.768066
1.080000 8.960000 1.200000 9.299219 4.316380 105.106613
1.080000 9.000000 0.800000 11.923489 19.365944 517.209351
1.080000 9.000000 0.840000 39.561947 -1.669436 1567.934570
1.080000 9.000000 0.880000 85.330139 20.506552 7701.750977
1.080000 9.000000 0.920000 98.928375 87.662788 17471.587891
1.080000 9.000000 0.960000 49.405773 154.286987 26245.404297
1.080000 9.000000 1.000000 -41.228611 166.018723 29262.015625
1.080000 9.000000 1.040000 -114.036133 109.515373 24997.855469
1.080000 9.000000 1.080000 -124.412521 24.883017 16097.639648
1.080000 9.000000 1.120000 -79.068344 -31.057344 7216.361816
1.080000 9.000000 1.160000 -24.380672 -33.807396 1737.357178
1.080000 9.000000 1.200000 -0.871700 -5.729036 33.581715
1.080000 9.040000 0.800000 2.677559 15.352390 242.865219
1.080000 9.040000 0.840000 31.683922 17.882133 1323.641602
1.080000 9.040000 0.880000 48.875942 56.117256 5538.003906
1.080000 9.040000 0.920000 23.448404 105.601471 11701.498047
1.080000 9.040000 0.960000 -40.833355 123.829300 17001.058594
1.080000 9.040000 1.000000 -104.962822 88.358322 18824.386719
1.080000 9.040000 1.040000 -127.096428 17.804634 16470.507812
1.080000 9.040000 1.080000 -97.337418 -44.176994 11426.179688
1.080000 9.040000 1.120000 -42.758072 -65.670998 6140.932617
1.080000 9.040000 1.160000 -0.577885 -49.114349 2412.553223
1.080000 9.040000 1.200000 12.569117 -21.328396 612.883179
1.080000 9.080000 0.800000 -0.261879 14.127922 199.666748
1.080000 9.080000 0.840000 10.051727 29.349102 962.407043
1.080000 9.080000 0.880000 -1.208652 53.953526 2912.443848
1.080000 9.080000 0.920000 -35.829105 64.102699 5392.880859
1.080000 9.080000 0.960000 -74.087372 43.585533 7388.637207
1.080000 9.080000 1.000000 -90.261780 -1.465427 8149.336426
1.080000 9.080000 1.040000 -73.051514 -47.273998 7571.354492
1.080000 9.080000 1.080000 -32.789505 -71.002014 6116.437500
1.080000 9.080000 1.120000 8.844329 -65.992249 4433.199219
1.080000 9.080000 1.160000 35.139572 -41.982567 2997.325439
1.080000 9.080000 1.200000 42.332184 -13.924738 1985.912109
1.080000 9.120000 0.800000 -5.620251 16.472614 302.934235
1.080000 9.120000 0.840000 -14.557407 22.378765 712.727234
1.080000 9.120000 0.880000 -29.922052 18.108295 1223.239624
1.080000 9.120000 0.920000 -40.716988 1.075140 1659.028931
1.080000 9.120000 0.960000 -38.501438 -21.615784 1949.602783
1.080000 9.120000 1.000000 -23.242008 -39.969254 2137.732178
1.080000 9.120000 1.040000 -0.687202 -48.196270 2323.352539
1.080000 9.120000 1.080000 23.417507 -45.309650 2601.343994
1.080000 9.120000 1.120000 44.926918 -31.485950 3009.792969
1.080000 9.120000 1.160000 58.554794 -7.181153 3480.232666
1.080000 9.120000 1.200000 57.318321 23.100590 3819.027100
1.080000 9.160000 0.800000 -15.411972 15.045242 463.888184
1.080000 9.160000 0.840000 -25.661282 0.876003 659.268738
1.080000 9.160000 0.880000 -20.922112 -20.224865 846.779907
1.080000 9.160000 0.920000 -0.901749 -32.713661 1070.996704
1.080000 9.160000 0.960000 21.356388 -28.472622 1266.785522
1.080000 9.160000 1.000000 33.333130 -14.261610 1314.491089
1.080000 9.160000 1.040000 35.523258 -2.456662 1267.937012
1.080000 9.160000 1.080000 38.132309 3.942089 1469.613037
1.080000 9.160000 1.120000 45.971123 14.140601 2313.300781
1.080000 9.160000 1.160000 49.743992 36.375946 3797.674316
1.080000 9.160000 1.200000 35.151329 63.909340 5320.019531
1.080000 9.200000 0.800000 -22.678230 6.354876 554.686584
1.080000 9.200000 0.840000 -17.357561 -18.055653 627.291504
1.080000 9.200000 0.880000 9.094007 -31.199018 1056.079712
1.080000 9.200000 0.920000 38.647083 -19.138817 1859.891357
1.080000 9.200000 0.960000 49.784588 9.891937 2576.355469
1.080000 9.200000 1.000000 38.740734 33.981964 2655.618408
1.080000 9.200000 1.040000 21.659657 40.319855 2094.831299
1.080000 9.200000 1.080000 15.356572 37.241901 1622.783569
1.080000 9.200000 1.120000 18.223896 42.323467 2123.386230
1.080000 9.200000 1.160000 12.763108 60.042961 3768.054199
1.080000 9.200000 1.200000 -12.955388 74.389023 5701.568848
1.120000 8.800000 0.800000 3.447897 -49.998119 2511.699951
1.120000 8.800000 0.840000 22.428514 -36.383701 1826.812012
1.120000 8.800000 0.880000 27.115334 -17.893637 1055.423584
1.120000 8.800000 0.920000 21.877411 -5.751196 511.697357
1.120000 8.800000 0.960000 16.781498 -1.316372 283.351532
1.120000 8.800000 1.000000 15.980157 2.846672 263.468964
1.120000 8.800000 1.040000 13.654288 12.257687 336.690491
1.120000 8.800000 1.080000 1.990509 22.328588 502.527985
1.120000 8.800000 1.120000 -17.726990 22.212215 807.628662
1.120000 8.800000 1.160000 -33.722992 6.955665 1185.621460
1.120000 8.800000 1.200000 -34.390984 -15.413463 1420.314575
1.120000 8.840000 0.800000 30.045544 -40.940674 2578.873535
1.120000 8.840000 0.840000 32.798481 -27.847406 1851.218384
1.120000 8.840000 0.880000 31.908445 -23.737669 1581.625732
1.120000 8.840000 0.920000 38.684540 -22.949020 2023.151123
1.120000 8.840000 0.960000 51.333748 -12.212082 2784.288574
1.120000 8.840000 1.000000 54.880634 12.414078 3165.993408
1.120000 8.840000 1.040000 37.095932 37.455009 2778.985840
1.120000 8.840000 1.080000 3.928879 43.004868 1864.854614
1.120000 8.840000 1.120000 -22.861954 22.630972 1034.829834
1.120000 8.840000 1.160000 -25.017969 -8.573147 699.397644
1.120000 8.840000 1.200000 -4.875900 -26.998959 752.718201
1.120000 8.880000 0.800000 42.350945 -17.225702 2090.327393
1.120000 8.880000 0.840000 37.733070 -17.472599 1729.076294
1.120000 8.880000 0.880000 47.897373 -24.577442 2898.208984
1.120000 8.880000 0.920000 72.484497 -16.529520 5527.227539
1.120000 8.880000 0.960000 88.825066 17.392513 8192.391602
1.120000 8.880000 1.000000 73.602562 60.780338 9111.585938
1.120000 8.880000 1.040000 28.526665 82.122948 7557.949219
1.120000 8.880000 1.080000 -17.355621 64.437531 4453.413086
1.120000 8.880000 1.120000 -32.964798 22.690298 1601.527466
1.120000 8.880000 1.160000 -13.499124 -9.385441 270.312836
1.120000 8.880000 1.200000 16.520908 -10.332038 379.691406
1.120000 8.920000 0.800000 36.413460 4.977169 1350.712280
1.120000 8.920000 0.840000 39.984894 -7.263012 1651.543091
1.120000 8.920000 0.880000 66.635788 -8.385372 4510.642578
1.120000 8.920000 0.920000 94.167282 22.847271 9389.474609
1.120000 8.920000 0.960000 89.374718 76.472351 13835.861328
1.120000 8.920000 1.000000 42.184143 115.551865 15131.735352
1.120000 8.920000 1.040000 -20.450052 109.346672 12374.899414
1.120000 8.920000 1.080000 -56.822945 62.976219 7194.851074
1.120000 8.920000 1.120000 -47.876122 13.371742 2470.926514
1.120000 8.920000 1.160000 -12.828856 -4.768168 187.314957
1.120000 8.920000 1.200000 11.655411 10.858201 253.749130
1.120000 8.960000 0.800000 22.094202 14.932802 711.142334
1.120000 8.960000 0.840000 40.057556 5.040729 1630.016724
1.120000 8.960000 0.880000 69.832870 23.900568 5447.867188
1.120000 8.960000 0.920000 76.682785 73.332886 11257.960938
1.120000 8.960000 0.960000 38.776859 121.399605 16241.508789
1.120000 8.960000 1.000000 -27.974899 129.437927 17536.773438
1.120000 8.960000 1.040000 -80.984207 88.307457 14356.648438
1.120000 8.960000 1.080000 -88.311127 27.705345 8566.441406
1.120000 8.960000 1.120000 -55.870438 -10.848215 3239.189697
1.120000 8.960000 1.160000 -18.563967 -10.383266 452.433075
1.120000 8.960000 1.200000 -6.030312 10.974014 156.793655
1.120000 9.000000 0.800000 11.095970 14.951422 346.665558
1.120000 9.000000 0.840000 33.521309 19.698538 1511.710449
1.120000 9.000000 0.880000 46.275215 53.594784 5013.796387
1.120000 9.000000 0.920000 23.224205 96.684174 9887.192383
1.120000 9.000000 0.960000 -32.639725 113.080818 13852.623047
1.120000 9.000000 1.000000 -88.110931 83.909775 14804.386719
1.120000 9.000000 1.040000 -107.868027 25.565084 12289.083984
1.120000 9.000000 1.080000 -84.591393 -24.623207 7762.005859
1.120000 9.000000 1.120000 -42.519608 -40.693222 3463.855469
1.120000 9.000000 1.160000 -13.033346 -27.003639 899.064636
1.120000 9.000000 1.200000 -7.836803 -7.888102 123.637642
1.120000 9.040000 0.800000 5.847487 13.838697 225.702667
1.120000 9.040000 0.840000 16.869854 30.125620 1192.145020
1.120000 9.040000 0.880000 6.089733 58.102612 3412.998535
1.120000 9.040000 0.920000 -30.623478 72.479637 6191.095215
1.120000 9.040000 0.960000 -73.136108 54.485397 8317.548828
1.120000 9.040000 1.000000 -93.465820 9.745445 8830.833008
1.120000 9.040000 1.040000 -79.363678 -36.208504 7609.648926
1.120000 9.040000 1.080000 -42.778404 -59.440861 5363.207520
1.120000 9.040000 1.120000 -7.091632 -55.086952 3084.863525
1.120000 9.040000 1.160000 12.351527 -35.985596 1447.523315
1.120000 9.040000 1.200000 16.117157 -17.593811 569.304932
1.120000 9.080000 0.800000 0.594413 15.332718 235.445572
1.120000 9.080000 0.840000 -4.812125 27.363796 771.933899
1.120000 9.080000 0.880000 -24.296379 32.260567 1631.058105
1.120000 9.080000 0.920000 -46.516556 18.981915 2524.103027
1.120000 9.080000 0.960000 -55.411278 -9.313255 3157.146484
1.120000 9.080000 1.000000 -43.885891 -38.142872 3380.850098
1.120000 9.080000 1.040000 -18.072830 -53.934238 3235.529297
1.120000 9.080000 1.080000 9.904943 -52.780083 2883.844971
1.120000 9.080000 1.120000 31.213352 -39.012123 2496.219238
1.120000 9.080000 1.160000 42.639938 -18.538586 2161.843506
1.120000 9.080000 1.200000 43.081188 4.159512 1873.290283
1.120000 9.120000 0.800000 -8.545932 14.961922 296.892059
1.120000 9.120000 0.840000 -18.977007 10.386063 467.997101
1.120000 9.120000 0.880000 -24.651430 -4.398755 627.042053
1.120000 9.120000 0.920000 -17.885143 -21.682392 790.004517
1.120000 9.120000 0.960000 -1.211755 -30.982670 961.394165
1.120000 9.120000 1.000000 16.151278 -29.217880 1114.548340
1.120000 9.120000 1.040000 28.489487 -21.470633 1272.638916
1.120000 9.120000 1.080000 37.702980 -12.336592 1573.706177
1.120000 9.120000 1.120000 46.626755 0.464517 2174.270020
1.120000 9.120000 1.160000 50.769943 21.367388 3034.152344
1.120000 9.120000 1.200000 40.436176 46.610165 3807.591797
1.120000 9.160000 0.800000 -17.562883 7.756688 368.621063
1.120000 9.160000 0.840000 -16.738815 -9.803183 376.290314
1.120000 9.160000 0.880000 0.208612 -23.947664 573.534119
1.120000 9.160000 0.920000 24.555428 -21.410986 1061.399292
1.120000 9.160000 0.960000 39.867775 -2.930880 1598.029541
1.120000 9.160000 1.000000 38.761616 17.258642 1800.323608
1.120000 9.160000 1.040000 29.795994 27.028006 1618.314331
1.120000 9.160000 1.080000 26.180826 29.354982 1547.150635
1.120000 9.160000 1.120000 28.950947 37.357971 2233.775391
1.120000 9.160000 1.160000 24.596735 56.367931 3782.343262
1.120000 9.160000 1.200000 1.098813 73.867172 5457.566895
1.120000 9.200000 0.800000 -19.599979 -3.746244 398.193542
1.120000 9.200000 0.840000 -2.704168 -18.967632 367.083618
1.120000 9.200000 0.880000 24.765743 -15.443607 851.847046
1.120000 9.200000 0.920000 42.400951 9.460594 1887.343506
1.120000 9.200000 0.960000 36.760712 39.167709 2885.459473
1.120000 9.200000 1.000000 14.994066 53.888763 3128.820801
1.120000 9.200000 1.040000 -3.316806 50.371372 2548.276367
1.120000 9.200000 1.080000 -7.553224 43.547913 1953.471802
1.120000 9.200000 1.120000 -7.027186 48.025291 2355.810059
1.120000 9.200000 1.160000 -18.978659 60.027100 3963.442139
1.120000 9.200000 1.200000 -46.768417 60.451859 5841.711914
1.160000 8.800000 0.800000 17.040356 -30.864323 1242.980103
1.160000 8.800000 0.840000 28.227623 -15.584498 1039.675293
1.160000 8.800000 0.880000 26.992693 1.812525 731.890686
1.160000 8.800000 0.920000 16.956371 12.438738 442.240723
1.160000 8.800000 0.960000 6.422922 14.328735 246.566574
1.160000 8.800000 1.000000 0.418608 12.568459 158.141388
1.160000 8.800000 1.040000 -3.192001 12.629235 169.686462
1.160000 8.800000 1.080000 -9.672586 13.991478 289.320374
1.160000 8.800000 1.120000 -20.050238 10.947385 521.857239
1.160000 8.800000 1.160000 -28.540102 -0.372293 814.676025
1.160000 8.800000 1.200000 -27.816744 -16.450380 1044.386230
1.160000 8.840000 0.800000 29.995680 -20.002172 1299.827637
1.160000 8.840000 0.840000 33.480606 -8.042768 1185.637085
1.160000 8.840000 0.880000 32.003471 1.587629 1026.742676
1.160000 8.840000 0.920000 29.252340 8.920170 935.268799
1.160000 8.840000 0.960000 25.494995 16.480827 921.612427
1.160000 8.840000 1.000000 17.694523 24.259699 901.629089
1.160000 8.840000 1.040000 4.380066 27.776260 790.705627
1.160000 8.840000 1.080000 -10.250957 22.080044 592.610413
1.160000 8.840000 1.120000 -18.276962 7.783496 394.630188
1.160000 8.840000 1.160000 -14.862391 -7.638447 279.236572
1.160000 8.840000 1.200000 -3.125629 -15.440769 248.186920
1.160000 8.880000 0.800000 32.863708 -5.156661 1106.614502
1.160000 8.880000 0.840000 35.673332 0.864758 1273.334473
1.160000 8.880000 0.880000 40.195843 8.707868 1691.532715
1.160000 8.880000 0.920000 42.458149 22.621096 2314.408447
1.160000 8.880000 0.960000 34.997250 40.038921 2827.922852
1.160000 8.880000 1.000000 15.577705 51.151009 2859.090576
1.160000 8.880000 1.040000 -7.839411 47.092468 2279.156982
1.160000 8.880000 1.080000 -22.136948 29.088188 1336.167114
1.160000 8.880000 1.120000 -20.124868 8.866561 483.626221
1.160000 8.880000 1.160000 -6.959423 -0.922136 49.283905
1.160000 8.880000 1.200000 4.715937 2.646959 29.246452
1.160000 8.920000 0.800000 28.087782 5.916899 823.933167
1.160000 8.920000 0.840000 35.028824 11.034074 1348.769287
1.160000 8.920000 0.880000 42.252441 25.489477 2434.982178
1.160000 8.920000 0.920000 38.454971 48.339642 3815.505859
1.160000 8.920000 0.960000 17.393900 67.272758 4828.171875
1.160000 8.920000 1.000000 -13.409763 68.340279 4850.215332
1.160000 8.920000 1.040000 -36.934948 49.188000 3783.649658
1.160000 8.920000 1.080000 -40.806862 22.413822 2167.579346
1.160000 8.920000 1.120000 -27.806868 5.078318 799.011169
1.160000 8.920000 1.160000 -12.512321 4.275874 174.841278
1.160000 8.920000 1.200000 -7.564567 12.561560 215.015457
1.160000 8.960000 0.800000 21.680607 11.799765 609.283142
1.160000 8.960000 0.840000 29.527359 22.218153 1365.511230
1.160000 8.960000 0.880000 29.354282 43.552425 2758.487549
1.160000 8.960000 0.920000 11.309076 65.234665 4383.456543
1.160000 8.960000 0.960000 -20.767818 71.069687 5482.202637
1.160000 8.960000 1.000000 -50.106628 54.114159 5439.016602
1.160000 8.960000 1.040000 -60.588310 23.945950 4244.352051
1.160000 8.960000 1.080000 -50.215061 -1.180999 2522.947266
1.160000 8.960000 1.120000 -31.552061 -9.678982 1089.215210
1.160000 8.960000 1.160000 -19.437841 -4.747509 400.368530
1.160000 8.960000 1.200000 -18.464535 1.537159 343.301910
1.160000 9.000000 0.800000 16.012938 15.895217 509.072083
1.160000 9.000000 0.840000 16.955357 30.604017 1224.090088
1.160000 9.000000 0.880000 3.921097 48.436913 2361.509521
1.160000 9.000000 0.920000 -22.970982 55.043751 3557.480469
1.160000 9.000000 0.960000 -50.591496 41.515190 4283.010742
1.160000 9.000000 1.000000 -63.277168 13.323894 4181.526367
1.160000 9.000000 1.040000 -55.888733 -14.009671 3319.821533
1.160000 9.000000 1.080000 -36.855331 -27.874718 2135.315430
1.160000 9.000000 1.120000 -19.322273 -27.366299 1122.264526
1.160000 9.000000 1.160000 -10.214284 -20.575581 527.686096
1.160000 9.000000 1.200000 -7.493649 -15.104834 284.310760
1.160000 9.040000 0.800000 8.641028 19.837805 468.205872
1.160000 9.040000 0.840000 -0.182316 29.995213 899.746033
1.160000 9.040000 0.880000 -18.839029 32.930321 1439.315063
1.160000 9.040000 0.920000 -38.176239 21.338871 1912.772583
1.160000 9.040000 0.960000 -46.319908 -1.227196 2147.040039
1.160000 9.040000 1.000000 -39.059494 -23.274059 2067.325928
1.160000 9.040000 1.040000 -22.280378 -35.306763 1742.982788
1.160000 9.040000 1.080000 -5.170542 -36.155937 1333.986328
1.160000 9.040000 1.120000 7.364805 -30.365999 976.334290
1.160000 9.040000 1.160000 15.360132 -21.668064 705.438660
1.160000 9.040000 1.200000 19.101189 -10.803720 481.575775
1.160000 9.080000 0.800000 -2.212632 20.400345 421.069824
1.160000 9.080000 0.840000 -13.568327 18.060492 510.280884
1.160000 9.080000 0.880000 -22.849197 6.149107 559.897339
1.160000 9.080000 0.920000 -22.066162 -10.715048 601.727722
1.160000 9.080000 0.960000 -10.846661 -23.118931 652.135010
1.160000 9.080000 1.000000 3.678293 -26.016640 690.395386
1.160000 9.080000 1.040000 14.912188 -22.210268 715.669373
1.160000 9.080000 1.080000 22.679415 -16.661499 791.961426
1.160000 9.080000 1.120000 30.007811 -9.433816 989.465576
1.160000 9.080000 1.160000 35.544273 3.247087 1273.938965
1.160000 9.080000 1.200000 32.324665 20.872395 1480.540771
1.160000 9.120000 0.800000 -12.954793 13.712175 355.850403
1.160000 9.120000 0.840000 -15.182261 0.922604 231.352234
1.160000 9.120000 0.880000 -6.330538 -12.492432 196.136566
1.160000 9.120000 0.920000 10.722261 -16.316620 381.198975
1.160000 9.120000 0.960000 25.122213 -7.679461 690.099731
1.160000 9.120000 1.000000 29.154884 5.571428 881.048096
1.160000 9.120000 1.040000 26.127911 13.861339 874.804443
1.160000 9.120000 1.080000 25.190884 16.996649 923.466675
1.160000 9.120000 1.120000 28.698854 23.727489 1386.618042
1.160000 9.120000 1.160000 27.490055 39.294098 2299.729248
1.160000 9.120000 1.200000 11.191220 55.473511 3202.553711
1.160000 9.160000 0.800000 -17.115463 1.433372 294.993652
1.160000 9.160000 0.840000 -5.317446 -10.441465 137.299423
1.160000 9.160000 0.880000 15.315851 -10.427860 343.315582
1.160000 9.160000 0.920000 31.318178 5.753804 1013.934570
1.160000 9.160000 0.960000 31.210676 28.190052 1768.785400
1.160000 9.160000 1.000000 17.648968 41.824871 2060.805908
1.160000 9.160000 1.040000 4.545497 42.002438 1784.866211
1.160000 9.160000 1.080000 1.353188 38.829998 1509.599976
1.160000 9.160000 1.120000 2.028123 44.460964 1980.890625
1.160000 9.160000 1.160000 -7.891168 57.123219 3325.332520
1.160000 9.160000 1.200000 -32.955650 60.702179 4770.829590
1.160000 9.200000 0.800000 -12.509817 -9.194036 241.025833
1.160000 9.200000 0.840000 6.473967 -9.945129 140.817841
1.160000 9.200000 0.880000 23.313026 6.244524 582.491272
1.160000 9.200000 0.920000 23.592884 32.099495 1587.001709
1.160000 9.200000 0.960000 5.682477 50.501438 2582.685791
1.160000 9.200000 1.000000 -16.646870 51.044136 2882.622070
1.160000 9.200000 1.040000 -28.190041 40.253193 2414.998047
1.160000 9.200000 1.080000 -28.121922 33.602249 1919.953613
1.160000 9.200000 1.120000 -29.841293 37.473164 2294.740723
1.160000 9.200000 1.160000 -44.366653 41.286098 3672.941895
1.160000 9.200000 1.200000 -65.615387 29.284637 5162.968750
1.200000 8.800000 0.800000 12.848469 -14.058084 362.712891
1.200000 8.800000 0.840000 17.889004 -1.469811 322.176788
1.200000 8.800000 0.880000 12.534212 11.540009 290.278259
1.200000 8.800000 0.920000 0.041401 16.792080 281.975647
1.200000 8.800000 0.960000 -10.868288 12.235397 267.824615
1.200000 8.800000 1.000000 -13.919394 3.940194 209.274643
1.200000 8.800000 1.040000 -11.197093 -0.038365 125.376366
1.200000 8.800000 1.080000 -10.567560 1.884311 115.223961
1.200000 8.800000 1.120000 -16.733156 3.051715 289.311462
1.200000 8.800000 1.160000 -25.262434 -4.194232 655.782104
1.200000 8.800000 1.200000 -26.255434 -19.477066 1068.703979
1.200000 8.840000 0.800000 18.548731 -10.652115 457.522980
1.200000 8.840000 0.840000 21.767181 1.881936 477.351868
1.200000 8.840000 0.880000 15.454494 12.912512 405.574341
1.200000 8.840000 0.920000 4.477394 15.959926 274.766296
1.200000 8.840000 0.960000 -3.371203 11.459518 142.685562
1.200000 8.840000 1.000000 -4.712471 5.741693 55.174412
1.200000 8.840000 1.040000 -3.212205 4.137578 27.437813
1.200000 8.840000 1.080000 -4.696923 5.442646 51.683479
1.200000 8.840000 1.120000 -10.058862 3.785995 115.514458
1.200000 8.840000 1.160000 -13.747313 -4.133048 206.070694
1.200000 8.840000 1.200000 -9.643663 -14.370096 299.499908
1.200000 8.880000 0.800000 23.253874 -5.362970 569.504150
1.200000 8.880000 0.840000 24.460506 8.683197 673.714233
1.200000 8.880000 0.880000 16.614485 19.315674 649.136353
1.200000 8.880000 0.920000 5.737571 21.725653 504.923706
1.200000 8.880000 0.960000 -1.430893 17.925861 323.383972
1.200000 8.880000 1.000000 -3.289839 13.791666 201.033096
1.200000 8.880000 1.040000 -3.602646 12.769285 176.033707
1.200000 8.880000 1.080000 -6.292335 12.903775 206.100891
1.200000 8.880000 1.120000 -10.681142 10.060848 215.307465
1.200000 8.880000 1.160000 -12.346629 3.435212 164.239929
1.200000 8.880000 1.200000 -8.383237 -2.875172 78.545280
1.200000 8.920000 0.800000 26.540417 2.741646 711.910339
1.200000 8.920000 0.840000 22.707207 18.330694 851.631592
1.200000 8.920000 0.880000 10.829624 27.437721 870.109314
1.200000 8.920000 0.920000 -1.718186 27.324671 749.589783
1.200000 8.920000 0.960000 -8.990393 21.878668 559.503296
1.200000 8.920000 1.000000 -10.949932 17.161955 414.433716
1.200000 8.920000 1.040000 -11.945061 15.580411 385.433685
1.200000 8.920000 1.080000 -15.193550 14.548296 442.496887
1.200000 8.920000 1.120000 -19.318981 10.498158 483.434357
1.200000 8.920000 1.160000 -20.335831 3.534675 426.039948
1.200000 8.920000 1.200000 -16.508400 -2.373119 278.158966
1.200000 8.960000 0.800000 25.540819 13.890957 845.292114
1.200000 8.960000 0.840000 14.042300 26.785030 914.624084
1.200000 8.960000 0.880000 -1.893851 29.678690 884.411316
1.200000 8.960000 0.920000 -13.957714 23.427769 743.678101
1.200000 8.960000 0.960000 -18.238430 14.680627 548.161133
1.200000 8.960000 1.000000 -17.730396 9.488286 404.394531
1.200000 8.960000 1.040000 -18.156780 8.068231 394.765015
1.200000 8.960000 1.080000 -21.606911 5.905073 501.728455
1.200000 8.960000 1.120000 -24.678102 -0.316181 609.108704
1.200000 8.960000 1.160000 -22.826670 -8.541669 594.016907
1.200000 8.960000 1.200000 -15.907419 -13.389056 432.312805
1.200000 9.000000 0.800000 17.082918 24.584829 896.239868
1.200000 9.000000 0.840000 0.376843 28.276119 799.680969
1.200000 9.000000 0.880000 -14.020624 21.064964 640.310608
1.200000 9.000000 0.920000 -19.371971 8.743511 451.722229
1.200000 9.000000 0.960000 -16.549145 -0.223231 273.924042
1.200000 9.000000 1.000000 -12.552671 -2.446626 163.555542
1.200000 9.000000 1.040000 -12.962040 -2.106152 172.450348
1.200000 9.000000 1.080000 -16.228289 -5.435637 292.903503
1.200000 9.000000 1.120000 -16.021824 -13.193925 430.778503
1.200000 9.000000 1.160000 -9.014275 -19.469475 460.317596
1.200000 9.000000 1.200000 0.563982 -18.241835 333.082611
1.200000 9.040000 0.800000 2.169543 28.503920 817.180359
1.200000 9.040000 0.840000 -11.524755 20.210033 541.265442
1.200000 9.040000 0.880000 -16.020418 5.541674 287.363953
1.200000 9.040000 0.920000 -9.986742 -6.098266 136.923859
1.200000 9.040000 0.960000 -0.579991 -8.403925 70.962341
1.200000 9.040000 1.000000 3.470889 -4.188419 29.589924
1.200000 9.040000 1.040000 0.746480 -1.993962 4.533117
1.200000 9.040000 1.080000 -1.819861 -6.391780 44.166748
1.200000 9.040000 1.120000 2.681520 -12.620636 166.471008
1.200000 9.040000 1.160000 12.428588 -11.932083 296.844421
1.200000 9.040000 1.200000 17.906021 -2.082495 324.962372
1.200000 9.080000 0.800000 -12.511304 21.780609 630.927673
1.200000 9.080000 0.840000 -14.704859 6.712295 261.287781
1.200000 9.080000 0.880000 -5.576348 -5.766630 64.349686
1.200000 9.080000 0.920000 8.767901 -7.314073 130.371765
1.200000 9.080000 0.960000 17.495350 1.451817 308.195038
1.200000 9.080000 1.000000 15.546425 10.924864 361.043976
1.200000 9.080000 1.040000 8.813777 12.335487 229.846909
1.200000 9.080000 1.080000 7.466675 7.236535 108.118668
1.200000 9.080000 1.120000 14.045280 5.694535 229.697632
1.200000 9.080000 1.160000 19.711889 14.324160 593.740112
1.200000 9.080000 1.200000 13.795545 27.279709 934.499512
1.200000 9.120000 0.800000 -18.927250 7.540504 415.099976
1.200000 9.120000 0.840000 -8.153534 -3.706245 80.216370
1.200000 9.120000 0.880000 8.857794 -4.162003 95.782776
1.200000 9.120000 0.920000 21.035360 8.108976 508.241882
1.200000 9.120000 0.960000 20.054106 24.286823 992.016968
1.200000 9.120000 1.000000 9.073829 32.413616 1132.976807
1.200000 9.120000 1.040000 -0.146960 29.428337 866.048645
1.200000 9.120000 1.080000 0.097138 24.291546 590.088684
1.200000 9.120000 1.120000 4.586576 27.619833 783.891846
1.200000 9.120000 1.160000 0.813228 38.583172 1489.322510
1.200000 9.120000 1.200000 -16.080564 44.125031 2205.602783
1.200000 9.160000 0.800000 -14.501101 -5.582763 241.449158
1.200000 9.160000 0.840000 1.732214 -5.138340 29.403105
1.200000 9.160000 0.880000 14.906476 8.003580 286.260315
1.200000 9.160000 0.920000 15.048545 27.671038 992.145020
1.200000 9.160000 0.960000 1.686063 41.093895 1691.551025
1.200000 9.160000 1.000000 -14.416595 40.844517 1876.112793
1.200000 9.160000 1.040000 -21.674219 32.418854 1520.753906
1.200000 9.160000 1.080000 -19.841599 28.195492 1188.674805
1.200000 9.160000 1.120000 -20.124609 33.225899 1508.960205
1.200000 9.160000 1.160000 -31.938564 38.551460 2506.287109
1.200000 9.160000 1.200000 -50.451668 30.488501 3474.919434
1.200000 9.200000 0.800000 -4.600835 -10.436031 130.078430
1.200000 9.200000 0.840000 6.630996 0.457741 44.179638
1.200000 9.200000 0.880000 7.792156 18.844442 415.830688
1.200000 9.200000 0.920000 -4.795161 34.081779 1184.561279
1.200000 9.200000 0.960000 -23.745968 36.390938 1888.171387
1.200000 9.200000 1.000000 -36.593536 26.756498 2054.997070
1.200000 9.200000 1.040000 -38.081001 16.170572 1711.650024
1.200000 9.200000 1.080000 -35.386894 13.846901 1443.968994
1.200000 9.200000 1.120000 -39.667252 16.816936 1856.300171
1.200000 9.200000 1.160000 -52.450203 12.982747 2919.575439
1.200000 9.200000 1.200000 -62.132462 -4.765510 3883.152832
