#kx 	ky 	kz 	real 	imag 	intensity
-1.200000 6.800000 -5.200000 8.708218 -46.316044 2221.009033
-1.200000 6.800000 -5.160000 24.199627 -35.132885 1819.941528
-1.200000 6.800000 -5.120000 26.310551 -20.690533 1120.343262
-1.200000 6.800000 -5.080000 20.986141 -14.090138 638.950134
-1.200000 6.800000 -5.040000 18.804546 -14.874235 574.853821
-1.200000 6.800000 -5.000000 22.791546 -14.733999 736.545288
-1.200000 6.800000 -4.960000 27.129137 -8.873568 814.730225
-1.200000 6.800000 -4.920000 26.200150 -0.944777 687.340393
-1.200000 6.800000 -4.880000 21.742718 3.128477 482.533142
-1.200000 6.800000 -4.840000 19.625614 3.380045 396.589447
-1.200000 6.800000 -4.800000 21.370293 5.435628 486.235474
-1.200000 6.840000 -5.200000 24.202908 -32.066311 1614.029053
-1.200000 6.840000 -5.160000 31.724808 -20.648294 1432.815430
-1.200000 6.840000 -5.120000 29.683689 -11.411364 1011.340637
-1.200000 6.840000 -5.080000 26.085289 -9.766505 775.826965
-1.200000 6.840000 -5.040000 28.161968 -11.218130 918.942871
-1.200000 6.840000 -5.000000 34.724815 -8.161230 1272.418457
-1.200000 6.840000 -4.960000 38.927078 1.193551 1516.741943
-1.200000 6.840000 -4.920000 36.647240 11.915232 1484.992920
-1.200000 6.840000 -4.880000 30.156361 18.949059 1268.472900
-1.200000 6.840000 -4.840000 23.797531 22.329378 1064.923584
-1.200000 6.840000 -4.800000 18.333590 25.026394 962.440918
-1.200000 6.880000 -5.200000 27.692051 -14.473527 976.332642
-1.200000 6.880000 -5.160000 30.398563 -6.510133 966.454468
-1.200000 6.880000 -5.120000 28.554668 -2.057471 819.602295
-1.200000 6.880000 -5.080000 28.483534 -2.020579 815.394470
-1.200000 6.880000 -5.040000 33.344238 -1.193944 1113.263794
-1.200000 6.880000 -5.000000 39.791603 5.489271 1613.503784
-1.200000 6.880000 -4.960000 41.800743 17.617275 2057.670410
-1.200000 6.880000 -4.920000 36.478508 30.195293 2242.437256
-1.200000 6.880000 -4.880000 25.728767 38.505611 2144.651611
-1.200000 6.880000 -4.840000 13.276501 41.113682 1866.600342
-1.200000 6.880000 -4.800000 1.710231 38.733803 1503.232422
-1.200000 6.920000 -5.200000 21.907024 -1.324611 481.672333
-1.200000 6.920000 -5.160000 23.172874 2.988003 545.910278
-1.200000 6.920000 -5.120000 23.180803 5.215351 564.549561
-1.200000 6.920000 -5.080000 25.353119 6.141794 680.502258
-1.200000 6.920000 -5.040000 30.407848 9.611525 1017.018677
-1.200000 6.920000 -5.000000 34.926029 18.581989 1565.117798
-1.200000 6.920000 -4.960000 33.907154 31.934496 2169.507080
-1.200000 6.920000 -4.920000 24.656364 44.772003 2612.468506
-1.200000 6.920000 -4.880000 8.810455 51.457134 2725.460693
-1.200000 6.920000 -4.840000 -8.539499 48.809120 2455.253418
-1.200000 6.920000 -4.800000 -21.325611 37.671371 1873.913818
-1.200000 6.960000 -5.200000 12.849467 4.607491 186.337784
-1.200000 6.960000 -5.160000 14.066429 6.602576 241.458435
-1.200000 6.960000 -5.120000 15.124237 8.175322 295.578430
-1.200000 6.960000 -5.080000 17.640223 9.890179 408.993103
-1.200000 6.960000 -5.040000 21.786409 14.384861 681.571899
-1.200000 6.960000 -5.000000 24.492035 23.994183 1175.580566
-1.200000 6.960000 -4.960000 20.707237 37.430199 1829.809448
-1.200000 6.960000 -4.920000 7.473137 48.811230 2438.384033
-1.200000 6.960000 -4.880000 -12.393429 50.791260 2733.349121
-1.200000 6.960000 -4.840000 -30.578423 39.999363 2534.989014
-1.200000 6.960000 -4.800000 -38.161774 20.565464 1879.259277
-1.200000 7.000000 -5.200000 5.048022 5.046443 50.949120
-1.200000 7.000000 -5.160000 6.166783 5.298167 66.099785
-1.200000 7.000000 -5.120000 7.502417 5.743190 89.270485
-1.200000 7.000000 -5.080000 10.357140 6.772723 153.140106
-1.200000 7.000000 -5.040000 14.723661 11.148814 341.082275
-1.200000 7.000000 -5.000000 16.752871 21.209822 730.515198
-1.200000 7.000000 -4.960000 10.535263 34.454876 1298.130249
-1.200000 7.000000 -4.920000 -6.094916 42.811092 1869.937622
-1.200000 7.000000 -4.880000 -27.134430 38.046825 2183.838135
-1.200000 7.000000 -4.840000 -40.860016 19.479166 2048.978760
-1.200000 7.000000 -4.800000 -38.471535 -3.436170 1491.866211
-1.200000 7.040000 -5.200000 -0.166551 2.770047 7.700899
-1.200000 7.040000 -5.160000 1.205171 0.840165 2.158314
-1.200000 7.040000 -5.120000 3.867092 -0.719006 15.471372
-1.200000 7.040000 -5.080000 8.962159 -0.508732 80.579102
-1.200000 7.040000 -5.040000 15.095329 4.899046 251.869629
-1.200000 7.040000 -5.000000 16.599400 16.726700 555.322571
-1.200000 7.040000 -4.960000 7.520649 29.677357 937.305664
-1.200000 7.040000 -4.920000 -11.331017 33.676819 1262.520142
-1.200000 7.040000 -4.880000 -29.852293 22.175446 1382.909790
-1.200000 7.040000 -4.840000 -35.131168 -0.316183 1234.298950
-1.200000 7.040000 -4.800000 -22.441862 -19.685730 891.165161
-1.200000 7.080000 -5.200000 -3.022809 -0.714034 9.647220
-1.200000 7.080000 -5.160000 0.062302 -4.819777 23.234127
-1.200000 7.080000 -5.120000 6.086357 -7.416955 92.054962
-1.200000 7.080000 -5.080000 14.742372 -5.608407 248.791748
-1.200000 7.080000 -5.040000 22.032150 3.492502 497.613220
-1.200000 7.080000 -5.000000 21.114122 18.065910 772.183228
-1.200000 7.080000 -4.960000 8.325645 29.668375 949.528809
-1.200000 7.080000 -4.920000 -10.966409 28.468922 930.741638
-1.200000 7.080000 -4.880000 -23.969915 12.474583 730.172058
-1.200000 7.080000 -4.840000 -20.345062 -8.363809 483.874878
-1.200000 7.080000 -4.800000 -1.959083 -18.802517 357.372650
-1.200000 7.120000 -5.200000 -3.359104 -4.661807 33.016022
-1.200000 7.120000 -5.160000 2.785224 -9.364869 95.458252
-1.200000 7.120000 -5.120000 12.708485 -10.021509 261.936218
-1.200000 7.120000 -5.080000 23.293123 -3.397326 554.111389
-1.200000 7.120000 -5.040000 28.347404 10.724291 918.585754
-1.200000 7.120000 -5.000000 22.254219 26.658569 1205.929565
-1.200000 7.120000 -4.960000 5.782080 34.685440 1236.512207
-1.200000 7.120000 -4.920000 -11.755671 28.347269 941.763489
-1.200000 7.120000 -4.880000 -18.294430 11.324179 462.923187
-1.200000 7.120000 -4.840000 -9.080551 -3.641807 95.719162
-1.200000 7.120000 -4.800000 8.154187 -4.600569 87.656006
-1.200000 7.160000 -5.200000 -0.904011 -7.521380 57.388390
-1.200000 7.160000 -5.160000 7.889583 -10.437691 171.190918
-1.200000 7.160000 -5.120000 19.363937 -6.477409 416.918884
-1.200000 7.160000 -5.080000 27.653179 5.809704 798.450989
-1.200000 7.160000 -5.040000 26.605911 22.758482 1225.822998
-1.200000 7.160000 -5.000000 14.313820 36.241135 1518.305176
-1.200000 7.160000 -4.960000 -3.887596 38.435806 1492.424561
-1.200000 7.160000 -4.920000 -17.658953 28.125977 1102.909180
-1.200000 7.160000 -4.880000 -18.976158 12.990561 528.849243
-1.200000 7.160000 -4.840000 -8.951157 4.494193 100.320976
-1.200000 7.160000 -4.800000 2.461908 8.747463 82.579102
-1.200000 7.200000 -5.200000 2.983586 -7.216549 60.980362
-1.200000 7.200000 -5.160000 12.215614 -7.133785 200.112122
-1.200000 7.200000 -5.120000 21.402344 1.294710 459.736572
-1.200000 7.200000 -5.080000 23.693308 16.273523 826.200439
-1.200000 7.200000 -5.040000 15.516086 31.124847 1209.505005
-1.200000 7.200000 -5.000000 -0.598188 38.213161 1460.603516
-1.200000 7.200000 -4.960000 -17.018915 33.988766 1444.879639
-1.200000 7.200000 -4.920000 -25.768007 21.757021 1137.358154
-1.200000 7.200000 -4.880000 -24.045113 9.708944 672.431030
-1.200000 7.200000 -4.840000 -16.234255 5.128256 289.850037
-1.200000 7.200000 -4.800000 -10.447046 9.106701 192.072784
-1.160000 6.800000 -5.200000 52.330608 -33.066063 3831.857178
-1.160000 6.800000 -5.160000 56.548447 -9.165767 3281.738037
-1.160000 6.800000 -5.120000 45.692616 7.686057 2146.890625
-1.160000 6.800000 -5.080000 32.704559 11.274506 1196.702759
-1.160000 6.800000 -5.040000 27.266323 8.754581 820.095093
-1.160000 6.800000 -5.000000 27.262510 9.632109 836.021973
-1.160000 6.800000 -4.960000 24.819241 14.722635 832.750671
-1.160000 6.800000 -4.920000 17.621393 17.451372 615.063843
-1.160000 6.800000 -4.880000 11.453716 14.112732 330.356812
-1.160000 6.800000 -4.840000 11.798456 9.425763 228.048584
-1.160000 6.800000 -4.800000 15.931152 10.592954 366.012299
-1.160000 6.840000 -5.200000 50.765480 1.145260 2578.445557
-1.160000 6.840000 -5.160000 45.951649 15.049086 2338.028809
-1.160000 6.840000 -5.120000 37.446690 21.499504 1864.483154
-1.160000 6.840000 -5.080000 32.174049 23.497637 1587.308350
-1.160000 6.840000 -5.040000 29.552324 27.316111 1619.509766
-1.160000 6.840000 -5.000000 23.838924 33.641338 1700.033936
-1.160000 6.840000 -4.960000 12.942585 36.689812 1513.652832
-1.160000 6.840000 -4.920000 2.252356 32.062084 1033.050415
-1.160000 6.840000 -4.880000 -1.366136 23.236719 541.811462
-1.160000 6.840000 -4.840000 1.923180 18.324020 339.468323
-1.160000 6.840000 -4.800000 4.642581 20.729202 451.253387
-1.160000 6.880000 -5.200000 28.903587 21.460098 1295.953125
-1.160000 6.880000 -5.160000 25.997288 25.091656 1305.450195
-1.160000 6.880000 -5.120000 24.763029 29.113420 1460.798828
-1.160000 6.880000 -5.080000 22.378159 36.357445 1822.645752
-1.160000 6.880000 -5.040000 14.155130 44.587151 2188.381836
-1.160000 6.880000 -5.000000 0.008998 47.233406 2230.994629
-1.160000 6.880000 -4.960000 -13.376091 40.320267 1804.643677
-1.160000 6.880000 -4.920000 -18.380533 27.847328 1113.317627
-1.160000 6.880000 -4.880000 -14.426911 18.772995 560.561157
-1.160000 6.880000 -4.840000 -8.932528 18.041851 405.298431
-1.160000 6.880000 -4.800000 -9.461533 21.565199 554.578369
-1.160000 6.920000 -5.200000 4.953468 20.248768 434.549438
-1.160000 6.920000 -5.160000 9.238970 21.339350 540.726440
-1.160000 6.920000 -5.120000 11.254297 29.959841 1024.251221
-1.160000 6.920000 -5.080000 3.995823 41.059464 1701.846069
-1.160000 6.920000 -5.040000 -11.922733 44.987373 2166.015381
-1.160000 6.920000 -5.000000 -27.338657 36.579376 2085.452881
-1.160000 6.920000 -4.960000 -32.430832 20.892422 1488.252197
-1.160000 6.920000 -4.920000 -26.095905 9.042246 762.758484
-1.160000 6.920000 -4.880000 -17.009886 7.663089 348.059143
-1.160000 6.920000 -4.840000 -14.792805 12.716473 380.535767
-1.160000 6.920000 -4.800000 -20.267653 14.314775 615.690491
-1.160000 6.960000 -5.200000 -6.024292 6.679233 80.904243
-1.160000 6.960000 -5.160000 1.895045 12.362886 156.432159
-1.160000 6.960000 -5.120000 -0.139995 24.953705 622.706970
-1.160000 6.960000 -5.080000 -14.312927 32.147652 1238.331421
-1.160000 6.960000 -5.040000 -30.777384 25.248169 1584.717407
-1.160000 6.960000 -5.000000 -36.534294 8.187782 1401.794434
-1.160000 6.960000 -4.960000 -28.051689 -5.745106 819.903503
-1.160000 6.960000 -4.920000 -14.782944 -6.748415 264.076538
-1.160000 6.960000 -4.880000 -9.609516 2.005217 96.363701
-1.160000 6.960000 -4.840000 -15.831031 8.127238 316.673523
-1.160000 6.960000 -4.800000 -24.235985 3.198222 597.611572
-1.160000 7.000000 -5.200000 -3.344948 -4.133574 28.275108
-1.160000 7.000000 -5.160000 1.191951 6.061210 38.159019
-1.160000 7.000000 -5.120000 -7.236916 15.846497 303.484406
-1.160000 7.000000 -5.080000 -22.014959 13.344360 662.730408
-1.160000 7.000000 -5.040000 -28.950603 -1.563375 840.581604
-1.160000 7.000000 -5.000000 -20.616848 -16.169933 686.521118
-1.160000 7.000000 -4.960000 -4.498001 -17.373247 322.061737
-1.160000 7.000000 -4.920000 4.104788 -5.149862 43.370365
-1.160000 7.000000 -4.880000 -2.389790 7.132494 56.583565
-1.160000 7.000000 -4.840000 -15.958781 6.361224 295.147858
-1.160000 7.000000 -4.800000 -21.247686 -6.701969 496.380554
-1.160000 7.040000 -5.200000 2.565886 -5.221337 33.846130
-1.160000 7.040000 -5.160000 1.045284 3.490426 13.275693
-1.160000 7.040000 -5.120000 -8.608154 5.181681 100.950134
-1.160000 7.040000 -5.080000 -15.221313 -4.476666 251.728897
-1.160000 7.040000 -5.040000 -9.073565 -16.967522 370.226379
-1.160000 7.040000 -5.000000 6.746559 -18.678190 394.390839
-1.160000 7.040000 -4.960000 17.872948 -5.367421 348.251465
-1.160000 7.040000 -4.920000 12.810707 12.001450 308.148987
-1.160000 7.040000 -4.880000 -4.595139 17.277067 319.612335
-1.160000 7.040000 -4.840000 -17.963074 5.452095 352.397369
-1.160000 7.040000 -4.800000 -14.461250 -11.629304 344.368469
-1.160000 7.080000 -5.200000 2.765038 -1.521789 9.961273
-1.160000 7.080000 -5.160000 -0.706740 0.762667 1.081141
-1.160000 7.080000 -5.120000 -4.166750 -3.732795 31.295567
-1.160000 7.080000 -5.080000 0.247427 -11.541438 133.266006
-1.160000 7.080000 -5.040000 13.063671 -12.495967 326.808685
-1.160000 7.080000 -5.000000 24.156322 -0.280647 583.606628
-1.160000 7.080000 -4.960000 21.364321 18.812052 810.327515
-1.160000 7.080000 -4.920000 3.507601 29.574062 886.928467
-1.160000 7.080000 -4.880000 -16.181929 22.122662 751.266968
-1.160000 7.080000 -4.840000 -21.446636 2.631713 466.884094
-1.160000 7.080000 -4.800000 -8.727379 -11.335720 204.665695
-1.160000 7.120000 -5.200000 -1.862302 -1.435157 5.527846
-1.160000 7.120000 -5.160000 -1.065085 -4.359161 20.136696
-1.160000 7.120000 -5.120000 4.023257 -7.695568 75.408371
-1.160000 7.120000 -5.080000 13.792917 -6.188237 228.538849
-1.160000 7.120000 -5.040000 22.486702 4.724079 527.968689
-1.160000 7.120000 -5.000000 20.971088 22.329578 938.396606
-1.160000 7.120000 -4.960000 5.475602 35.628223 1299.352539
-1.160000 7.120000 -4.920000 -16.200594 33.651100 1394.855713
-1.160000 7.120000 -4.880000 -29.143452 16.379280 1117.621582
-1.160000 7.120000 -4.840000 -24.194607 -3.157151 595.346558
-1.160000 7.120000 -4.800000 -7.138967 -9.538710 141.951843
-1.160000 7.160000 -5.200000 -4.130991 -6.661390 61.439209
-1.160000 7.160000 -5.160000 2.954613 -9.036469 90.387497
-1.160000 7.160000 -5.120000 11.899279 -5.410125 170.862289
-1.160000 7.160000 -5.080000 18.139561 5.158511 355.653900
-1.160000 7.160000 -5.040000 16.430809 20.182758 677.315186
-1.160000 7.160000 -5.000000 3.949385 32.831154 1093.482300
-1.160000 7.160000 -4.960000 -15.648941 34.751640 1452.565918
-1.160000 7.160000 -4.920000 -32.160458 22.659161 1547.732666
-1.160000 7.160000 -4.880000 -35.405724 3.023359 1262.706055
-1.160000 7.160000 -4.840000 -24.068884 -11.226418 705.343628
-1.160000 7.160000 -4.800000 -8.060671 -10.915123 184.114319
-1.160000 7.200000 -5.200000 -0.374043 -11.293406 127.680916
-1.160000 7.200000 -5.160000 9.367615 -8.773300 164.722992
-1.160000 7.200000 -5.120000 15.306187 1.132643 235.562241
-1.160000 7.200000 -5.080000 13.540077 14.080736 381.600830
-1.160000 7.200000 -5.040000 3.532311 24.690756 622.110657
-1.160000 7.200000 -5.000000 -12.143854 27.985325 930.651611
-1.160000 7.200000 -4.960000 -27.796478 21.049412 1215.721924
-1.160000 7.200000 -4.920000 -36.123699 5.601351 1336.296753
-1.160000 7.200000 -4.880000 -32.524357 -11.070659 1180.393188
-1.160000 7.200000 -4.840000 -19.490561 -19.774931 770.929810
-1.160000 7.200000 -4.800000 -6.185222 -16.199558 300.682648
-1.120000 6.800000 -5.200000 74.944794 14.900346 5838.742676
-1.120000 6.800000 -5.160000 59.687160 40.026062 5164.642578
-1.120000 6.800000 -5.120000 35.549446 48.004459 3568.191406
-1.120000 6.800000 -5.080000 18.195263 41.601299 2061.735596
-1.120000 6.800000 -5.040000 12.087576 33.385933 1260.729980
-1.120000 6.800000 -5.000000 9.700825 30.771751 1041.006714
-1.120000 6.800000 -4.960000 3.728893 29.844063 904.572754
-1.120000 6.800000 -4.920000 -3.500819 23.630781 570.669556
-1.120000 6.800000 -4.880000 -4.192739 13.118011 189.661301
-1.120000 6.800000 -4.840000 3.414192 7.106612 62.160645
-1.120000 6.800000 -4.800000 11.142380 11.334524 252.624054
-1.120000 6.840000 -5.200000 40.155941 48.793106 3993.266602
-1.120000 6.840000 -5.160000 25.010832 54.093452 3551.643311
-1.120000 6.840000 -5.120000 14.105642 53.671528 3079.602051
-1.120000 6.840000 -5.080000 6.301933 54.760040 3038.376465
-1.120000 6.840000 -5.040000 -5.538218 57.499126 3336.821533
-1.120000 6.840000 -5.000000 -23.421946 53.580654 3419.474121
-1.120000 6.840000 -4.960000 -38.485466 36.679970 2826.551270
-1.120000 6.840000 -4.920000 -38.823120 12.646990 1667.180908
-1.120000 6.840000 -4.880000 -23.068645 -3.477373 544.254517
-1.120000 6.840000 -4.840000 -4.037453 -1.851971 19.730820
-1.120000 6.840000 -4.800000 2.886941 11.826253 148.194687
-1.120000 6.880000 -5.200000 -4.051170 45.856995 2119.275879
-1.120000 6.880000 -5.160000 -4.689318 42.332024 1813.989990
-1.120000 6.880000 -5.120000 -4.875243 49.067310 2431.368896
-1.120000 6.880000 -5.080000 -17.720858 60.748081 4004.358154
-1.120000 6.880000 -5.040000 -44.720436 60.814606 5698.333496
-1.120000 6.880000 -5.000000 -70.089890 38.003639 6356.869141
-1.120000 6.880000 -4.960000 -73.489189 0.485865 5400.896973
-1.120000 6.880000 -4.920000 -49.949707 -28.521542 3308.451416
-1.120000 6.880000 -4.880000 -16.403599 -31.154852 1239.702881
-1.120000 6.880000 -4.840000 3.008438 -11.338370 137.609344
-1.120000 6.880000 -4.800000 -1.258592 9.584520 93.447083
-1.120000 6.920000 -5.200000 -26.538795 15.271732 937.533508
-1.120000 6.920000 -5.160000 -14.432611 19.757170 598.646057
-1.120000 6.920000 -5.120000 -18.098806 38.536739 1812.647095
-1.120000 6.920000 -5.080000 -45.547363 48.795738 4455.586426
-1.120000 6.920000 -5.040000 -79.549736 29.865891 7220.131836
-1.120000 6.920000 -5.000000 -90.820862 -14.440310 8456.951172
-1.120000 6.920000 -4.960000 -65.411873 -55.787666 7390.976562
-1.120000 6.920000 -4.920000 -19.380524 -65.713974 4693.930664
-1.120000 6.920000 -4.880000 14.746735 -41.332798 1925.866333
-1.120000 6.920000 -4.840000 17.103575 -7.054892 342.303741
-1.120000 6.920000 -4.800000 -3.355190 9.173966 95.418961
-1.120000 6.960000 -5.200000 -17.885595 -14.055216 517.443604
-1.120000 6.960000 -5.160000 -7.616953 4.930614 82.328934
-1.120000 6.960000 -5.120000 -25.588181 25.549116 1307.512329
-1.120000 6.960000 -5.080000 -61.318016 19.210684 4128.949707
-1.120000 6.960000 -5.040000 -82.275070 -20.634083 7194.952148
-1.120000 6.960000 -5.000000 -63.700569 -68.400726 8736.421875
-1.120000 6.960000 -4.960000 -13.581745 -87.624100 7862.446777
-1.120000 6.960000 -4.920000 32.759594 -64.236137 5199.472168
-1.120000 6.960000 -4.880000 44.295635 -19.310808 2335.010498
-1.120000 6.960000 -4.840000 21.375166 11.321563 585.075500
-1.120000 6.960000 -4.800000 -7.836288 10.023993 161.887863
-1.120000 7.000000 -5.200000 4.575901 -20.554567 443.429108
-1.120000 7.000000 -5.160000 0.683605 3.840497 15.216733
-1.120000 7.000000 -5.120000 -27.917244 11.575937 913.374817
-1.120000 7.000000 -5.080000 -54.581596 -14.221046 3181.388672
-1.120000 7.000000 -5.040000 -48.535049 -58.539032 5782.469727
-1.120000 7.000000 -5.000000 -5.572523 -85.016861 7258.919922
-1.120000 7.000000 -4.960000 44.959717 -69.086868 6794.371582
-1.120000 7.000000 -4.920000 65.681877 -21.695433 4784.800781
-1.120000 7.000000 -4.880000 45.084465 20.423321 2449.720947
-1.120000 7.000000 -4.840000 6.587543 28.728041 868.696045
-1.120000 7.000000 -4.800000 -15.603704 7.472013 299.306549
-1.120000 7.040000 -5.200000 16.366486 -7.359023 322.017059
-1.120000 7.040000 -5.160000 -0.090533 7.673075 58.884274
-1.120000 7.040000 -5.120000 -24.578365 -2.136562 608.660950
-1.120000 7.040000 -5.080000 -29.545713 -34.291546 2048.859375
-1.120000 7.040000 -5.040000 -1.431513 -61.585747 3794.853516
-1.120000 7.040000 -5.000000 42.850998 -55.840187 4954.334473
-1.120000 7.040000 -4.960000 68.582214 -15.707841 4950.256348
-1.120000 7.040000 -4.920000 54.828968 29.793831 3893.888184
-1.120000 7.040000 -4.880000 14.208033 47.145885 2424.602783
-1.120000 7.040000 -4.840000 -19.266953 28.794071 1200.313965
-1.120000 7.040000 -4.800000 -22.326801 -1.829101 501.831665
-1.120000 7.080000 -5.200000 9.252323 5.358868 114.322952
-1.120000 7.080000 -5.160000 -6.795243 4.937556 70.554787
-1.120000 7.080000 -5.120000 -15.255873 -12.781086 396.097809
-1.120000 7.080000 -5.080000 -1.618959 -33.599358 1131.537842
-1.120000 7.080000 -5.040000 29.172123 -34.909645 2069.696045
-1.120000 7.080000 -5.000000 52.938416 -7.650425 2861.004883
-1.120000 7.080000 -4.960000 46.957970 31.700443 3209.969238
-1.120000 7.080000 -4.920000 12.286927 53.508423 3014.119873
-1.120000 7.080000 -4.880000 -25.259228 41.707710 2377.561523
-1.120000 7.080000 -4.840000 -38.135174 8.860399 1532.798218
-1.120000 7.080000 -4.800000 -22.093370 -16.017031 744.662292
-1.120000 7.120000 -5.200000 -4.330225 2.887936 27.091024
-1.120000 7.120000 -5.160000 -8.580872 -5.683148 105.929527
-1.120000 7.120000 -5.120000 -2.139077 -16.808094 287.087677
-1.120000 7.120000 -5.080000 15.128023 -18.725817 579.513306
-1.120000 7.120000 -5.040000 31.255978 -2.970235 985.758423
-1.120000 7.120000 -5.000000 29.793442 24.521063 1488.931641
-1.120000 7.120000 -4.960000 5.425875 44.392349 2000.120728
-1.120000 7.120000 -4.920000 -27.788992 39.508354 2333.138184
-1.120000 7.120000 -4.880000 -46.304947 11.566869 2277.940674
-1.120000 7.120000 -4.840000 -37.713326 -18.551178 1766.441162
-1.120000 7.120000 -4.800000 -12.281096 -28.932980 987.942627
-1.120000 7.160000 -5.200000 -7.654871 -10.552084 169.943512
-1.120000 7.160000 -5.160000 -0.168616 -14.927394 222.855515
-1.120000 7.160000 -5.120000 9.817322 -12.853145 261.583130
-1.120000 7.160000 -5.080000 17.543060 -2.518622 314.102417
-1.120000 7.160000 -5.040000 16.042923 13.888325 450.260925
-1.120000 7.160000 -5.000000 0.903751 27.510220 757.628967
-1.120000 7.160000 -4.960000 -22.985847 26.828663 1248.126343
-1.120000 7.160000 -4.920000 -41.301540 7.761779 1766.062500
-1.120000 7.160000 -4.880000 -40.454700 -19.739601 2026.234619
-1.120000 7.160000 -4.840000 -20.180784 -37.497368 1813.316650
-1.120000 7.160000 -4.800000 4.506759 -34.153107 1186.745605
-1.120000 7.200000 -5.200000 2.262273 -19.549288 387.292542
-1.120000 7.200000 -5.160000 12.247287 -14.056356 347.577209
-1.120000 7.200000 -5.120000 15.688231 -3.752132 260.199097
-1.120000 7.200000 -5.080000 12.105597 6.797717 192.754425
-1.120000 7.200000 -5.040000 2.110909 14.267138 208.007141
-1.120000 7.200000 -5.000000 -12.691229 14.607095 374.434509
-1.120000 7.200000 -4.960000 -26.794327 4.039283 734.251770
-1.120000 7.200000 -4.920000 -31.133995 -15.787447 1218.569092
-1.120000 7.200000 -4.880000 -19.789213 -34.924538 1611.336304
-1.120000 7.200000 -4.840000 2.605646 -40.698689 1663.172729
-1.120000 7.200000 -4.800000 21.942541 -28.532944 1295.604004
-1.080000 6.800000 -5.200000 54.324875 69.500610 7781.527344
-1.080000 6.800000 -5.160000 22.246367 81.159927 7081.834473
-1.080000 6.800000 -5.120000 -6.637128 71.142456 5105.300293
-1.080000 6.800000 -5.080000 -19.731518 51.552601 3047.003418
-1.080000 6.800000 -5.040000 -20.269932 36.760845 1762.229858
-1.080000 6.800000 -5.000000 -19.452408 29.564117 1252.433228
-1.080000 6.800000 -4.960000 -21.884031 22.519257 986.027710
-1.080000 6.800000 -4.920000 -21.631493 10.854210 585.735352
-1.080000 6.800000 -4.880000 -12.386959 0.292240 153.522156
-1.080000 6.800000 -4.840000 1.811954 0.291740 3.368292
-1.080000 6.800000 -4.800000 9.113402 11.348655 211.846069
-1.080000 6.840000 -5.200000 -6.873095 74.573273 5608.412109
-1.080000 6.840000 -5.160000 -22.687023 65.911072 4858.970703
-1.080000 6.840000 -5.120000 -30.749950 58.542164 4372.744629
-1.080000 6.840000 -5.080000 -40.492321 55.734123 4745.920410
-1.080000 6.840000 -5.040000 -57.827988 48.314030 5678.321289
-1.080000 6.840000 -5.000000 -74.376060 25.546780 6184.436523
-1.080000 6.840000 -4.960000 -73.352852 -9.209099 5465.448730
-1.080000 6.840000 -4.920000 -47.766655 -36.737671 3631.309814
-1.080000 6.840000 -4.880000 -11.304169 -38.569824 1615.415527
-1.080000 6.840000 -4.840000 11.646021 -15.685833 381.675171
-1.080000 6.840000 -4.800000 8.112357 10.921827 185.096649
-1.080000 6.880000 -5.200000 -47.928825 33.571053 3424.187988
-1.080000 6.880000 -5.160000 -40.122696 28.647457 2430.507568
-1.080000 6.880000 -5.120000 -43.238319 39.637909 3440.716064
-1.080000 6.880000 -5.080000 -69.515594 44.850239 6843.961914
-1.080000 6.880000 -5.040000 -103.548592 20.274128 11133.350586
-1.080000 6.880000 -5.000000 -112.742043 -32.880653 13791.906250
-1.080000 6.880000 -4.960000 -78.541420 -83.307892 13108.959961
-1.080000 6.880000 -4.920000 -17.556431 -95.531097 9434.418945
-1.080000 6.880000 -4.880000 30.292128 -62.628052 4839.885742
-1.080000 6.880000 -4.840000 36.664177 -13.171770 1517.757324
-1.080000 6.880000 -4.800000 8.797740 15.065540 304.370728
-1.080000 6.920000 -5.200000 -42.298340 -18.190300 2120.036621
-1.080000 6.920000 -5.160000 -27.264999 -1.099976 744.590149
-1.080000 6.920000 -5.120000 -46.751427 21.861622 2663.626221
-1.080000 6.920000 -5.080000 -91.129211 12.021423 8449.047852
-1.080000 6.920000 -5.040000 -117.946411 -43.284325 15784.888672
-1.080000 6.920000 -5.000000 -90.528992 -112.032516 20746.783203
-1.080000 6.920000 -4.960000 -15.686659 -142.411514 20527.109375
-1.080000 6.920000 -4.920000 58.187515 -109.691147 15417.934570
-1.080000 6.920000 -4.880000 82.895157 -39.488911 8430.980469
-1.080000 6.920000 -4.840000 52.181870 15.700615 2969.456787
-1.080000 6.920000 -4.800000 3.405604 23.508324 564.239441
-1.080000 6.960000 -5.200000 -3.765451 -40.666885 1667.974121
-1.080000 6.960000 -5.160000 -5.154045 -6.248274 65.605110
-1.080000 6.960000 -5.120000 -45.957428 6.465002 2153.881348
-1.080000 6.960000 -5.080000 -87.731529 -32.546082 8756.068359
-1.080000 6.960000 -5.040000 -80.262634 -104.598511 17382.939453
-1.080000 6.960000 -5.000000 -11.048633 -153.084564 23556.957031
-1.080000 6.960000 -4.960000 77.648209 -133.665421 23895.689453
-1.080000 6.960000 -4.920000 123.773392 -56.211632 18479.599609
-1.080000 6.960000 -4.880000 100.200134 23.125200 10574.841797
-1.080000 6.960000 -4.840000 36.505066 52.374706 4075.729736
-1.080000 6.960000 -4.800000 -12.030100 27.486111 900.209595
-1.080000 7.000000 -5.200000 29.277447 -24.178673 1441.777100
-1.080000 7.000000 -5.160000 3.359661 5.196808 38.294136
-1.080000 7.000000 -5.120000 -41.781147 -8.553577 1818.827881
-1.080000 7.000000 -5.080000 -56.225082 -66.572037 7593.095703
-1.080000 7.000000 -5.040000 -9.742104 -123.204254 15274.196289
-1.080000 7.000000 -5.000000 74.363533 -124.245361 20966.845703
-1.080000 7.000000 -4.960000 135.146454 -58.056011 21635.064453
-1.080000 7.000000 -4.920000 127.433533 30.850176 17191.039062
-1.080000 7.000000 -4.880000 61.968384 80.640511 10342.972656
-1.080000 7.000000 -4.840000 -6.609493 66.321869 4442.275879
-1.080000 7.000000 -4.800000 -30.976807 17.213333 1255.861328
-1.080000 7.040000 -5.200000 30.646187 6.104987 976.459656
-1.080000 7.040000 -5.160000 -5.400955 12.071915 174.901443
-1.080000 7.040000 -5.120000 -31.699169 -22.742018 1522.036621
-1.080000 7.040000 -5.080000 -12.544888 -73.103203 5501.452148
-1.080000 7.040000 -5.040000 49.936127 -90.729218 10725.408203
-1.080000 7.040000 -5.000000 110.922157 -48.601463 14665.827148
-1.080000 7.040000 -4.960000 120.145096 30.237377 15349.142578
-1.080000 7.040000 -4.920000 67.692657 89.904526 12665.119141
-1.080000 7.040000 -4.880000 -6.402933 90.598999 8249.175781
-1.080000 7.040000 -4.840000 -48.735031 42.453144 4177.372559
-1.080000 7.040000 -4.800000 -39.587746 -7.837943 1628.622925
-1.080000 7.080000 -5.200000 7.881350 18.155758 391.747192
-1.080000 7.080000 -5.160000 -15.949399 2.754210 261.968994
-1.080000 7.080000 -5.120000 -14.844580 -31.490049 1211.984741
-1.080000 7.080000 -5.080000 20.807112 -53.783180 3325.566406
-1.080000 7.080000 -5.040000 67.986748 -35.782295 5902.570312
-1.080000 7.080000 -5.000000 86.527634 19.097267 7851.736816
-1.080000 7.080000 -4.960000 54.868027 73.322113 8386.632812
-1.080000 7.080000 -4.920000 -7.864014 86.032837 7463.491699
-1.080000 7.080000 -4.880000 -56.794807 49.355934 5661.658203
-1.080000 7.080000 -4.840000 -60.619362 -5.041252 3700.121338
-1.080000 7.080000 -4.800000 -27.645647 -35.839680 2048.764404
-1.080000 7.120000 -5.200000 -10.524262 3.767625 124.955101
-1.080000 7.120000 -5.160000 -12.274783 -14.547810 362.309082
-1.080000 7.120000 -5.120000 4.417438 -30.049984 922.515259
-1.080000 7.120000 -5.080000 32.245506 -25.458103 1687.887695
-1.080000 7.120000 -5.040000 49.173576 4.266598 2436.244385
-1.080000 7.120000 -5.000000 35.526249 41.826447 3011.565918
-1.080000 7.120000 -4.960000 -5.914627 58.061554 3406.126953
-1.080000 7.120000 -4.920000 -47.907169 36.932259 3659.088623
-1.080000 7.120000 -4.880000 -60.240738 -8.317065 3698.120117
-1.080000 7.120000 -4.840000 -36.109058 -45.160458 3343.331055
-1.080000 7.120000 -4.800000 2.309622 -50.062317 2511.570068
-1.080000 7.160000 -5.200000 -5.912471 -17.890785 355.037506
-1.080000 7.160000 -5.160000 5.384975 -22.648319 541.944336
-1.080000 7.160000 -5.120000 18.575603 -18.716202 695.349243
-1.080000 7.160000 -5.080000 26.993160 -4.543171 749.271057
-1.080000 7.160000 -5.040000 21.931801 14.953661 704.615845
-1.080000 7.160000 -5.000000 0.618095 26.718395 714.254639
-1.080000 7.160000 -4.960000 -26.524202 17.868210 1022.806274
-1.080000 7.160000 -4.920000 -40.066772 -11.252329 1731.961182
-1.080000 7.160000 -4.880000 -27.158764 -43.161808 2600.540039
-1.080000 7.160000 -4.840000 5.499081 -55.659805 3128.253906
-1.080000 7.160000 -4.800000 35.509529 -40.800755 2925.628174
-1.080000 7.200000 -5.200000 14.038405 -23.853905 766.085632
-1.080000 7.200000 -5.160000 22.235157 -14.104369 693.335449
-1.080000 7.200000 -5.120000 22.653673 -3.583516 526.030518
-1.080000 7.200000 -5.080000 17.681883 4.801850 335.706757
-1.080000 7.200000 -5.040000 7.934538 9.538769 153.945007
-1.080000 7.200000 -5.000000 -5.287264 6.575835 71.196770
-1.080000 7.200000 -4.960000 -15.118898 -7.696800 287.821808
-1.080000 7.200000 -4.920000 -11.270260 -28.926029 963.733887
-1.080000 7.200000 -4.880000 9.894608 -43.330975 1975.476685
-1.080000 7.200000 -4.840000 38.047714 -37.668915 2866.575684
-1.080000 7.200000 -4.800000 54.582897 -12.285178 3130.218262
-1.040000 6.800000 -5.200000 -0.806196 94.775146 8982.978516
-1.040000 6.800000 -5.160000 -37.089951 83.961983 8425.279297
-1.040000 6.800000 -5.120000 -57.082779 55.220814 6307.782227
-1.040000 6.800000 -5.080000 -56.044094 26.856474 3862.210693
-1.040000 6.800000 -5.040000 -44.929134 10.812824 2135.544189
-1.040000 6.800000 -5.000000 -36.116783 4.139534 1321.557739
-1.040000 6.800000 -4.960000 -30.773657 -2.422089 952.884460
-1.040000 6.800000 -4.920000 -21.638836 -10.645645 581.568970
-1.040000 6.800000 -4.880000 -6.151882 -12.691996 198.932404
-1.040000 6.800000 -4.840000 7.144949 -2.561813 57.613186
-1.040000 6.800000 -4.800000 7.315392 13.554021 237.226440
-1.040000 6.840000 -5.200000 -59.902817 57.096645 6848.374023
-1.040000 6.840000 -5.160000 -66.458084 38.042236 5863.888672
-1.040000 6.840000 -5.120000 -67.933754 26.751690 5330.647949
-1.040000 6.840000 -5.080000 -75.552795 17.961100 6030.826172
-1.040000 6.840000 -5.040000 -87.066521 -1.943081 7584.354492
-1.040000 6.840000 -5.000000 -85.694611 -36.473297 8673.868164
-1.040000 6.840000 -4.960000 -57.773022 -69.194580 8125.612305
-1.040000 6.840000 -4.920000 -11.229225 -75.975426 5898.360840
-1.040000 6.840000 -4.880000 26.532356 -48.985825 3103.577148
-1.040000 6.840000 -4.840000 32.016392 -7.388058 1079.632690
-1.040000 6.840000 -4.800000 7.631283 18.160006 388.022278
-1.040000 6.880000 -5.200000 -68.073059 -10.223820 4738.467773
-1.040000 6.880000 -5.160000 -53.874001 -8.186565 2969.427734
-1.040000 6.880000 -5.120000 -64.021805 3.261963 4109.432129
-1.040000 6.880000 -5.080000 -95.291061 -8.665693 9155.480469
-1.040000 6.880000 -5.040000 -113.102661 -58.222744 16182.099609
-1.040000 6.880000 -5.000000 -83.558578 -119.802788 21334.744141
-1.040000 6.880000 -4.960000 -10.235031 -146.311340 21511.763672
-1.040000 6.880000 -4.920000 62.828465 -112.444679 16591.222656
-1.040000 6.880000 -4.880000 88.035103 -40.558975 9395.209961
-1.040000 6.880000 -4.840000 56.360245 17.773884 3492.388184
-1.040000 6.880000 -4.800000 3.602898 27.293238 757.901733
-1.040000 6.920000 -5.200000 -23.894072 -54.616867 3553.928711
-1.040000 6.920000 -5.160000 -18.689129 -24.070095 928.652954
-1.040000 6.920000 -5.120000 -55.638531 -11.535213 3228.707031
-1.040000 6.920000 -5.080000 -96.633698 -52.463280 12090.466797
-1.040000 6.920000 -5.040000 -86.253624 -130.389999 24441.240234
-1.040000 6.920000 -5.000000 -7.384651 -184.128235 33957.738281
-1.040000 6.920000 -4.960000 95.400864 -161.995605 35343.902344
-1.040000 6.920000 -4.920000 151.389038 -71.710327 28061.011719
-1.040000 6.920000 -4.880000 126.114319 23.934467 16477.679688
-1.040000 6.920000 -4.840000 50.421516 62.552654 6455.164062
-1.040000 6.920000 -4.800000 -11.019436 34.980854 1345.088135
-1.040000 6.960000 -5.200000 31.044420 -46.493973 3125.445557
-1.040000 6.960000 -5.160000 5.489353 -9.120319 113.313217
-1.040000 6.960000 -5.120000 -48.194973 -23.012650 2852.337402
-1.040000 6.960000 -5.080000 -66.954742 -94.450066 13403.751953
-1.040000 6.960000 -5.040000 -8.484039 -167.968506 28285.398438
-1.040000 6.960000 -5.000000 101.695190 -172.376892 40055.703125
-1.040000 6.960000 -4.960000 185.988724 -87.927071 42322.976562
-1.040000 6.960000 -4.920000 182.285767 31.391930 34213.554688
-1.040000 6.960000 -4.880000 99.128448 104.189659 20681.933594
-1.040000 6.960000 -4.840000 5.374479 92.530624 8590.800781
-1.040000 6.960000 -4.800000 -33.929691 29.493877 2021.112793
-1.040000 7.000000 -5.200000 51.686649 -3.484741 2683.653076
-1.040000 7.000000 -5.160000 2.337364 10.820148 122.538887
-1.040000 7.000000 -5.120000 -38.378250 -35.694431 2746.982422
-1.040000 7.000000 -5.080000 -14.638512 -110.222588 12363.304688
-1.040000 7.000000 -5.040000 76.027771 -141.625900 25838.119141
-1.040000 7.000000 -5.000000 171.073257 -85.339943 36548.964844
-1.040000 7.000000 -4.960000 194.620682 30.745665 38822.507812
-1.040000 7.000000 -4.920000 125.675140 126.708694 31849.333984
-1.040000 7.000000 -4.880000 17.008316 140.095703 19916.089844
-1.040000 7.000000 -4.840000 -53.540104 78.187012 8979.751953
-1.040000 7.000000 -4.800000 -51.161568 4.279333 2635.818848
-1.040000 7.040000 -5.200000 29.540829 30.259348 1788.288696
-1.040000 7.040000 -5.160000 -15.122555 11.370916 357.989410
-1.040000 7.040000 -5.120000 -20.975569 -46.269989 2580.886230
-1.040000 7.040000 -5.080000 34.650658 -90.734604 9433.436523
-1.040000 7.040000 -5.040000 117.428703 -69.631218 18638.005859
-1.040000 7.040000 -5.000000 159.600220 18.005672 25796.435547
-1.040000 7.040000 -4.960000 119.644409 114.056007 27323.556641
-1.040000 7.040000 -4.920000 21.706963 149.529205 22830.173828
-1.040000 7.040000 -4.880000 -64.594177 104.488838 15090.324219
-1.040000 7.040000 -4.840000 -85.370468 22.579121 7797.933594
-1.040000 7.040000 -4.800000 -45.885025 -32.283020 3147.628906
-1.040000 7.080000 -5.200000 -4.829084 27.138199 759.801880
-1.040000 7.080000 -5.160000 -21.648315 -7.472601 524.489319
-1.040000 7.080000 -5.120000 2.452656 -46.831264 2199.182861
-1.040000 7.080000 -5.080000 58.167988 -50.222443 5905.808594
-1.040000 7.080000 -5.040000 101.704330 -0.548374 10344.071289
-1.040000 7.080000 -5.000000 90.244934 73.472076 13542.293945
-1.040000 7.080000 -4.960000 22.393394 116.897438 14166.474609
-1.040000 7.080000 -4.920000 -56.516178 95.464554 12307.559570
-1.040000 7.080000 -4.880000 -92.152252 26.033476 9169.779297
-1.040000 7.080000 -4.840000 -67.354179 -39.105061 6065.791016
-1.040000 7.080000 -4.800000 -13.093775 -58.960571 3647.795898
-1.040000 7.120000 -5.200000 -15.839533 -1.391047 252.825821
-1.040000 7.120000 -5.160000 -6.412049 -24.884987 660.376953
-1.040000 7.120000 -5.120000 22.878399 -33.896778 1672.412720
-1.040000 7.120000 -5.080000 53.291527 -13.240658 3015.301758
-1.040000 7.120000 -5.040000 57.204987 29.843376 4163.037598
-1.040000 7.120000 -5.000000 22.603836 65.071320 4745.210449
-1.040000 7.120000 -4.960000 -31.509823 61.966675 4832.737793
-1.040000 7.120000 -4.920000 -66.973907 17.503632 4791.881348
-1.040000 7.120000 -4.880000 -57.938904 -38.544777 4842.616211
-1.040000 7.120000 -4.840000 -13.105209 -67.961426 4790.501953
-1.040000 7.120000 -4.800000 32.936981 -56.141228 4236.682129
-1.040000 7.160000 -5.200000 3.073277 -22.162161 500.606415
-1.040000 7.160000 -5.160000 17.962776 -22.671276 836.648071
-1.040000 7.160000 -5.120000 31.435276 -13.024191 1157.806152
-1.040000 7.160000 -5.080000 35.476898 5.791000 1292.145996
-1.040000 7.160000 -5.040000 22.810995 24.591566 1125.086670
-1.040000 7.160000 -5.000000 -3.618645 28.236761 810.409302
-1.040000 7.160000 -4.960000 -27.071180 7.926636 795.680359
-1.040000 7.160000 -4.920000 -27.545769 -27.263302 1502.056885
-1.040000 7.160000 -4.880000 0.479643 -53.633163 2876.746094
-1.040000 7.160000 -4.840000 40.516998 -51.284927 4271.770996
-1.040000 7.160000 -4.800000 66.331474 -21.460831 4860.431641
-1.040000 7.200000 -5.200000 28.281281 -15.807810 1049.717651
-1.040000 7.200000 -5.160000 30.672747 -3.095582 950.400024
-1.040000 7.200000 -5.120000 26.920008 5.547492 755.461487
-1.040000 7.200000 -5.080000 20.940498 10.493690 548.622009
-1.040000 7.200000 -5.040000 12.565039 11.856791 298.463684
-1.040000 7.200000 -5.000000 3.166454 5.923628 45.115799
-1.040000 7.200000 -4.960000 0.424787 -9.111820 83.205711
-1.040000 7.200000 -4.920000 13.024157 -25.453884 817.528870
-1.040000 7.200000 -4.880000 39.297268 -28.075708 2332.520752
-1.040000 7.200000 -4.840000 63.598518 -8.006572 4108.876465
-1.040000 7.200000 -4.800000 67.456039 26.671165 5261.668457
-1.000000 6.800000 -5.200000 -56.895996 75.108009 8878.367188
-1.000000 6.800000 -5.160000 -81.766129 43.967968 8618.881836
-1.000000 6.800000 -5.120000 -81.729797 5.955557 6715.228516
-1.000000 6.800000 -5.080000 -62.097366 -19.658758 4242.549805
-1.000000 6.800000 -5.040000 -39.362568 -27.097927 2283.709473
-1.000000 6.800000 -5.000000 -24.424316 -25.075172 1225.311523
-1.000000 6.800000 -4.960000 -14.983879 -23.398228 771.993652
-1.000000 6.800000 -4.920000 -3.960739 -21.755991 489.010620
-1.000000 6.800000 -4.880000 8.021427 -13.282677 240.772797
-1.000000 6.800000 -4.840000 11.893564 2.839722 149.520889
-1.000000 6.800000 -4.800000 2.071222 16.346687 271.504120
-1.000000 6.840000 -5.200000 -83.812256 7.834461 7085.873047
-1.000000 6.840000 -5.160000 -77.241463 -12.671467 6126.809570
-1.000000 6.840000 -5.120000 -70.917915 -23.449903 5579.248535
-1.000000 6.840000 -5.080000 -70.990982 -35.670677 6312.117188
-1.000000 6.840000 -5.040000 -67.342308 -59.165764 8035.574219
-1.000000 6.840000 -5.000000 -43.978539 -86.508957 9417.912109
-1.000000 6.840000 -4.960000 0.245430 -95.564896 9132.709961
-1.000000 6.840000 -4.920000 43.607262 -71.038879 6948.115723
-1.000000 6.840000 -4.880000 57.954025 -23.468861 3909.456299
-1.000000 6.840000 -4.840000 35.174568 15.906151 1490.255859
-1.000000 6.840000 -4.800000 -3.268930 21.909744 490.722809
-1.000000 6.880000 -5.200000 -49.023544 -54.172600 5337.978516
-1.000000 6.880000 -5.160000 -36.675472 -42.604240 3160.211426
-1.000000 6.880000 -5.120000 -52.585079 -37.296200 4156.197266
-1.000000 6.880000 -5.080000 -73.600105 -66.158577 9793.933594
-1.000000 6.880000 -5.040000 -59.553642 -120.861885 18154.232422
-1.000000 6.880000 -5.000000 4.470131 -157.342712 24776.710938
-1.000000 6.880000 -4.960000 86.119148 -135.238464 25705.949219
-1.000000 6.880000 -4.920000 129.848083 -59.048534 20347.253906
-1.000000 6.880000 -4.880000 106.523491 21.232201 11798.060547
-1.000000 6.880000 -4.840000 40.378059 53.035965 4443.201172
-1.000000 6.880000 -4.800000 -13.533331 26.766350 899.588562
-1.000000 6.920000 -5.200000 16.973286 -64.184593 4407.754395
-1.000000 6.920000 -5.160000 3.086914 -31.674900 1012.828369
-1.000000 6.920000 -5.120000 -39.299164 -41.591568 3274.282715
-1.000000 6.920000 -5.080000 -53.197365 -103.820381 13608.631836
-1.000000 6.920000 -5.040000 2.955429 -169.434479 28716.777344
-1.000000 6.920000 -5.000000 107.926239 -171.190338 40954.207031
-1.000000 6.920000 -4.960000 188.875504 -88.223145 43457.281250
-1.000000 6.920000 -4.920000 184.868896 29.139076 35025.593750
-1.000000 6.920000 -4.880000 102.357849 101.436890 20766.570312
-1.000000 6.920000 -4.840000 8.451872 89.553589 8091.279297
-1.000000 6.920000 -4.800000 -30.753429 24.895411 1565.554932
-1.000000 6.960000 -5.200000 59.680672 -21.649927 4030.501953
-1.000000 6.960000 -5.160000 12.398001 -1.742758 156.747620
-1.000000 6.960000 -5.120000 -30.451313 -47.168240 3152.125244
-1.000000 6.960000 -5.080000 -5.788044 -125.955948 15898.401367
-1.000000 6.960000 -5.040000 92.969360 -160.515930 34408.664062
-1.000000 6.960000 -5.000000 199.160721 -99.109024 49487.589844
-1.000000 6.960000 -4.960000 227.929108 30.454105 52879.132812
-1.000000 6.960000 -4.920000 153.091812 140.219238 43098.539062
-1.000000 6.960000 -4.880000 31.341770 158.651230 26152.519531
-1.000000 6.960000 -4.840000 -49.761448 91.153046 10785.080078
-1.000000 6.960000 -4.800000 -48.560654 7.788910 2418.804443
-1.000000 7.000000 -5.200000 50.246891 30.194130 3436.435547
-1.000000 7.000000 -5.160000 -5.673056 13.552778 215.861359
-1.000000 7.000000 -5.120000 -16.843153 -55.679771 3383.928955
-1.000000 7.000000 -5.080000 50.076572 -113.199013 15321.679688
-1.000000 7.000000 -5.040000 155.287231 -90.079163 32228.380859
-1.000000 7.000000 -5.000000 213.184769 19.110863 45812.972656
-1.000000 7.000000 -4.960000 168.142090 143.434937 48845.343750
-1.000000 7.000000 -4.920000 46.852398 194.874283 40171.132812
-1.000000 7.000000 -4.880000 -64.474136 144.836853 25134.628906
-1.000000 7.000000 -4.840000 -96.289337 45.036110 11299.887695
-1.000000 7.000000 -4.800000 -51.773048 -24.726305 3291.838623
-1.000000 7.040000 -5.200000 8.389833 46.960869 2275.712646
-1.000000 7.040000 -5.160000 -23.096481 1.473230 535.617859
-1.000000 7.040000 -5.120000 5.617844 -58.007088 3396.382324
-1.000000 7.040000 -5.080000 85.574875 -68.742142 12048.541016
-1.000000 7.040000 -5.040000 153.561310 -0.834194 23581.771484
-1.000000 7.040000 -5.000000 144.526550 107.551987 32455.353516
-1.000000 7.040000 -4.960000 52.154671 177.451141 34209.019531
-1.000000 7.040000 -4.920000 -61.701843 156.980896 28450.119141
-1.000000 7.040000 -4.880000 -119.936676 66.017601 18743.130859
-1.000000 7.040000 -4.840000 -95.512283 -24.586576 9727.096680
-1.000000 7.040000 -4.800000 -27.804169 -57.377308 4065.227295
-1.000000 7.080000 -5.200000 -21.585585 22.899384 990.319214
-1.000000 7.080000 -5.160000 -17.362354 -20.931068 739.560974
-1.000000 7.080000 -5.120000 29.070938 -45.575977 2922.289062
-1.000000 7.080000 -5.080000 85.438766 -17.542271 7607.514160
-1.000000 7.080000 -5.040000 100.375153 54.635334 13060.190430
-1.000000 7.080000 -5.000000 49.260109 119.827118 16785.095703
-1.000000 7.080000 -4.960000 -39.111897 125.268700 17221.988281
-1.000000 7.080000 -4.920000 -103.516968 63.038406 14689.603516
-1.000000 7.080000 -4.880000 -101.738327 -22.373623 10851.266602
-1.000000 7.080000 -4.840000 -44.548065 -73.155228 7336.217773
-1.000000 7.080000 -4.800000 18.798822 -66.487053 4773.923828
-1.000000 7.120000 -5.200000 -14.835155 -9.814296 316.402222
-1.000000 7.120000 -5.160000 7.323400 -27.793198 826.094055
-1.000000 7.120000 -5.120000 40.834221 -21.055050 2110.748779
-1.000000 7.120000 -5.080000 59.658546 14.668041 3774.293457
-1.000000 7.120000 -5.040000 41.652168 57.834877 5079.776367
-1.000000 7.120000 -5.000000 -8.579422 73.879036 5531.718262
-1.000000 7.120000 -4.960000 -57.811424 44.219707 5297.543457
-1.000000 7.120000 -4.920000 -69.259071 -14.905571 5018.995117
-1.000000 7.120000 -4.880000 -33.542614 -63.547092 5163.339844
-1.000000 7.120000 -4.840000 23.484776 -70.684082 5547.773926
-1.000000 7.120000 -4.800000 63.690811 -38.412743 5532.058594
-1.000000 7.160000 -5.200000 14.200272 -17.330702 502.000977
-1.000000 7.160000 -5.160000 27.731350 -11.172256 893.847107
-1.000000 7.160000 -5.120000 35.807537 3.204494 1292.448486
-1.000000 7.160000 -5.080000 31.710720 21.672523 1475.268066
-1.000000 7.160000 -5.040000 12.914310 32.976685 1254.241089
-1.000000 7.160000 -5.000000 -11.422619 25.019440 756.448608
-1.000000 7.160000 -4.960000 -22.724348 -2.705135 523.713745
-1.000000 7.160000 -4.920000 -7.219894 -33.602535 1181.257202
-1.000000 7.160000 -4.880000 29.974161 -44.332962 2863.861816
-1.000000 7.160000 -4.840000 66.019974 -23.949911 4932.234863
-1.000000 7.160000 -4.800000 77.926582 16.117384 6332.322266
-1.000000 7.200000 -5.200000 32.407932 3.340620 1061.433838
-1.000000 7.200000 -5.160000 26.954382 13.445971 907.332825
-1.000000 7.200000 -5.120000 20.655285 16.418068 696.193726
-1.000000 7.200000 -5.080000 16.409477 16.696535 548.045227
-1.000000 7.200000 -5.040000 12.079048 15.497372 386.071960
-1.000000 7.200000 -5.000000 8.504305 9.514122 162.841721
-1.000000 7.200000 -4.960000 12.503815 -1.216591 157.825470
-1.000000 7.200000 -4.920000 29.084454 -7.474476 901.773254
-1.000000 7.200000 -4.880000 51.584499 3.050430 2670.265869
-1.000000 7.200000 -4.840000 63.035740 32.360565 5020.710449
-1.000000 7.200000 -4.800000 50.178226 66.286743 6911.786621
-0.960000 6.800000 -5.200000 -81.857910 26.234730 7388.978516
-0.960000 6.800000 -5.160000 -85.328827 -13.093798 7452.456543
-0.960000 6.800000 -5.120000 -63.645737 -45.210342 6094.754883
-0.960000 6.800000 -5.080000 -30.948254 -55.684998 4058.613281
-0.960000 6.800000 -5.040000 -5.170931 -47.054375 2240.852783
-0.960000 6.800000 -5.000000 6.991562 -32.580673 1110.382202
-0.960000 6.800000 -4.960000 11.354889 -21.475563 590.133301
-0.960000 6.800000 -4.920000 14.751137 -12.291309 368.672302
-0.960000 6.800000 -4.880000 15.737516 -0.338596 247.784073
-0.960000 6.800000 -4.840000 8.396540 11.871956 211.445206
-0.960000 6.800000 -4.800000 -6.510763 15.100760 270.423004
-0.960000 6.840000 -5.200000 -67.058273 -39.632591 6067.554199
-0.960000 6.840000 -5.160000 -50.511368 -53.492195 5412.813477
-0.960000 6.840000 -5.120000 -37.932312 -59.355900 4961.983398
-0.960000 6.840000 -5.080000 -28.950127 -67.975296 5458.750488
-0.960000 6.840000 -5.040000 -12.099209 -81.487572 6786.614746
-0.960000 6.840000 -5.000000 19.873940 -86.878212 7942.797363
-0.960000 6.840000 -4.960000 56.225582 -68.115372 7801.020508
-0.960000 6.840000 -4.920000 73.284058 -25.937515 6043.308105
-0.960000 6.840000 -4.880000 56.324905 16.624420 3448.866211
-0.960000 6.840000 -4.840000 16.642378 31.917423 1295.690674
-0.960000 6.840000 -4.800000 -15.409241 12.958010 405.354736
-0.960000 6.880000 -5.200000 -7.121659 -68.612625 4758.410645
-0.960000 6.880000 -5.160000 -3.049032 -52.922768 2810.115967
-0.960000 6.880000 -5.120000 -17.875319 -56.734974 3538.384277
-0.960000 6.880000 -5.080000 -18.909990 -89.756676 8413.848633
-0.960000 6.880000 -5.040000 20.792328 -124.376968 15901.951172
-0.960000 6.880000 -5.000000 89.521194 -118.367096 22024.814453
-0.960000 6.880000 -4.960000 140.504990 -57.536110 23052.056641
-0.960000 6.880000 -4.920000 132.815063 24.676712 18248.781250
-0.960000 6.880000 -4.880000 70.838181 73.290390 10389.529297
-0.960000 6.880000 -4.840000 2.537167 60.294350 3641.845947
-0.960000 6.880000 -4.800000 -23.141953 8.723259 611.645264
-0.960000 6.920000 -5.200000 49.099594 -40.486713 4049.944336
-0.960000 6.920000 -5.160000 20.145258 -21.560265 870.676392
-0.960000 6.920000 -5.120000 -9.347910 -52.103176 2802.124512
-0.960000 6.920000 -5.080000 11.827156 -109.963287 12231.806641
-0.960000 6.920000 -5.040000 91.355293 -133.703720 26222.476562
-0.960000 6.920000 -5.000000 176.577087 -80.352585 37636.007812
-0.960000 6.920000 -4.960000 197.815582 28.299999 39931.894531
-0.960000 6.920000 -4.920000 132.836060 119.395050 31900.595703
-0.960000 6.920000 -4.880000 29.303089 132.515686 18419.078125
-0.960000 6.920000 -4.840000 -37.746346 72.338203 6657.602539
-0.960000 6.920000 -4.800000 -32.057037 0.079845 1027.660034
-0.960000 6.960000 -5.200000 58.801857 15.790527 3706.999268
-0.960000 6.960000 -5.160000 8.886786 6.266544 118.244537
-0.960000 6.960000 -5.120000 -2.557245 -54.610699 2988.867920
-0.960000 6.960000 -5.080000 59.251869 -107.317154 15027.755859
-0.960000 6.960000 -5.040000 158.855469 -84.807556 32427.382812
-0.960000 6.960000 -5.000000 214.527588 20.302500 46434.277344
-0.960000 6.960000 -4.960000 171.482056 140.846069 49243.710938
-0.960000 6.960000 -4.920000 54.387882 191.375702 39582.703125
-0.960000 6.960000 -4.880000 -53.137634 143.345871 23371.646484
-0.960000 6.960000 -4.840000 -82.724396 47.097721 9061.521484
-0.960000 6.960000 -4.800000 -37.397282 -18.484125 1740.219482
-0.960000 7.000000 -5.200000 22.988335 50.916367 3120.939941
-0.960000 7.000000 -5.160000 -14.433275 6.416231 249.487457
-0.960000 7.000000 -5.120000 13.231573 -57.940136 3532.133789
-0.960000 7.000000 -5.080000 99.708130 -71.514076 15055.974609
-0.960000 7.000000 -5.040000 176.102264 1.840775 31015.396484
-0.960000 7.000000 -5.000000 168.954895 122.171501 43471.632812
-0.960000 7.000000 -4.960000 69.062241 202.346756 45713.804688
-0.960000 7.000000 -4.920000 -56.462719 183.784119 36964.640625
-0.960000 7.000000 -4.880000 -122.403412 87.105782 22570.011719
-0.960000 7.000000 -4.840000 -98.263695 -10.082344 9757.407227
-0.960000 7.000000 -4.800000 -27.014874 -44.389923 2700.268799
-0.960000 7.040000 -5.200000 -18.795748 41.187847 2049.718750
-0.960000 7.040000 -5.160000 -20.560726 -13.993763 618.568848
-0.960000 7.040000 -5.120000 35.257256 -49.197819 3663.499512
-0.960000 7.040000 -5.080000 108.580933 -17.068508 12081.153320
-0.960000 7.040000 -5.040000 131.630890 74.547066 22883.957031
-0.960000 7.040000 -5.000000 70.128906 160.859314 30793.781250
-0.960000 7.040000 -4.960000 -41.198799 173.580551 31827.548828
-0.960000 7.040000 -4.920000 -125.553123 101.020012 25968.628906
-0.960000 7.040000 -4.880000 -129.619202 -2.413395 16806.960938
-0.960000 7.040000 -4.840000 -65.910721 -65.718246 8663.111328
-0.960000 7.040000 -4.800000 6.010313 -61.140110 3774.236816
-0.960000 7.080000 -5.200000 -29.107508 6.491820 889.390747
-0.960000 7.080000 -5.160000 -2.626595 -28.171888 800.554260
-0.960000 7.080000 -5.120000 49.248905 -25.219961 3061.500977
-0.960000 7.080000 -5.080000 82.774185 26.630451 7560.747070
-0.960000 7.080000 -5.040000 59.899117 94.483788 12515.090820
-0.960000 7.080000 -5.000000 -14.181236 124.106644 15603.566406
-0.960000 7.080000 -4.960000 -90.062828 86.422539 15580.167969
-0.960000 7.080000 -4.920000 -113.999359 4.453094 13015.683594
-0.960000 7.080000 -4.880000 -72.668365 -65.720161 9599.831055
-0.960000 7.080000 -4.840000 -1.403236 -82.229797 6763.708984
-0.960000 7.080000 -4.800000 49.950878 -48.636562 4860.605469
-0.960000 7.120000 -5.200000 -6.620714 -14.609476 257.270660
-0.960000 7.120000 -5.160000 20.240513 -18.957201 769.053833
-0.960000 7.120000 -5.120000 44.690395 2.349695 2002.752563
-0.960000 7.120000 -5.080000 43.498768 40.311989 3517.199219
-0.960000 7.120000 -5.040000 9.026283 67.056541 4578.053223
-0.960000 7.120000 -5.000000 -38.859505 57.019207 4761.250977
-0.960000 7.120000 -4.960000 -65.066864 10.632202 4346.740723
-0.960000 7.120000 -4.920000 -47.564201 -42.615574 4078.440430
-0.960000 7.120000 -4.880000 3.686382 -66.773399 4472.276367
-0.960000 7.120000 -4.840000 55.029522 -47.964489 5328.840820
-0.960000 7.120000 -4.800000 76.887993 -3.040985 5921.011230
-0.960000 7.160000 -5.200000 18.608484 -4.253258 364.365906
-0.960000 7.160000 -5.160000 25.531353 5.246499 679.375732
-0.960000 7.160000 -5.120000 25.863991 18.276985 1002.994263
-0.960000 7.160000 -5.080000 16.189713 29.729000 1145.920288
-0.960000 7.160000 -5.040000 -1.312290 30.495663 931.707520
-0.960000 7.160000 -5.000000 -15.354523 15.037735 461.894836
-0.960000 7.160000 -4.960000 -11.818586 -9.967247 239.024994
-0.960000 7.160000 -4.920000 13.453297 -26.667023 892.121338
-0.960000 7.160000 -4.880000 47.764107 -18.966133 2641.124023
-0.960000 7.160000 -4.840000 69.212349 13.424090 4970.555176
-0.960000 7.160000 -4.800000 63.421257 53.451950 6879.367188
-0.960000 7.200000 -5.200000 19.561718 20.983141 822.953003
-0.960000 7.200000 -5.160000 10.279131 22.218340 599.315186
-0.960000 7.200000 -5.120000 6.965376 18.138969 377.538666
-0.960000 7.200000 -5.080000 8.413702 15.872289 322.719940
-0.960000 7.200000 -5.040000 9.647707 15.867123 344.843811
-0.960000 7.200000 -5.000000 10.723489 14.144661 315.064636
-0.960000 7.200000 -4.960000 17.030077 11.198418 415.428101
-0.960000 7.200000 -4.920000 30.344715 15.115550 1149.281616
-0.960000 7.200000 -4.880000 41.980370 33.436749 2880.367676
-0.960000 7.200000 -4.840000 37.944176 62.271011 5317.439453
-0.960000 7.200000 -4.800000 12.300588 85.757393 7505.635254
-0.920000 6.800000 -5.200000 -68.213875 -19.437469 5030.948242
-0.920000 6.800000 -5.160000 -51.175385 -51.606110 5282.110352
-0.920000 6.800000 -5.120000 -17.352474 -65.625725 4607.844238
-0.920000 6.800000 -5.080000 14.970295 -56.044392 3365.083496
-0.920000 6.800000 -5.040000 31.492058 -33.029739 2082.713379
-0.920000 6.800000 -5.000000 31.704517 -11.441126 1136.075806
-0.920000 6.800000 -4.960000 24.554821 1.781902 606.114380
-0.920000 6.800000 -4.920000 16.894001 9.238197 370.751556
-0.920000 6.800000 -4.880000 8.293188 14.472347 278.225800
-0.920000 6.800000 -4.840000 -3.241438 15.275690 243.853638
-0.920000 6.800000 -4.800000 -13.674076 7.340073 240.857025
-0.920000 6.840000 -5.200000 -28.021616 -58.002586 4149.510742
-0.920000 6.840000 -5.160000 -8.269436 -61.868576 3896.104248
-0.920000 6.840000 -5.120000 6.439228 -60.021622 3644.058594
-0.920000 6.840000 -5.080000 19.234852 -58.956234 3845.817139
-0.920000 6.840000 -5.040000 36.905167 -56.131767 4512.766602
-0.920000 6.840000 -5.000000 58.017178 -41.792900 5112.639648
-0.920000 6.840000 -4.960000 69.429550 -11.916367 4962.462402
-0.920000 6.840000 -4.920000 57.742409 21.844215 3811.355469
-0.920000 6.840000 -4.880000 25.324171 38.377022 2114.109375
-0.920000 6.840000 -4.840000 -6.944036 26.035952 726.090454
-0.920000 6.840000 -4.800000 -15.890530 -4.214194 270.268372
-0.920000 6.880000 -5.200000 26.010084 -50.284470 3205.052246
-0.920000 6.880000 -5.160000 22.747732 -38.234623 1979.345703
-0.920000 6.880000 -5.120000 15.610176 -47.180122 2469.641357
-0.920000 6.880000 -5.080000 30.523237 -68.955521 5686.531738
-0.920000 6.880000 -5.040000 72.785416 -73.152557 10649.013672
-0.920000 6.880000 -5.000000 115.286697 -37.240005 14677.840820
-0.920000 6.880000 -4.960000 120.451202 26.449684 15208.078125
-0.920000 6.880000 -4.920000 76.805725 76.409004 11737.455078
-0.920000 6.880000 -4.880000 13.544277 77.994270 6266.553711
-0.920000 6.880000 -4.840000 -23.456221 35.631981 1819.832275
-0.920000 6.880000 -4.800000 -12.290379 -10.836073 268.473877
-0.920000 6.920000 -5.200000 50.830048 -5.541171 2614.398438
-0.920000 6.920000 -5.160000 22.030430 -6.574352 528.561951
-0.920000 6.920000 -5.120000 15.896118 -42.148602 2029.191162
-0.920000 6.920000 -5.080000 57.683578 -73.304756 8700.982422
-0.920000 6.920000 -5.040000 124.424522 -53.901508 18386.833984
-0.920000 6.920000 -5.000000 159.854568 21.602875 26020.166016
-0.920000 6.920000 -4.960000 125.798073 106.017967 27064.964844
-0.920000 6.920000 -4.920000 40.622250 138.723969 20894.507812
-0.920000 6.920000 -4.880000 -34.623775 100.264374 11251.750000
-0.920000 6.920000 -4.840000 -50.360256 29.210148 3389.388184
-0.920000 6.920000 -4.800000 -10.717423 -14.763155 332.813904
-0.920000 6.960000 -5.200000 31.229307 36.204506 2286.035889
-0.920000 6.960000 -5.160000 0.795120 4.815933 23.825428
-0.920000 6.960000 -5.120000 21.847183 -44.897850 2493.116211
-0.920000 6.960000 -5.080000 91.381058 -54.740807 11347.053711
-0.920000 6.960000 -5.040000 153.427917 6.401609 23581.105469
-0.920000 6.960000 -5.000000 146.829025 106.339745 32866.902344
-0.920000 6.960000 -4.960000 63.573387 172.743774 33881.988281
-0.920000 6.960000 -4.920000 -40.135513 156.806427 26199.115234
-0.920000 6.960000 -4.880000 -92.773109 76.615021 14476.710938
-0.920000 6.960000 -4.840000 -69.636589 -1.459656 4851.384766
-0.920000 6.960000 -4.800000 -9.113071 -23.849524 651.847839
-0.920000 7.000000 -5.200000 -8.413980 42.423943 1870.585938
-0.920000 7.000000 -5.160000 -13.221806 -7.902548 237.266418
-0.920000 7.000000 -5.120000 38.003708 -41.893158 3199.318604
-0.920000 7.000000 -5.080000 108.159218 -12.040500 11843.389648
-0.920000 7.000000 -5.040000 131.502991 75.925613 23057.736328
-0.920000 7.000000 -5.000000 73.782715 160.200012 31107.931641
-0.920000 7.000000 -4.960000 -32.364723 174.739319 31581.304688
-0.920000 7.000000 -4.920000 -113.323944 108.032883 24513.419922
-0.920000 7.000000 -4.880000 -118.241776 12.391775 14134.672852
-0.920000 7.000000 -4.840000 -60.003887 -44.356594 5567.974121
-0.920000 7.000000 -4.800000 3.549656 -36.915016 1375.318481
-0.920000 7.040000 -5.200000 -30.443844 16.715387 1206.231812
-0.920000 7.040000 -5.160000 -4.973330 -23.905983 596.230042
-0.920000 7.040000 -5.120000 52.678131 -23.438160 3324.333008
-0.920000 7.040000 -5.080000 92.224640 33.660362 9638.404297
-0.920000 7.040000 -5.040000 68.792656 111.140678 17084.679688
-0.920000 7.040000 -5.000000 -13.104694 147.518021 21933.298828
-0.920000 7.040000 -4.960000 -98.690399 109.610008 21754.148438
-0.920000 7.040000 -4.920000 -128.591049 22.567472 17044.949219
-0.920000 7.040000 -4.880000 -88.638893 -52.462856 10609.205078
-0.920000 7.040000 -4.840000 -17.564713 -71.109535 5365.084961
-0.920000 7.040000 -4.800000 31.747375 -38.761940 2510.383789
-0.920000 7.080000 -5.200000 -20.365381 -9.417944 503.446411
-0.920000 7.080000 -5.160000 14.618962 -22.067955 700.708679
-0.920000 7.080000 -5.120000 50.883614 3.539835 2601.672607
-0.920000 7.080000 -5.080000 52.381760 55.946503 5873.859863
-0.920000 7.080000 -5.040000 6.702572 95.159096 9100.178711
-0.920000 7.080000 -5.000000 -58.954254 85.219688 10738.000000
-0.920000 7.080000 -4.960000 -97.489182 26.830109 10223.995117
-0.920000 7.080000 -4.920000 -80.947235 -41.408985 8267.159180
-0.920000 7.080000 -4.880000 -22.958391 -74.953445 6145.106934
-0.920000 7.080000 -4.840000 35.365940 -58.712097 4697.860352
-0.920000 7.080000 -4.800000 60.904335 -14.051472 3906.781982
-0.920000 7.120000 -5.200000 3.054338 -10.607924 121.857040
-0.920000 7.120000 -5.160000 23.215816 -2.783464 546.721802
-0.920000 7.120000 -5.120000 31.350739 21.659811 1452.016235
-0.920000 7.120000 -5.080000 15.215477 47.052464 2445.445068
-0.920000 7.120000 -5.040000 -19.020847 51.288826 2992.336426
-0.920000 7.120000 -5.000000 -47.539326 25.044014 2887.190186
-0.920000 7.120000 -4.960000 -46.686501 -17.436352 2483.655762
-0.920000 7.120000 -4.920000 -12.907623 -47.539974 2426.655762
-0.920000 7.120000 -4.880000 33.522964 -44.413952 3096.388184
-0.920000 7.120000 -4.840000 64.497925 -10.483892 4269.894531
-0.920000 7.120000 -4.800000 65.068253 32.774048 5308.015625
-0.920000 7.160000 -5.200000 11.396317 8.633913 204.420502
-0.920000 7.160000 -5.160000 11.694239 14.811054 356.122559
-0.920000 7.160000 -5.120000 8.461876 20.894886 508.199585
-0.920000 7.160000 -5.080000 0.689049 23.701851 562.252502
-0.920000 7.160000 -5.040000 -8.253817 18.493332 410.128815
-0.920000 7.160000 -5.000000 -10.042265 5.036129 126.209679
-0.920000 7.160000 -4.960000 2.159294 -8.294659 73.463913
-0.920000 7.160000 -4.920000 25.552464 -8.662649 727.969910
-0.920000 7.160000 -4.880000 46.675205 10.816785 2295.577637
-0.920000 7.160000 -4.840000 50.243927 43.803879 4443.231934
-0.920000 7.160000 -4.800000 30.713346 73.998077 6419.024902
-0.920000 7.200000 -5.200000 -3.251930 23.034317 541.154846
-0.920000 7.200000 -5.160000 -7.680328 14.759063 276.817383
-0.920000 7.200000 -5.120000 -2.551051 8.101688 72.145218
-0.920000 7.200000 -5.080000 5.450551 8.976795 110.291359
-0.920000 7.200000 -5.040000 9.703371 14.489738 304.107910
-0.920000 7.200000 -5.000000 10.841480 19.056005 480.669037
-0.920000 7.200000 -4.960000 13.840595 22.851669 713.760864
-0.920000 7.200000 -4.920000 19.057808 32.037239 1389.584717
-0.920000 7.200000 -4.880000 18.612595 50.073750 2853.809082
-0.920000 7.200000 -4.840000 3.366856 70.313416 4955.312500
-0.920000 7.200000 -4.800000 -26.504158 79.146118 6966.578125
-0.880000 6.800000 -5.200000 -34.239941 -38.427578 2649.052246
-0.880000 6.800000 -5.160000 -7.397120 -53.240349 2889.251953
-0.880000 6.800000 -5.120000 23.439724 -47.243530 2781.371826
-0.880000 6.800000 -5.080000 42.446625 -24.103889 2382.713379
-0.880000 6.800000 -5.040000 42.716793 2.495509 1830.951904
-0.880000 6.800000 -5.000000 29.560322 20.206825 1282.128418
-0.880000 6.800000 -4.960000 13.272158 25.921452 848.071777
-0.880000 6.800000 -4.920000 0.168218 23.739159 563.575989
-0.880000 6.800000 -4.880000 -9.183113 17.624779 394.962372
-0.880000 6.800000 -4.840000 -14.913889 8.116442 288.300720
-0.880000 6.800000 -4.800000 -14.241959 -4.025926 219.041473
-0.880000 6.840000 -5.200000 3.982172 -45.834389 2116.648926
-0.880000 6.840000 -5.160000 20.627249 -41.222279 2124.759766
-0.880000 6.840000 -5.120000 32.091328 -32.270233 2071.221191
-0.880000 6.840000 -5.080000 40.268867 -22.178402 2113.463135
-0.880000 6.840000 -5.040000 46.848965 -9.341842 2282.095459
-0.880000 6.840000 -5.000000 48.298466 8.553543 2405.904785
-0.880000 6.840000 -4.960000 38.264046 27.582253 2224.917969
-0.880000 6.840000 -4.920000 16.292877 36.982689 1633.177124
-0.880000 6.840000 -4.880000 -6.887600 28.111551 837.698364
-0.880000 6.840000 -4.840000 -15.487740 4.963656 264.507965
-0.880000 6.840000 -4.800000 -2.511095 -15.675822 252.037003
-0.880000 6.880000 -5.200000 31.794970 -21.291477 1464.247070
-0.880000 6.880000 -5.160000 27.394434 -15.935526 1004.395996
-0.880000 6.880000 -5.120000 28.491669 -22.608295 1322.910156
-0.880000 6.880000 -5.080000 45.644638 -27.382336 2833.225342
-0.880000 6.880000 -5.040000 69.998528 -12.293144 5050.915527
-0.880000 6.880000 -5.000000 78.436562 23.912437 6724.099121
-0.880000 6.880000 -4.960000 55.927330 59.660900 6687.289062
-0.880000 6.880000 -4.920000 13.253401 68.026382 4803.241699
-0.880000 6.880000 -4.880000 -19.333153 42.421848 2173.384033
-0.880000 6.880000 -4.840000 -18.539656 4.857155 367.310791
-0.880000 6.880000 -4.800000 10.465643 -12.784342 272.969055
-0.880000 6.920000 -5.200000 28.742077 12.212696 975.256958
-0.880000 6.920000 -5.160000 14.008942 -0.724642 196.775543
-0.880000 6.920000 -5.120000 26.012125 -24.031618 1254.149414
-0.880000 6.920000 -5.080000 63.721951 -25.660461 4718.946289
-0.880000 6.920000 -5.040000 95.945229 11.646038 9341.117188
-0.880000 6.920000 -5.000000 88.443001 69.017204 12585.539062
-0.880000 6.920000 -4.960000 37.964775 104.669807 12397.092773
-0.880000 6.920000 -4.920000 -21.245070 91.430908 8810.963867
-0.880000 6.920000 -4.880000 -46.906822 42.515312 4007.801758
-0.880000 6.920000 -4.840000 -26.494209 -0.231369 701.996643
-0.880000 6.920000 -4.800000 13.064611 -4.533573 191.237350
-0.880000 6.960000 -5.200000 3.173625 26.391895 706.604065
-0.880000 6.960000 -5.160000 0.028667 -5.190535 26.942471
-0.880000 6.960000 -5.120000 34.556473 -26.373199 1889.695435
-0.880000 6.960000 -5.080000 81.907730 -4.387811 6728.129395
-0.880000 6.960000 -5.040000 97.062469 57.034988 12674.113281
-0.880000 6.960000 -5.000000 56.667595 115.316513 16509.115234
-0.880000 6.960000 -4.960000 -16.180710 125.146469 15923.454102
-0.880000 6.960000 -4.920000 -70.217751 79.655304 11275.500000
-0.880000 6.960000 -4.880000 -71.102844 16.589895 5330.838867
-0.880000 6.960000 -4.840000 -30.158161 -16.508095 1182.031860
-0.880000 6.960000 -4.800000 9.850986 -3.919995 112.408295
-0.880000 7.000000 -5.200000 -18.153032 14.351866 535.508667
-0.880000 7.000000 -5.160000 1.626125 -17.259876 300.547607
-0.880000 7.000000 -5.120000 47.979988 -16.263786 2566.590088
-0.880000 7.000000 -5.080000 80.265091 30.693872 7384.598633
-0.880000 7.000000 -5.040000 61.818077 94.634827 12777.224609
-0.880000 7.000000 -5.000000 -3.962088 125.911072 15869.295898
-0.880000 7.000000 -4.960000 -72.983208 97.920624 14914.997070
-0.880000 7.000000 -4.920000 -97.919060 31.269699 10565.936523
-0.880000 7.000000 -4.880000 -68.476616 -25.009472 5314.520508
-0.880000 7.000000 -4.840000 -16.801132 -36.597908 1621.684937
-0.880000 7.000000 -4.800000 14.916979 -10.070019 323.921539
-0.880000 7.040000 -5.200000 -17.567274 -5.567999 339.611755
-0.880000 7.040000 -5.160000 15.123453 -18.407480 567.554199
-0.880000 7.040000 -5.120000 50.410137 6.006176 2577.256104
-0.880000 7.040000 -5.080000 52.682816 57.265404 6054.805664
-0.880000 7.040000 -5.040000 9.374792 96.848717 9467.560547
-0.880000 7.040000 -5.000000 -53.798935 90.279640 11044.739258
-0.880000 7.040000 -4.960000 -92.553925 38.219666 10026.971680
-0.880000 7.040000 -4.920000 -81.331818 -23.362579 7160.674805
-0.880000 7.040000 -4.880000 -33.385754 -54.133171 4045.008789
-0.880000 7.040000 -4.840000 13.908658 -41.885307 1947.829834
-0.880000 7.040000 -4.800000 32.310009 -7.221817 1096.091309
-0.880000 7.080000 -5.200000 -2.401433 -11.228200 131.839355
-0.880000 7.080000 -5.160000 22.908714 -4.448520 544.598511
-0.880000 7.080000 -5.120000 34.417458 24.993423 1809.232666
-0.880000 7.080000 -5.080000 15.624115 57.060318 3499.992920
-0.880000 7.080000 -5.040000 -25.911388 64.161774 4788.133301
-0.880000 7.080000 -5.000000 -61.588043 35.443325 5049.316406
-0.880000 7.080000 -4.960000 -64.646439 -12.133789 4326.391113
-0.880000 7.080000 -4.920000 -32.246868 -46.950817 3244.239746
-0.880000 7.080000 -4.880000 13.238065 -48.035645 2482.669434
-0.880000 7.080000 -4.840000 43.677254 -19.564465 2290.470703
-0.880000 7.080000 -4.800000 46.405151 16.758896 2434.298584
-0.880000 7.120000 -5.200000 6.009551 0.267697 36.186367
-0.880000 7.120000 -5.160000 14.009673 10.632658 309.324341
-0.880000 7.120000 -5.120000 10.421507 25.996529 784.427307
-0.880000 7.120000 -5.080000 -6.335693 34.028824 1198.101807
-0.880000 7.120000 -5.040000 -25.824213 24.865765 1285.196289
-0.880000 7.120000 -5.000000 -32.228447 1.132915 1039.956299
-0.880000 7.120000 -4.960000 -17.203911 -21.991013 779.579224
-0.880000 7.120000 -4.920000 12.504417 -27.683432 922.732849
-0.880000 7.120000 -4.880000 39.544556 -10.105646 1665.895996
-0.880000 7.120000 -4.840000 48.455318 21.933985 2829.017578
-0.880000 7.120000 -4.800000 35.386726 52.308754 3988.426270
-0.880000 7.160000 -5.200000 -3.254942 11.800400 149.844086
-0.880000 7.160000 -5.160000 -3.749431 10.963308 134.252365
-0.880000 7.160000 -5.120000 -3.393864 10.707335 126.165344
-0.880000 7.160000 -5.080000 -3.729963 10.332920 120.681862
-0.880000 7.160000 -5.040000 -3.653092 7.753468 73.461342
-0.880000 7.160000 -5.000000 0.566866 3.575317 13.104231
-0.880000 7.160000 -4.960000 10.953369 2.941146 128.626633
-0.880000 7.160000 -4.920000 23.544634 12.096564 700.676636
-0.880000 7.160000 -4.880000 29.219761 32.172997 1888.896118
-0.880000 7.160000 -4.840000 19.936264 56.088448 3543.368652
-0.880000 7.160000 -4.800000 -4.713532 72.039856 5211.958008
-0.880000 7.200000 -5.200000 -19.504999 6.853019 427.408875
-0.880000 7.200000 -5.160000 -12.754385 -3.572043 175.433823
-0.880000 7.200000 -5.120000 0.392085 -4.653181 21.805824
-0.880000 7.200000 -5.080000 10.170062 4.128748 120.476723
-0.880000 7.200000 -5.040000 11.768475 15.757814 386.805725
-0.880000 7.200000 -5.000000 8.401258 24.122211 652.462280
-0.880000 7.200000 -4.960000 5.409302 30.039368 931.624146
-0.880000 7.200000 -4.920000 2.659826 38.463127 1486.486816
-0.880000 7.200000 -4.880000 -5.935898 50.439293 2579.357178
-0.880000 7.200000 -4.840000 -25.103601 59.220982 4137.315430
-0.880000 7.200000 -4.800000 -51.155422 55.269547 5671.599609
-0.840000 6.800000 -5.200000 -5.449408 -30.202408 941.881470
-0.840000 6.800000 -5.160000 17.197248 -27.738632 1065.177002
-0.840000 6.800000 -5.120000 33.643379 -10.854904 1249.705933
-0.840000 6.800000 -5.080000 35.565708 12.256204 1415.134033
-0.840000 6.800000 -5.040000 23.316704 30.279980 1460.545898
-0.840000 6.800000 -5.000000 4.615812 36.351402 1342.730103
-0.840000 6.800000 -4.960000 -11.760770 31.048592 1102.330688
-0.840000 6.800000 -4.920000 -21.105547 19.379051 820.991760
-0.840000 6.800000 -4.880000 -22.905939 6.155675 562.574402
-0.840000 6.800000 -4.840000 -18.039589 -5.536625 356.080994
-0.840000 6.800000 -4.800000 -7.552936 -12.842604 221.979309
-0.840000 6.840000 -5.200000 13.182005 -22.611723 685.055298
-0.840000 6.840000 -5.160000 23.132580 -13.972714 730.353027
-0.840000 6.840000 -5.120000 27.704735 -2.431027 773.462219
-0.840000 6.840000 -5.080000 26.946705 9.370377 813.928833
-0.840000 6.840000 -5.040000 21.236229 19.750193 841.047485
-0.840000 6.840000 -5.000000 10.718038 26.534693 818.966248
-0.840000 6.840000 -4.960000 -2.832220 26.343327 701.992310
-0.840000 6.840000 -4.920000 -14.099798 16.938143 485.705017
-0.840000 6.840000 -4.880000 -15.915190 1.210260 254.757980
-0.840000 6.840000 -4.840000 -4.915955 -11.908560 165.980408
-0.840000 6.840000 -4.800000 13.676697 -12.626439 346.479004
-0.840000 6.880000 -5.200000 17.600449 -5.891585 344.486572
-0.840000 6.880000 -5.160000 16.940855 -4.242998 304.995605
-0.840000 6.880000 -5.120000 21.054745 -4.511057 463.651917
-0.840000 6.880000 -5.080000 29.307619 0.934952 859.810669
-0.840000 6.880000 -5.040000 33.187210 15.237690 1333.578125
-0.840000 6.880000 -5.000000 24.493460 31.286171 1578.754028
-0.840000 6.880000 -4.960000 5.298953 36.536591 1363.001343
-0.840000 6.880000 -4.920000 -11.186091 25.155966 757.951294
-0.840000 6.880000 -4.880000 -11.459293 5.622781 162.931061
-0.840000 6.880000 -4.840000 5.162200 -4.927287 50.926468
-0.840000 6.880000 -4.800000 24.270140 4.364004 608.084229
-0.840000 6.920000 -5.200000 8.420809 4.187992 88.449295
-0.840000 6.920000 -5.160000 9.445562 -5.897365 123.997566
-0.840000 6.920000 -5.120000 24.384205 -10.842920 712.158325
-0.840000 6.920000 -5.080000 42.590199 1.649658 1816.646362
-0.840000 6.920000 -5.040000 46.133850 28.629086 2947.956543
-0.840000 6.920000 -5.000000 27.119747 51.835709 3422.421387
-0.840000 6.920000 -4.960000 -2.847583 53.494606 2869.781494
-0.840000 6.920000 -4.920000 -21.669920 33.375759 1583.526733
-0.840000 6.920000 -4.880000 -16.722141 10.084832 381.333862
-0.840000 6.920000 -4.840000 3.359214 4.363549 30.324879
-0.840000 6.920000 -4.800000 16.733406 20.175779 687.068970
-0.840000 6.960000 -5.200000 -1.174921 1.200942 2.822700
-0.840000 6.960000 -5.160000 11.435720 -12.291157 281.848236
-0.840000 6.960000 -5.120000 36.111103 -8.314325 1373.139771
-0.840000 6.960000 -5.080000 52.069527 18.757536 3063.080811
-0.840000 6.960000 -5.040000 41.517021 53.353752 4570.286133
-0.840000 6.960000 -5.000000 7.407368 70.430565 5015.333496
-0.840000 6.960000 -4.960000 -27.271036 57.710777 4074.243408
-0.840000 6.960000 -4.920000 -39.257397 27.095011 2275.282715
-0.840000 6.960000 -4.880000 -25.328207 3.868587 656.484009
-0.840000 6.960000 -4.840000 -3.859407 3.930926 30.347202
-0.840000 6.960000 -4.800000 3.288494 20.847782 445.444214
-0.840000 7.000000 -5.200000 -0.527054 -6.474061 42.191246
-0.840000 7.000000 -5.160000 21.022457 -10.931570 561.442932
-0.840000 7.000000 -5.120000 42.599838 7.538525 1871.575562
-0.840000 7.000000 -5.080000 43.020058 41.742146 3593.132080
-0.840000 7.000000 -5.040000 15.519394 68.236229 4897.034668
-0.840000 7.000000 -5.000000 -23.973967 66.851410 5043.861816
-0.840000 7.000000 -4.960000 -49.338219 38.638439 3927.188721
-0.840000 7.000000 -4.920000 -46.313786 4.974106 2169.708496
-0.840000 7.000000 -4.880000 -23.509098 -11.290709 680.157776
-0.840000 7.000000 -4.840000 -2.699656 -4.589373 28.350481
-0.840000 7.000000 -4.800000 1.105083 11.718554 138.545700
-0.840000 7.040000 -5.200000 7.080166 -6.460072 91.861275
-0.840000 7.040000 -5.160000 25.545784 1.467503 654.740662
-0.840000 7.040000 -5.120000 32.791115 25.699333 1735.712891
-0.840000 7.040000 -5.080000 17.399239 51.183762 2922.510742
-0.840000 7.040000 -5.040000 -14.588007 58.268627 3608.042969
-0.840000 7.040000 -5.000000 -42.830574 39.755608 3414.966309
-0.840000 7.040000 -4.960000 -49.114410 7.639469 2470.586914
-0.840000 7.040000 -4.920000 -31.904110 -16.897394 1303.394165
-0.840000 7.040000 -4.880000 -6.051849 -20.585054 460.369354
-0.840000 7.040000 -4.840000 10.840762 -6.739325 162.940613
-0.840000 7.040000 -4.800000 11.862459 10.891184 259.335815
-0.840000 7.080000 -5.200000 9.074423 2.768351 90.008911
-0.840000 7.080000 -5.160000 16.202076 14.109507 461.585449
-0.840000 7.080000 -5.120000 11.358899 30.070404 1033.253784
-0.840000 7.080000 -5.080000 -6.255793 38.456772 1518.058228
-0.840000 7.080000 -5.040000 -26.342558 30.621780 1631.623779
-0.840000 7.080000 -5.000000 -34.994289 9.640339 1317.536499
-0.840000 7.080000 -4.960000 -25.806896 -11.422443 796.468140
-0.840000 7.080000 -4.920000 -4.662558 -19.509914 402.376190
-0.840000 7.080000 -4.880000 15.435755 -10.760500 354.050903
-0.840000 7.080000 -4.840000 23.958361 8.428822 645.048096
-0.840000 7.080000 -4.800000 18.546318 27.627674 1107.254272
-0.840000 7.120000 -5.200000 -1.002855 9.709837 95.286659
-0.840000 7.120000 -5.160000 -0.862656 13.365582 179.382935
-0.840000 7.120000 -5.120000 -4.612023 16.520222 294.188477
-0.840000 7.120000 -5.080000 -10.734363 15.197248 346.182861
-0.840000 7.120000 -5.040000 -14.247864 8.193481 270.134766
-0.840000 7.120000 -5.000000 -10.553231 -0.790812 111.996071
-0.840000 7.120000 -4.960000 0.529360 -5.152386 26.827301
-0.840000 7.120000 -4.920000 13.877164 0.110308 192.587845
-0.840000 7.120000 -4.880000 21.927734 14.954386 704.459167
-0.840000 7.120000 -4.840000 18.903217 34.069237 1518.044556
-0.840000 7.120000 -4.800000 3.812145 49.468739 2461.688477
-0.840000 7.160000 -5.200000 -14.762906 2.883924 226.260406
-0.840000 7.160000 -5.160000 -9.781963 -1.858514 99.140877
-0.840000 7.160000 -5.120000 -2.682793 -1.997025 11.185483
-0.840000 7.160000 -5.080000 2.729044 1.878904 10.977962
-0.840000 7.160000 -5.040000 5.242162 6.885496 74.890320
-0.840000 7.160000 -5.000000 6.551474 11.328696 171.261169
-0.840000 7.160000 -4.960000 8.394543 16.572935 345.130524
-0.840000 7.160000 -4.920000 9.431776 25.321873 730.155640
-0.840000 7.160000 -4.880000 5.261271 37.783928 1455.306152
-0.840000 7.160000 -4.840000 -8.012825 49.452805 2509.785156
-0.840000 7.160000 -4.800000 -29.503021 52.983891 3677.720947
-0.840000 7.200000 -5.200000 -16.987347 -15.226365 520.412109
-0.840000 7.200000 -5.160000 -1.434577 -17.655334 313.768860
-0.840000 7.200000 -5.120000 12.194593 -8.243877 216.669632
-0.840000 7.200000 -5.080000 16.357466 7.267508 320.383362
-0.840000 7.200000 -5.040000 11.227840 20.456984 544.552612
-0.840000 7.200000 -5.000000 2.671310 27.574793 767.505127
-0.840000 7.200000 -4.960000 -4.691339 31.271400 999.909180
-0.840000 7.200000 -4.920000 -11.911401 35.588200 1408.401367
-0.840000 7.200000 -4.880000 -23.337753 40.042267 2148.033936
-0.840000 7.200000 -4.840000 -40.380630 39.120644 3161.020020
-0.840000 7.200000 -4.800000 -58.139301 27.587519 4141.249512
-0.800000 6.800000 -5.200000 4.691571 -10.704514 136.597443
-0.800000 6.800000 -5.160000 13.930379 -0.288198 194.138504
-0.800000 6.800000 -5.120000 14.984579 13.847374 416.287384
-0.800000 6.800000 -5.080000 7.172978 25.879332 721.191406
-0.800000 6.800000 -5.040000 -6.383701 30.844574 992.139404
-0.800000 6.800000 -5.000000 -20.244614 26.841034 1130.285522
-0.800000 6.800000 -4.960000 -29.167692 15.642335 1095.436890
-0.800000 6.800000 -4.920000 -30.169735 1.562670 912.654846
-0.800000 6.800000 -4.880000 -23.307602 -10.472138 652.910034
-0.800000 6.800000 -4.840000 -11.203827 -16.589207 400.727509
-0.800000 6.800000 -4.800000 1.943753 -15.001066 228.810150
-0.800000 6.840000 -5.200000 5.152161 -7.959061 89.891411
-0.800000 6.840000 -5.160000 8.215654 -0.628746 67.892303
-0.800000 6.840000 -5.120000 6.885721 7.445399 102.847130
-0.800000 6.840000 -5.080000 0.896135 13.547064 184.325989
-0.800000 6.840000 -5.040000 -8.068062 14.723027 281.861145
-0.800000 6.840000 -5.000000 -16.228670 9.469544 353.041992
-0.800000 6.840000 -4.960000 -19.128712 -0.711959 366.414520
-0.800000 6.840000 -4.920000 -14.106431 -11.260088 325.780975
-0.800000 6.840000 -4.880000 -2.291179 -16.470303 276.520386
-0.800000 6.840000 -4.840000 11.297695 -12.549507 285.128052
-0.800000 6.840000 -4.800000 19.986229 -0.065053 399.453583
-0.800000 6.880000 -5.200000 4.302791 -9.502283 108.807388
-0.800000 6.880000 -5.160000 7.257258 -7.225945 104.882080
-0.800000 6.880000 -5.120000 9.233468 -3.047916 94.546730
-0.800000 6.880000 -5.080000 8.302061 1.899107 72.530823
-0.800000 6.880000 -5.040000 4.332891 4.704713 40.908268
-0.800000 6.880000 -5.000000 0.136818 3.151952 9.953520
-0.800000 6.880000 -4.960000 -0.156737 -1.704742 2.930713
-0.800000 6.880000 -4.920000 5.503783 -5.312851 58.518021
-0.800000 6.880000 -4.880000 14.595712 -2.504310 219.306366
-0.800000 6.880000 -4.840000 20.832981 8.414248 504.812653
-0.800000 6.880000 -4.800000 18.135544 23.527525 882.442383
-0.800000 6.920000 -5.200000 8.363819 -13.485245 251.805298
-0.800000 6.920000 -5.160000 15.459361 -12.037776 383.899902
-0.800000 6.920000 -5.120000 21.407576 -5.770116 491.578552
-0.800000 6.920000 -5.080000 22.698214 3.173902 525.282593
-0.800000 6.920000 -5.040000 18.941097 10.477607 468.545410
-0.800000 6.920000 -5.000000 13.476404 13.271952 357.758179
-0.800000 6.920000 -4.960000 10.578523 12.749828 274.463257
-0.800000 6.920000 -4.920000 11.515564 13.276665 308.878052
-0.800000 6.920000 -4.880000 13.048100 18.480448 511.779846
-0.800000 6.920000 -4.840000 9.815379 27.626713 859.576965
-0.800000 6.920000 -4.800000 -1.128989 35.372395 1252.480957
-0.800000 6.960000 -5.200000 17.975540 -12.328279 475.106537
-0.800000 6.960000 -5.160000 27.060232 -6.217873 770.918091
-0.800000 6.960000 -5.120000 31.720961 5.250661 1033.788818
-0.800000 6.960000 -5.080000 29.204945 17.753445 1168.113525
-0.800000 6.960000 -5.040000 20.982384 26.340893 1134.103027
-0.800000 6.960000 -5.000000 11.529504 29.089661 979.137817
-0.800000 6.960000 -4.960000 4.662807 28.114002 812.138855
-0.800000 6.960000 -4.920000 0.706755 27.199215 740.296814
-0.800000 6.960000 -4.880000 -3.163999 28.229345 806.906799
-0.800000 6.960000 -4.840000 -9.850561 29.563248 971.019165
-0.800000 6.960000 -4.800000 -19.377026 27.560654 1135.058838
-0.800000 7.000000 -5.200000 25.211792 -1.380529 637.540344
-0.800000 7.000000 -5.160000 30.063133 9.524487 994.507812
-0.800000 7.000000 -5.120000 28.155222 22.382946 1293.712891
-0.800000 7.000000 -5.080000 19.674166 32.408234 1437.366333
-0.800000 7.000000 -5.040000 8.102368 36.501534 1398.010254
-0.800000 7.000000 -5.000000 -2.394690 34.997459 1230.556641
-0.800000 7.000000 -4.960000 -9.667167 30.575052 1028.287964
-0.800000 7.000000 -4.920000 -14.112500 25.743225 861.876282
-0.800000 7.000000 -4.880000 -17.165703 21.343491 750.205933
-0.800000 7.000000 -4.840000 -19.641233 16.922031 672.133179
-0.800000 7.000000 -4.800000 -21.351341 11.968578 599.126648
-0.800000 7.040000 -5.200000 20.601490 13.761747 613.807068
-0.800000 7.040000 -5.160000 18.233402 23.247009 872.880432
-0.800000 7.040000 -5.120000 11.107202 30.449818 1050.561279
-0.800000 7.040000 -5.080000 1.636780 33.111046 1099.020386
-0.800000 7.040000 -5.040000 -7.165925 31.293732 1030.648193
-0.800000 7.040000 -5.000000 -13.562014 26.662510 894.817688
-0.800000 7.040000 -4.960000 -17.288168 20.829153 732.734375
-0.800000 7.040000 -4.920000 -18.446785 14.744320 557.678833
-0.800000 7.040000 -4.880000 -16.988743 9.455357 378.021149
-0.800000 7.040000 -4.840000 -13.586596 6.547905 227.470673
-0.800000 7.040000 -4.800000 -10.421251 6.991165 157.478867
-0.800000 7.080000 -5.200000 3.938463 20.287748 427.104248
-0.800000 7.080000 -5.160000 -0.933473 22.194872 493.483704
-0.800000 7.080000 -5.120000 -5.595098 21.554604 495.906036
-0.800000 7.080000 -5.080000 -8.820758 19.396547 454.031799
-0.800000 7.080000 -5.040000 -10.668637 16.999422 402.800171
-0.800000 7.080000 -5.000000 -11.883812 14.647127 355.763306
-0.800000 7.080000 -4.960000 -12.405247 11.794705 293.005249
-0.800000 7.080000 -4.920000 -11.053473 8.753707 198.806641
-0.800000 7.080000 -4.880000 -7.376791 7.676295 113.342560
-0.800000 7.080000 -4.840000 -3.675234 10.897482 132.262451
-0.800000 7.080000 -4.800000 -4.256914 17.754326 333.337402
-0.800000 7.120000 -5.200000 -12.769882 10.109235 265.266510
-0.800000 7.120000 -5.160000 -11.527890 5.747497 165.925980
-0.800000 7.120000 -5.120000 -7.551602 3.653185 70.372459
-0.800000 7.120000 -5.080000 -3.366978 5.006071 36.397289
-0.800000 7.120000 -5.040000 -1.430148 8.627550 76.479950
-0.800000 7.120000 -5.000000 -2.149857 11.982155 148.193924
-0.800000 7.120000 -4.960000 -3.632712 13.612933 198.508545
-0.800000 7.120000 -4.920000 -3.854628 14.788729 233.564651
-0.800000 7.120000 -4.880000 -3.484850 18.266743 345.818054
-0.800000 7.120000 -4.840000 -6.228413 24.772322 652.461060
-0.800000 7.120000 -4.800000 -15.488165 30.657280 1179.752075
-0.800000 7.160000 -5.200000 -14.825058 -10.785765 336.115051
-0.800000 7.160000 -5.160000 -3.868745 -12.392715 168.546585
-0.800000 7.160000 -5.120000 5.950180 -6.518693 77.897995
-0.800000 7.160000 -5.080000 10.110195 3.799541 116.652557
-0.800000 7.160000 -5.040000 7.942277 13.637947 249.073364
-0.800000 7.160000 -5.000000 2.346729 19.826117 398.582031
-0.800000 7.160000 -4.960000 -3.215492 22.834854 531.769958
-0.800000 7.160000 -4.920000 -7.892208 25.328278 703.808594
-0.800000 7.160000 -4.880000 -13.955997 28.763706 1022.120605
-0.800000 7.160000 -4.840000 -24.105639 31.058426 1545.707520
-0.800000 7.160000 -4.800000 -37.850750 27.694201 2199.647949
-0.800000 7.200000 -5.200000 1.345787 -25.868288 670.979492
-0.800000 7.200000 -5.160000 15.671133 -16.104240 504.930969
-0.800000 7.200000 -5.120000 20.866158 0.388325 435.547302
-0.800000 7.200000 -5.080000 15.837924 15.545446 492.500732
-0.800000 7.200000 -5.040000 5.383968 24.184669 613.885376
-0.800000 7.200000 -5.000000 -4.865500 26.834866 743.783081
-0.800000 7.200000 -4.960000 -13.068745 27.193409 910.273560
-0.800000 7.200000 -4.920000 -21.272373 27.367870 1201.514160
-0.800000 7.200000 -4.880000 -31.730997 25.700104 1667.351562
-0.800000 7.200000 -4.840000 -43.426277 18.778315 2238.466553
-0.800000 7.200000 -4.800000 -52.127319 5.250299 2744.822998
