#kx 	ky 	kz 	real 	imag 	intensity
7.800000 1.800000 -2.200000 -23.696404 13.082097 732.660767
7.800000 1.800000 -2.160000 -21.140358 0.057092 446.917999
7.800000 1.800000 -2.120000 -15.381144 -2.786641 244.344940
7.800000 1.800000 -2.080000 -16.967926 -1.917278 291.586487
7.800000 1.800000 -2.040000 -22.608831 -8.790031 588.423950
7.800000 1.800000 -2.000000 -19.515572 -23.442938 930.428894
7.800000 1.800000 -1.960000 -2.536728 -32.284618 1048.731567
7.800000 1.800000 -1.920000 16.807261 -23.513651 835.375793
7.800000 1.800000 -1.880000 21.126875 -2.353665 451.884583
7.800000 1.800000 -1.840000 6.361092 12.383667 193.818695
7.800000 1.800000 -1.800000 -12.712387 7.690701 220.751648
7.800000 1.840000 -2.200000 -23.507320 -10.609223 665.149719
7.800000 1.840000 -2.160000 -12.660883 -20.645988 586.554810
7.800000 1.840000 -2.120000 -2.511063 -20.529135 427.750824
7.800000 1.840000 -2.080000 1.275992 -17.548428 309.575439
7.800000 1.840000 -2.040000 2.621593 -17.957243 329.335327
7.800000 1.840000 -2.000000 7.413126 -19.639919 440.680878
7.800000 1.840000 -1.960000 14.532460 -16.433750 481.260559
7.800000 1.840000 -1.920000 16.910896 -7.780089 346.508209
7.800000 1.840000 -1.880000 11.060280 -1.041747 123.415024
7.800000 1.840000 -1.840000 2.872820 -3.085761 17.775015
7.800000 1.840000 -1.800000 1.707469 -11.323174 131.129715
7.800000 1.880000 -2.200000 -7.523406 -25.535156 708.645813
7.800000 1.880000 -2.160000 8.591257 -28.303833 874.916626
7.800000 1.880000 -2.120000 21.060324 -21.237854 894.583679
7.800000 1.880000 -2.080000 25.706131 -10.258006 766.031860
7.800000 1.880000 -2.040000 23.415058 -0.816541 548.931702
7.800000 1.880000 -2.000000 17.056480 4.225445 308.777924
7.800000 1.880000 -1.960000 9.768345 3.652585 108.761940
7.800000 1.880000 -1.920000 5.408592 -2.338166 34.719887
7.800000 1.880000 -1.880000 7.846945 -10.434645 170.456360
7.800000 1.880000 -1.840000 17.367119 -14.119749 500.984131
7.800000 1.880000 -1.800000 27.962811 -8.153120 848.392151
7.800000 1.920000 -2.200000 11.871968 -24.007729 717.314697
7.800000 1.920000 -2.160000 27.913940 -17.481796 1084.801270
7.800000 1.920000 -2.120000 36.500538 -2.079791 1336.614868
7.800000 1.920000 -2.080000 33.127098 15.360436 1333.347656
7.800000 1.920000 -2.040000 18.776669 25.920082 1024.413940
7.800000 1.920000 -2.000000 1.069938 22.879885 524.633911
7.800000 1.920000 -1.960000 -8.441400 7.033402 120.725975
7.800000 1.920000 -1.920000 -1.661295 -11.366210 131.950638
7.800000 1.920000 -1.880000 18.563442 -18.081177 671.530334
7.800000 1.920000 -1.840000 38.221550 -5.743149 1493.870605
7.800000 1.920000 -1.800000 41.872997 18.751423 2104.963867
7.800000 1.960000 -2.200000 22.032499 -10.259954 590.697693
7.800000 1.960000 -2.160000 31.726168 3.687052 1020.144104
7.800000 1.960000 -2.120000 29.999292 22.383282 1400.968750
7.800000 1.960000 -2.080000 14.783691 36.222301 1530.612671
7.800000 1.960000 -2.040000 -7.456144 35.078388 1286.087402
7.800000 1.960000 -2.000000 -22.582388 16.488018 781.818970
7.800000 1.960000 -1.960000 -17.733570 -8.907587 393.824646
7.800000 1.960000 -1.920000 6.978696 -22.239670 543.305115
7.800000 1.960000 -1.880000 35.215912 -10.663146 1353.863037
7.800000 1.960000 -1.840000 45.310272 20.482380 2472.548584
7.800000 1.960000 -1.800000 27.831764 49.825314 3257.168945
7.800000 2.000000 -2.200000 18.423981 4.705641 361.586121
7.800000 2.000000 -2.160000 17.756802 19.645323 701.242737
7.800000 2.000000 -2.120000 5.586150 31.774197 1040.804565
7.800000 2.000000 -2.080000 -14.069736 31.929640 1217.459351
7.800000 2.000000 -2.040000 -29.515139 15.899256 1123.929810
7.800000 2.000000 -2.000000 -27.625019 -9.020121 844.504272
7.800000 2.000000 -1.960000 -5.116590 -25.543900 678.670288
7.800000 2.000000 -1.920000 25.086880 -18.381359 967.225952
7.800000 2.000000 -1.880000 40.852779 11.864135 1809.707275
7.800000 2.000000 -1.840000 27.922022 46.156792 2910.088867
7.800000 2.000000 -1.800000 -7.326969 60.531372 3717.731689
7.800000 2.040000 -2.200000 5.456561 11.460611 161.119659
7.800000 2.040000 -2.160000 -3.709137 18.973278 373.742981
7.800000 2.040000 -2.120000 -17.579111 17.316608 608.890076
7.800000 2.040000 -2.080000 -27.603163 4.191203 779.500732
7.800000 2.040000 -2.040000 -24.643267 -14.965646 831.261108
7.800000 2.040000 -2.000000 -6.110342 -27.728220 806.190491
7.800000 2.040000 -1.960000 19.104244 -22.187614 857.262329
7.800000 2.040000 -1.920000 34.057297 2.887310 1168.235962
7.800000 2.040000 -1.880000 25.464081 34.082344 1810.025635
7.800000 2.040000 -1.840000 -4.955634 51.110569 2636.848633
7.800000 2.040000 -1.800000 -39.877956 41.664116 3326.149902
7.800000 2.080000 -2.200000 -8.439019 6.951440 119.539566
7.800000 2.080000 -2.160000 -17.927786 2.086016 325.756989
7.800000 2.080000 -2.120000 -21.225464 -10.839465 568.014343
7.800000 2.080000 -2.080000 -12.985880 -24.593651 773.480713
7.800000 2.080000 -2.040000 4.957406 -29.508350 895.318604
7.800000 2.080000 -2.000000 23.579170 -19.687838 943.588257
7.800000 2.080000 -1.960000 31.384937 2.370065 990.631470
7.800000 2.080000 -1.920000 21.472397 25.999666 1137.046509
7.800000 2.080000 -1.880000 -3.398546 37.947067 1451.530029
7.800000 2.080000 -1.840000 -31.452471 30.380516 1912.233643
7.800000 2.080000 -1.800000 -48.531601 6.071530 2392.179932
7.800000 2.120000 -2.200000 -16.107183 -5.909616 294.364929
7.800000 2.120000 -2.160000 -16.068245 -20.280788 669.498901
7.800000 2.120000 -2.120000 -2.633141 -32.708591 1076.785400
7.800000 2.120000 -2.080000 18.734726 -31.881229 1367.402710
7.800000 2.120000 -2.040000 34.974426 -14.943457 1446.517334
7.800000 2.120000 -2.000000 35.212605 9.634398 1332.749146
7.800000 2.120000 -1.960000 18.651100 28.202986 1143.271973
7.800000 2.120000 -1.920000 -5.680043 31.365728 1016.071777
7.800000 2.120000 -1.880000 -25.896748 18.999401 1031.618774
7.800000 2.120000 -1.840000 -34.421028 -1.864795 1188.284546
7.800000 2.120000 -1.800000 -30.242405 -22.704720 1430.107300
7.800000 2.160000 -2.200000 -14.248993 -21.160557 650.802979
7.800000 2.160000 -2.160000 -0.070598 -35.504684 1260.587646
7.800000 2.160000 -2.120000 24.861200 -34.958580 1840.181641
7.800000 2.160000 -2.080000 44.117805 -14.244506 2149.286621
7.800000 2.160000 -2.040000 42.667961 15.731613 2068.038574
7.800000 2.160000 -2.000000 20.101339 35.786457 1684.734375
7.800000 2.160000 -1.960000 -8.854711 33.947449 1230.835205
7.800000 2.160000 -1.920000 -26.725708 14.138708 914.166565
7.800000 2.160000 -1.880000 -26.584375 -9.218299 791.706055
7.800000 2.160000 -1.840000 -14.363840 -24.111202 787.669983
7.800000 2.160000 -1.800000 -0.186685 -28.615898 818.904480
7.800000 2.200000 -2.200000 -3.770173 -32.535366 1072.764282
7.800000 2.200000 -2.160000 20.567469 -37.196693 1806.614746
7.800000 2.200000 -2.120000 44.446960 -19.827003 2368.642334
7.800000 2.200000 -2.080000 48.530529 12.472627 2510.778564
7.800000 2.200000 -2.040000 26.872887 38.334682 2191.699951
7.800000 2.200000 -2.000000 -6.336746 39.698952 1616.161011
7.800000 2.200000 -1.960000 -28.243832 17.207775 1093.821533
7.800000 2.200000 -1.920000 -26.332336 -11.213018 819.123779
7.800000 2.200000 -1.880000 -7.107788 -26.614267 758.839844
7.800000 2.200000 -1.840000 12.612391 -24.053221 737.629883
7.800000 2.200000 -1.800000 21.630854 -12.856392 633.180664
7.840000 1.800000 -2.200000 -16.753349 12.797754 444.457214
7.840000 1.800000 -2.160000 -19.832779 5.566913 424.329620
7.840000 1.800000 -2.120000 -22.080879 -1.680874 490.390564
7.840000 1.800000 -2.080000 -22.430965 -12.256018 653.358215
7.840000 1.800000 -2.040000 -15.066926 -24.795542 841.831177
7.840000 1.800000 -2.000000 1.756924 -30.478752 932.041138
7.840000 1.800000 -1.960000 19.169466 -21.485329 829.087769
7.840000 1.800000 -1.920000 23.537268 -1.846155 557.411255
7.840000 1.800000 -1.880000 10.407568 13.061964 278.932373
7.840000 1.800000 -1.840000 -8.889915 10.347178 186.094696
7.840000 1.800000 -1.800000 -16.884607 -7.128201 335.901215
7.840000 1.840000 -2.200000 -14.672993 -4.691434 237.306274
7.840000 1.840000 -2.160000 -7.301417 -12.728158 215.316711
7.840000 1.840000 -2.120000 2.382626 -14.182800 206.828735
7.840000 1.840000 -2.080000 9.937159 -10.319210 205.233215
7.840000 1.840000 -2.040000 13.588737 -3.783934 198.971954
7.840000 1.840000 -2.000000 12.828522 3.249232 175.128479
7.840000 1.840000 -1.960000 7.551823 8.219439 124.589203
7.840000 1.840000 -1.920000 -0.366532 7.846397 61.700298
7.840000 1.840000 -1.880000 -5.958187 0.814692 36.163715
7.840000 1.840000 -1.840000 -4.086605 -9.127405 100.009865
7.840000 1.840000 -1.800000 5.254549 -14.658070 242.469299
7.840000 1.880000 -2.200000 -1.820115 -13.635527 189.240402
7.840000 1.880000 -2.160000 14.940191 -12.801950 387.099243
7.840000 1.880000 -2.120000 27.098972 1.975719 738.257751
7.840000 1.880000 -2.080000 24.274189 22.814621 1109.743164
7.840000 1.880000 -2.040000 5.931625 35.813431 1317.786011
7.840000 1.880000 -2.000000 -17.102898 31.134964 1261.895020
7.840000 1.880000 -1.960000 -29.825996 10.724216 1004.598877
7.840000 1.880000 -1.920000 -23.848249 -12.538293 725.947815
7.840000 1.880000 -1.880000 -3.562817 -23.937992 585.721130
7.840000 1.880000 -1.840000 17.178314 -17.521313 602.090881
7.840000 1.880000 -1.800000 25.463877 -0.014425 648.409180
7.840000 1.920000 -2.200000 11.074275 -9.912908 220.905304
7.840000 1.920000 -2.160000 27.460926 5.904709 788.968079
7.840000 1.920000 -2.120000 25.998512 34.560535 1870.353271
7.840000 1.920000 -2.080000 -0.519306 56.301514 3170.130127
7.840000 1.920000 -2.040000 -39.205585 51.053589 4143.546875
7.840000 1.920000 -2.000000 -63.880234 16.472588 4352.030273
7.840000 1.920000 -1.960000 -55.266029 -26.939472 3780.069092
7.840000 1.920000 -1.920000 -17.717575 -50.234020 2837.369141
7.840000 1.920000 -1.880000 23.007137 -38.822208 2036.492188
7.840000 1.920000 -1.840000 40.037605 -3.936993 1618.509766
7.840000 1.920000 -1.800000 26.341785 27.417168 1445.590820
7.840000 1.960000 -2.200000 14.850114 1.055472 221.639908
7.840000 1.960000 -2.160000 18.530350 27.497528 1099.487915
7.840000 1.960000 -2.120000 -4.813135 53.753685 2912.625000
7.840000 1.960000 -2.080000 -48.304729 54.187141 5269.593262
7.840000 1.960000 -2.040000 -83.400192 17.474125 7260.937500
7.840000 1.960000 -2.000000 -80.678032 -38.626049 8000.916504
7.840000 1.960000 -1.960000 -35.908070 -77.112076 7235.662109
7.840000 1.960000 -1.920000 22.927994 -70.677696 5521.029785
7.840000 1.960000 -1.880000 56.413593 -24.831524 3799.097900
7.840000 1.960000 -1.840000 45.172409 26.233232 2728.729004
7.840000 1.960000 -1.800000 4.150978 47.924103 2313.950439
7.840000 2.000000 -2.200000 8.039209 9.563428 156.088043
7.840000 2.000000 -2.160000 -5.650721 33.114662 1128.511475
7.840000 2.000000 -2.120000 -41.912773 39.273399 3299.080566
7.840000 2.000000 -2.080000 -78.520615 10.550570 6276.801270
7.840000 2.000000 -2.040000 -83.662354 -44.405960 8971.278320
7.840000 2.000000 -2.000000 -43.388817 -91.147362 10190.431641
7.840000 2.000000 -1.960000 21.848848 -94.662231 9438.310547
7.840000 2.000000 -1.920000 69.630234 -49.295689 7278.434570
7.840000 2.000000 -1.880000 68.731346 14.311262 4928.810059
7.840000 2.000000 -1.840000 24.171112 53.124283 3406.432129
7.840000 2.000000 -1.800000 -28.349747 45.835415 2904.593262
7.840000 2.040000 -2.200000 -3.429382 8.769127 88.658249
7.840000 2.040000 -2.160000 -26.373568 16.701096 974.491699
7.840000 2.040000 -2.120000 -55.036293 -0.890440 3029.786621
7.840000 2.040000 -2.080000 -63.390099 -43.441166 5905.439453
7.840000 2.040000 -2.040000 -33.678513 -86.224625 8568.927734
7.840000 2.040000 -2.000000 24.178795 -96.234329 9845.660156
7.840000 2.040000 -1.960000 75.026779 -59.711170 9194.441406
7.840000 2.040000 -1.920000 84.273041 3.218810 7112.306152
7.840000 2.040000 -1.880000 45.924839 51.920055 4804.783203
7.840000 2.040000 -1.840000 -12.174227 56.599148 3351.675293
7.840000 2.040000 -1.800000 -51.010910 20.444372 3020.085449
7.840000 2.080000 -2.200000 -11.117252 -1.520784 125.906082
7.840000 2.080000 -2.160000 -27.994038 -10.770638 899.672791
7.840000 2.080000 -2.120000 -33.487556 -37.834511 2552.866699
7.840000 2.080000 -2.080000 -13.023798 -67.664246 4748.069336
7.840000 2.080000 -2.040000 29.897945 -76.065247 6679.809082
7.840000 2.080000 -2.000000 71.347496 -49.088322 7500.128906
7.840000 2.080000 -1.960000 82.889786 2.554441 6877.242188
7.840000 2.080000 -1.920000 54.065739 48.321251 5258.047363
7.840000 2.080000 -1.880000 2.078237 59.863060 3587.905029
7.840000 2.080000 -1.840000 -40.512909 32.171364 2676.292480
7.840000 2.080000 -1.800000 -49.961243 -13.930515 2690.185059
7.840000 2.120000 -2.200000 -9.361012 -15.702373 334.193054
7.840000 2.120000 -2.160000 -9.612112 -31.200954 1065.892334
7.840000 2.120000 -2.120000 6.280406 -47.167252 2264.193115
7.840000 2.120000 -2.080000 35.355083 -48.274483 3580.407715
7.840000 2.120000 -2.040000 61.770882 -26.104050 4497.063477
7.840000 2.120000 -2.000000 66.958809 11.854168 4624.003418
7.840000 2.120000 -1.960000 43.874695 45.105679 3959.511230
7.840000 2.120000 -1.920000 3.651571 53.866119 2914.892822
7.840000 2.120000 -1.880000 -31.251091 33.039711 2068.253174
7.840000 2.120000 -1.840000 -42.252777 -4.557868 1806.071289
7.840000 2.120000 -1.800000 -26.240986 -37.792950 2116.896484
7.840000 2.160000 -2.200000 1.963855 -26.089943 684.541870
7.840000 2.160000 -2.160000 16.295181 -33.505436 1388.147217
7.840000 2.160000 -2.120000 37.211243 -27.962862 2166.598145
7.840000 2.160000 -2.080000 51.666176 -6.369072 2709.958984
7.840000 2.160000 -2.040000 47.914009 22.268845 2791.653564
7.840000 2.160000 -2.000000 25.081257 42.209946 2410.749023
7.840000 2.160000 -1.960000 -5.440996 42.029510 1796.084229
7.840000 2.160000 -1.920000 -27.772524 22.223139 1265.181030
7.840000 2.160000 -1.880000 -31.751797 -6.122660 1045.663574
7.840000 2.160000 -1.840000 -17.813866 -29.339497 1178.139893
7.840000 2.160000 -1.800000 5.688584 -38.876198 1543.718750
7.840000 2.200000 -2.200000 17.715435 -27.131992 1049.981689
7.840000 2.200000 -2.160000 35.044716 -19.981562 1627.394897
7.840000 2.200000 -2.120000 44.627724 0.931706 1992.501709
7.840000 2.200000 -2.080000 36.460522 25.421991 1975.647217
7.840000 2.200000 -2.040000 12.580870 38.187214 1616.541626
7.840000 2.200000 -2.000000 -13.390657 30.937645 1136.447632
7.840000 2.200000 -1.960000 -26.590691 8.778431 784.125671
7.840000 2.200000 -1.920000 -21.648815 -14.575599 681.119263
7.840000 2.200000 -1.880000 -4.614082 -27.583496 782.138977
7.840000 2.200000 -1.840000 14.079917 -27.636276 962.007874
7.840000 2.200000 -1.800000 27.674042 -19.149042 1132.538452
7.880000 1.800000 -2.200000 -15.487813 21.282516 692.817871
7.880000 1.800000 -2.160000 -26.846195 11.018688 842.129700
7.880000 1.800000 -2.120000 -29.900608 -6.333855 934.164124
7.880000 1.800000 -2.080000 -20.135387 -23.291950 947.948792
7.880000 1.800000 -2.040000 -0.395351 -29.540804 872.815430
7.880000 1.800000 -2.000000 17.974560 -19.759436 713.520142
7.880000 1.800000 -1.960000 22.359043 -0.182621 499.960175
7.880000 1.800000 -1.920000 9.895536 14.218578 300.089600
7.880000 1.800000 -1.880000 -8.438421 11.762135 209.554764
7.880000 1.800000 -1.840000 -16.383512 -5.175247 295.202667
7.880000 1.800000 -1.800000 -6.798057 -21.762285 519.810608
7.880000 1.840000 -2.200000 -16.985834 7.134905 339.425415
7.880000 1.840000 -2.160000 -12.106216 -2.684830 153.768784
7.880000 1.840000 -2.120000 -1.671646 -4.380402 21.982319
7.880000 1.840000 -2.080000 5.489594 3.190382 40.314175
7.880000 1.840000 -2.040000 3.074898 13.775885 199.229996
7.880000 1.840000 -2.000000 -7.962490 18.445015 403.619812
7.880000 1.840000 -1.960000 -19.967184 12.169704 546.790161
7.880000 1.840000 -1.920000 -23.989641 -2.371841 581.128479
7.880000 1.840000 -1.880000 -16.206421 -16.501799 534.957397
7.880000 1.840000 -1.840000 -0.760594 -21.672131 470.259735
7.880000 1.840000 -1.800000 13.288547 -15.631538 420.930450
7.880000 1.880000 -2.200000 -9.680271 -1.713271 96.642944
7.880000 1.880000 -2.160000 5.144093 4.111794 43.368534
7.880000 1.880000 -2.120000 8.019512 25.161087 697.392883
7.880000 1.880000 -2.080000 -11.655041 44.194641 2089.006348
7.880000 1.880000 -2.040000 -44.634827 41.038601 3676.434570
7.880000 1.880000 -2.000000 -67.464828 11.232315 4677.667969
7.880000 1.880000 -1.960000 -61.762951 -28.250053 4612.727539
7.880000 1.880000 -1.920000 -29.950726 -52.102577 3611.724365
7.880000 1.880000 -1.880000 6.783621 -47.048752 2259.602539
7.880000 1.880000 -1.840000 26.172817 -21.413979 1143.574829
7.880000 1.880000 -1.800000 22.062029 3.817721 501.308105
7.880000 1.920000 -2.200000 -1.492342 -1.861702 5.693019
7.880000 1.920000 -2.160000 5.628220 23.278021 573.543152
7.880000 1.920000 -2.120000 -18.198441 51.808189 3015.271484
7.880000 1.920000 -2.080000 -66.768372 51.791721 7140.397949
7.880000 1.920000 -2.040000 -106.324142 8.753273 11381.443359
7.880000 1.920000 -2.000000 -102.425583 -56.450424 13677.650391
7.880000 1.920000 -1.960000 -51.120094 -101.325684 12880.158203
7.880000 1.920000 -1.920000 15.285933 -96.437408 9533.833984
7.880000 1.920000 -1.880000 54.330021 -49.728127 5424.637695
7.880000 1.920000 -1.840000 47.810284 1.810366 2289.100586
7.880000 1.920000 -1.800000 13.419783 24.496170 780.152893
7.880000 1.960000 -2.200000 0.910105 2.596515 7.570179
7.880000 1.960000 -2.160000 -13.754553 33.857605 1335.525146
7.880000 1.960000 -2.120000 -62.296555 43.464935 5770.061035
7.880000 1.960000 -2.080000 -113.419205 3.890667 12879.053711
7.880000 1.960000 -2.040000 -120.987137 -73.332176 20015.496094
7.880000 1.960000 -2.000000 -65.462929 -139.480148 23740.105469
7.880000 1.960000 -1.960000 23.963552 -146.842072 22136.845703
7.880000 1.960000 -1.920000 90.062119 -89.768211 16169.516602
7.880000 1.960000 -1.880000 94.103600 -10.128344 8958.070312
7.880000 1.960000 -1.840000 45.949665 38.368568 3583.519043
7.880000 1.960000 -1.800000 -8.903576 33.766010 1219.417114
7.880000 2.000000 -2.200000 -2.783704 4.460684 27.646706
7.880000 2.000000 -2.160000 -36.693329 21.929918 1827.321777
7.880000 2.000000 -2.120000 -86.140671 -1.836008 7423.586426
7.880000 2.000000 -2.080000 -105.876656 -70.916580 16239.027344
7.880000 2.000000 -2.040000 -62.312820 -145.456940 25040.609375
7.880000 2.000000 -2.000000 30.855185 -169.329849 29624.640625
7.880000 2.000000 -1.960000 116.828003 -118.176086 27614.371094
7.880000 2.000000 -1.920000 140.082458 -23.367271 20169.125000
7.880000 2.000000 -1.880000 91.887314 52.213478 11169.525391
7.880000 2.000000 -1.840000 15.330606 65.438576 4517.234375
7.880000 2.000000 -1.800000 -33.664345 24.561844 1736.572266
7.880000 2.040000 -2.200000 -7.045713 -0.322908 49.746349
7.880000 2.040000 -2.160000 -42.533413 -6.477339 1851.047119
7.880000 2.040000 -2.120000 -66.679916 -52.883316 7242.856445
7.880000 2.040000 -2.080000 -42.535522 -117.518585 15619.888672
7.880000 2.040000 -2.040000 33.803726 -150.962311 23932.310547
7.880000 2.040000 -2.000000 120.652176 -117.015045 28249.468750
7.880000 2.040000 -1.960000 159.930496 -27.811705 26351.253906
7.880000 2.040000 -1.920000 124.815056 61.290245 19335.292969
7.880000 2.040000 -1.880000 42.619896 95.171005 10873.976562
7.880000 2.040000 -1.840000 -28.465794 62.218567 4681.451660
7.880000 2.040000 -1.800000 -47.099068 -1.011404 2219.345215
7.880000 2.080000 -2.200000 -5.466503 -9.548246 121.051659
7.880000 2.080000 -2.160000 -24.614252 -31.212729 1580.095825
7.880000 2.080000 -2.120000 -16.457989 -73.470474 5668.775879
7.880000 2.080000 -2.080000 32.525593 -103.766052 11825.307617
7.880000 2.080000 -2.040000 100.804199 -87.347000 17790.984375
7.880000 2.080000 -2.000000 142.720566 -20.166050 20775.830078
7.880000 2.080000 -1.960000 124.617691 61.325478 19290.382812
7.880000 2.080000 -1.920000 54.679588 105.993652 14224.511719
7.880000 2.080000 -1.880000 -21.621010 88.275658 8260.059570
7.880000 2.080000 -1.840000 -57.400581 27.321342 4041.282471
7.880000 2.080000 -1.800000 -39.578552 -31.350620 2549.323242
7.880000 2.120000 -2.200000 4.072693 -16.656309 294.019470
7.880000 2.120000 -2.160000 5.072261 -35.797558 1307.192871
7.880000 2.120000 -2.120000 29.404751 -53.582581 3735.732422
7.880000 2.120000 -2.080000 70.161652 -46.721794 7105.583008
7.880000 2.120000 -2.040000 100.509354 -5.627602 10133.799805
7.880000 2.120000 -2.000000 93.285446 52.162922 11423.145508
7.880000 2.120000 -1.960000 45.047646 91.410767 10385.218750
7.880000 2.120000 -1.920000 -17.620663 85.828224 7676.971680
7.880000 2.120000 -1.880000 -56.832542 39.261742 4771.422363
7.880000 2.120000 -1.840000 -51.722168 -17.287704 2974.047363
7.880000 2.120000 -1.800000 -12.149773 -49.922119 2639.834961
7.880000 2.160000 -2.200000 17.701807 -15.684587 559.360229
7.880000 2.160000 -2.160000 27.613655 -20.046379 1164.371338
7.880000 2.160000 -2.120000 44.875454 -14.205887 2215.613525
7.880000 2.160000 -2.080000 57.708199 7.704233 3389.591309
7.880000 2.160000 -2.040000 51.887383 38.740517 4193.127930
7.880000 2.160000 -2.000000 23.258343 61.028015 4265.369141
7.880000 2.160000 -1.960000 -15.954144 58.128368 3633.441895
7.880000 2.160000 -1.920000 -43.781071 28.319962 2718.802246
7.880000 2.160000 -1.880000 -43.731216 -12.595957 2071.077393
7.880000 2.160000 -1.840000 -16.417906 -41.794968 2016.366943
7.880000 2.160000 -1.800000 21.577736 -44.831169 2475.432373
7.880000 2.200000 -2.200000 28.158298 -5.615521 824.423828
7.880000 2.200000 -2.160000 32.679710 2.720223 1075.363159
7.880000 2.200000 -2.120000 32.010506 15.473319 1264.096069
7.880000 2.200000 -2.080000 22.444771 27.896738 1281.995728
7.880000 2.200000 -2.040000 5.082108 32.823746 1103.226074
7.880000 2.200000 -2.000000 -13.330196 25.346676 820.148132
7.880000 2.200000 -1.960000 -23.672543 6.746885 605.909729
7.880000 2.200000 -1.920000 -19.741964 -15.336216 624.944702
7.880000 2.200000 -1.880000 -2.080863 -30.683065 945.780518
7.880000 2.200000 -1.840000 22.046864 -31.871529 1501.858521
7.880000 2.200000 -1.800000 42.350357 -18.026752 2118.516602
7.920000 1.800000 -2.200000 -25.624374 28.490009 1468.289185
7.920000 1.800000 -2.160000 -39.130470 8.172878 1597.989624
7.920000 1.800000 -2.120000 -34.267998 -16.919327 1460.559326
7.920000 1.800000 -2.080000 -13.004578 -30.924669 1125.454224
7.920000 1.800000 -2.040000 10.330025 -24.990068 731.212952
7.920000 1.800000 -2.000000 19.477707 -5.247498 406.917297
7.920000 1.800000 -1.960000 9.637432 11.353645 221.785355
7.920000 1.800000 -1.920000 -8.154415 11.095783 189.610901
7.920000 1.800000 -1.880000 -16.534477 -4.713263 295.603790
7.920000 1.800000 -1.840000 -7.071930 -21.223141 500.433899
7.920000 1.800000 -1.800000 12.699093 -23.654060 720.781555
7.920000 1.840000 -2.200000 -31.153988 12.107545 1117.163574
7.920000 1.840000 -2.160000 -25.707024 -0.674215 661.305664
7.920000 1.840000 -2.120000 -15.402954 -2.000925 241.254700
7.920000 1.840000 -2.080000 -12.356617 5.836407 186.749634
7.920000 1.840000 -2.040000 -20.931862 11.413673 568.414795
7.920000 1.840000 -2.000000 -33.648628 4.809341 1155.359985
7.920000 1.840000 -1.960000 -37.714603 -13.148491 1595.274170
7.920000 1.840000 -1.920000 -26.291996 -31.183069 1663.652832
7.920000 1.840000 -1.880000 -4.472191 -36.958229 1385.911133
7.920000 1.840000 -1.840000 15.056025 -27.114437 961.876587
7.920000 1.840000 -1.800000 22.406742 -9.262339 587.853027
7.920000 1.880000 -2.200000 -26.167370 -1.635581 687.406372
7.920000 1.880000 -2.160000 -17.228167 7.129034 347.632843
7.920000 1.880000 -2.120000 -27.608772 23.936014 1335.177124
7.920000 1.880000 -2.080000 -57.604183 24.774891 3932.037109
7.920000 1.880000 -2.040000 -84.625908 -4.417213 7181.056152
7.920000 1.880000 -2.000000 -82.278618 -51.541908 9426.339844
7.920000 1.880000 -1.960000 -44.912312 -86.316605 9467.671875
7.920000 1.880000 -1.920000 5.901207 -85.732094 7384.815918
7.920000 1.880000 -1.880000 39.294685 -53.241394 4378.718262
7.920000 1.880000 -1.840000 40.458759 -14.222589 1839.193359
7.920000 1.880000 -1.800000 20.176266 6.896838 454.648071
7.920000 1.920000 -2.200000 -16.994518 -7.837305 350.237000
7.920000 1.920000 -2.160000 -25.775787 16.740381 944.631592
7.920000 1.920000 -2.120000 -66.625626 24.435534 5036.069336
7.920000 1.920000 -2.080000 -111.253448 -12.593113 12535.916992
7.920000 1.920000 -2.040000 -115.870979 -84.562042 20576.822266
7.920000 1.920000 -2.000000 -61.942886 -145.848236 25108.628906
7.920000 1.920000 -1.960000 22.920738 -152.204102 23691.447266
7.920000 1.920000 -1.920000 85.718872 -99.370644 17222.250000
7.920000 1.920000 -1.880000 92.088852 -26.523586 9183.857422
7.920000 1.920000 -1.840000 52.619202 18.383591 3106.736816
7.920000 1.920000 -1.800000 8.380302 17.999027 394.194458
7.920000 1.960000 -2.200000 -9.881145 -8.417177 168.485901
7.920000 1.960000 -2.160000 -43.611557 10.359592 2009.289062
7.920000 1.960000 -2.120000 -96.450638 -15.854279 9554.083984
7.920000 1.960000 -2.080000 -116.651962 -92.958008 22248.871094
7.920000 1.960000 -2.040000 -66.001266 -175.753174 35245.343750
7.920000 1.960000 -2.000000 39.211155 -201.272400 42048.093750
7.920000 1.960000 -1.960000 135.013718 -143.983307 38959.898438
7.920000 1.960000 -1.920000 161.574890 -40.550926 27750.822266
7.920000 1.960000 -1.880000 112.596275 40.536995 14321.168945
7.920000 1.960000 -1.840000 36.597206 56.232719 4501.474121
7.920000 1.960000 -1.800000 -8.977055 19.793180 472.357483
7.920000 2.000000 -2.200000 -5.966374 -8.348639 105.297394
7.920000 2.000000 -2.160000 -50.765728 -13.821144 2768.183105
7.920000 2.000000 -2.120000 -83.444939 -73.018631 12294.778320
7.920000 2.000000 -2.080000 -53.240700 -158.130051 27839.685547
7.920000 2.000000 -2.040000 46.166286 -203.472473 43532.371094
7.920000 2.000000 -2.000000 160.024414 -161.253082 51610.367188
7.920000 2.000000 -1.960000 213.033356 -47.997318 47686.953125
7.920000 2.000000 -1.920000 172.481476 64.712959 33937.625000
7.920000 2.000000 -1.880000 75.240005 108.928574 17526.492188
7.920000 2.000000 -1.840000 -6.308744 74.362518 5569.584473
7.920000 2.000000 -1.800000 -26.020054 9.048933 758.926392
7.920000 2.040000 -2.200000 -1.887326 -9.936552 102.297066
7.920000 2.040000 -2.160000 -35.096466 -38.986015 2751.671387
7.920000 2.040000 -2.120000 -29.361891 -104.579987 11799.093750
7.920000 2.040000 -2.080000 41.136269 -157.162933 26392.380859
7.920000 2.040000 -2.040000 146.367508 -140.244064 41091.843750
7.920000 2.040000 -2.000000 216.284790 -44.161201 48729.320312
7.920000 2.040000 -1.960000 198.028381 77.437271 45211.769531
7.920000 2.040000 -1.920000 102.679443 148.123383 32483.605469
7.920000 2.040000 -1.880000 -3.085577 130.941223 17155.125000
7.920000 2.040000 -1.840000 -53.103783 55.384373 5887.440430
7.920000 2.040000 -1.800000 -33.254452 -13.789167 1295.999634
7.920000 2.080000 -2.200000 5.347845 -10.703988 143.174805
7.920000 2.080000 -2.160000 -4.369152 -45.537643 2092.766602
7.920000 2.080000 -2.120000 29.784697 -88.239029 8673.254883
7.920000 2.080000 -2.080000 103.568909 -92.141304 19216.539062
7.920000 2.080000 -2.040000 169.960022 -30.729239 29830.693359
7.920000 2.080000 -2.000000 174.317368 70.993362 35426.601562
7.920000 2.080000 -1.960000 102.884865 150.035553 33095.960938
7.920000 2.080000 -1.920000 -1.302845 155.515060 24186.630859
7.920000 2.080000 -1.880000 -71.971161 90.408218 13353.494141
7.920000 2.080000 -1.840000 -72.691292 6.813549 5330.448242
7.920000 2.080000 -1.800000 -21.486559 -39.498856 2021.831787
7.920000 2.120000 -2.200000 14.359746 -6.441469 247.694824
7.920000 2.120000 -2.160000 21.159763 -29.001745 1288.836792
7.920000 2.120000 -2.120000 56.768272 -40.199547 4838.640137
7.920000 2.120000 -2.080000 101.383438 -13.329540 10456.278320
7.920000 2.120000 -2.040000 116.297150 50.192841 16044.348633
7.920000 2.120000 -2.000000 77.153969 114.098862 18971.285156
7.920000 2.120000 -1.960000 -0.525444 133.468216 17814.041016
7.920000 2.120000 -1.920000 -69.539001 92.303680 13355.642578
7.920000 2.120000 -1.880000 -87.698662 18.109350 8019.003906
7.920000 2.120000 -1.840000 -50.553169 -40.329243 4182.070801
7.920000 2.120000 -1.800000 8.608171 -51.504372 2726.800781
7.920000 2.160000 -2.200000 20.040968 3.963714 417.351410
7.920000 2.160000 -2.160000 27.032354 -2.636503 737.699341
7.920000 2.160000 -2.120000 44.364239 2.992954 1977.143433
7.920000 2.160000 -2.080000 55.391083 28.720552 3893.042236
7.920000 2.160000 -2.040000 41.335976 63.123993 5693.301270
7.920000 2.160000 -2.000000 0.355377 80.780945 6525.687500
7.920000 2.160000 -1.960000 -46.032040 62.905308 6076.026367
7.920000 2.160000 -1.920000 -67.500732 15.274872 4789.670898
7.920000 2.160000 -1.880000 -48.944138 -33.743607 3534.159668
7.920000 2.160000 -1.840000 -2.740358 -54.409561 2967.909912
7.920000 2.160000 -1.800000 41.420586 -37.621326 3131.029297
7.920000 2.200000 -2.200000 17.952927 16.578596 597.157471
7.920000 2.200000 -2.160000 15.431223 15.982207 493.553589
7.920000 2.200000 -2.120000 15.523306 18.167160 571.018738
7.920000 2.200000 -2.080000 12.349380 24.703857 762.787781
7.920000 2.200000 -2.040000 0.927269 29.837955 891.163391
7.920000 2.200000 -2.000000 -15.748455 24.445526 845.597595
7.920000 2.200000 -1.960000 -26.393518 5.154449 723.186157
7.920000 2.200000 -1.920000 -19.783661 -19.913589 787.944336
7.920000 2.200000 -1.880000 4.989449 -35.179607 1262.499390
7.920000 2.200000 -1.840000 35.758331 -28.997681 2119.523682
7.920000 2.200000 -1.800000 55.164673 -2.892836 3051.509521
7.960000 1.800000 -2.200000 -40.921097 24.170898 2258.768555
7.960000 1.800000 -2.160000 -47.381336 -5.027168 2270.263428
7.960000 1.800000 -2.120000 -31.300148 -30.023424 1881.105225
7.960000 1.800000 -2.080000 -4.003403 -35.090473 1247.368530
7.960000 1.800000 -2.040000 14.910187 -19.847481 616.236145
7.960000 1.800000 -2.000000 13.860964 0.181564 192.159271
7.960000 1.800000 -1.960000 -0.994331 7.182377 52.575230
7.960000 1.800000 -1.920000 -11.955818 -3.212831 153.263870
7.960000 1.800000 -1.880000 -6.367317 -18.700573 390.254150
7.960000 1.800000 -1.840000 12.014936 -22.551514 652.929443
7.960000 1.800000 -1.800000 27.438465 -9.366801 840.606323
7.960000 1.840000 -2.200000 -46.350975 2.427040 2154.303467
7.960000 1.840000 -2.160000 -38.064705 -11.887245 1590.228394
7.960000 1.840000 -2.120000 -28.253658 -14.310741 1003.066528
7.960000 1.840000 -2.080000 -26.700239 -11.478008 844.647461
7.960000 1.840000 -2.040000 -32.202286 -14.632797 1251.105957
7.960000 1.840000 -2.000000 -34.106258 -27.974281 1945.797241
7.960000 1.840000 -1.960000 -22.987495 -43.873135 2453.276855
7.960000 1.840000 -1.920000 -0.327782 -49.446487 2445.062500
7.960000 1.840000 -1.880000 21.907948 -38.237717 1942.081055
7.960000 1.840000 -1.840000 31.269463 -16.082493 1236.425903
7.960000 1.840000 -1.800000 24.982380 3.991247 640.049377
7.960000 1.880000 -2.200000 -38.096813 -16.448097 1721.907104
7.960000 1.880000 -2.160000 -35.924633 -10.334429 1397.379639
7.960000 1.880000 -2.120000 -51.830029 -8.322220 2755.611084
7.960000 1.880000 -2.080000 -72.462341 -29.423767 6116.548828
7.960000 1.880000 -2.040000 -71.778534 -71.124451 10210.845703
7.960000 1.880000 -2.000000 -36.528488 -107.508408 12892.387695
7.960000 1.880000 -1.960000 18.519897 -110.902435 12642.336914
7.960000 1.880000 -1.920000 61.232666 -76.726097 9636.333984
7.960000 1.880000 -1.880000 68.912460 -27.745951 5518.765137
7.960000 1.880000 -1.840000 46.005745 5.927161 2151.659912
7.960000 1.880000 -1.800000 16.990746 11.574225 422.648132
7.960000 1.920000 -2.200000 -22.904306 -25.708544 1185.536377
7.960000 1.920000 -2.160000 -42.870132 -14.489511 2047.794189
7.960000 1.920000 -2.120000 -78.405685 -36.048988 7446.981445
7.960000 1.920000 -2.080000 -88.805679 -96.194153 17139.763672
7.960000 1.920000 -2.040000 -43.824585 -159.248154 27280.568359
7.960000 1.920000 -2.000000 42.859516 -175.459732 32623.054688
7.960000 1.920000 -1.960000 119.864578 -125.757919 30182.572266
7.960000 1.920000 -1.920000 140.457199 -40.732525 21387.363281
7.960000 1.920000 -1.880000 101.465309 25.139921 10927.224609
7.960000 1.920000 -1.840000 42.410866 39.397961 3350.880859
7.960000 1.920000 -1.800000 7.658216 14.473057 268.117645
7.960000 1.960000 -2.200000 -8.267912 -25.820299 735.046265
7.960000 1.960000 -2.160000 -45.904415 -31.632282 3107.816650
7.960000 1.960000 -2.120000 -72.373535 -87.440308 12883.736328
7.960000 1.960000 -2.080000 -39.003830 -166.280167 29170.392578
7.960000 1.960000 -2.040000 58.851624 -205.016159 45495.140625
7.960000 1.960000 -2.000000 167.218811 -159.714783 53470.945312
7.960000 1.960000 -1.960000 214.980515 -49.202599 48637.515625
7.960000 1.960000 -1.920000 174.533356 57.128609 33725.570312
7.960000 1.960000 -1.880000 84.248077 97.441696 16592.623047
7.960000 1.960000 -1.840000 12.081944 66.853333 4615.341309
7.960000 1.960000 -1.800000 -3.376549 13.153410 184.413269
7.960000 2.000000 -2.200000 2.634460 -20.831274 440.882355
7.960000 2.000000 -2.160000 -31.743160 -52.121391 3724.267578
7.960000 2.000000 -2.120000 -23.087154 -123.849655 15871.753906
7.960000 2.000000 -2.080000 57.334309 -179.941315 35666.101562
7.960000 2.000000 -2.040000 174.506592 -157.755859 55339.460938
7.960000 2.000000 -2.000000 249.983948 -48.999908 64892.964844
7.960000 2.000000 -1.960000 227.711151 84.570114 59004.472656
7.960000 2.000000 -1.920000 124.076370 159.842468 40944.562500
7.960000 2.000000 -1.880000 13.743628 141.323944 20161.343750
7.960000 2.000000 -1.840000 -35.146011 66.061798 5599.403320
7.960000 2.000000 -1.800000 -14.678359 3.684334 229.028534
7.960000 2.040000 -2.200000 10.261011 -13.329376 282.960632
7.960000 2.040000 -2.160000 -2.690422 -57.959854 3366.583008
7.960000 2.040000 -2.120000 41.472572 -113.730179 14654.528320
7.960000 2.040000 -2.080000 137.453064 -119.085625 33074.730469
7.960000 2.040000 -2.040000 223.497467 -39.862785 51540.160156
7.960000 2.040000 -2.000000 229.498398 90.227081 60810.441406
7.960000 2.040000 -1.960000 140.248489 190.085205 55802.023438
7.960000 2.040000 -1.920000 12.733516 197.810669 39291.203125
7.960000 2.040000 -1.880000 -70.998375 121.852242 19888.738281
7.960000 2.040000 -1.840000 -71.549965 29.231375 5973.870605
7.960000 2.040000 -1.800000 -17.711992 -15.663687 559.065735
7.960000 2.080000 -2.200000 14.757513 -3.406403 229.387772
7.960000 2.080000 -2.160000 23.545794 -41.104187 2243.958496
7.960000 2.080000 -2.120000 78.978027 -62.569126 10152.423828
7.960000 2.080000 -2.080000 150.644211 -24.656389 23301.615234
7.960000 2.080000 -2.040000 177.977722 71.184097 36743.246094
7.960000 2.080000 -2.000000 123.453827 169.250229 43886.488281
7.960000 2.080000 -1.960000 11.258747 202.013092 40936.046875
7.960000 2.080000 -1.920000 -88.188446 147.734222 29602.601562
7.960000 2.080000 -1.880000 -115.844376 49.064323 15827.226562
7.960000 2.080000 -1.840000 -70.612961 -24.780216 5600.249512
7.960000 2.080000 -1.800000 -3.006719 -35.693092 1283.037231
7.960000 2.120000 -2.200000 14.168427 8.366714 270.746246
7.960000 2.120000 -2.160000 30.047857 -12.149971 1050.495483
7.960000 2.120000 -2.120000 70.441986 -7.139317 5013.042969
7.960000 2.120000 -2.080000 100.977203 41.161819 11890.691406
7.960000 2.120000 -2.040000 82.670563 110.829338 19117.564453
7.960000 2.120000 -2.000000 10.627640 152.044083 23230.349609
7.960000 2.120000 -1.960000 -74.818161 128.760193 22176.945312
7.960000 2.120000 -1.920000 -118.425308 52.037277 16732.431641
7.960000 2.120000 -1.880000 -95.501335 -27.341629 9868.069336
7.960000 2.120000 -1.840000 -30.568851 -60.756031 4625.750000
7.960000 2.120000 -1.800000 26.701492 -39.225185 2251.584717
7.960000 2.160000 -2.200000 6.858211 18.528782 390.350830
7.960000 2.160000 -2.160000 16.037058 9.430730 346.125885
7.960000 2.160000 -2.120000 33.951633 18.760029 1504.652100
7.960000 2.160000 -2.080000 37.276180 49.013443 3791.831299
7.960000 2.160000 -2.040000 9.325981 78.703613 6281.232910
7.960000 2.160000 -2.000000 -40.135345 78.524460 7776.936523
7.960000 2.160000 -1.960000 -78.503777 38.561852 7649.859375
7.960000 2.160000 -1.920000 -76.593048 -19.525826 6247.752930
7.960000 2.160000 -1.880000 -33.894596 -58.338928 4552.274414
7.960000 2.160000 -1.840000 20.610336 -54.743607 3421.648438
7.960000 2.160000 -1.800000 52.556473 -16.880404 3047.130859
7.960000 2.200000 -2.200000 -5.167917 22.385923 527.836975
7.960000 2.200000 -2.160000 -3.959750 12.850708 180.820328
7.960000 2.200000 -2.120000 3.223850 11.858507 151.017395
7.960000 2.200000 -2.080000 4.545906 20.186451 428.158051
7.960000 2.200000 -2.040000 -6.824558 26.723570 760.723755
7.960000 2.200000 -2.000000 -23.785480 18.653111 913.687622
7.960000 2.200000 -1.960000 -29.814608 -4.825661 912.197815
7.960000 2.200000 -1.920000 -13.874409 -28.973442 1031.959595
7.960000 2.200000 -1.880000 18.146038 -34.705563 1533.754761
7.960000 2.200000 -1.840000 46.614681 -14.727224 2389.819580
7.960000 2.200000 -1.800000 53.383339 20.091717 3253.457764
8.000000 1.800000 -2.200000 -49.069542 8.523706 2480.473389
8.000000 1.800000 -2.160000 -44.324963 -21.704636 2435.793457
8.000000 1.800000 -2.120000 -20.522436 -40.013767 2022.271973
8.000000 1.800000 -2.080000 6.620038 -36.440945 1371.767456
8.000000 1.800000 -2.040000 19.732840 -17.618233 699.787109
8.000000 1.800000 -2.000000 14.408268 -1.001080 208.600357
8.000000 1.800000 -1.960000 2.241371 0.842505 5.733559
8.000000 1.800000 -1.920000 -0.925625 -8.814739 78.556412
8.000000 1.800000 -1.880000 9.621984 -15.225960 324.412445
8.000000 1.800000 -1.840000 23.472044 -7.401684 605.721741
8.000000 1.800000 -1.800000 26.051308 10.971977 799.054932
8.000000 1.840000 -2.200000 -49.804058 -17.035406 2770.649170
8.000000 1.840000 -2.160000 -38.436729 -30.821846 2427.368408
8.000000 1.840000 -2.120000 -26.844887 -35.669594 1992.967896
8.000000 1.840000 -2.080000 -19.577581 -37.395241 1781.685791
8.000000 1.840000 -2.040000 -13.706448 -41.516392 1911.477539
8.000000 1.840000 -2.000000 -3.190933 -47.064857 2225.282959
8.000000 1.840000 -1.960000 13.626419 -47.207054 2414.185059
8.000000 1.840000 -1.920000 30.705048 -36.121571 2247.567871
8.000000 1.840000 -1.880000 38.578796 -15.578163 1731.002686
8.000000 1.840000 -1.840000 32.428482 5.160762 1078.239868
8.000000 1.840000 -1.800000 16.494164 16.305164 537.915833
8.000000 1.880000 -2.200000 -34.969048 -37.006630 2592.324707
8.000000 1.880000 -2.160000 -35.017715 -38.193153 2684.957275
8.000000 1.880000 -2.120000 -42.039982 -50.574463 4325.136719
8.000000 1.880000 -2.080000 -37.928188 -78.212494 7555.741699
8.000000 1.880000 -2.040000 -8.438568 -104.844872 11063.656250
8.000000 1.880000 -2.000000 39.569725 -106.701050 12950.876953
8.000000 1.880000 -1.960000 80.456131 -74.800491 12068.302734
8.000000 1.880000 -1.920000 90.570084 -24.936760 8824.782227
8.000000 1.880000 -1.880000 68.032974 14.620029 4842.230469
8.000000 1.880000 -1.840000 33.048607 26.166449 1776.893555
8.000000 1.880000 -1.800000 9.368677 14.860825 308.616211
8.000000 1.920000 -2.200000 -12.877687 -43.879128 2091.212646
8.000000 1.920000 -2.160000 -29.961918 -50.141399 3411.876465
8.000000 1.920000 -2.120000 -39.018566 -87.084320 9106.126953
8.000000 1.920000 -2.080000 -8.224884 -135.921875 18542.404297
8.000000 1.920000 -2.040000 63.402565 -154.129837 27775.890625
8.000000 1.920000 -2.000000 137.383316 -114.128540 31899.500000
8.000000 1.920000 -1.960000 165.802643 -31.990696 28513.919922
8.000000 1.920000 -1.920000 132.696533 43.184563 19473.275391
8.000000 1.920000 -1.880000 67.269119 70.263016 9462.025391
8.000000 1.920000 -1.840000 16.731077 48.694683 2651.101074
8.000000 1.920000 -1.800000 5.696051 13.049158 202.725525
8.000000 1.960000 -2.200000 7.199145 -37.946724 1491.781494
8.000000 1.960000 -2.160000 -14.441506 -63.196709 4202.380859
8.000000 1.960000 -2.120000 -0.482738 -118.938156 14146.518555
8.000000 1.960000 -2.080000 70.838043 -158.136002 30025.023438
8.000000 1.960000 -2.040000 167.764618 -130.669495 45219.484375
8.000000 1.960000 -2.000000 224.868729 -33.805885 51708.781250
8.000000 1.960000 -1.960000 199.159271 77.979309 45745.187500
8.000000 1.960000 -1.920000 109.294243 136.728119 30639.808594
8.000000 1.960000 -1.880000 19.366116 117.942200 14285.409180
8.000000 1.960000 -1.840000 -17.132002 57.020794 3544.876465
8.000000 1.960000 -1.800000 0.587532 11.719321 137.687683
8.000000 2.000000 -2.200000 19.868059 -23.890011 965.472412
8.000000 2.000000 -2.160000 11.982815 -64.869713 4351.667480
8.000000 2.000000 -2.120000 58.549656 -114.040833 16433.373047
8.000000 2.000000 -2.080000 152.039261 -112.143204 35692.035156
8.000000 2.000000 -2.040000 231.016449 -29.287561 54226.363281
8.000000 2.000000 -2.000000 229.726379 97.838165 62346.515625
8.000000 2.000000 -1.960000 138.814163 190.083694 55401.183594
8.000000 2.000000 -1.920000 17.435034 192.203751 37246.261719
8.000000 2.000000 -1.880000 -56.919388 118.963951 17392.238281
8.000000 2.000000 -1.840000 -53.357414 37.485691 4252.190430
8.000000 2.000000 -1.800000 -6.289002 4.942293 63.977814
8.000000 2.040000 -2.200000 23.387629 -6.695838 591.815369
8.000000 2.040000 -2.160000 36.266216 -46.861660 3511.253418
8.000000 2.040000 -2.120000 100.121666 -66.705254 14473.938477
8.000000 2.040000 -2.080000 178.708710 -19.248573 32307.310547
8.000000 2.040000 -2.040000 204.255341 90.271965 49869.273438
8.000000 2.040000 -2.000000 138.710480 197.164871 58114.585938
8.000000 2.040000 -1.960000 14.052290 228.487823 52404.152344
8.000000 2.040000 -1.920000 -90.534576 166.530579 35928.945312
8.000000 2.040000 -1.880000 -115.304062 63.573402 17336.603516
8.000000 2.040000 -1.840000 -67.502533 -6.063927 4593.362793
8.000000 2.040000 -1.800000 -6.349503 -9.642271 133.289566
8.000000 2.080000 -2.200000 17.671370 9.147899 395.961365
8.000000 2.080000 -2.160000 42.173840 -16.377579 2046.857788
8.000000 2.080000 -2.120000 97.043427 -5.856237 9451.722656
8.000000 2.080000 -2.080000 135.224091 61.445679 22061.126953
8.000000 2.080000 -2.040000 107.323036 153.157501 34975.453125
8.000000 2.080000 -2.000000 11.700706 203.817841 41678.617188
8.000000 2.080000 -1.960000 -95.962898 171.216202 38523.867188
8.000000 2.080000 -1.920000 -146.999649 75.801720 27354.796875
8.000000 2.080000 -1.880000 -117.596100 -15.973219 14083.986328
8.000000 2.080000 -1.840000 -45.495239 -48.941414 4465.079102
8.000000 2.080000 -1.800000 8.399305 -22.436272 573.934631
8.000000 2.120000 -2.200000 4.378425 18.855261 374.691467
8.000000 2.120000 -2.160000 26.090622 7.857176 742.455811
8.000000 2.120000 -2.120000 57.234627 30.130304 4183.637695
8.000000 2.120000 -2.080000 59.248688 84.464813 10644.711914
8.000000 2.120000 -2.040000 9.644615 132.628967 17683.462891
8.000000 2.120000 -2.000000 -70.342659 129.940613 21832.652344
8.000000 2.120000 -1.960000 -128.253860 67.222214 20967.878906
8.000000 2.120000 -1.920000 -124.369781 -17.209053 15763.994141
8.000000 2.120000 -1.880000 -65.924919 -68.821411 9082.481445
8.000000 2.120000 -1.840000 0.876317 -62.268768 3878.167236
8.000000 2.120000 -1.800000 32.261715 -18.392586 1379.105469
8.000000 2.160000 -2.200000 -11.570303 18.573334 478.840637
8.000000 2.160000 -2.160000 1.426691 11.952486 144.897369
8.000000 2.160000 -2.120000 14.642220 26.757689 930.368469
8.000000 2.160000 -2.080000 5.133461 54.112358 2954.499756
8.000000 2.160000 -2.040000 -31.730499 66.435593 5420.512695
8.000000 2.160000 -2.000000 -72.802429 42.718586 7125.071289
8.000000 2.160000 -1.960000 -84.976501 -9.120598 7304.191406
8.000000 2.160000 -1.920000 -54.767330 -55.821266 6115.474121
8.000000 2.160000 -1.880000 -1.299778 -66.297043 4396.987305
8.000000 2.160000 -1.840000 39.857765 -37.326077 2981.877441
8.000000 2.160000 -1.800000 46.248703 6.194604 2177.315674
8.000000 2.200000 -2.200000 -22.863064 8.752483 599.325623
8.000000 2.200000 -2.160000 -13.515594 -1.023889 183.719650
8.000000 2.200000 -2.120000 -2.909176 2.137411 13.031831
8.000000 2.200000 -2.080000 -3.426899 12.254343 161.912567
8.000000 2.200000 -2.040000 -15.859213 14.788509 470.214661
8.000000 2.200000 -2.000000 -27.023300 1.285812 731.912048
8.000000 2.200000 -1.960000 -21.682274 -20.797840 902.671143
8.000000 2.200000 -1.920000 2.440895 -33.333664 1117.091187
8.000000 2.200000 -1.880000 31.081749 -23.364809 1511.989502
8.000000 2.200000 -1.840000 44.890194 5.337580 2043.619263
8.000000 2.200000 -1.800000 35.056725 35.456337 2486.125732
8.040000 1.800000 -2.200000 -43.779644 -7.800543 1977.505737
8.040000 1.800000 -2.160000 -31.421972 -31.852123 2001.898071
8.040000 1.800000 -2.120000 -5.704197 -42.276711 1819.858154
8.040000 1.800000 -2.080000 19.047342 -33.144249 1461.342529
8.040000 1.800000 -2.040000 29.036144 -12.383327 996.444458
8.040000 1.800000 -2.000000 22.598129 4.531951 531.214050
8.040000 1.800000 -1.960000 10.949211 8.198767 187.104996
8.040000 1.800000 -1.920000 6.813236 3.033165 55.620277
8.040000 1.800000 -1.880000 12.028879 1.343422 146.498718
8.040000 1.800000 -1.840000 16.686142 9.767477 373.830933
8.040000 1.800000 -1.800000 10.484730 22.122112 599.317383
8.040000 1.840000 -2.200000 -38.453804 -32.952316 2564.550293
8.040000 1.840000 -2.160000 -24.916786 -45.130180 2657.579346
8.040000 1.840000 -2.120000 -8.200499 -50.505867 2618.090820
8.040000 1.840000 -2.080000 8.476849 -48.889507 2462.040771
8.040000 1.840000 -2.040000 22.482700 -41.425350 2221.531494
8.040000 1.840000 -2.000000 32.237350 -29.899837 1933.247070
8.040000 1.840000 -1.960000 36.949394 -16.010967 1621.608765
8.040000 1.840000 -1.920000 35.897232 -1.395840 1290.559692
8.040000 1.840000 -1.880000 28.495384 11.483425 943.855957
8.040000 1.840000 -1.840000 15.695243 19.100786 611.180664
8.040000 1.840000 -1.800000 1.267499 18.580513 346.842041
8.040000 1.880000 -2.200000 -17.989021 -49.403374 2764.298340
8.040000 1.880000 -2.160000 -13.354588 -56.913502 3417.491699
8.040000 1.880000 -2.120000 -3.108404 -71.112213 5066.608887
8.040000 1.880000 -2.080000 21.816639 -82.993355 7363.862793
8.040000 1.880000 -2.040000 57.418884 -77.259300 9265.927734
8.040000 1.880000 -2.000000 86.253387 -47.445381 9690.710938
8.040000 1.880000 -1.960000 90.828857 -4.499855 8270.129883
8.040000 1.880000 -1.920000 68.565155 30.136581 5609.394043
8.040000 1.880000 -1.880000 34.275993 41.032074 2858.474854
8.040000 1.880000 -1.840000 7.989035 29.845314 954.567505
8.040000 1.880000 -1.800000 -0.397900 11.564613 133.898605
8.040000 1.920000 -2.200000 7.889894 -50.006657 2562.916260
8.040000 1.920000 -2.160000 5.565479 -64.712830 4218.725098
8.040000 1.920000 -2.120000 24.366646 -91.535614 8972.501953
8.040000 1.920000 -2.080000 72.691772 -102.867294 15865.774414
8.040000 1.920000 -2.040000 128.335587 -73.156044 21821.830078
8.040000 1.920000 -2.000000 153.373413 -6.554016 23566.359375
8.040000 1.920000 -1.960000 127.268127 61.406960 19967.990234
8.040000 1.920000 -1.920000 66.493820 91.980255 12881.794922
8.040000 1.920000 -1.880000 11.091312 75.248535 5785.359375
8.040000 1.920000 -1.840000 -9.235011 35.995632 1380.970947
8.040000 1.920000 -1.800000 2.505482 8.952559 86.425758
8.040000 1.960000 -2.200000 28.427528 -35.760941 2086.969238
8.040000 1.960000 -2.160000 30.594767 -61.251205 4687.750000
8.040000 1.960000 -2.120000 69.747467 -87.883453 12588.210938
8.040000 1.960000 -2.080000 136.830124 -74.904938 24333.232422
8.040000 1.960000 -2.040000 186.326355 -5.711548 34750.132812
8.040000 1.960000 -2.000000 174.125427 88.478104 38148.039062
8.040000 1.960000 -1.960000 99.664368 149.969055 32423.703125
8.040000 1.960000 -1.920000 10.113123 143.410980 20668.984375
8.040000 1.960000 -1.880000 -39.376938 85.719650 8898.401367
8.040000 1.960000 -1.840000 -31.832893 28.382820 1818.917603
8.040000 1.960000 -1.800000 2.533806 10.222063 110.910744
8.040000 2.000000 -2.200000 36.549522 -13.208530 1510.332764
8.040000 2.000000 -2.160000 51.905602 -41.088772 4382.478516
8.040000 2.000000 -2.120000 106.404953 -49.065308 13729.417969
8.040000 2.000000 -2.080000 167.494019 -0.742714 28054.796875
8.040000 2.000000 -2.040000 179.356049 94.878845 41170.585938
8.040000 2.000000 -2.000000 115.022079 180.920074 45962.152344
8.040000 2.000000 -1.960000 7.104496 198.699356 39531.906250
8.040000 2.000000 -1.920000 -76.294968 139.984070 25416.460938
8.040000 2.000000 -1.880000 -89.653778 54.268456 10982.865234
8.040000 2.000000 -1.840000 -46.674351 3.434366 2190.290039
8.040000 2.000000 -1.800000 -1.296376 8.175262 68.515503
8.040000 2.040000 -2.200000 30.196465 8.925138 991.484558
8.040000 2.040000 -2.160000 56.004280 -9.758307 3231.704102
8.040000 2.040000 -2.120000 106.997307 7.616316 11506.431641
8.040000 2.040000 -2.080000 137.023651 77.468277 24776.814453
8.040000 2.040000 -2.040000 101.348236 164.872681 37454.464844
8.040000 2.040000 -2.000000 4.060001 206.715240 42747.675781
8.040000 2.040000 -1.960000 -97.278862 167.553085 37537.214844
8.040000 2.040000 -1.920000 -138.745285 74.078438 24737.869141
8.040000 2.040000 -1.880000 -105.164360 -7.294903 11112.758789
8.040000 2.040000 -1.840000 -39.961121 -28.945362 2434.725098
8.040000 2.040000 -1.800000 -1.339678 -0.001439 1.794739
8.040000 2.080000 -2.200000 12.431016 22.167727 645.938232
8.040000 2.080000 -2.160000 38.113846 16.249920 1716.725220
8.040000 2.080000 -2.120000 69.375488 47.834087 7101.058594
8.040000 2.080000 -2.080000 63.794067 111.134392 16420.537109
8.040000 2.080000 -2.040000 1.072548 160.874329 25881.699219
8.040000 2.080000 -2.000000 -89.392365 150.046295 30504.884766
8.040000 2.080000 -1.960000 -148.178284 75.570511 27667.707031
8.040000 2.080000 -1.920000 -137.169052 -14.574734 19027.773438
8.040000 2.080000 -1.880000 -73.157440 -62.192383 9219.904297
8.040000 2.080000 -1.840000 -10.657312 -48.782135 2493.275146
8.040000 2.080000 -1.800000 8.533770 -6.541236 115.612991
8.040000 2.120000 -2.200000 -8.746078 21.130924 523.009827
8.040000 2.120000 -2.160000 9.303989 21.702997 557.584290
8.040000 2.120000 -2.120000 20.327276 49.408958 2854.443359
8.040000 2.120000 -2.080000 -2.900093 86.663521 7518.976562
8.040000 2.120000 -2.040000 -59.139927 96.101311 12732.993164
8.040000 2.120000 -2.000000 -112.565231 56.072796 15815.089844
8.040000 2.120000 -1.960000 -122.042824 -14.726429 15111.319336
8.040000 2.120000 -1.920000 -78.846031 -70.248695 11151.576172
8.040000 2.120000 -1.880000 -15.334393 -76.840012 6139.530762
8.040000 2.120000 -1.840000 24.362581 -41.329323 2301.648193
8.040000 2.120000 -1.800000 22.621235 -0.794199 512.351013
8.040000 2.160000 -2.200000 -22.893501 7.032917 573.574341
8.040000 2.160000 -2.160000 -10.945141 6.299349 159.477905
8.040000 2.160000 -2.120000 -7.711006 20.911516 496.751129
8.040000 2.160000 -2.080000 -25.568306 34.242146 1826.262817
8.040000 2.160000 -2.040000 -55.012070 24.952065 3648.933350
8.040000 2.160000 -2.000000 -70.271355 -10.334167 5044.858398
8.040000 2.160000 -1.960000 -52.977036 -50.252228 5331.852539
8.040000 2.160000 -1.920000 -10.662811 -66.251862 4503.004395
8.040000 2.160000 -1.880000 28.773493 -47.899666 3122.291748
8.040000 2.160000 -1.840000 41.422958 -11.270839 1842.893311
8.040000 2.160000 -1.800000 26.614408 16.996819 997.218567
8.040000 2.200000 -2.200000 -23.000584 -11.319693 657.162292
8.040000 2.200000 -2.160000 -11.180655 -14.515398 335.703796
8.040000 2.200000 -2.120000 -4.292761 -8.510098 90.849556
8.040000 2.200000 -2.080000 -7.275300 -2.899124 61.334908
8.040000 2.200000 -2.040000 -13.829438 -6.753319 236.860672
8.040000 2.200000 -2.000000 -12.463486 -18.781605 508.087158
8.040000 2.200000 -1.960000 1.774307 -27.726086 771.884033
8.040000 2.200000 -1.920000 21.623123 -22.766766 985.885071
8.040000 2.200000 -1.880000 33.616707 -3.709679 1143.844727
8.040000 2.200000 -1.840000 29.596699 18.803539 1229.537720
8.040000 2.200000 -1.800000 12.716084 32.450844 1214.755981
8.080000 1.800000 -2.200000 -30.630127 -14.052286 1135.671387
8.080000 1.800000 -2.160000 -17.438789 -30.983459 1264.086182
8.080000 1.800000 -2.120000 7.110580 -36.114700 1354.831909
8.080000 1.800000 -2.080000 30.063492 -22.486231 1409.444092
8.080000 1.800000 -2.040000 36.909012 2.764236 1369.916138
8.080000 1.800000 -2.000000 24.968075 23.132690 1158.526123
8.080000 1.800000 -1.960000 6.064014 27.321102 783.214905
8.080000 1.800000 -1.920000 -4.978250 18.927670 383.039642
8.080000 1.800000 -1.880000 -4.343589 11.165136 143.527039
8.080000 1.800000 -1.840000 -1.171369 12.294698 152.531693
8.080000 1.800000 -1.800000 -5.819160 17.389231 336.247986
8.080000 1.840000 -2.200000 -21.411381 -35.574638 1724.002197
8.080000 1.840000 -2.160000 -6.454732 -46.009628 2158.549561
8.080000 1.840000 -2.120000 15.872335 -47.020836 2462.890137
8.080000 1.840000 -2.080000 36.553783 -33.567154 2462.932861
8.080000 1.840000 -2.040000 44.916798 -10.260506 2122.796631
8.080000 1.840000 -2.000000 37.897343 11.300163 1563.902344
8.080000 1.840000 -1.960000 22.381620 22.034626 986.461670
8.080000 1.840000 -1.920000 8.285161 21.977474 551.653259
8.080000 1.840000 -1.880000 -0.012592 17.584917 309.229462
8.080000 1.840000 -1.840000 -5.059379 13.631185 211.406509
8.080000 1.840000 -1.800000 -10.184110 9.060371 185.806427
8.080000 1.880000 -2.200000 1.172059 -46.589943 2171.996582
8.080000 1.880000 -2.160000 13.782423 -54.163124 3123.599121
8.080000 1.880000 -2.120000 35.889107 -56.041061 4428.628418
8.080000 1.880000 -2.080000 61.240067 -42.532722 5559.377930
8.080000 1.880000 -2.040000 75.951828 -12.886410 5934.739746
8.080000 1.880000 -2.000000 69.639748 21.250366 5301.272461
8.080000 1.880000 -1.960000 44.651840 43.635723 3897.863281
8.080000 1.880000 -1.920000 14.705700 45.507069 2287.150879
8.080000 1.880000 -1.880000 -5.567610 31.191063 1003.880676
8.080000 1.880000 -1.840000 -10.605051 13.007042 281.650238
8.080000 1.880000 -1.800000 -5.290989 1.162784 29.346630
8.080000 1.920000 -2.200000 26.701824 -40.518303 2354.720215
8.080000 1.920000 -2.160000 38.727016 -49.176746 3918.134277
8.080000 1.920000 -2.120000 66.268204 -50.362518 6927.857910
8.080000 1.920000 -2.080000 98.422424 -27.646399 10451.296875
8.080000 1.920000 -2.040000 111.460556 18.962433 12783.029297
8.080000 1.920000 -2.000000 89.435341 67.566460 12563.906250
8.080000 1.920000 -1.960000 40.715248 90.028503 9762.863281
8.080000 1.920000 -1.920000 -6.507130 75.372757 5723.395508
8.080000 1.920000 -1.880000 -26.728304 38.955681 2231.947266
8.080000 1.920000 -1.840000 -17.091166 8.693361 367.682465
8.080000 1.920000 -1.800000 3.271866 1.410835 12.695562
8.080000 1.960000 -2.200000 43.184872 -19.345213 2239.170410
8.080000 1.960000 -2.160000 58.548550 -28.102453 4217.680664
8.080000 1.960000 -2.120000 91.934418 -20.860374 8887.092773
8.080000 1.960000 -2.080000 121.274490 19.389776 15083.465820
8.080000 1.960000 -2.040000 115.175629 81.350082 19883.261719
8.080000 1.960000 -2.000000 63.742420 128.244034 20509.626953
8.080000 1.960000 -1.960000 -7.017519 127.845901 16393.820312
8.080000 1.960000 -1.920000 -54.168480 82.047455 9666.008789
8.080000 1.960000 -1.880000 -54.094818 26.438354 3625.235840
8.080000 1.960000 -1.840000 -21.592617 -0.932173 467.110077
8.080000 1.960000 -1.800000 6.425833 8.095425 106.827225
8.080000 2.000000 -2.200000 42.725273 7.622161 1883.546265
8.080000 2.000000 -2.160000 61.540493 3.344241 3798.416016
8.080000 2.000000 -2.120000 92.452606 24.285536 9137.271484
8.080000 2.000000 -2.080000 103.689301 78.043182 16842.208984
8.080000 2.000000 -2.040000 67.480789 137.127808 23357.691406
8.080000 2.000000 -2.000000 -7.925586 157.673523 24923.753906
8.080000 2.000000 -1.960000 -78.302307 119.462799 20402.611328
8.080000 2.000000 -1.920000 -99.755829 47.720551 12228.476562
8.080000 2.000000 -1.880000 -67.579391 -7.232191 4619.278809
8.080000 2.000000 -1.840000 -19.200699 -14.384657 575.585205
8.080000 2.000000 -1.800000 2.089605 12.563654 162.211853
8.080000 2.040000 -2.200000 25.303860 27.805428 1413.427124
8.080000 2.040000 -2.160000 42.868759 30.326538 2757.429443
8.080000 2.040000 -2.120000 60.806145 60.473934 7354.483887
8.080000 2.040000 -2.080000 47.012894 111.104958 14554.523438
8.080000 2.040000 -2.040000 -10.973003 144.912628 21120.076172
8.080000 2.040000 -2.000000 -85.320801 126.509857 23284.382812
8.080000 2.040000 -1.960000 -126.949013 59.012527 19598.531250
8.080000 2.040000 -1.920000 -109.142929 -13.705330 12100.014648
8.080000 2.040000 -1.880000 -52.829811 -44.617714 4781.729492
8.080000 2.040000 -1.840000 -6.977949 -25.278835 687.711304
8.080000 2.040000 -1.800000 -2.836563 9.718397 102.493332
8.080000 2.080000 -2.200000 -0.356317 31.291149 979.262939
8.080000 2.080000 -2.160000 11.393045 37.500561 1536.093628
8.080000 2.080000 -2.120000 13.551950 65.085571 4419.786621
8.080000 2.080000 -2.080000 -16.136889 95.948128 9466.442383
8.080000 2.080000 -2.040000 -72.244759 96.265518 14486.355469
8.080000 2.080000 -2.000000 -118.704132 50.442116 16635.078125
8.080000 2.080000 -1.960000 -119.253616 -18.241592 14554.180664
8.080000 2.080000 -1.920000 -72.512230 -64.599922 9431.173828
8.080000 2.080000 -1.880000 -15.252085 -61.890339 4063.040039
8.080000 2.080000 -1.840000 11.280375 -25.519140 778.473389
8.080000 2.080000 -1.800000 -1.224116 3.986310 17.389124
8.080000 2.120000 -2.200000 -20.326927 16.827608 696.352356
8.080000 2.120000 -2.160000 -14.034172 21.466585 657.772278
8.080000 2.120000 -2.120000 -20.135929 37.411118 1805.047363
8.080000 2.120000 -2.080000 -47.409237 45.226658 4293.086426
8.080000 2.120000 -2.040000 -80.579391 24.747616 7105.482910
8.080000 2.120000 -2.000000 -90.735687 -21.088409 8677.685547
8.080000 2.120000 -1.960000 -63.203087 -63.823765 8068.103027
8.080000 2.120000 -1.920000 -14.261684 -73.857620 5658.343750
8.080000 2.120000 -1.880000 22.088093 -48.111076 2802.559570
8.080000 2.120000 -1.840000 25.183386 -12.501331 790.486206
8.080000 2.120000 -1.800000 5.321788 3.639679 41.568687
8.080000 2.160000 -2.200000 -23.485725 -5.986745 587.420410
8.080000 2.160000 -2.160000 -18.445456 -4.735930 362.663879
8.080000 2.160000 -2.120000 -22.281168 0.226919 496.501923
8.080000 2.160000 -2.080000 -34.388901 -3.779739 1196.882812
8.080000 2.160000 -2.040000 -41.281967 -22.609531 2215.391602
8.080000 2.160000 -2.000000 -29.555410 -46.087746 2997.602539
8.080000 2.160000 -1.960000 -0.988438 -55.619656 3094.523193
8.080000 2.160000 -1.920000 26.808264 -41.967785 2479.978027
8.080000 2.160000 -1.880000 36.055260 -14.798260 1518.970337
8.080000 2.160000 -1.840000 25.030907 6.298418 666.216309
8.080000 2.160000 -1.800000 8.202711 10.182263 170.962952
8.080000 2.200000 -2.200000 -9.570914 -21.946133 573.235168
8.080000 2.200000 -2.160000 -3.224985 -21.328358 465.299347
8.080000 2.200000 -2.120000 -0.445136 -19.875698 395.241516
8.080000 2.200000 -2.080000 1.599315 -21.303040 456.377289
8.080000 2.200000 -2.040000 7.614559 -24.033670 635.598816
8.080000 2.200000 -2.000000 18.012074 -22.380903 825.339600
8.080000 2.200000 -1.960000 27.241638 -12.836499 906.882568
8.080000 2.200000 -1.920000 28.787785 1.454987 830.853516
8.080000 2.200000 -1.880000 21.584585 13.138317 638.509705
8.080000 2.200000 -1.840000 10.826078 17.393402 419.734406
8.080000 2.200000 -1.800000 2.506029 15.689743 252.448212
8.120000 1.800000 -2.200000 -21.155437 -9.298100 534.007202
8.120000 1.800000 -2.160000 -10.596165 -23.382477 659.018921
8.120000 1.800000 -2.120000 13.134626 -25.236139 809.381165
8.120000 1.800000 -2.080000 33.412971 -5.742981 1149.408447
8.120000 1.800000 -2.040000 32.117439 24.568390 1635.135742
8.120000 1.800000 -2.000000 8.362606 43.519257 1963.858887
8.120000 1.800000 -1.960000 -19.465488 38.179630 1836.589478
8.120000 1.800000 -1.920000 -31.230181 16.893997 1260.731323
8.120000 1.800000 -1.880000 -23.905130 -0.238945 571.512329
8.120000 1.800000 -1.840000 -12.117019 -2.038806 150.978882
8.120000 1.800000 -1.800000 -10.629456 4.036570 129.279221
8.120000 1.840000 -2.200000 -11.249863 -26.955185 853.141357
8.120000 1.840000 -2.160000 4.869466 -35.638531 1293.816528
8.120000 1.840000 -2.120000 28.669415 -28.434992 1630.484131
8.120000 1.840000 -2.080000 42.383133 -2.697290 1803.605347
8.120000 1.840000 -2.040000 33.158115 26.722507 1813.552979
8.120000 1.840000 -2.000000 6.409437 40.122032 1650.858398
8.120000 1.840000 -1.960000 -18.726114 30.990898 1311.103149
8.120000 1.840000 -1.920000 -27.208389 10.889459 858.876770
8.120000 1.840000 -1.880000 -20.601151 -3.361773 435.708923
8.120000 1.840000 -1.840000 -12.008058 -5.905377 179.066925
8.120000 1.840000 -1.800000 -10.352939 -4.545639 127.846176
8.120000 1.880000 -2.200000 10.577168 -33.671654 1245.656738
8.120000 1.880000 -2.160000 28.033676 -35.272461 2030.033447
8.120000 1.880000 -2.120000 47.954727 -21.315205 2753.993652
8.120000 1.880000 -2.080000 55.047325 6.929169 3078.221436
8.120000 1.880000 -2.040000 40.685699 34.831238 2868.541260
8.120000 1.880000 -2.000000 11.740913 45.951653 2249.403564
8.120000 1.880000 -1.960000 -14.680964 35.732388 1492.334106
8.120000 1.880000 -1.920000 -25.313807 14.247540 843.781250
8.120000 1.880000 -1.880000 -20.074497 -3.707741 416.732788
8.120000 1.880000 -1.840000 -8.806026 -10.719943 192.463287
8.120000 1.880000 -1.800000 -0.568159 -9.767162 95.720268
8.120000 1.920000 -2.200000 33.312363 -22.803785 1629.726074
8.120000 1.920000 -2.160000 48.323578 -18.098965 2662.740723
8.120000 1.920000 -2.120000 62.754162 0.109612 3938.096680
8.120000 1.920000 -2.080000 63.419342 29.818928 4911.181641
8.120000 1.920000 -2.040000 42.662891 57.038403 5073.501953
8.120000 1.920000 -2.000000 7.398523 65.121643 4295.566895
8.120000 1.920000 -1.960000 -23.861855 48.466179 2918.358643
8.120000 1.920000 -1.920000 -34.628651 18.057550 1525.218506
8.120000 1.920000 -1.880000 -23.038544 -6.743511 576.249390
8.120000 1.920000 -1.840000 -2.330828 -13.186587 179.318832
8.120000 1.920000 -1.800000 10.907809 -3.856086 133.849701
8.120000 1.960000 -2.200000 43.519279 2.283989 1899.144287
8.120000 1.960000 -2.160000 53.412369 11.065933 2975.335938
8.120000 1.960000 -2.120000 61.082886 31.543219 4726.093750
8.120000 1.960000 -2.080000 53.230877 61.227787 6582.368164
8.120000 1.960000 -2.040000 22.736931 83.986427 7570.688477
8.120000 1.960000 -2.000000 -19.807623 81.293182 7000.923340
8.120000 1.960000 -1.960000 -50.344814 50.011898 5035.790039
8.120000 1.960000 -1.920000 -50.473984 8.753527 2624.247314
8.120000 1.960000 -1.880000 -24.232525 -15.777585 836.147461
8.120000 1.960000 -1.840000 4.502645 -11.328734 148.614044
8.120000 1.960000 -1.800000 12.921704 9.754974 262.129974
8.120000 2.000000 -2.200000 33.635872 28.764458 1958.765869
8.120000 2.000000 -2.160000 37.092415 38.374210 2848.427246
8.120000 2.000000 -2.120000 36.671009 58.016022 4710.622070
8.120000 2.000000 -2.080000 18.719444 82.402527 7140.593750
8.120000 2.000000 -2.040000 -19.751133 92.175987 8886.520508
8.120000 2.000000 -2.000000 -60.776306 71.041412 8740.641602
8.120000 2.000000 -1.960000 -76.948807 25.294123 6560.911133
8.120000 2.000000 -1.920000 -56.587814 -16.532928 3475.518311
8.120000 2.000000 -1.880000 -17.233418 -27.325592 1043.678711
8.120000 2.000000 -1.840000 8.515047 -6.503418 114.800476
8.120000 2.000000 -1.800000 2.908186 19.201265 377.146149
8.120000 2.040000 -2.200000 7.970796 41.309097 1769.975098
8.120000 2.040000 -2.160000 5.740069 48.063416 2343.040283
8.120000 2.040000 -2.120000 -2.004812 62.125877 3863.644043
8.120000 2.040000 -2.080000 -26.247383 74.112595 6181.602051
8.120000 2.040000 -2.040000 -62.292534 65.239532 8136.556641
8.120000 2.040000 -2.000000 -87.011116 28.384092 8376.590820
8.120000 2.040000 -1.960000 -78.626221 -18.382458 6519.997070
8.120000 2.040000 -1.920000 -40.316326 -43.931793 3555.408691
8.120000 2.040000 -1.880000 -1.291985 -32.865082 1081.782837
8.120000 2.040000 -1.840000 9.187941 -1.707775 87.334747
8.120000 2.040000 -1.800000 -10.054092 16.183033 362.975342
8.120000 2.080000 -2.200000 -18.460682 32.258919 1381.434570
8.120000 2.080000 -2.160000 -23.291172 33.705162 1678.516602
8.120000 2.080000 -2.120000 -33.800049 38.431213 2619.401367
8.120000 2.080000 -2.080000 -54.765991 35.418381 4253.775391
8.120000 2.080000 -2.040000 -75.109283 12.801405 5805.280273
8.120000 2.080000 -2.000000 -74.850708 -24.593719 6207.479492
8.120000 2.080000 -1.960000 -46.268616 -53.672279 5021.498535
8.120000 2.080000 -1.920000 -6.291056 -53.171349 2866.769775
8.120000 2.080000 -1.880000 16.291716 -25.918806 937.204468
8.120000 2.080000 -1.840000 8.256351 1.539837 70.538422
8.120000 2.080000 -1.800000 -14.372551 4.218600 224.366806
8.120000 2.120000 -2.200000 -29.268610 8.053817 921.515503
8.120000 2.120000 -2.160000 -32.843449 4.715542 1100.928467
8.120000 2.120000 -2.120000 -39.735588 0.730227 1579.450195
8.120000 2.120000 -2.080000 -48.183968 -11.463821 2453.114014
8.120000 2.120000 -2.040000 -47.276199 -33.440548 3353.309326
8.120000 2.120000 -2.000000 -28.306421 -53.614609 3675.779785
8.120000 2.120000 -1.960000 2.335201 -55.601242 3096.951172
8.120000 2.120000 -1.920000 25.082714 -35.392502 1881.771729
8.120000 2.120000 -1.880000 24.868572 -8.362177 688.371887
8.120000 2.120000 -1.840000 6.912959 3.823513 62.408257
8.120000 2.120000 -1.800000 -7.315703 -5.489447 83.653542
8.120000 2.160000 -2.200000 -18.632170 -14.128531 546.773132
8.120000 2.160000 -2.160000 -19.192549 -19.158970 735.420044
8.120000 2.160000 -2.120000 -18.711891 -26.856474 1071.405029
8.120000 2.160000 -2.080000 -12.805110 -37.403904 1563.022827
8.120000 2.160000 -2.040000 2.136848 -44.911900 2021.644897
8.120000 2.160000 -2.000000 22.131638 -40.872505 2160.371094
8.120000 2.160000 -1.960000 35.755791 -23.348900 1823.647705
8.120000 2.160000 -1.920000 33.692715 -1.792927 1138.413574
8.120000 2.160000 -1.880000 18.698481 9.685124 443.434814
8.120000 2.160000 -1.840000 4.576752 5.445572 50.600906
8.120000 2.160000 -1.800000 3.482922 -5.649692 44.049763
8.120000 2.200000 -2.200000 3.585441 -18.759539 364.775665
8.120000 2.200000 -2.160000 4.387892 -22.849081 541.334106
8.120000 2.200000 -2.120000 11.001372 -28.953003 959.306580
8.120000 2.200000 -2.080000 24.832558 -29.961168 1514.327637
8.120000 2.200000 -2.040000 39.453499 -19.554859 1938.971191
8.120000 2.200000 -2.000000 44.385284 0.345295 1970.172729
8.120000 2.200000 -1.960000 34.481865 18.897224 1546.104126
8.120000 2.200000 -1.920000 15.966243 24.836681 871.781616
8.120000 2.200000 -1.880000 2.005309 16.739727 284.239746
8.120000 2.200000 -1.840000 1.056104 4.697813 23.184801
8.120000 2.200000 -1.800000 9.186035 0.873535 85.146301
8.160000 1.800000 -2.200000 -21.818382 -2.254755 481.125732
8.160000 1.800000 -2.160000 -12.002522 -17.468170 449.197479
8.160000 1.800000 -2.120000 11.592558 -15.507510 374.870300
8.160000 1.800000 -2.080000 25.334156 9.776190 737.393372
8.160000 1.800000 -2.040000 11.139436 39.229767 1663.061646
8.160000 1.800000 -2.000000 -23.138008 46.166298 2666.694580
8.160000 1.800000 -1.960000 -49.888058 23.322670 3032.765381
8.160000 1.800000 -1.920000 -48.693089 -9.634972 2463.849609
8.160000 1.800000 -1.880000 -25.707695 -26.166399 1345.565918
8.160000 1.800000 -1.840000 -5.302935 -19.000357 389.134674
8.160000 1.800000 -1.800000 -3.782214 -4.795943 37.306213
8.160000 1.840000 -2.200000 -12.872613 -18.018620 490.374817
8.160000 1.840000 -2.160000 4.232858 -24.779566 631.943970
8.160000 1.840000 -2.120000 23.695538 -10.295702 667.479980
8.160000 1.840000 -2.080000 23.494274 18.883221 908.556885
8.160000 1.840000 -2.040000 -2.148946 38.784443 1508.850952
8.160000 1.840000 -2.000000 -35.016685 31.177128 2198.181641
8.160000 1.840000 -1.960000 -49.747181 1.832075 2478.138428
8.160000 1.840000 -1.920000 -37.923145 -25.413761 2084.024170
8.160000 1.840000 -1.880000 -14.406199 -32.188492 1243.637573
8.160000 1.840000 -1.840000 -0.238404 -21.809061 475.691956
8.160000 1.840000 -1.800000 -1.347209 -12.028527 146.500443
8.160000 1.880000 -2.200000 7.697907 -22.493107 565.197632
8.160000 1.880000 -2.160000 23.887514 -17.511335 877.260254
8.160000 1.880000 -2.120000 31.825806 3.438566 1024.705688
8.160000 1.880000 -2.080000 19.133812 26.845100 1086.762207
8.160000 1.880000 -2.040000 -9.153996 33.633476 1215.006348
8.160000 1.880000 -2.000000 -33.685017 17.061455 1425.773560
8.160000 1.880000 -1.960000 -37.944012 -10.829844 1557.033569
8.160000 1.880000 -1.920000 -22.342775 -30.538967 1431.828125
8.160000 1.880000 -1.880000 -1.734973 -32.325127 1047.923950
8.160000 1.880000 -1.840000 9.774642 -22.326595 594.020508
8.160000 1.880000 -1.800000 10.574553 -13.070376 282.655914
8.160000 1.920000 -2.200000 27.241751 -8.622482 816.460205
8.160000 1.920000 -2.160000 34.207039 4.363783 1189.164062
8.160000 1.920000 -2.120000 29.499491 22.736305 1387.159546
8.160000 1.920000 -2.080000 10.940561 35.018642 1346.001221
8.160000 1.920000 -2.040000 -13.056498 31.371326 1154.632202
8.160000 1.920000 -2.000000 -28.711449 12.012306 968.642822
8.160000 1.920000 -1.960000 -27.069935 -12.146811 880.326416
8.160000 1.920000 -1.920000 -10.560394 -27.375290 860.928406
8.160000 1.920000 -1.880000 9.381872 -26.895203 811.371460
8.160000 1.920000 -1.840000 21.164705 -14.645374 662.431763
8.160000 1.920000 -1.800000 20.788418 -0.784251 432.773376
8.160000 1.960000 -2.200000 30.714790 17.676609 1255.860840
8.160000 1.960000 -2.160000 25.337158 30.101959 1548.099487
8.160000 1.960000 -2.120000 12.782951 39.013611 1685.465698
8.160000 1.960000 -2.080000 -4.706792 40.127232 1632.348633
8.160000 1.960000 -2.040000 -21.757210 30.232525 1387.381714
8.160000 1.960000 -2.000000 -30.290749 10.449718 1026.726074
8.160000 1.960000 -1.960000 -23.985645 -11.267078 702.258179
8.160000 1.960000 -1.920000 -4.567790 -23.015800 550.591736
8.160000 1.960000 -1.880000 16.553326 -17.434082 577.959839
8.160000 1.960000 -1.840000 25.361115 0.945601 644.080322
8.160000 1.960000 -1.800000 16.634903 17.565807 585.277588
8.160000 2.000000 -2.200000 12.748625 39.589043 1729.819824
8.160000 2.000000 -2.160000 -1.156472 43.483036 1892.111816
8.160000 2.000000 -2.120000 -14.333877 40.973419 1884.281006
8.160000 2.000000 -2.080000 -26.163029 33.700905 1820.255127
8.160000 2.000000 -2.040000 -35.357483 20.194416 1657.966064
8.160000 2.000000 -2.000000 -36.126198 0.617564 1305.483521
8.160000 2.000000 -1.960000 -22.916098 -17.301281 824.481812
8.160000 2.000000 -1.920000 0.298734 -21.277203 452.808594
8.160000 2.000000 -1.880000 18.468952 -6.521832 383.636505
8.160000 2.000000 -1.840000 17.276543 15.878854 550.616943
8.160000 2.000000 -1.800000 -1.857019 26.107191 685.033997
8.160000 2.040000 -2.200000 -16.251404 41.374653 1975.970093
8.160000 2.040000 -2.160000 -30.867817 34.082642 2114.448730
8.160000 2.040000 -2.120000 -38.652000 22.639847 2006.539795
8.160000 2.040000 -2.080000 -42.144836 10.417601 1884.713623
8.160000 2.040000 -2.040000 -41.661793 -4.133734 1752.792725
8.160000 2.040000 -2.000000 -32.469543 -19.789352 1445.889648
8.160000 2.040000 -1.960000 -12.642536 -27.729500 928.758911
8.160000 2.040000 -1.920000 8.628644 -18.935925 433.022736
8.160000 2.040000 -1.880000 15.508777 3.030709 249.707352
8.160000 2.040000 -1.840000 1.503877 20.293894 414.103790
8.160000 2.040000 -1.800000 -20.260696 16.073898 668.866028
8.160000 2.080000 -2.200000 -36.588390 21.343353 1794.249023
8.160000 2.080000 -2.160000 -45.362007 6.276864 2097.110596
8.160000 2.080000 -2.120000 -44.788303 -9.366880 2093.730469
8.160000 2.080000 -2.080000 -38.349094 -22.427067 1973.626465
8.160000 2.080000 -2.040000 -26.845684 -32.790936 1795.936279
8.160000 2.080000 -2.000000 -9.406643 -37.138348 1467.741821
8.160000 2.080000 -1.960000 9.468577 -29.430801 955.826050
8.160000 2.080000 -1.920000 18.456524 -9.839737 437.463684
8.160000 2.080000 -1.880000 9.408522 9.439875 177.631516
8.160000 2.080000 -1.840000 -10.923187 12.259141 269.602570
8.160000 2.080000 -1.800000 -22.931715 -4.816686 549.063965
8.160000 2.120000 -2.200000 -34.500374 -5.540386 1220.971680
8.160000 2.120000 -2.160000 -35.812180 -22.302111 1779.896362
8.160000 2.120000 -2.120000 -27.045631 -37.394241 2129.795410
8.160000 2.120000 -2.080000 -11.020878 -46.118774 2248.401123
8.160000 2.120000 -2.040000 8.461710 -45.299129 2123.611816
8.160000 2.120000 -2.000000 25.385603 -33.009781 1734.074463
8.160000 2.120000 -1.960000 31.470076 -12.072622 1136.113892
8.160000 2.120000 -1.920000 21.763668 7.250075 526.220825
8.160000 2.120000 -1.880000 1.953677 12.315373 155.485275
8.160000 2.120000 -1.840000 -12.339741 -0.484272 152.503708
8.160000 2.120000 -1.800000 -7.773390 -19.242992 430.718353
8.160000 2.160000 -2.200000 -13.678168 -19.050142 550.000244
8.160000 2.160000 -2.160000 -10.507002 -33.405361 1226.315308
8.160000 2.160000 -2.120000 4.091780 -44.712891 2015.985229
8.160000 2.160000 -2.080000 26.049339 -44.389965 2649.037109
8.160000 2.160000 -2.040000 45.061142 -28.610458 2849.064941
8.160000 2.160000 -2.000000 49.738392 -2.802474 2481.761475
8.160000 2.160000 -1.960000 35.912720 19.466330 1668.661377
8.160000 2.160000 -1.920000 11.861862 24.968578 764.133728
8.160000 2.160000 -1.880000 -5.807309 11.614420 168.619583
8.160000 2.160000 -1.840000 -4.694326 -8.134130 88.200775
8.160000 2.160000 -1.800000 12.375163 -16.309200 419.134705
8.160000 2.200000 -2.200000 7.417252 -10.209034 159.239990
8.160000 2.200000 -2.160000 11.163382 -22.384670 625.694519
8.160000 2.200000 -2.120000 28.561291 -28.901619 1651.050903
8.160000 2.200000 -2.080000 50.292492 -18.074266 2856.013916
8.160000 2.200000 -2.040000 59.367279 9.174150 3608.638916
8.160000 2.200000 -2.000000 45.507832 37.031944 3442.327637
8.160000 2.200000 -1.960000 15.863286 46.503231 2414.194336
8.160000 2.200000 -1.920000 -9.128897 31.888643 1100.222290
8.160000 2.200000 -1.880000 -12.616008 6.702890 204.092392
8.160000 2.200000 -1.840000 3.996315 -7.607409 73.843201
8.160000 2.200000 -1.800000 22.546181 -0.426221 508.511932
8.200000 1.800000 -2.200000 -28.944927 -2.295508 843.078186
8.200000 1.800000 -2.160000 -16.030731 -18.402733 595.644897
8.200000 1.800000 -2.120000 5.997279 -11.485525 167.884628
8.200000 1.800000 -2.080000 9.772405 15.276468 328.870361
8.200000 1.800000 -2.040000 -15.079119 34.695530 1431.159668
8.200000 1.800000 -2.000000 -48.757458 23.507223 2929.879395
8.200000 1.800000 -1.960000 -60.255310 -12.444670 3785.572266
8.200000 1.800000 -1.920000 -38.885643 -43.167866 3375.557861
8.200000 1.800000 -1.880000 -4.781197 -44.719063 2022.654419
8.200000 1.800000 -1.840000 12.591148 -22.467390 663.320679
8.200000 1.800000 -1.800000 4.426580 -3.122832 29.346691
8.200000 1.840000 -2.200000 -20.246807 -18.187860 740.731445
8.200000 1.840000 -2.160000 -2.319820 -22.911732 530.329041
8.200000 1.840000 -2.120000 10.252123 -6.073211 141.989929
8.200000 1.840000 -2.080000 -0.871892 16.220959 263.879700
8.200000 1.840000 -2.040000 -29.942087 18.832598 1251.195312
8.200000 1.840000 -2.000000 -51.154533 -5.985147 2652.608398
8.200000 1.840000 -1.960000 -44.244202 -39.528355 3520.040283
8.200000 1.840000 -1.920000 -14.754726 -54.919552 3233.859131
8.200000 1.840000 -1.880000 12.345210 -43.402081 2036.144775
8.200000 1.840000 -1.840000 18.270752 -21.053455 777.068359
8.200000 1.840000 -1.800000 7.750947 -9.888119 157.852081
8.200000 1.880000 -2.200000 0.219686 -21.176743 448.502686
8.200000 1.880000 -2.160000 12.167130 -13.885613 340.849304
8.200000 1.880000 -2.120000 10.208269 2.798844 112.042282
8.200000 1.880000 -2.080000 -8.547171 11.082043 195.865784
8.200000 1.880000 -2.040000 -29.295658 -1.288131 859.894897
8.200000 1.880000 -2.000000 -32.990200 -27.870232 1865.103027
8.200000 1.880000 -1.960000 -14.677885 -48.830589 2599.866699
8.200000 1.880000 -1.920000 12.021542 -49.422470 2587.098145
8.200000 1.880000 -1.880000 28.433981 -32.786346 1883.435791
8.200000 1.880000 -1.840000 27.923742 -14.679214 995.214722
8.200000 1.880000 -1.800000 19.313509 -6.958097 421.426758
8.200000 1.920000 -2.200000 16.685162 -4.854405 301.959869
8.200000 1.920000 -2.160000 14.686720 5.831871 249.710449
8.200000 1.920000 -2.120000 2.372498 11.501644 137.916550
8.200000 1.920000 -2.080000 -12.333599 4.452964 171.946548
8.200000 1.920000 -2.040000 -17.823677 -13.337152 495.563110
8.200000 1.920000 -2.000000 -8.423412 -31.118080 1039.288818
8.200000 1.920000 -1.960000 11.018225 -37.743202 1545.950562
8.200000 1.920000 -1.920000 29.255001 -29.979385 1754.618652
8.200000 1.920000 -1.880000 37.293922 -13.815325 1581.699829
8.200000 1.920000 -1.840000 33.928852 1.300754 1152.859009
8.200000 1.920000 -1.800000 24.407810 9.364135 683.428223
8.200000 1.960000 -2.200000 13.495665 20.494633 602.162964
8.200000 1.960000 -2.160000 -0.901661 22.606695 511.875641
8.200000 1.960000 -2.120000 -12.885882 12.968935 334.239227
8.200000 1.960000 -2.080000 -14.984820 -2.560056 231.098724
8.200000 1.960000 -2.040000 -6.736154 -15.617683 289.287811
8.200000 1.960000 -2.000000 7.219246 -21.003767 493.275757
8.200000 1.960000 -1.960000 21.437763 -17.743004 774.391846
8.200000 1.960000 -1.920000 31.572367 -7.210957 1048.812256
8.200000 1.960000 -1.880000 33.987350 7.599569 1212.893433
8.200000 1.960000 -1.840000 26.642971 21.194983 1159.075195
8.200000 1.960000 -1.800000 12.029989 26.628473 853.796204
8.200000 2.000000 -2.200000 -9.925783 34.749432 1306.044067
8.200000 2.000000 -2.160000 -26.707043 21.786907 1187.935425
8.200000 2.000000 -2.120000 -28.424601 1.355104 809.794250
8.200000 2.000000 -2.080000 -16.623661 -13.109184 448.196808
8.200000 2.000000 -2.040000 -0.934180 -16.252712 265.023346
8.200000 2.000000 -2.000000 11.433172 -11.341590 259.349091
8.200000 2.000000 -1.960000 19.392639 -2.634896 383.017151
8.200000 2.000000 -1.920000 23.007629 9.097970 612.124084
8.200000 2.000000 -1.880000 19.205872 22.703064 884.294678
8.200000 2.000000 -1.840000 5.674403 31.694445 1036.736694
8.200000 2.000000 -1.800000 -11.874082 27.640018 904.964478
8.200000 2.040000 -2.200000 -36.626022 25.263962 1979.733154
8.200000 2.040000 -2.160000 -44.947742 0.423617 2020.479004
8.200000 2.040000 -2.120000 -33.006813 -21.578327 1555.073975
8.200000 2.040000 -2.080000 -11.662787 -28.383713 941.655762
8.200000 2.040000 -2.040000 5.759051 -21.355198 489.211121
8.200000 2.040000 -2.000000 14.357157 -8.830253 284.101318
8.200000 2.040000 -1.960000 16.122921 4.069190 276.506897
8.200000 2.040000 -1.920000 11.981034 16.557308 417.689636
8.200000 2.040000 -1.880000 0.148544 25.633125 657.079224
8.200000 2.040000 -1.840000 -16.905128 23.997190 861.648560
8.200000 2.040000 -1.800000 -28.128822 8.241301 859.149658
8.200000 2.080000 -2.200000 -45.931625 -1.125028 2110.979736
8.200000 2.080000 -2.160000 -41.649059 -28.566036 2550.662598
8.200000 2.080000 -2.120000 -19.474991 -44.535416 2362.678467
8.200000 2.080000 -2.080000 5.784235 -41.674686 1770.236938
8.200000 2.080000 -2.040000 21.674658 -25.626875 1126.527466
8.200000 2.080000 -2.000000 24.936535 -6.175529 659.967896
8.200000 2.080000 -1.960000 17.934679 10.179839 425.281830
8.200000 2.080000 -1.920000 3.491698 19.565689 395.008148
8.200000 2.080000 -1.880000 -14.149128 17.776802 516.212524
8.200000 2.080000 -1.840000 -26.062038 3.163427 689.237122
8.200000 2.080000 -1.800000 -22.200138 -16.934399 779.619995
8.200000 2.120000 -2.200000 -31.616703 -23.311729 1543.052612
8.200000 2.120000 -2.160000 -18.540314 -45.642399 2426.971680
8.200000 2.120000 -2.120000 7.799775 -53.094936 2879.908691
8.200000 2.120000 -2.080000 32.830387 -41.224678 2777.308594
8.200000 2.120000 -2.040000 44.430168 -16.740963 2254.299561
8.200000 2.120000 -2.000000 38.589809 8.537344 1562.059570
8.200000 2.120000 -1.960000 19.224466 23.768030 934.499390
8.200000 2.120000 -1.920000 -4.144627 22.663176 530.797424
8.200000 2.120000 -1.880000 -19.366631 6.248594 414.111298
8.200000 2.120000 -1.840000 -17.154757 -15.503818 534.654053
8.200000 2.120000 -1.800000 1.633991 -27.282042 746.979736
8.200000 2.160000 -2.200000 -7.508435 -24.327250 648.191650
8.200000 2.160000 -2.160000 7.681548 -40.248562 1678.953003
8.200000 2.160000 -2.120000 33.814968 -40.793011 2807.521729
8.200000 2.160000 -2.080000 55.788071 -21.180641 3560.928467
8.200000 2.160000 -2.040000 59.172771 10.191245 3605.278564
8.200000 2.160000 -2.000000 40.150547 36.243393 2925.649902
8.200000 2.160000 -1.960000 9.096359 41.934864 1841.276611
8.200000 2.160000 -1.920000 -15.208739 24.749611 843.848999
8.200000 2.160000 -1.880000 -18.042284 -2.523822 331.893707
8.200000 2.160000 -1.840000 0.356340 -19.951813 398.201813
8.200000 2.160000 -1.800000 24.124886 -14.965272 805.969482
8.200000 2.200000 -2.200000 4.960646 -6.096115 61.770618
8.200000 2.200000 -2.160000 18.817484 -19.318207 727.290771
8.200000 2.200000 -2.120000 43.409271 -15.439451 2122.741455
8.200000 2.200000 -2.080000 59.815559 10.171747 3681.365479
8.200000 2.200000 -2.040000 51.519184 43.768353 4569.895020
8.200000 2.200000 -2.000000 19.683651 62.146439 4249.625977
8.200000 2.200000 -1.960000 -15.363967 51.500603 2888.363525
8.200000 2.200000 -1.920000 -29.596092 20.058594 1278.275879
8.200000 2.200000 -1.880000 -15.239391 -7.685775 291.310181
8.200000 2.200000 -1.840000 12.555598 -11.208623 283.276276
8.200000 2.200000 -1.800000 28.840933 8.972170 912.299194
