#kx 	ky 	kz 	real 	imag 	intensity
0.800000 -9.200000 -3.200000 -61.702843 0.329595 3807.349365
0.800000 -9.200000 -3.160000 -45.783512 -22.884417 2619.826416
0.800000 -9.200000 -3.120000 -23.150972 -22.204901 1029.025146
0.800000 -9.200000 -3.080000 -16.875343 -5.900137 319.588837
0.800000 -9.200000 -3.040000 -30.123732 2.827385 915.433289
0.800000 -9.200000 -3.000000 -44.291412 -8.794399 2039.070679
0.800000 -9.200000 -2.960000 -40.079464 -30.104740 2512.658691
0.800000 -9.200000 -2.920000 -18.093065 -39.355370 1876.204102
0.800000 -9.200000 -2.880000 2.557204 -26.900194 730.159729
0.800000 -9.200000 -2.840000 4.677272 -4.249039 39.931213
0.800000 -9.200000 -2.800000 -10.445166 9.188848 193.536423
0.800000 -9.160000 -3.200000 -49.609116 -37.551655 3871.191406
0.800000 -9.160000 -3.160000 -21.930647 -46.736782 2665.280273
0.800000 -9.160000 -3.120000 -3.815148 -32.453079 1067.757690
0.800000 -9.160000 -3.080000 -8.245543 -15.651911 312.971283
0.800000 -9.160000 -3.040000 -23.475330 -16.322042 817.500183
0.800000 -9.160000 -3.000000 -27.585728 -33.050781 1853.326416
0.800000 -9.160000 -2.960000 -12.384125 -46.366714 2303.238770
0.800000 -9.160000 -2.920000 8.863050 -40.556160 1723.355835
0.800000 -9.160000 -2.880000 16.611719 -19.781300 667.249023
0.800000 -9.160000 -2.840000 5.213603 -2.285553 32.405407
0.800000 -9.160000 -2.800000 -13.282585 -1.015997 177.459320
0.800000 -9.120000 -3.200000 -11.312806 -53.537231 2994.214600
0.800000 -9.120000 -3.160000 13.566553 -43.813873 2103.706787
0.800000 -9.120000 -3.120000 18.205563 -23.363935 877.315979
0.800000 -9.120000 -3.080000 6.034691 -13.828812 227.653534
0.800000 -9.120000 -3.040000 -3.829821 -21.683626 484.847168
0.800000 -9.120000 -3.000000 1.825871 -33.704208 1139.307495
0.800000 -9.120000 -2.960000 17.110556 -33.295227 1401.343262
0.800000 -9.120000 -2.920000 25.220619 -18.621584 982.843018
0.800000 -9.120000 -2.880000 17.259039 -3.359163 309.158386
0.800000 -9.120000 -2.840000 0.737066 -1.109256 1.773715
0.800000 -9.120000 -2.800000 -10.002790 -11.828843 239.977341
0.800000 -9.080000 -3.200000 24.573715 -35.129341 1837.937988
0.800000 -9.080000 -3.160000 34.019417 -15.194670 1388.198730
0.800000 -9.080000 -3.120000 25.532696 -0.121447 651.933350
0.800000 -9.080000 -3.080000 13.201453 -0.289880 174.362396
0.800000 -9.080000 -3.040000 11.034751 -8.611223 195.918900
0.800000 -9.080000 -3.000000 18.431608 -10.939552 459.397980
0.800000 -9.080000 -2.960000 23.047661 -2.703064 538.501221
0.800000 -9.080000 -2.920000 16.182198 6.805643 308.180298
0.800000 -9.080000 -2.880000 2.670289 5.950132 42.534515
0.800000 -9.080000 -2.840000 -5.127927 -6.055902 62.969593
0.800000 -9.080000 -2.800000 -1.108165 -19.105042 366.230652
0.800000 -9.040000 -3.200000 32.541576 0.490784 1059.195068
0.800000 -9.040000 -3.160000 25.981058 16.360592 942.684326
0.800000 -9.040000 -3.120000 12.993529 19.832991 562.179321
0.800000 -9.040000 -3.080000 6.319238 14.011706 236.260681
0.800000 -9.040000 -3.040000 8.029139 10.230023 169.120453
0.800000 -9.040000 -3.000000 9.173502 13.781466 274.081909
0.800000 -9.040000 -2.960000 2.118324 18.019512 329.190125
0.800000 -9.040000 -2.920000 -9.371488 13.029942 257.604156
0.800000 -9.040000 -2.880000 -13.938771 -1.845218 197.694168
0.800000 -9.040000 -2.840000 -5.491432 -16.337191 297.059631
0.800000 -9.040000 -2.800000 9.918856 -20.111635 502.861572
0.800000 -9.000000 -3.200000 13.670706 24.351652 779.891174
0.800000 -9.000000 -3.160000 0.731314 28.568346 816.685181
0.800000 -9.000000 -3.120000 -8.239810 23.207153 606.466431
0.800000 -9.000000 -3.080000 -9.328749 17.462860 391.977020
0.800000 -9.000000 -3.040000 -9.068905 17.451782 386.809723
0.800000 -9.000000 -3.000000 -14.944910 18.738312 574.474670
0.800000 -9.000000 -2.960000 -24.830105 12.109855 763.182678
0.800000 -9.000000 -2.920000 -28.060804 -4.283233 805.754822
0.800000 -9.000000 -2.880000 -17.225269 -20.768522 728.041382
0.800000 -9.000000 -2.840000 2.767075 -25.216034 643.505066
0.800000 -9.000000 -2.800000 18.837425 -15.399398 591.990051
0.800000 -8.960000 -3.200000 -8.953003 24.096239 660.784973
0.800000 -8.960000 -3.160000 -19.309887 19.626966 758.089539
0.800000 -8.960000 -3.120000 -22.588037 11.871668 651.155945
0.800000 -8.960000 -3.080000 -21.800867 7.981338 538.979553
0.800000 -8.960000 -3.040000 -24.129501 7.194851 633.998718
0.800000 -8.960000 -3.000000 -30.741322 1.974455 948.927368
0.800000 -8.960000 -2.960000 -33.748520 -11.938272 1281.484985
0.800000 -8.960000 -2.920000 -24.493126 -28.311230 1401.438965
0.800000 -8.960000 -2.880000 -4.133125 -35.026844 1243.962524
0.800000 -8.960000 -2.840000 15.685637 -26.095304 927.004150
0.800000 -8.960000 -2.800000 23.404840 -7.983068 611.515930
0.800000 -8.920000 -3.200000 -16.440481 12.570618 428.309875
0.800000 -8.920000 -3.160000 -23.398754 5.598847 578.848816
0.800000 -8.920000 -3.120000 -24.354897 -2.131775 597.705505
0.800000 -8.920000 -3.080000 -23.238176 -6.673319 584.546021
0.800000 -8.920000 -3.040000 -24.206417 -10.607534 698.470398
0.800000 -8.920000 -3.000000 -25.232618 -18.814867 990.684204
0.800000 -8.920000 -2.960000 -19.671148 -30.679058 1328.158691
0.800000 -8.920000 -2.920000 -4.509341 -38.362080 1491.983276
0.800000 -8.920000 -2.880000 14.214996 -34.008293 1358.630127
0.800000 -8.920000 -2.840000 25.666256 -18.301544 993.703247
0.800000 -8.920000 -2.800000 24.112198 -0.728614 581.928955
0.800000 -8.880000 -3.200000 -12.441851 9.161620 238.734924
0.800000 -8.880000 -3.160000 -19.790560 0.210415 391.710541
0.800000 -8.880000 -3.120000 -19.578392 -10.215630 487.672546
0.800000 -8.880000 -3.080000 -14.995047 -16.993744 513.638733
0.800000 -8.880000 -3.040000 -10.506059 -20.716614 539.555359
0.800000 -8.880000 -3.000000 -6.263987 -24.691460 648.905701
0.800000 -8.880000 -2.960000 1.113861 -28.967865 840.377869
0.800000 -8.880000 -2.920000 12.714313 -29.054058 1005.792053
0.800000 -8.880000 -2.880000 23.894131 -21.063347 1014.594116
0.800000 -8.880000 -2.840000 27.884773 -7.168847 828.952942
0.800000 -8.880000 -2.800000 22.491581 5.360859 534.610046
0.800000 -8.840000 -3.200000 -14.506073 16.480469 482.031982
0.800000 -8.840000 -3.160000 -21.612638 0.742692 467.657745
0.800000 -8.840000 -3.120000 -15.716520 -13.885553 439.817627
0.800000 -8.840000 -3.080000 -3.897911 -19.091679 379.685883
0.800000 -8.840000 -3.040000 4.632928 -16.347689 288.710938
0.800000 -8.840000 -3.000000 7.408811 -12.854810 220.136627
0.800000 -8.840000 -2.960000 9.041538 -12.642731 241.588043
0.800000 -8.840000 -2.920000 13.975193 -12.856977 360.607849
0.800000 -8.840000 -2.880000 20.671318 -8.461843 498.906189
0.800000 -8.840000 -2.840000 23.459059 1.000527 551.328491
0.800000 -8.840000 -2.800000 19.133879 10.446922 475.243500
0.800000 -8.800000 -3.200000 -30.274694 18.765579 1268.704102
0.800000 -8.800000 -3.160000 -29.398695 -5.122614 890.524414
0.800000 -8.800000 -3.120000 -12.725077 -18.547016 505.919403
0.800000 -8.800000 -3.080000 4.484748 -15.079118 247.492767
0.800000 -8.800000 -3.040000 9.935825 -3.377108 110.125488
0.800000 -8.800000 -3.000000 4.768538 3.265918 33.405170
0.800000 -8.800000 -2.960000 -0.205338 0.227852 0.094080
0.800000 -8.800000 -2.920000 2.959022 -5.647042 40.644897
0.800000 -8.800000 -2.880000 11.705540 -5.066284 162.686890
0.800000 -8.800000 -2.840000 17.111809 3.697648 306.486603
0.800000 -8.800000 -2.800000 13.706438 13.991473 383.627747
0.840000 -9.200000 -3.200000 -54.865746 -31.810516 4022.158936
0.840000 -9.200000 -3.160000 -27.666481 -40.793190 2429.518555
0.840000 -9.200000 -3.120000 -11.625520 -26.905016 859.032593
0.840000 -9.200000 -3.080000 -18.473888 -13.267920 517.322266
0.840000 -9.200000 -3.040000 -33.087601 -19.823605 1487.764648
0.840000 -9.200000 -3.000000 -31.318813 -41.452381 2699.167969
0.840000 -9.200000 -2.960000 -7.245883 -53.948380 2962.930664
0.840000 -9.200000 -2.920000 19.898254 -40.694649 2051.994873
0.840000 -9.200000 -2.880000 26.052114 -10.735813 793.970337
0.840000 -9.200000 -2.840000 7.203400 10.839323 169.379898
0.840000 -9.200000 -2.800000 -17.789703 8.673779 391.707977
0.840000 -9.160000 -3.200000 -23.033707 -59.774441 4103.535645
0.840000 -9.160000 -3.160000 5.568250 -49.967373 2527.743652
0.840000 -9.160000 -3.120000 11.235986 -28.548723 941.276978
0.840000 -9.160000 -3.080000 -0.913871 -20.373066 415.897003
0.840000 -9.160000 -3.040000 -7.906704 -31.343800 1044.949707
0.840000 -9.160000 -3.000000 4.545284 -43.872849 1945.486450
0.840000 -9.160000 -2.960000 26.554491 -37.945206 2144.979492
0.840000 -9.160000 -2.920000 35.704559 -13.731373 1463.366211
0.840000 -9.160000 -2.880000 21.764576 8.757040 550.382507
0.840000 -9.160000 -2.840000 -2.896125 11.272995 135.467957
0.840000 -9.160000 -2.800000 -17.437595 -4.406533 323.487274
0.840000 -9.120000 -3.200000 20.231503 -53.092110 3228.085938
0.840000 -9.120000 -3.160000 36.034515 -30.005005 2198.786621
0.840000 -9.120000 -3.120000 30.231596 -10.517448 1024.566162
0.840000 -9.120000 -3.080000 18.768753 -7.591777 409.901154
0.840000 -9.120000 -3.040000 17.994232 -13.384644 502.941071
0.840000 -9.120000 -3.000000 26.893269 -11.538106 856.375793
0.840000 -9.120000 -2.960000 30.478685 2.578775 935.600342
0.840000 -9.120000 -2.920000 18.742981 16.701662 630.244873
0.840000 -9.120000 -2.880000 -1.183193 16.242760 265.227173
0.840000 -9.120000 -2.840000 -12.966444 0.958605 169.047607
0.840000 -9.120000 -2.800000 -9.003554 -15.266421 314.127594
0.840000 -9.080000 -3.200000 41.664066 -17.021051 2025.610596
0.840000 -9.080000 -3.160000 41.160465 5.396210 1723.302979
0.840000 -9.080000 -3.120000 30.109673 17.435881 1210.602295
0.840000 -9.080000 -3.080000 21.064007 19.960936 842.131348
0.840000 -9.080000 -3.040000 16.705164 22.283352 775.610229
0.840000 -9.080000 -3.000000 9.700445 27.906076 872.847717
0.840000 -9.080000 -2.960000 -4.742987 29.542004 895.225891
0.840000 -9.080000 -2.920000 -19.944675 18.961296 757.320801
0.840000 -9.080000 -2.880000 -23.773878 -0.899429 566.006226
0.840000 -9.080000 -2.840000 -12.599783 -16.818172 441.605469
0.840000 -9.080000 -2.800000 3.629320 -18.807045 366.876923
0.840000 -9.040000 -3.200000 28.388973 17.745407 1120.833252
0.840000 -9.040000 -3.160000 20.079355 30.173136 1313.598633
0.840000 -9.040000 -3.120000 10.012654 36.859520 1458.877563
0.840000 -9.040000 -3.080000 -0.890448 41.775547 1745.989136
0.840000 -9.040000 -3.040000 -16.617609 44.000237 2212.165771
0.840000 -9.040000 -3.000000 -36.494457 36.179943 2640.833740
0.840000 -9.040000 -2.960000 -50.299053 14.036991 2727.031982
0.840000 -9.040000 -2.920000 -46.244030 -14.437395 2346.948730
0.840000 -9.040000 -2.880000 -24.181065 -32.782257 1659.400269
0.840000 -9.040000 -2.840000 1.502744 -30.861607 954.697021
0.840000 -9.040000 -2.800000 14.341986 -15.073204 432.894043
0.840000 -9.000000 -3.200000 -0.787636 25.694931 660.849854
0.840000 -9.000000 -3.160000 -6.943820 30.469402 976.601074
0.840000 -9.000000 -3.120000 -16.135416 36.647606 1603.398682
0.840000 -9.000000 -3.080000 -33.674507 39.892982 2725.422363
0.840000 -9.000000 -3.040000 -57.094803 29.790491 4147.290039
0.840000 -9.000000 -3.000000 -72.608810 1.444023 5274.124512
0.840000 -9.000000 -2.960000 -65.383751 -34.770954 5484.053711
0.840000 -9.000000 -2.920000 -34.874985 -58.164379 4599.359375
0.840000 -9.000000 -2.880000 1.463414 -55.063759 3034.159180
0.840000 -9.000000 -2.840000 22.077198 -31.651062 1489.192383
0.840000 -9.000000 -2.800000 20.100990 -8.354997 473.855774
0.840000 -8.960000 -3.200000 -16.833878 10.495939 393.544159
0.840000 -8.960000 -3.160000 -19.862883 15.485304 634.328735
0.840000 -8.960000 -3.120000 -32.722012 21.064951 1514.462158
0.840000 -8.960000 -3.080000 -54.861549 14.666994 3224.910156
0.840000 -8.960000 -3.040000 -72.237450 -11.714994 5355.490234
0.840000 -8.960000 -3.000000 -67.198288 -49.713715 6987.063477
0.840000 -8.960000 -2.960000 -35.482025 -77.457466 7258.633301
0.840000 -8.960000 -2.920000 6.826454 -77.090218 5989.502441
0.840000 -8.960000 -2.880000 35.224400 -50.802929 3821.695801
0.840000 -8.960000 -2.840000 37.379921 -19.126678 1763.088379
0.840000 -8.960000 -2.800000 22.471514 -2.319255 510.347870
0.840000 -8.920000 -3.200000 -10.874034 -2.791740 126.038429
0.840000 -8.920000 -3.160000 -17.527246 4.212736 324.951538
0.840000 -8.920000 -3.120000 -34.938389 2.928342 1229.266235
0.840000 -8.920000 -3.080000 -51.824844 -16.366142 2953.665039
0.840000 -8.920000 -3.040000 -51.043442 -49.237091 5029.723633
0.840000 -8.920000 -3.000000 -25.089037 -76.987785 6556.579102
0.840000 -8.920000 -2.960000 14.839543 -80.844833 6756.099121
0.840000 -8.920000 -2.920000 46.265045 -58.133835 5519.997070
0.840000 -8.920000 -2.880000 53.665688 -24.896715 3499.852539
0.840000 -8.920000 -2.840000 40.567932 -1.828898 1649.101929
0.840000 -8.920000 -2.800000 24.109686 3.188884 591.445984
0.840000 -8.880000 -3.200000 -0.621119 2.543889 6.857161
0.840000 -8.880000 -3.160000 -14.283162 3.999385 220.003784
0.840000 -8.880000 -3.120000 -28.783669 -9.098866 911.288940
0.840000 -8.880000 -3.080000 -30.420780 -34.094353 2087.848877
0.840000 -8.880000 -3.040000 -12.199806 -57.054581 3404.060303
0.840000 -8.880000 -3.000000 18.853172 -62.788795 4297.875000
0.840000 -8.880000 -2.960000 46.034584 -47.096424 4337.255859
0.840000 -8.880000 -2.920000 55.820885 -20.203037 3524.133789
0.840000 -8.880000 -2.880000 47.954453 1.978815 2303.545166
0.840000 -8.880000 -2.840000 33.749435 10.802313 1255.714355
0.840000 -8.880000 -2.800000 24.727440 10.256132 716.634521
0.840000 -8.840000 -3.200000 -7.157790 16.682308 329.533356
0.840000 -8.840000 -3.160000 -20.230640 4.875721 433.051453
0.840000 -8.840000 -3.120000 -21.282597 -15.417556 690.649963
0.840000 -8.840000 -3.080000 -7.222174 -32.313095 1096.295898
0.840000 -8.840000 -3.040000 14.735403 -35.861683 1503.192383
0.840000 -8.840000 -3.000000 32.816238 -25.241821 1714.055054
0.840000 -8.840000 -2.960000 39.509476 -8.267326 1629.347290
0.840000 -8.840000 -2.920000 35.973595 5.651804 1326.042358
0.840000 -8.840000 -2.880000 29.006996 12.560610 999.174744
0.840000 -8.840000 -2.840000 24.170349 15.246258 816.654114
0.840000 -8.840000 -2.800000 21.424410 18.590937 804.628296
0.840000 -8.800000 -3.200000 -29.109015 16.182499 1109.208008
0.840000 -8.800000 -3.160000 -28.629951 -5.363986 848.446472
0.840000 -8.800000 -3.120000 -13.415853 -19.561443 562.635132
0.840000 -8.800000 -3.080000 5.087491 -18.875355 382.161591
0.840000 -8.800000 -3.040000 15.209451 -7.976860 294.957703
0.840000 -8.800000 -3.000000 14.736820 2.279469 222.369858
0.840000 -8.800000 -2.960000 10.652839 5.526093 144.020676
0.840000 -8.800000 -2.920000 10.490011 4.535397 130.610153
0.840000 -8.800000 -2.880000 14.745086 6.386678 258.207214
0.840000 -8.800000 -2.840000 17.427410 14.259193 507.039246
0.840000 -8.800000 -2.800000 12.906758 24.244129 754.362183
0.880000 -9.200000 -3.200000 -30.470478 -53.105858 3748.682129
0.880000 -9.200000 -3.160000 -3.876436 -44.562126 2000.809814
0.880000 -9.200000 -3.120000 -0.177969 -25.424835 646.453918
0.880000 -9.200000 -3.080000 -13.437119 -21.478149 641.867065
0.880000 -9.200000 -3.040000 -18.282236 -38.154945 1790.039917
0.880000 -9.200000 -3.000000 0.981636 -54.430157 2963.605469
0.880000 -9.200000 -2.960000 31.756554 -46.168510 3140.010010
0.880000 -9.200000 -2.920000 45.622162 -13.416096 2261.373291
0.880000 -9.200000 -2.880000 28.361275 18.222179 1136.409668
0.880000 -9.200000 -2.840000 -4.976433 23.505955 577.294800
0.880000 -9.200000 -2.800000 -25.853052 2.605618 675.169556
0.880000 -9.160000 -3.200000 10.290940 -60.690937 3789.293457
0.880000 -9.160000 -3.160000 28.021994 -36.911819 2147.714600
0.880000 -9.160000 -3.120000 21.593781 -17.460941 771.175781
0.880000 -9.160000 -3.080000 9.999260 -17.934101 421.617188
0.880000 -9.160000 -3.040000 13.889875 -28.243336 990.614685
0.880000 -9.160000 -3.000000 32.104416 -26.082161 1710.972656
0.880000 -9.160000 -2.960000 43.385712 -3.505764 1894.610352
0.880000 -9.160000 -2.920000 30.766731 23.100655 1480.231934
0.880000 -9.160000 -2.880000 1.103121 30.334831 921.418823
0.880000 -9.160000 -2.840000 -21.650661 12.752752 631.383789
0.880000 -9.160000 -2.800000 -21.376717 -12.004434 601.070435
0.880000 -9.120000 -3.200000 43.055038 -33.966324 3007.447510
0.880000 -9.120000 -3.160000 45.503757 -6.646063 2114.762207
0.880000 -9.120000 -3.120000 33.558456 8.575061 1199.701660
0.880000 -9.120000 -3.080000 24.093662 10.864314 698.537903
0.880000 -9.120000 -3.040000 22.934967 12.980757 694.512756
0.880000 -9.120000 -3.000000 20.513649 22.968075 948.342285
0.880000 -9.120000 -2.960000 6.319754 33.369511 1153.463623
0.880000 -9.120000 -2.920000 -15.796393 30.205666 1161.908325
0.880000 -9.120000 -2.880000 -29.864010 10.632595 1004.911133
0.880000 -9.120000 -2.840000 -25.043972 -11.796589 766.360107
0.880000 -9.120000 -2.800000 -7.916004 -20.744652 493.003693
0.880000 -9.080000 -3.200000 43.258102 5.713185 1903.903931
0.880000 -9.080000 -3.160000 35.929375 26.383114 1986.988647
0.880000 -9.080000 -3.120000 22.500643 39.404778 2059.015381
0.880000 -9.080000 -3.080000 6.837147 47.343666 2288.169189
0.880000 -9.080000 -3.040000 -12.974434 50.471989 2715.757568
0.880000 -9.080000 -3.000000 -36.361015 42.927505 3164.894043
0.880000 -9.080000 -2.960000 -53.963997 20.352398 3326.333008
0.880000 -9.080000 -2.920000 -53.607441 -10.255056 2978.924072
0.880000 -9.080000 -2.880000 -33.552158 -32.285606 2168.107666
0.880000 -9.080000 -2.840000 -7.443900 -33.712227 1191.925903
0.880000 -9.080000 -2.800000 6.757833 -19.199648 414.294769
0.880000 -9.040000 -3.200000 16.327635 26.601337 974.222778
0.880000 -9.040000 -3.160000 8.538912 40.846561 1741.354492
0.880000 -9.040000 -3.120000 -8.609354 55.109833 3111.214844
0.880000 -9.040000 -3.080000 -38.662495 60.320229 5133.318359
0.880000 -9.040000 -3.040000 -73.726471 43.754135 7350.016602
0.880000 -9.040000 -3.000000 -94.056313 3.220634 8856.961914
0.880000 -9.040000 -2.960000 -82.797836 -44.296707 8817.679688
0.880000 -9.040000 -2.920000 -43.208931 -72.189194 7078.291504
0.880000 -9.040000 -2.880000 0.373396 -66.055534 4363.473145
0.880000 -9.040000 -2.840000 21.832993 -36.899338 1838.240723
0.880000 -9.040000 -2.800000 15.482187 -11.327541 368.011292
0.880000 -9.000000 -3.200000 -8.776861 17.924644 398.326172
0.880000 -9.000000 -3.160000 -15.191021 33.062038 1323.865479
0.880000 -9.000000 -3.120000 -41.888321 45.749802 3847.675781
0.880000 -9.000000 -3.080000 -82.976273 33.585258 8013.031738
0.880000 -9.000000 -3.040000 -111.399765 -12.796104 12573.647461
0.880000 -9.000000 -3.000000 -99.825943 -74.115425 15458.314453
0.880000 -9.000000 -2.960000 -47.332233 -113.317047 15081.093750
0.880000 -9.000000 -2.920000 15.411213 -106.193176 11514.496094
0.880000 -9.000000 -2.880000 50.456715 -63.052135 6521.452148
0.880000 -9.000000 -2.840000 44.579247 -19.428364 2364.770508
0.880000 -9.000000 -2.800000 18.235991 -4.003380 348.578400
0.880000 -8.960000 -3.200000 -10.231752 -1.135731 105.978645
0.880000 -8.960000 -3.160000 -22.551952 17.698086 821.812744
0.880000 -8.960000 -3.120000 -59.255157 18.964058 3870.809082
0.880000 -8.960000 -3.080000 -94.833282 -17.914246 9314.271484
0.880000 -8.960000 -3.040000 -93.290154 -81.346008 15320.225586
0.880000 -8.960000 -3.000000 -42.339851 -131.152039 18993.519531
0.880000 -8.960000 -2.960000 30.913025 -131.689224 18297.667969
0.880000 -8.960000 -2.920000 80.737381 -83.944641 13565.227539
0.880000 -8.960000 -2.880000 81.779144 -24.863865 7306.040527
0.880000 -8.960000 -2.840000 49.024063 6.093374 2440.487793
0.880000 -8.960000 -2.800000 20.031973 0.727679 401.809448
0.880000 -8.920000 -3.200000 4.772674 -4.264116 40.961102
0.880000 -8.920000 -3.160000 -19.592325 10.199335 487.885651
0.880000 -8.920000 -3.120000 -56.015083 -8.176603 3204.546387
0.880000 -8.920000 -3.080000 -67.872444 -60.433899 8258.924805
0.880000 -8.920000 -3.040000 -31.865009 -113.270493 13845.583008
0.880000 -8.920000 -3.000000 36.814648 -125.749886 17168.351562
0.880000 -8.920000 -2.960000 94.477127 -86.173531 16351.804688
0.880000 -8.920000 -2.920000 106.388832 -23.201525 11856.894531
0.880000 -8.920000 -2.880000 75.929581 20.172272 6172.221680
0.880000 -8.920000 -2.840000 37.801960 24.424290 2025.534058
0.880000 -8.920000 -2.800000 23.312244 6.676147 588.031677
0.880000 -8.880000 -3.200000 10.395864 12.567823 266.024170
0.880000 -8.880000 -3.160000 -20.389742 10.786327 532.086426
0.880000 -8.880000 -3.120000 -41.002563 -23.732189 2244.427002
0.880000 -8.880000 -3.080000 -24.291813 -70.046051 5496.541504
0.880000 -8.880000 -3.040000 27.314550 -91.383499 9097.029297
0.880000 -8.880000 -3.000000 80.931679 -67.966309 11169.355469
0.880000 -8.880000 -2.960000 101.240807 -15.347366 10485.243164
0.880000 -8.880000 -2.920000 80.933792 29.820314 7439.529785
0.880000 -8.880000 -2.880000 44.451363 42.653889 3795.277832
0.880000 -8.880000 -2.840000 22.621601 29.586584 1387.102783
0.880000 -8.880000 -2.800000 24.299824 17.034903 880.669312
0.880000 -8.840000 -3.200000 -7.308294 27.366741 802.349731
0.880000 -8.840000 -3.160000 -28.790304 7.260068 881.590210
0.880000 -8.840000 -3.120000 -25.538849 -27.493555 1408.128418
0.880000 -8.840000 -3.080000 6.411432 -50.103687 2551.485840
0.880000 -8.840000 -3.040000 46.599854 -41.433460 3888.277832
0.880000 -8.840000 -3.000000 67.598434 -7.230888 4621.833984
0.880000 -8.840000 -2.960000 58.781433 27.645798 4219.546875
0.880000 -8.840000 -2.920000 33.711624 42.008381 2901.177734
0.880000 -8.840000 -2.880000 15.040245 35.838890 1510.635010
0.880000 -8.840000 -2.840000 12.849417 26.378599 860.937988
0.880000 -8.840000 -2.800000 17.654762 28.566290 1127.723511
0.880000 -8.800000 -3.200000 -33.642216 17.706112 1445.305176
0.880000 -8.800000 -3.160000 -33.725571 -7.638839 1195.765869
0.880000 -8.800000 -3.120000 -14.101807 -25.392578 843.643982
0.880000 -8.800000 -3.080000 11.602352 -23.066916 666.697144
0.880000 -8.800000 -3.040000 25.915985 -4.644894 693.213318
0.880000 -8.800000 -3.000000 22.801075 14.282928 723.891113
0.880000 -8.800000 -2.960000 11.178825 21.566597 590.084229
0.880000 -8.800000 -2.920000 4.235928 18.624146 364.801880
0.880000 -8.800000 -2.880000 6.170498 16.411955 307.427307
0.880000 -8.800000 -2.840000 9.393475 22.643578 600.968994
0.880000 -8.800000 -2.800000 3.873566 33.697960 1150.557007
0.920000 -9.200000 -3.200000 -0.307213 -55.703049 3102.924072
0.920000 -9.200000 -3.160000 15.599870 -35.828621 1527.046021
0.920000 -9.200000 -3.120000 8.903938 -20.260061 489.750214
0.920000 -9.200000 -3.080000 -1.819094 -25.100431 633.340759
0.920000 -9.200000 -3.040000 5.640242 -40.220425 1649.494995
0.920000 -9.200000 -3.000000 31.214870 -40.465080 2611.791016
0.920000 -9.200000 -2.960000 50.891769 -14.311178 2794.781982
0.920000 -9.200000 -2.920000 41.922527 21.379953 2214.600586
0.920000 -9.200000 -2.880000 7.903207 37.230309 1448.556519
0.920000 -9.200000 -2.840000 -23.598682 21.168245 1004.992432
0.920000 -9.200000 -2.800000 -28.456261 -9.616432 902.234558
0.920000 -9.160000 -3.200000 34.658623 -43.451843 3089.282715
0.920000 -9.160000 -3.160000 37.806499 -16.840881 1712.946777
0.920000 -9.160000 -3.120000 25.457222 -4.143856 665.241699
0.920000 -9.160000 -3.080000 18.380999 -7.230449 390.140503
0.920000 -9.160000 -3.040000 25.731812 -8.990308 742.951721
0.920000 -9.160000 -3.000000 35.004459 5.070004 1251.017090
0.920000 -9.160000 -2.960000 27.126554 28.523571 1549.444092
0.920000 -9.160000 -2.920000 -0.391118 39.767036 1581.570190
0.920000 -9.160000 -2.880000 -28.406799 25.588659 1461.725708
0.920000 -9.160000 -2.840000 -35.190220 -3.595676 1251.280396
0.920000 -9.160000 -2.800000 -18.743397 -23.833273 919.339844
0.920000 -9.120000 -3.200000 48.777515 -8.968624 2459.682373
0.920000 -9.120000 -3.160000 41.217575 14.949192 1922.366943
0.920000 -9.120000 -3.120000 26.335209 27.045120 1424.981689
0.920000 -9.120000 -3.080000 13.727589 31.529484 1182.555054
0.920000 -9.120000 -3.040000 2.326336 35.526878 1267.570923
0.920000 -9.120000 -3.000000 -14.063432 37.632050 1613.951294
0.920000 -9.120000 -2.960000 -34.366707 29.203896 2033.937988
0.920000 -9.120000 -2.920000 -47.112633 6.885843 2267.014893
0.920000 -9.120000 -2.880000 -41.593582 -19.205534 2098.878662
0.920000 -9.120000 -2.840000 -20.909325 -32.815266 1514.041504
0.920000 -9.120000 -2.800000 -1.138977 -27.491650 757.088013
0.920000 -9.080000 -3.200000 33.196377 21.303812 1555.851807
0.920000 -9.080000 -3.160000 21.889118 40.724792 2137.642090
0.920000 -9.080000 -3.120000 0.747427 55.310822 3059.845459
0.920000 -9.080000 -3.080000 -29.536961 58.994442 4352.776367
0.920000 -9.080000 -3.040000 -62.176502 44.106857 5811.332520
0.920000 -9.080000 -3.000000 -82.776810 9.442497 6941.160645
0.920000 -9.080000 -2.960000 -77.883827 -32.865143 7146.008301
0.920000 -9.080000 -2.920000 -47.746983 -61.926876 6114.712402
0.920000 -9.080000 -2.880000 -9.820539 -63.496880 4128.296875
0.920000 -9.080000 -2.840000 13.430317 -42.517605 1988.120117
0.920000 -9.080000 -2.800000 12.836782 -19.460218 543.483032
0.920000 -9.040000 -3.200000 5.780455 26.325983 726.471008
0.920000 -9.040000 -3.160000 -7.234419 46.200638 2186.835938
0.920000 -9.040000 -3.120000 -41.896408 58.785362 5211.027832
0.920000 -9.040000 -3.080000 -88.881653 42.317760 9690.741211
0.920000 -9.040000 -3.040000 -119.445816 -9.930275 14365.913086
0.920000 -9.040000 -3.000000 -106.853912 -76.136490 17214.523438
0.920000 -9.040000 -2.960000 -51.887909 -118.162819 16654.806641
0.920000 -9.040000 -2.920000 13.355043 -111.979889 12717.852539
0.920000 -9.040000 -2.880000 50.123184 -68.508499 7205.748047
0.920000 -9.040000 -2.840000 44.695164 -24.018669 2574.554199
0.920000 -9.040000 -2.800000 17.410448 -8.304810 372.093567
0.920000 -9.000000 -3.200000 -7.332880 11.057471 176.038803
0.920000 -9.000000 -3.160000 -28.089863 33.655621 1921.741211
0.920000 -9.000000 -3.120000 -76.866791 31.492069 6900.253906
0.920000 -9.000000 -3.080000 -120.737274 -18.253450 14910.677734
0.920000 -9.000000 -3.040000 -116.381004 -98.561424 23258.892578
0.920000 -9.000000 -3.000000 -51.352406 -159.095398 27948.416016
0.920000 -9.000000 -2.960000 38.802544 -157.494888 26310.277344
0.920000 -9.000000 -2.920000 97.682465 -97.401520 19028.919922
0.920000 -9.000000 -2.880000 95.714546 -25.711601 9822.361328
0.920000 -9.000000 -2.840000 53.141018 9.256023 2909.641846
0.920000 -9.000000 -2.800000 17.058533 -1.477923 293.177795
0.920000 -8.960000 -3.200000 1.177753 -0.192329 1.424094
0.920000 -8.960000 -3.160000 -33.670612 17.671007 1445.974609
0.920000 -8.960000 -3.120000 -84.198563 -10.367619 7196.885254
0.920000 -8.960000 -3.080000 -98.988007 -85.201141 17057.859375
0.920000 -8.960000 -3.040000 -45.802601 -159.053177 27395.791016
0.920000 -8.960000 -3.000000 52.349167 -173.870209 32971.285156
0.920000 -8.960000 -2.960000 132.104736 -114.405548 30540.292969
0.920000 -8.960000 -2.920000 144.197205 -23.723190 21355.623047
0.920000 -8.960000 -2.880000 95.481689 35.300423 10362.873047
0.920000 -8.960000 -2.840000 38.215000 35.199455 2699.387939
0.920000 -8.960000 -2.800000 18.822309 2.662362 361.367493
0.920000 -8.920000 -3.200000 13.151451 9.074149 255.300842
0.920000 -8.920000 -3.160000 -31.839607 9.349207 1101.168213
0.920000 -8.920000 -3.120000 -64.597908 -42.249519 5957.911621
0.920000 -8.920000 -3.080000 -38.960690 -115.170349 14782.144531
0.920000 -8.920000 -3.040000 44.291710 -148.980896 24157.062500
0.920000 -8.920000 -3.000000 131.557510 -108.654999 29113.289062
0.920000 -8.920000 -2.960000 162.181061 -19.085424 26666.951172
0.920000 -8.920000 -2.920000 122.402756 56.445717 18168.552734
0.920000 -8.920000 -2.880000 54.854034 73.283142 8379.383789
0.920000 -8.920000 -2.840000 15.539312 42.055744 2010.155884
0.920000 -8.920000 -2.800000 22.418619 10.939678 622.271057
0.920000 -8.880000 -3.200000 6.106504 29.183619 888.973022
0.920000 -8.880000 -3.160000 -33.516312 6.194308 1161.712646
0.920000 -8.880000 -3.120000 -36.070324 -51.375938 3940.555176
0.920000 -8.880000 -3.080000 16.826227 -95.728867 9447.137695
0.920000 -8.880000 -3.040000 92.987106 -82.818489 15505.503906
0.920000 -8.880000 -3.000000 135.986710 -15.115582 18720.865234
0.920000 -8.880000 -2.960000 116.220093 59.118660 17002.126953
0.920000 -8.880000 -2.920000 56.566940 89.997650 11299.396484
0.920000 -8.880000 -2.880000 7.962700 69.965874 4958.628418
0.920000 -8.880000 -2.840000 0.708864 35.007332 1226.015747
0.920000 -8.880000 -2.800000 20.182697 24.858395 1025.281006
0.920000 -8.840000 -3.200000 -20.704508 34.908024 1647.246704
0.920000 -8.840000 -3.160000 -39.016842 -1.763930 1525.425415
0.920000 -8.840000 -3.120000 -16.210531 -43.674084 2170.206787
0.920000 -8.840000 -3.080000 36.306808 -52.188873 4041.862793
0.920000 -8.840000 -3.040000 78.606064 -15.403858 6416.191895
0.920000 -8.840000 -3.000000 78.583557 39.815186 7760.624512
0.920000 -8.840000 -2.960000 40.881718 72.965965 6995.347168
0.920000 -8.840000 -2.920000 0.017696 67.048599 4495.515137
0.920000 -8.840000 -2.880000 -14.103045 40.969788 1877.419312
0.920000 -8.840000 -2.840000 -2.995810 26.730293 723.483459
0.920000 -8.840000 -2.800000 6.901011 36.534721 1382.409790
0.920000 -8.800000 -3.200000 -43.948406 13.715903 2119.588379
0.920000 -8.800000 -3.160000 -38.141190 -17.294735 1753.858154
0.920000 -8.800000 -3.120000 -8.824677 -33.020599 1168.234863
0.920000 -8.800000 -3.080000 21.821182 -20.482239 895.686096
0.920000 -8.800000 -3.040000 31.145481 9.024773 1051.487549
0.920000 -8.800000 -3.000000 16.545155 31.517548 1267.097900
0.920000 -8.800000 -2.960000 -4.346268 33.319359 1129.069702
0.920000 -8.800000 -2.920000 -12.835175 22.155361 655.601685
0.920000 -8.800000 -2.880000 -7.376312 16.258556 318.750641
0.920000 -8.800000 -2.840000 -2.678485 24.146206 590.213501
0.920000 -8.800000 -2.800000 -12.269424 36.298817 1468.142944
0.960000 -9.200000 -3.200000 22.710245 -41.818047 2264.504395
0.960000 -9.200000 -3.160000 26.083040 -21.186941 1129.211426
0.960000 -9.200000 -3.120000 15.945436 -12.719971 416.054596
0.960000 -9.200000 -3.080000 11.666704 -19.359741 510.911560
0.960000 -9.200000 -3.040000 23.779999 -24.592537 1170.281250
0.960000 -9.200000 -3.000000 40.917274 -11.357422 1803.214355
0.960000 -9.200000 -2.960000 41.141197 17.202208 1988.514160
0.960000 -9.200000 -2.920000 16.314718 38.471233 1746.205811
0.960000 -9.200000 -2.880000 -16.999882 32.925190 1373.064087
0.960000 -9.200000 -2.840000 -32.681595 4.836573 1091.479126
0.960000 -9.200000 -2.800000 -20.786591 -21.284004 885.091187
0.960000 -9.160000 -3.200000 42.970440 -20.019012 2247.219727
0.960000 -9.160000 -3.160000 36.854607 0.945817 1359.156616
0.960000 -9.160000 -3.120000 24.450455 8.664234 672.893677
0.960000 -9.160000 -3.080000 18.735294 8.487370 423.046692
0.960000 -9.160000 -3.040000 19.223263 13.004736 538.656982
0.960000 -9.160000 -3.000000 13.757756 25.334465 831.111023
0.960000 -9.160000 -2.960000 -5.386226 33.790001 1170.775635
0.960000 -9.160000 -2.920000 -29.586720 24.627062 1481.866211
0.960000 -9.160000 -2.880000 -40.554634 -1.044401 1645.769165
0.960000 -9.160000 -2.840000 -29.178453 -25.655550 1509.589355
0.960000 -9.160000 -2.800000 -5.936675 -31.720604 1041.440796
0.960000 -9.120000 -3.200000 41.549446 9.672199 1819.907837
0.960000 -9.120000 -3.160000 29.908926 28.719715 1719.365967
0.960000 -9.120000 -3.120000 11.407825 39.445820 1686.111084
0.960000 -9.120000 -3.080000 -9.565308 41.546700 1817.623413
0.960000 -9.120000 -3.040000 -30.704559 34.750214 2150.347412
0.960000 -9.120000 -3.000000 -48.168053 17.602501 2630.009521
0.960000 -9.120000 -2.960000 -54.799831 -8.281693 3071.607910
0.960000 -9.120000 -2.920000 -44.958099 -34.242256 3193.762695
0.960000 -9.120000 -2.880000 -21.868492 -48.012833 2783.463135
0.960000 -9.120000 -2.840000 1.619726 -43.534801 1897.902466
0.960000 -9.120000 -2.800000 12.239876 -27.492489 905.651489
0.960000 -9.080000 -3.200000 21.416048 26.928932 1183.814453
0.960000 -9.080000 -3.160000 5.041212 46.568985 2194.084229
0.960000 -9.080000 -3.120000 -28.024712 55.967522 3917.748047
0.960000 -9.080000 -3.080000 -68.019608 40.899384 6299.426758
0.960000 -9.080000 -3.040000 -93.819344 -1.188229 8803.481445
0.960000 -9.080000 -3.000000 -87.040710 -53.922333 10483.703125
0.960000 -9.080000 -2.960000 -47.928017 -90.311203 10453.208008
0.960000 -9.080000 -2.920000 1.982628 -92.171326 8499.484375
0.960000 -9.080000 -2.880000 34.943817 -64.353928 5362.498535
0.960000 -9.080000 -2.840000 37.894714 -30.520985 2367.540039
0.960000 -9.080000 -2.800000 20.950180 -13.586388 623.500000
0.960000 -9.040000 -3.200000 1.229952 23.722244 564.257629
0.960000 -9.040000 -3.160000 -24.824362 44.213402 2571.073975
0.960000 -9.040000 -3.120000 -74.194969 38.115150 6957.658203
0.960000 -9.040000 -3.080000 -115.348175 -12.194420 13453.905273
0.960000 -9.040000 -3.040000 -110.318611 -88.709023 20039.486328
0.960000 -9.040000 -3.000000 -49.956009 -145.670502 23715.498047
0.960000 -9.040000 -2.960000 32.989765 -145.944763 22388.197266
0.960000 -9.040000 -2.920000 88.313110 -93.080292 16463.146484
0.960000 -9.040000 -2.880000 89.353554 -28.315434 8785.821289
0.960000 -9.040000 -2.840000 52.701691 5.302626 2805.586182
0.960000 -9.040000 -2.800000 19.138435 -2.064171 370.540497
0.960000 -9.000000 -3.200000 -3.412747 11.937049 154.139984
0.960000 -9.000000 -3.160000 -43.844185 25.781912 2587.019531
0.960000 -9.000000 -3.120000 -96.629578 -9.317070 9424.083008
0.960000 -9.000000 -3.080000 -108.905220 -91.283928 20193.101562
0.960000 -9.000000 -3.040000 -49.567932 -169.095993 31050.435547
0.960000 -9.000000 -3.000000 55.292461 -183.208740 36622.699219
0.960000 -9.000000 -2.960000 139.175247 -119.431793 33633.703125
0.960000 -9.000000 -2.920000 151.361649 -23.586466 23466.671875
0.960000 -9.000000 -2.880000 99.454826 38.638298 11384.180664
0.960000 -9.000000 -2.840000 37.985985 38.265949 2907.217773
0.960000 -9.000000 -2.800000 15.977558 2.311012 260.623138
0.960000 -8.960000 -3.200000 4.040588 10.147473 119.297569
0.960000 -8.960000 -3.160000 -46.661743 5.460281 2207.133057
0.960000 -8.960000 -3.120000 -80.790520 -57.817726 9869.997070
0.960000 -8.960000 -3.080000 -45.937607 -143.244095 22629.134766
0.960000 -8.960000 -3.040000 55.423195 -180.275620 35571.031250
0.960000 -8.960000 -3.000000 159.232605 -128.763947 41935.179688
0.960000 -8.960000 -2.960000 193.663162 -19.432144 37883.031250
0.960000 -8.960000 -2.920000 142.876541 71.553108 25533.552734
0.960000 -8.960000 -2.880000 58.561977 90.222084 11569.529297
0.960000 -8.960000 -2.840000 9.065109 48.931305 2476.448975
0.960000 -8.960000 -2.800000 17.706774 6.094348 350.670929
0.960000 -8.920000 -3.200000 5.423004 22.979650 557.473328
0.960000 -8.920000 -3.160000 -41.169773 -6.266537 1734.219727
0.960000 -8.920000 -3.120000 -40.986584 -79.361923 7978.214844
0.960000 -8.920000 -3.080000 31.124283 -134.719177 19117.976562
0.960000 -8.920000 -3.040000 133.351440 -113.486038 30661.687500
0.960000 -8.920000 -3.000000 189.628754 -18.191408 36289.988281
0.960000 -8.920000 -2.960000 158.639252 85.452599 32468.558594
0.960000 -8.920000 -2.920000 71.181480 127.427094 21304.466797
0.960000 -8.920000 -2.880000 -0.931423 95.301697 9083.280273
0.960000 -8.920000 -2.840000 -12.337730 38.950684 1669.375366
0.960000 -8.920000 -2.800000 19.245510 16.810379 652.978516
0.960000 -8.880000 -3.200000 -11.453654 35.269218 1375.103882
0.960000 -8.880000 -3.160000 -37.953308 -11.284166 1567.786011
0.960000 -8.880000 -3.120000 -6.242661 -69.751831 4904.288574
0.960000 -8.880000 -3.080000 72.033310 -80.744019 11708.394531
0.960000 -8.880000 -3.040000 136.857941 -21.114544 19175.919922
0.960000 -8.880000 -3.000000 134.313477 70.132736 22958.710938
0.960000 -8.880000 -2.960000 67.315956 126.293190 20481.408203
0.960000 -8.880000 -2.920000 -8.344627 114.226997 13117.439453
0.960000 -8.880000 -2.880000 -38.056061 61.545841 5236.154297
0.960000 -8.880000 -2.840000 -17.544518 24.421730 904.230957
0.960000 -8.880000 -2.800000 10.635132 31.328403 1094.574951
0.960000 -8.840000 -3.200000 -37.770756 28.134239 2218.165527
0.960000 -8.840000 -3.160000 -38.290173 -18.376120 1803.819092
0.960000 -8.840000 -3.120000 6.044123 -48.160923 2356.006104
0.960000 -8.840000 -3.080000 61.734856 -27.781044 4582.978516
0.960000 -8.840000 -3.040000 81.086380 31.803288 7586.450195
0.960000 -8.840000 -3.000000 47.581863 84.167931 9348.274414
0.960000 -8.840000 -2.960000 -9.136414 91.273216 8414.273438
0.960000 -8.840000 -2.920000 -43.414566 57.931000 5240.825195
0.960000 -8.840000 -2.880000 -37.393318 22.912998 1923.265747
0.960000 -8.840000 -2.840000 -14.179396 17.882133 520.825928
0.960000 -8.840000 -2.800000 -9.489061 37.373505 1486.821045
0.960000 -8.800000 -3.200000 -51.134644 0.239222 2614.808838
0.960000 -8.800000 -3.160000 -34.162403 -30.434679 2093.339600
0.960000 -8.800000 -3.120000 1.906137 -35.395653 1256.485596
0.960000 -8.800000 -3.080000 27.376089 -9.940365 848.261108
0.960000 -8.800000 -3.040000 22.817642 23.579477 1076.636475
0.960000 -8.800000 -3.000000 -3.271088 38.120270 1463.854980
0.960000 -8.800000 -2.960000 -25.138329 27.705715 1399.542236
0.960000 -8.800000 -2.920000 -26.596504 10.386536 815.254150
0.960000 -8.800000 -2.880000 -15.787212 6.864395 296.355988
0.960000 -8.800000 -2.840000 -13.581575 18.402145 523.098145
0.960000 -8.800000 -2.800000 -29.638512 26.917576 1602.997314
1.000000 -9.200000 -3.200000 31.368629 -20.936886 1422.344116
1.000000 -9.200000 -3.160000 28.248674 -6.481476 839.997131
1.000000 -9.200000 -3.120000 20.327356 -2.191359 418.003479
1.000000 -9.200000 -3.080000 19.034725 -4.499269 382.564178
1.000000 -9.200000 -3.040000 25.402195 -1.520685 647.583984
1.000000 -9.200000 -3.000000 28.063789 12.461555 942.866638
1.000000 -9.200000 -2.960000 15.946198 28.481157 1065.457520
1.000000 -9.200000 -2.920000 -7.758711 30.777006 1007.421692
1.000000 -9.200000 -2.880000 -26.249100 13.673745 875.986572
1.000000 -9.200000 -2.840000 -25.006298 -10.743366 740.734863
1.000000 -9.200000 -2.800000 -6.617466 -23.253630 584.522156
1.000000 -9.160000 -3.200000 38.479103 -1.265435 1482.242676
1.000000 -9.160000 -3.160000 30.996941 13.555542 1144.562988
1.000000 -9.160000 -3.120000 19.267143 20.773659 802.767700
1.000000 -9.160000 -3.080000 8.813728 22.745491 595.039185
1.000000 -9.160000 -3.040000 -0.805092 23.442348 550.191895
1.000000 -9.160000 -3.000000 -12.882454 21.875050 644.475403
1.000000 -9.160000 -2.960000 -26.141380 12.840279 848.244507
1.000000 -9.160000 -2.920000 -32.736706 -5.215963 1098.898193
1.000000 -9.160000 -2.880000 -25.488739 -24.714491 1260.481934
1.000000 -9.160000 -2.840000 -7.005478 -33.609695 1178.688232
1.000000 -9.160000 -2.800000 10.268200 -26.743464 820.648743
1.000000 -9.120000 -3.200000 30.864925 18.853298 1308.090454
1.000000 -9.120000 -3.160000 17.656544 35.906521 1601.031738
1.000000 -9.120000 -3.120000 -6.831596 43.595032 1947.197388
1.000000 -9.120000 -3.080000 -34.417252 34.858002 2399.627441
1.000000 -9.120000 -3.040000 -53.222931 10.126961 2935.235840
1.000000 -9.120000 -3.000000 -54.218121 -21.706318 3410.768799
1.000000 -9.120000 -2.960000 -36.729576 -47.514114 3606.652832
1.000000 -9.120000 -2.920000 -9.298477 -57.087635 3345.459717
1.000000 -9.120000 -2.880000 14.994282 -48.948093 2620.744141
1.000000 -9.120000 -2.840000 26.178253 -30.997112 1646.121948
1.000000 -9.120000 -2.800000 23.177813 -15.205190 768.408813
1.000000 -9.080000 -3.200000 13.590561 28.136839 976.385010
1.000000 -9.080000 -3.160000 -10.860298 45.750656 2211.068604
1.000000 -9.080000 -3.120000 -51.939384 40.278191 4320.032227
1.000000 -9.080000 -3.080000 -84.829460 1.144249 7197.346191
1.000000 -9.080000 -3.040000 -82.965576 -56.661461 10093.807617
1.000000 -9.080000 -3.000000 -41.153069 -100.574234 11808.751953
1.000000 -9.080000 -2.960000 17.790115 -105.211929 11386.038086
1.000000 -9.080000 -2.920000 60.021744 -72.304169 8830.501953
1.000000 -9.080000 -2.880000 66.665512 -28.064423 5231.902344
1.000000 -9.080000 -2.840000 46.049492 -0.965822 2121.488525
1.000000 -9.080000 -2.800000 22.830112 -0.173917 521.244324
1.000000 -9.040000 -3.200000 -1.160239 24.615440 607.266052
1.000000 -9.040000 -3.160000 -40.285469 34.021610 2780.389160
1.000000 -9.040000 -3.120000 -86.629166 0.253036 7504.676270
1.000000 -9.040000 -3.080000 -96.192558 -71.762695 14402.892578
1.000000 -9.040000 -3.040000 -45.416191 -138.348770 21203.013672
1.000000 -9.040000 -3.000000 42.515091 -151.295532 24697.871094
1.000000 -9.040000 -2.960000 113.203285 -100.107719 22836.539062
1.000000 -9.040000 -2.920000 125.895218 -21.923553 16330.248047
1.000000 -9.040000 -2.880000 86.077644 30.763748 8355.769531
1.000000 -9.040000 -2.840000 36.117363 33.894379 2453.292725
1.000000 -9.040000 -2.800000 15.113329 6.685457 273.108032
1.000000 -9.000000 -3.200000 -5.828341 17.466484 339.047638
1.000000 -9.000000 -3.160000 -54.024666 7.331488 2972.415283
1.000000 -9.000000 -3.120000 -82.911697 -56.122364 10024.069336
1.000000 -9.000000 -3.080000 -46.197315 -136.851990 20862.658203
1.000000 -9.000000 -3.040000 51.069435 -169.946915 31490.041016
1.000000 -9.000000 -3.000000 148.597305 -120.220467 36534.117188
1.000000 -9.000000 -2.960000 180.686951 -17.394390 32950.339844
1.000000 -9.000000 -2.920000 133.423065 68.186378 22451.097656
1.000000 -9.000000 -2.880000 54.238041 86.785370 10473.464844
1.000000 -9.000000 -2.840000 5.941961 48.751038 2411.970459
1.000000 -9.000000 -2.800000 11.413896 6.600370 173.841888
1.000000 -8.960000 -3.200000 -5.094725 17.107676 318.628784
1.000000 -8.960000 -3.160000 -48.040741 -17.131578 2601.403809
1.000000 -8.960000 -3.120000 -41.587376 -92.519203 10289.312500
1.000000 -8.960000 -3.080000 37.310905 -146.159607 22754.734375
1.000000 -8.960000 -3.040000 144.211548 -119.477165 35071.765625
1.000000 -8.960000 -3.000000 201.006897 -16.982677 40692.183594
1.000000 -8.960000 -2.960000 166.009857 92.586411 36131.515625
1.000000 -8.960000 -2.920000 71.781052 136.501221 23785.103516
1.000000 -8.960000 -2.880000 -6.600637 101.378052 10321.078125
1.000000 -8.960000 -2.840000 -20.577074 38.606621 1913.887207
1.000000 -8.960000 -2.800000 13.505043 9.987087 282.128113
1.000000 -8.920000 -3.200000 -10.466254 23.336704 654.144226
1.000000 -8.920000 -3.160000 -33.682426 -27.509245 1891.264404
1.000000 -8.920000 -3.120000 7.050177 -88.979652 7967.083496
1.000000 -8.920000 -3.080000 97.921669 -95.092087 18631.158203
1.000000 -8.920000 -3.040000 170.454651 -20.513350 29475.583984
1.000000 -8.920000 -3.000000 162.850006 89.048584 34449.773438
1.000000 -8.920000 -2.960000 78.821762 155.347382 30345.679688
1.000000 -8.920000 -2.920000 -15.543789 138.548141 19437.197266
1.000000 -8.920000 -2.880000 -53.913013 70.495178 7876.183594
1.000000 -8.920000 -2.840000 -28.497965 18.936806 1170.736572
1.000000 -8.920000 -2.800000 11.368692 21.332676 584.330200
1.000000 -8.880000 -3.200000 -26.646669 24.568792 1313.670532
1.000000 -8.880000 -3.160000 -25.024918 -27.343718 1373.925415
1.000000 -8.880000 -3.120000 31.152069 -58.855698 4434.444336
1.000000 -8.880000 -3.080000 100.610924 -26.521507 10825.948242
1.000000 -8.880000 -3.040000 120.980583 56.554695 17834.734375
1.000000 -8.880000 -3.000000 68.943367 128.594391 21289.705078
1.000000 -8.880000 -2.960000 -16.076508 136.138046 18792.023438
1.000000 -8.880000 -2.920000 -69.440407 83.301476 11761.105469
1.000000 -8.880000 -2.880000 -61.940487 24.048885 4414.972656
1.000000 -8.880000 -2.840000 -22.636080 7.224012 564.578430
1.000000 -8.880000 -2.800000 -3.531039 31.430805 1000.363770
1.000000 -8.840000 -3.200000 -44.188309 10.196649 2056.578125
1.000000 -8.840000 -3.160000 -24.344334 -29.001070 1433.708740
1.000000 -8.840000 -3.120000 25.431484 -33.175861 1747.398193
1.000000 -8.840000 -3.080000 60.463932 9.790665 3751.744141
1.000000 -8.840000 -3.040000 46.089668 66.928680 6603.706055
1.000000 -8.840000 -3.000000 -7.788765 91.013290 8344.083984
1.000000 -8.840000 -2.960000 -56.565811 65.934586 7547.060547
1.000000 -8.840000 -2.920000 -64.938858 20.252071 4627.201660
1.000000 -8.840000 -2.880000 -39.481316 -3.960487 1574.459717
1.000000 -8.840000 -2.840000 -17.397078 6.636887 346.706543
1.000000 -8.840000 -2.800000 -25.557224 26.824123 1372.705322
1.000000 -8.800000 -3.200000 -47.319271 -16.434155 2509.194824
1.000000 -8.800000 -3.160000 -21.681408 -38.129456 1923.938721
1.000000 -8.800000 -3.120000 11.157728 -29.666071 1004.570618
1.000000 -8.800000 -3.080000 22.746490 1.049599 518.504517
1.000000 -8.800000 -3.040000 5.407524 26.201248 715.746765
1.000000 -8.800000 -3.000000 -21.676361 26.077820 1149.917236
1.000000 -8.800000 -2.960000 -33.754894 7.306808 1192.782349
1.000000 -8.800000 -2.920000 -25.742916 -7.060692 712.551147
1.000000 -8.800000 -2.880000 -14.932224 -3.643011 236.242859
1.000000 -8.800000 -2.840000 -19.702198 7.608631 446.067871
1.000000 -8.800000 -2.800000 -38.407051 5.908753 1510.014893
1.040000 -9.200000 -3.200000 26.739265 -3.628196 728.152161
1.040000 -9.200000 -3.160000 24.584858 5.375740 633.313782
1.040000 -9.200000 -3.120000 19.129398 10.549051 477.216370
1.040000 -9.200000 -3.080000 14.523817 12.459718 366.185852
1.040000 -9.200000 -3.040000 11.362173 14.667049 344.221313
1.040000 -9.200000 -3.000000 6.167083 18.282169 372.270630
1.040000 -9.200000 -2.960000 -3.426788 19.315037 384.813538
1.040000 -9.200000 -2.920000 -13.798424 12.779493 353.711945
1.040000 -9.200000 -2.880000 -17.257029 -0.436448 297.995514
1.040000 -9.200000 -2.840000 -9.854450 -12.133965 244.343292
1.040000 -9.200000 -2.800000 3.202430 -13.662527 196.920197
1.040000 -9.160000 -3.200000 28.823336 8.960404 911.073486
1.040000 -9.160000 -3.160000 23.142448 22.622604 1047.355225
1.040000 -9.160000 -3.120000 8.627621 30.758781 1020.538513
1.040000 -9.160000 -3.080000 -8.550376 28.589256 890.454529
1.040000 -9.160000 -3.040000 -21.195108 17.297161 748.424438
1.040000 -9.160000 -3.000000 -25.504368 1.948074 654.267761
1.040000 -9.160000 -2.960000 -21.644550 -12.280247 619.291016
1.040000 -9.160000 -2.920000 -11.857273 -21.878778 619.275879
1.040000 -9.160000 -2.880000 0.722092 -24.678806 609.564880
1.040000 -9.160000 -2.840000 11.863708 -20.037918 542.265747
1.040000 -9.160000 -2.800000 17.007505 -10.283984 395.015564
1.040000 -9.120000 -3.200000 22.050907 22.815559 1006.792236
1.040000 -9.120000 -3.160000 5.334792 39.502975 1588.945068
1.040000 -9.120000 -3.120000 -24.503660 39.361298 2149.741211
1.040000 -9.120000 -3.080000 -49.436047 15.633467 2688.327881
1.040000 -9.120000 -3.040000 -52.137630 -21.026922 3160.463867
1.040000 -9.120000 -3.000000 -29.952820 -50.176460 3414.848633
1.040000 -9.120000 -2.960000 3.513145 -57.110313 3273.930176
1.040000 -9.120000 -2.920000 29.607523 -42.633022 2694.179932
1.040000 -9.120000 -2.880000 38.060234 -19.847923 1842.521484
1.040000 -9.120000 -2.840000 31.648514 -2.703889 1008.939453
1.040000 -9.120000 -2.800000 20.507065 3.122610 430.290405
1.040000 -9.080000 -3.200000 7.369728 30.207325 966.795349
1.040000 -9.080000 -3.160000 -24.802710 39.859745 2203.973633
1.040000 -9.080000 -3.120000 -62.237244 15.781679 4122.536133
1.040000 -9.080000 -3.080000 -72.268425 -36.864967 6581.750977
1.040000 -9.080000 -3.040000 -38.890579 -86.025475 8912.859375
1.040000 -9.080000 -3.000000 21.006332 -98.308380 10105.803711
1.040000 -9.080000 -2.960000 70.423996 -66.913918 9437.011719
1.040000 -9.080000 -2.920000 82.399780 -16.234674 7053.288086
1.040000 -9.080000 -2.880000 59.836143 20.072046 3983.250977
1.040000 -9.080000 -2.840000 28.435928 26.153734 1492.619873
1.040000 -9.080000 -2.800000 12.182135 12.136906 295.708862
1.040000 -9.040000 -3.200000 -7.657392 27.263901 801.955933
1.040000 -9.040000 -3.160000 -49.074650 17.474262 2713.671143
1.040000 -9.040000 -3.120000 -73.042007 -34.964195 6557.629883
1.040000 -9.040000 -3.080000 -44.498260 -99.902611 11960.626953
1.040000 -9.040000 -3.040000 30.873194 -127.107346 17109.431641
1.040000 -9.040000 -3.000000 106.337212 -90.739983 19541.347656
1.040000 -9.040000 -2.960000 132.622528 -13.819307 17779.707031
1.040000 -9.040000 -2.920000 99.439514 51.321724 12522.136719
1.040000 -9.040000 -2.880000 41.152504 67.848831 6296.992188
1.040000 -9.040000 -2.840000 3.259829 42.092705 1782.422241
1.040000 -9.040000 -2.800000 3.463464 10.543985 123.171211
1.040000 -9.000000 -3.200000 -15.647520 18.379961 582.667847
1.040000 -9.000000 -3.160000 -50.981194 -14.950979 2822.613770
1.040000 -9.000000 -3.120000 -42.312439 -80.672531 8298.399414
1.040000 -9.000000 -3.080000 26.939642 -125.323151 16431.636719
1.040000 -9.000000 -3.040000 117.834641 -101.513000 24189.892578
1.040000 -9.000000 -3.000000 165.549042 -14.776658 27624.833984
1.040000 -9.000000 -2.960000 136.486374 77.386230 24617.158203
1.040000 -9.000000 -2.920000 57.794365 115.124870 16593.923828
1.040000 -9.000000 -2.880000 -9.014181 86.981133 7646.972656
1.040000 -9.000000 -2.840000 -23.464960 33.949585 1703.178711
1.040000 -9.000000 -2.800000 3.184508 6.314268 50.011078
1.040000 -8.960000 -3.200000 -16.952847 11.786275 426.315308
1.040000 -8.960000 -3.160000 -32.152348 -36.187202 2343.287109
1.040000 -8.960000 -3.120000 10.340908 -89.613838 8137.574707
1.040000 -8.960000 -3.080000 95.347473 -90.305954 17246.306641
1.040000 -8.960000 -3.040000 160.356674 -17.949520 26036.449219
1.040000 -8.960000 -3.000000 150.616318 84.364212 29802.595703
1.040000 -8.960000 -2.960000 70.840332 145.427567 26167.531250
1.040000 -8.960000 -2.920000 -18.326378 129.186111 17024.906250
1.040000 -8.960000 -2.880000 -55.902374 64.302139 7259.840820
1.040000 -8.960000 -2.840000 -33.223755 12.546360 1261.229004
1.040000 -8.960000 -2.800000 6.392279 9.901564 138.902191
1.040000 -8.920000 -3.200000 -18.971903 10.224437 464.472229
1.040000 -8.920000 -3.160000 -10.967765 -36.679161 1465.652710
1.040000 -8.920000 -3.120000 47.344513 -60.535080 5905.999023
1.040000 -8.920000 -3.080000 114.437691 -21.114622 13541.812500
1.040000 -8.920000 -3.040000 129.473175 66.415192 21174.281250
1.040000 -8.920000 -3.000000 70.920898 139.564880 24508.128906
1.040000 -8.920000 -2.960000 -20.256617 144.757294 21365.003906
1.040000 -8.920000 -2.920000 -77.666924 86.375496 13492.876953
1.040000 -8.920000 -2.880000 -70.180626 19.829960 5318.547852
1.040000 -8.920000 -2.840000 -26.074989 -3.064426 689.295776
1.040000 -8.920000 -2.800000 0.942709 19.505566 381.355804
1.040000 -8.880000 -3.200000 -26.861332 7.301677 774.845581
1.040000 -8.880000 -3.160000 -3.720408 -27.007891 743.267578
1.040000 -8.880000 -3.120000 48.008938 -23.346321 2849.908936
1.040000 -8.880000 -3.080000 80.129578 30.069002 7324.894043
1.040000 -8.880000 -3.040000 55.307678 95.733223 12223.789062
1.040000 -8.880000 -3.000000 -13.996513 120.010925 14598.524414
1.040000 -8.880000 -2.960000 -75.344437 84.415688 12802.792969
1.040000 -8.880000 -2.920000 -85.908768 22.625961 7892.250488
1.040000 -8.880000 -2.880000 -51.549873 -13.806545 2848.010010
1.040000 -8.880000 -2.840000 -16.417166 -5.216001 296.730011
1.040000 -8.880000 -2.800000 -16.056049 21.563143 722.765869
1.040000 -8.840000 -3.200000 -35.713882 -5.200925 1302.531128
1.040000 -8.840000 -3.160000 -8.320618 -25.069576 697.716309
1.040000 -8.840000 -3.120000 26.205217 -9.131599 770.099548
1.040000 -8.840000 -3.080000 31.719875 32.902908 2088.751953
1.040000 -8.840000 -3.040000 -1.916672 63.772011 4070.542969
1.040000 -8.840000 -3.000000 -47.576767 55.419888 5334.913086
1.040000 -8.840000 -2.960000 -67.789200 16.686253 4873.806641
1.040000 -8.840000 -2.920000 -51.717796 -16.958969 2962.337158
1.040000 -8.840000 -2.880000 -23.627777 -20.211168 966.763184
1.040000 -8.840000 -2.840000 -15.151560 -2.153521 234.207413
1.040000 -8.840000 -2.800000 -31.898838 6.598306 1061.073486
1.040000 -8.800000 -3.200000 -33.913078 -26.227493 1837.978271
1.040000 -8.800000 -3.160000 -8.363783 -35.784363 1350.473511
1.040000 -8.800000 -3.120000 12.982725 -20.700125 597.046326
1.040000 -8.800000 -3.080000 11.964565 3.347153 154.354248
1.040000 -8.800000 -3.040000 -6.969078 13.802439 239.075363
1.040000 -8.800000 -3.000000 -23.270309 4.171120 558.905579
1.040000 -8.800000 -2.960000 -22.977839 -11.421509 658.431946
1.040000 -8.800000 -2.920000 -12.461861 -15.884789 407.624481
1.040000 -8.800000 -2.880000 -8.859224 -8.564325 151.833527
1.040000 -8.800000 -2.840000 -18.959217 -4.964085 384.094055
1.040000 -8.800000 -2.800000 -30.610722 -17.810930 1254.245605
1.080000 -9.200000 -3.200000 15.858969 4.010023 267.587158
1.080000 -9.200000 -3.160000 17.193392 12.976454 464.001099
1.080000 -9.200000 -3.120000 10.483683 20.928471 547.908508
1.080000 -9.200000 -3.080000 -0.037170 21.811993 475.764404
1.080000 -9.200000 -3.040000 -7.467878 16.011723 312.144470
1.080000 -9.200000 -3.000000 -8.910596 8.899765 158.604538
1.080000 -9.200000 -2.960000 -7.022793 4.750541 71.887253
1.080000 -9.200000 -2.920000 -5.593491 3.115990 40.996532
1.080000 -9.200000 -2.880000 -5.018934 1.289485 26.852472
1.080000 -9.200000 -2.840000 -3.007922 -1.055603 10.161894
1.080000 -9.200000 -2.800000 0.949289 -1.148779 2.220843
1.080000 -9.160000 -3.200000 19.460756 12.464174 534.076660
1.080000 -9.160000 -3.160000 12.701672 28.503448 973.779053
1.080000 -9.160000 -3.120000 -6.953397 34.208351 1218.561035
1.080000 -9.160000 -3.080000 -25.895115 22.590181 1180.873291
1.080000 -9.160000 -3.040000 -30.755713 0.846216 946.629944
1.080000 -9.160000 -3.000000 -19.734636 -16.642160 666.417358
1.080000 -9.160000 -2.960000 -2.500185 -20.861946 441.471710
1.080000 -9.160000 -2.920000 9.733090 -13.985813 290.335999
1.080000 -9.160000 -2.880000 13.102514 -4.408625 191.111847
1.080000 -9.160000 -2.840000 11.108086 1.968304 127.263786
1.080000 -9.160000 -2.800000 8.206474 5.040516 92.753021
1.080000 -9.120000 -3.200000 14.019808 25.226868 832.949829
1.080000 -9.120000 -3.160000 -8.247035 38.883850 1579.967407
1.080000 -9.120000 -3.120000 -37.894787 27.618282 2198.784424
1.080000 -9.120000 -3.080000 -50.305622 -6.044098 2567.186523
1.080000 -9.120000 -3.040000 -33.222897 -39.780128 2686.219482
1.080000 -9.120000 -3.000000 2.372425 -50.704956 2576.621094
1.080000 -9.120000 -2.960000 32.496132 -34.354214 2236.210449
1.080000 -9.120000 -2.920000 40.685509 -6.093054 1692.436035
1.080000 -9.120000 -2.880000 29.281260 14.308908 1062.136963
1.080000 -9.120000 -2.840000 12.967779 18.727655 518.888367
1.080000 -9.120000 -2.800000 3.762345 13.148253 187.031815
1.080000 -9.080000 -3.200000 -1.836403 31.681778 1007.107422
1.080000 -9.080000 -3.160000 -35.577240 28.900475 2100.977539
1.080000 -9.080000 -3.120000 -58.172226 -7.000314 3433.012207
1.080000 -9.080000 -3.080000 -43.439003 -54.207066 4825.353027
1.080000 -9.080000 -3.040000 5.178570 -76.950249 5948.158203
1.080000 -9.080000 -3.000000 55.804958 -56.966850 6359.415039
1.080000 -9.080000 -2.960000 75.342545 -9.182396 5760.815430
1.080000 -9.080000 -2.920000 56.694500 32.534103 4272.734375
1.080000 -9.080000 -2.880000 21.221249 44.695923 2448.066895
1.080000 -9.080000 -2.840000 -3.259071 30.726685 954.750671
1.080000 -9.080000 -2.800000 -5.892718 11.850307 175.153900
1.080000 -9.040000 -3.200000 -18.632627 24.722710 958.387207
1.080000 -9.040000 -3.160000 -48.472931 -0.651243 2350.049072
1.080000 -9.040000 -3.120000 -44.942219 -51.004814 4621.293945
1.080000 -9.040000 -3.080000 3.662586 -86.525330 7500.047363
1.080000 -9.040000 -3.040000 68.910461 -73.000114 10077.667969
1.080000 -9.040000 -3.000000 104.699081 -14.299562 11166.375000
1.080000 -9.040000 -2.960000 87.250000 49.595104 10072.236328
1.080000 -9.040000 -2.920000 34.622929 77.308083 7175.286621
1.080000 -9.040000 -2.880000 -11.823582 60.163223 3759.410645
1.080000 -9.040000 -2.840000 -24.352940 24.437065 1190.235840
1.080000 -9.040000 -2.800000 -8.745838 3.067824 85.901230
1.080000 -9.000000 -3.200000 -24.945494 9.267305 708.160583
1.080000 -9.000000 -3.160000 -35.679024 -30.166885 2183.033691
1.080000 -9.000000 -3.120000 -1.714937 -72.049553 5194.079102
1.080000 -9.000000 -3.080000 63.765491 -72.927444 9384.450195
1.080000 -9.000000 -3.040000 113.547272 -18.815350 13247.000977
1.080000 -9.000000 -3.000000 107.386780 57.662064 14856.833984
1.080000 -9.000000 -2.960000 48.931641 103.964279 13202.876953
1.080000 -9.000000 -2.920000 -17.623524 93.292175 9014.018555
1.080000 -9.000000 -2.880000 -47.495140 45.496124 4325.685547
1.080000 -9.000000 -2.840000 -32.764297 4.781576 1096.362671
1.080000 -9.000000 -2.800000 -2.709963 -1.598370 9.898685
1.080000 -8.960000 -3.200000 -19.596951 -2.276277 389.221893
1.080000 -8.960000 -3.160000 -8.302973 -39.011337 1590.823730
1.080000 -8.960000 -3.120000 40.930126 -54.523849 4648.125488
1.080000 -8.960000 -3.080000 94.043831 -19.509413 9224.859375
1.080000 -8.960000 -3.040000 104.033516 52.026211 13529.699219
1.080000 -8.960000 -3.000000 55.503864 110.495285 15289.886719
1.080000 -8.960000 -2.960000 -18.613544 114.190697 13385.979492
1.080000 -8.960000 -2.920000 -65.926735 66.538086 8773.651367
1.080000 -8.960000 -2.880000 -61.064613 10.779203 3845.078125
1.080000 -8.960000 -2.840000 -24.622826 -11.515015 738.879150
1.080000 -8.960000 -2.800000 1.738012 3.676323 16.536037
1.080000 -8.920000 -3.200000 -12.927351 -3.543192 179.670624
1.080000 -8.920000 -3.160000 10.309552 -26.154005 790.318848
1.080000 -8.920000 -3.120000 52.857712 -15.920628 3047.404053
1.080000 -8.920000 -3.080000 75.113495 33.816551 6785.596191
1.080000 -8.920000 -3.040000 48.176464 90.144676 10447.034180
1.080000 -8.920000 -3.000000 -15.332237 108.399666 11985.564453
1.080000 -8.920000 -2.960000 -70.102615 74.064041 10399.859375
1.080000 -8.920000 -2.920000 -79.312195 16.564056 6564.792480
1.080000 -8.920000 -2.880000 -47.318275 -19.120667 2604.619141
1.080000 -8.920000 -2.840000 -11.809032 -14.189672 340.800018
1.080000 -8.920000 -2.800000 -5.061317 10.454744 134.918610
1.080000 -8.880000 -3.200000 -14.641386 -1.490594 216.592041
1.080000 -8.880000 -3.160000 8.258504 -10.963964 188.411377
1.080000 -8.880000 -3.120000 33.046959 9.572552 1183.735229
1.080000 -8.880000 -3.080000 29.368202 49.285198 3291.521973
1.080000 -8.880000 -3.040000 -9.219501 74.139801 5581.708984
1.080000 -8.880000 -3.000000 -55.786495 59.712242 6677.684570
1.080000 -8.880000 -2.960000 -74.678131 16.057465 5834.665527
1.080000 -8.880000 -2.920000 -55.659668 -21.697636 3568.785889
1.080000 -8.880000 -2.880000 -22.424528 -27.637327 1266.681274
1.080000 -8.880000 -2.840000 -7.173996 -8.815840 129.185242
1.080000 -8.880000 -2.800000 -18.438534 5.321459 368.297455
1.080000 -8.840000 -3.200000 -21.520447 -8.132221 529.262634
1.080000 -8.840000 -3.160000 -2.933428 -12.180878 156.978775
1.080000 -8.840000 -3.120000 9.286386 4.506098 106.541893
1.080000 -8.840000 -3.080000 -1.062126 25.543888 653.618347
1.080000 -8.840000 -3.040000 -27.118687 28.291134 1535.811401
1.080000 -8.840000 -3.000000 -45.476624 7.714619 2127.638672
1.080000 -8.840000 -2.960000 -40.454048 -18.322617 1972.248291
1.080000 -8.840000 -2.920000 -19.990967 -28.096653 1189.060669
1.080000 -8.840000 -2.880000 -6.079422 -18.712578 387.119965
1.080000 -8.840000 -2.840000 -10.511374 -7.864489 172.339172
1.080000 -8.840000 -2.800000 -22.536083 -13.257809 683.644531
1.080000 -8.800000 -3.200000 -19.752060 -25.128933 1021.607117
1.080000 -8.800000 -3.160000 -1.674505 -27.377010 752.304626
1.080000 -8.800000 -3.120000 8.803543 -15.929153 331.240295
1.080000 -8.800000 -3.080000 5.373413 -4.240181 46.852703
1.080000 -8.800000 -3.040000 -3.796501 -2.982460 23.308489
1.080000 -8.800000 -3.000000 -7.047250 -9.598595 141.796753
1.080000 -8.800000 -2.960000 -2.669971 -13.643982 193.287003
1.080000 -8.800000 -2.920000 0.626587 -10.675802 114.365364
1.080000 -8.800000 -2.880000 -3.875509 -7.925055 77.826057
1.080000 -8.800000 -2.840000 -10.864278 -14.963448 341.937317
1.080000 -8.800000 -2.800000 -7.778872 -30.389509 984.033142
1.120000 -9.200000 -3.200000 6.731183 2.434872 51.237419
1.120000 -9.200000 -3.160000 8.439604 15.113415 299.642212
1.120000 -9.200000 -3.120000 -2.369423 23.349352 550.806396
1.120000 -9.200000 -3.080000 -15.588142 18.691227 592.352173
1.120000 -9.200000 -3.040000 -19.219042 5.652141 401.318268
1.120000 -9.200000 -3.000000 -11.395590 -3.620636 142.968475
1.120000 -9.200000 -2.960000 -1.277281 -2.038950 5.788764
1.120000 -9.200000 -2.920000 1.346372 6.044515 38.348873
1.120000 -9.200000 -2.880000 -4.081630 10.912136 135.734421
1.120000 -9.200000 -2.840000 -9.918842 8.350798 168.119263
1.120000 -9.200000 -2.800000 -9.995083 3.121099 109.642944
1.120000 -9.160000 -3.200000 12.061903 11.943727 288.142151
1.120000 -9.160000 -3.160000 0.408037 28.467432 810.561218
1.120000 -9.160000 -3.120000 -21.867565 27.531094 1236.151489
1.120000 -9.160000 -3.080000 -34.975891 7.812464 1284.347534
1.120000 -9.160000 -3.040000 -27.422562 -14.736881 969.172546
1.120000 -9.160000 -3.000000 -6.283457 -22.440590 543.061890
1.120000 -9.160000 -2.960000 10.809906 -11.954573 259.765869
1.120000 -9.160000 -2.920000 12.688585 4.771351 183.765991
1.120000 -9.160000 -2.880000 3.138048 13.875622 202.380234
1.120000 -9.160000 -2.840000 -6.118269 12.245289 187.380310
1.120000 -9.160000 -2.800000 -8.434139 7.123213 121.874870
1.120000 -9.120000 -3.200000 4.753814 24.828506 639.053467
1.120000 -9.120000 -3.160000 -20.792677 31.203173 1405.973389
1.120000 -9.120000 -3.120000 -43.160057 11.221006 1988.701538
1.120000 -9.120000 -3.080000 -40.628410 -21.383417 2107.918213
1.120000 -9.120000 -3.040000 -12.863725 -40.606071 1814.328491
1.120000 -9.120000 -3.000000 18.966055 -31.927225 1379.058960
1.120000 -9.120000 -2.960000 31.948318 -4.334882 1039.486328
1.120000 -9.120000 -2.920000 21.038595 19.924719 839.616943
1.120000 -9.120000 -2.880000 0.206258 26.031937 677.704285
1.120000 -9.120000 -2.840000 -13.364497 17.093098 470.783752
1.120000 -9.120000 -2.800000 -14.460715 6.464108 250.896988
1.120000 -9.080000 -3.200000 -13.117270 27.036055 903.011047
1.120000 -9.080000 -3.160000 -40.081169 13.780285 1796.396362
1.120000 -9.080000 -3.120000 -45.600380 -21.181635 2528.056152
1.120000 -9.080000 -3.080000 -18.725677 -50.239223 2874.630371
1.120000 -9.080000 -3.040000 23.036753 -48.212536 2855.140625
1.120000 -9.080000 -3.000000 48.805168 -15.336835 2617.162842
1.120000 -9.080000 -2.960000 41.517906 23.485296 2275.295654
1.120000 -9.080000 -2.920000 11.190793 41.519833 1849.130371
1.120000 -9.080000 -2.880000 -16.914745 32.331734 1331.449707
1.120000 -9.080000 -2.840000 -25.604649 11.114700 779.134583
1.120000 -9.080000 -2.800000 -17.707842 -2.874771 321.831970
1.120000 -9.040000 -3.200000 -27.042530 13.280333 907.665710
1.120000 -9.040000 -3.160000 -39.499672 -14.750405 1777.798584
1.120000 -9.040000 -3.120000 -20.713314 -47.140312 2651.250488
1.120000 -9.040000 -3.080000 21.710943 -53.814453 3367.360352
1.120000 -9.040000 -3.040000 56.976704 -23.813343 3813.419922
1.120000 -9.040000 -3.000000 57.853264 23.264841 3888.252930
1.120000 -9.040000 -2.960000 24.660196 54.012730 3525.500244
1.120000 -9.040000 -2.920000 -16.181185 50.055084 2767.342285
1.120000 -9.040000 -2.880000 -36.499069 21.648388 1800.834717
1.120000 -9.040000 -2.840000 -29.501862 -5.075340 896.118958
1.120000 -9.040000 -2.800000 -10.908717 -12.591887 277.555725
1.120000 -9.000000 -3.200000 -24.785374 -5.685672 646.641602
1.120000 -9.000000 -3.160000 -17.312567 -32.675617 1367.420898
1.120000 -9.000000 -3.120000 15.869895 -45.456608 2318.156738
1.120000 -9.000000 -3.080000 52.437496 -25.005644 3374.973145
1.120000 -9.000000 -3.040000 62.035683 20.070631 4251.256348
1.120000 -9.000000 -3.000000 34.012848 58.558826 4586.009766
1.120000 -9.000000 -2.960000 -12.047220 63.419174 4167.127441
1.120000 -9.000000 -2.920000 -43.456306 34.943859 3109.523926
1.120000 -9.000000 -2.880000 -42.627495 -1.383026 1819.015991
1.120000 -9.000000 -2.840000 -19.705376 -19.050983 751.241821
1.120000 -9.000000 -2.800000 0.635354 -12.625724 159.812576
1.120000 -8.960000 -3.200000 -10.112045 -13.599552 287.201263
1.120000 -8.960000 -3.160000 7.988322 -26.760580 779.941956
1.120000 -8.960000 -3.120000 36.471096 -17.869972 1649.476807
1.120000 -8.960000 -3.080000 50.511101 15.596452 2794.620605
1.120000 -8.960000 -3.040000 32.861820 52.414501 3827.179199
1.120000 -8.960000 -3.000000 -8.190870 64.699081 4253.061523
1.120000 -8.960000 -2.960000 -44.280487 43.010567 3810.670410
1.120000 -8.960000 -2.920000 -51.556885 5.016956 2683.282227
1.120000 -8.960000 -2.880000 -30.933096 -20.823818 1390.487793
1.120000 -8.960000 -2.840000 -4.842348 -20.464598 442.248108
1.120000 -8.960000 -2.800000 5.075036 -4.148799 42.968521
1.120000 -8.920000 -3.200000 0.671560 -6.415012 41.603374
1.120000 -8.920000 -3.160000 15.394963 -6.490040 279.125519
1.120000 -8.920000 -3.120000 27.578480 10.760092 876.352173
1.120000 -8.920000 -3.080000 20.537960 36.745049 1772.006348
1.120000 -8.920000 -3.040000 -7.442541 50.637062 2619.503418
1.120000 -8.920000 -3.000000 -38.601910 38.537079 2975.213867
1.120000 -8.920000 -2.960000 -50.602493 7.667025 2619.395508
1.120000 -8.920000 -2.920000 -36.861866 -19.346163 1733.071167
1.120000 -8.920000 -2.880000 -12.122396 -25.052713 774.590942
1.120000 -8.920000 -2.840000 2.342498 -12.307552 156.963150
1.120000 -8.920000 -2.800000 -1.300769 0.783867 2.306448
1.120000 -8.880000 -3.200000 -3.070807 2.785714 17.190056
1.120000 -8.880000 -3.160000 3.160702 5.211338 37.148083
1.120000 -8.880000 -3.120000 3.482218 16.145748 272.811035
1.120000 -8.880000 -3.080000 -8.796545 25.447979 724.978821
1.120000 -8.880000 -3.040000 -27.334005 21.186007 1195.994629
1.120000 -8.880000 -3.000000 -37.474716 2.725601 1411.783325
1.120000 -8.880000 -2.960000 -30.599163 -17.165310 1230.956665
1.120000 -8.880000 -2.920000 -13.147350 -24.272823 762.022827
1.120000 -8.880000 -2.880000 -0.317436 -16.864019 284.495911
1.120000 -8.880000 -2.840000 -0.721453 -6.805214 46.831429
1.120000 -8.880000 -2.800000 -8.169338 -6.610003 110.430222
1.120000 -8.840000 -3.200000 -13.452520 -1.394169 182.914017
1.120000 -8.840000 -3.160000 -9.142560 -3.603402 96.570908
1.120000 -8.840000 -3.120000 -8.070839 -1.313807 66.864532
1.120000 -8.840000 -3.080000 -11.944538 -1.115437 143.916199
1.120000 -8.840000 -3.040000 -15.188692 -6.896545 278.258698
1.120000 -8.840000 -3.000000 -11.914837 -14.725147 358.793274
1.120000 -8.840000 -2.960000 -3.541403 -17.270996 310.828827
1.120000 -8.840000 -2.920000 2.251322 -12.811446 169.201599
1.120000 -8.840000 -2.880000 0.546703 -8.070812 65.436890
1.120000 -8.840000 -2.840000 -4.161651 -10.784893 133.633255
1.120000 -8.840000 -2.800000 -2.094560 -20.020725 405.216614
1.120000 -8.800000 -3.200000 -12.054732 -17.825562 463.067200
1.120000 -8.800000 -3.160000 -1.884182 -20.395773 419.537689
1.120000 -8.800000 -3.120000 5.586451 -17.388996 333.585632
1.120000 -8.800000 -3.080000 9.363646 -13.233742 262.809784
1.120000 -8.800000 -3.040000 11.617983 -9.425972 223.826477
1.120000 -8.800000 -3.000000 12.651785 -4.671127 181.887085
1.120000 -8.800000 -2.960000 10.009834 0.426152 100.378387
1.120000 -8.800000 -2.920000 3.232143 1.302251 12.142608
1.120000 -8.800000 -2.880000 -2.143099 -5.861528 38.950386
1.120000 -8.800000 -2.840000 1.942585 -17.514679 310.537628
1.120000 -8.800000 -2.800000 17.211935 -23.031464 826.698975
1.160000 -9.200000 -3.200000 3.836302 -3.307614 25.657520
1.160000 -9.200000 -3.160000 1.875478 11.826002 143.371735
1.160000 -9.200000 -3.120000 -11.938335 16.871634 427.175842
1.160000 -9.200000 -3.080000 -22.715879 7.261653 568.742798
1.160000 -9.200000 -3.040000 -19.616381 -6.462710 426.569031
1.160000 -9.200000 -3.000000 -6.653337 -10.202698 148.361938
1.160000 -9.200000 -2.960000 2.348267 -0.954221 6.424893
1.160000 -9.200000 -2.920000 -1.396446 10.942638 121.691399
1.160000 -9.200000 -2.880000 -13.121976 13.528548 355.207886
1.160000 -9.200000 -2.840000 -20.855801 5.600370 466.328552
1.160000 -9.200000 -2.800000 -18.671921 -3.493436 360.844727
1.160000 -9.160000 -3.200000 7.083981 8.547825 123.248093
1.160000 -9.160000 -3.160000 -8.811523 20.981697 517.874512
1.160000 -9.160000 -3.120000 -28.155993 13.442862 973.470398
1.160000 -9.160000 -3.080000 -32.260513 -7.283728 1093.793457
1.160000 -9.160000 -3.040000 -17.434525 -21.998840 787.911621
1.160000 -9.160000 -3.000000 2.178920 -18.077742 331.552429
1.160000 -9.160000 -2.960000 9.334628 -0.890370 87.928047
1.160000 -9.160000 -2.920000 0.094396 13.201077 174.277359
1.160000 -9.160000 -2.880000 -14.529028 13.593564 395.877625
1.160000 -9.160000 -2.840000 -21.616302 4.161691 484.584198
1.160000 -9.160000 -2.800000 -18.954849 -3.739976 373.273743
1.160000 -9.120000 -3.200000 -3.340598 18.713148 361.341522
1.160000 -9.120000 -3.160000 -26.239450 17.296818 987.688721
1.160000 -9.120000 -3.120000 -38.424881 -4.062323 1492.973877
1.160000 -9.120000 -3.080000 -27.611717 -27.206776 1502.615479
1.160000 -9.120000 -3.040000 -2.584715 -32.132111 1039.153320
1.160000 -9.120000 -3.000000 15.538529 -15.557812 483.491394
1.160000 -9.120000 -2.960000 13.180531 7.244089 226.203201
1.160000 -9.120000 -2.920000 -4.561522 17.959513 343.351593
1.160000 -9.120000 -2.880000 -21.296623 11.579371 587.628052
1.160000 -9.120000 -2.840000 -25.797651 -2.057367 669.751587
1.160000 -9.120000 -2.800000 -20.417500 -10.665567 530.628601
1.160000 -9.080000 -3.200000 -19.465450 14.671605 594.159729
1.160000 -9.080000 -3.160000 -35.592384 -1.180058 1268.210449
1.160000 -9.080000 -3.120000 -31.690975 -25.960793 1678.280762
1.160000 -9.080000 -3.080000 -8.373838 -38.626652 1562.139404
1.160000 -9.080000 -3.040000 16.193775 -27.978325 1045.025024
1.160000 -9.080000 -3.000000 22.730377 -2.804394 524.534668
1.160000 -9.080000 -2.960000 7.784684 16.654556 337.975555
1.160000 -9.080000 -2.920000 -14.734196 16.966412 504.955658
1.160000 -9.080000 -2.880000 -27.537325 1.731838 761.303528
1.160000 -9.080000 -2.840000 -24.785751 -14.579896 826.906860
1.160000 -9.080000 -2.800000 -14.124750 -21.095478 644.527771
1.160000 -9.040000 -3.200000 -25.241211 -2.358310 642.680359
1.160000 -9.040000 -3.160000 -26.388065 -21.384020 1153.606323
1.160000 -9.040000 -3.120000 -9.977835 -35.904755 1388.708496
1.160000 -9.040000 -3.080000 13.391119 -32.249229 1219.334839
1.160000 -9.040000 -3.040000 25.800079 -11.456535 796.896301
1.160000 -9.040000 -3.000000 17.668388 10.957809 432.245514
1.160000 -9.040000 -2.960000 -3.983646 18.361046 352.997437
1.160000 -9.040000 -2.920000 -22.181746 6.928499 540.033936
1.160000 -9.040000 -2.880000 -24.768749 -12.487907 769.438782
1.160000 -9.040000 -2.840000 -13.434198 -25.167028 813.857056
1.160000 -9.040000 -2.800000 0.281658 -24.930212 621.594788
1.160000 -9.000000 -3.200000 -13.744884 -16.723537 468.598511
1.160000 -9.000000 -3.160000 -4.872087 -26.288918 714.844421
1.160000 -9.000000 -3.120000 10.793872 -25.957842 790.317261
1.160000 -9.000000 -3.080000 22.221390 -12.857539 659.106445
1.160000 -9.000000 -3.040000 19.930176 5.196680 424.217407
1.160000 -9.000000 -3.000000 4.605376 15.289049 254.964508
1.160000 -9.000000 -2.960000 -12.726748 10.042013 262.812134
1.160000 -9.000000 -2.920000 -19.567438 -6.148501 420.688721
1.160000 -9.000000 -2.880000 -12.069050 -21.007725 586.986450
1.160000 -9.000000 -2.840000 2.563208 -24.703932 616.854248
1.160000 -9.000000 -2.800000 13.084888 -17.325426 471.384705
1.160000 -8.960000 -3.200000 3.982421 -14.393451 223.031097
1.160000 -8.960000 -3.160000 10.228939 -12.446665 259.550659
1.160000 -8.960000 -3.120000 14.645823 -5.656459 246.495651
1.160000 -8.960000 -3.080000 13.227301 3.502745 187.230713
1.160000 -8.960000 -3.040000 5.163260 9.547560 117.815155
1.160000 -8.960000 -3.000000 -5.350095 7.767358 88.955360
1.160000 -8.960000 -2.960000 -11.340244 -1.589115 131.126419
1.160000 -8.960000 -2.920000 -8.322782 -12.567159 227.202164
1.160000 -8.960000 -2.880000 1.755034 -17.705982 316.581940
1.160000 -8.960000 -2.840000 11.766601 -13.990458 334.185822
1.160000 -8.960000 -2.800000 15.216675 -5.242867 259.034851
1.160000 -8.920000 -3.200000 9.901802 1.159507 99.390144
1.160000 -8.920000 -3.160000 6.332054 5.158200 66.701942
1.160000 -8.920000 -3.120000 1.387022 5.954317 37.377720
1.160000 -8.920000 -3.080000 -2.577927 3.785448 20.975323
1.160000 -8.920000 -3.040000 -4.388103 0.085159 19.262705
1.160000 -8.920000 -3.000000 -3.940762 -3.846001 30.321323
1.160000 -8.920000 -2.960000 -1.429927 -7.045389 51.682198
1.160000 -8.920000 -2.920000 2.639296 -8.430032 78.031319
1.160000 -8.920000 -2.880000 6.883529 -7.169519 98.784973
1.160000 -8.920000 -2.840000 9.353996 -3.751160 101.568443
1.160000 -8.920000 -2.800000 9.092674 -0.215482 82.723160
1.160000 -8.880000 -3.200000 -0.986435 11.813137 140.523254
1.160000 -8.880000 -3.160000 -9.198875 8.060081 149.584198
1.160000 -8.880000 -3.120000 -12.378018 -0.914220 154.051132
1.160000 -8.880000 -3.080000 -8.159345 -9.420021 155.311707
1.160000 -8.880000 -3.040000 0.320204 -12.158036 147.920364
1.160000 -8.880000 -3.000000 7.179240 -8.479845 123.449257
1.160000 -8.880000 -2.960000 8.669293 -2.424987 81.037209
1.160000 -8.880000 -2.920000 5.757102 1.078829 34.308090
1.160000 -8.880000 -2.880000 2.576034 0.149518 6.658307
1.160000 -8.880000 -2.840000 2.710801 -3.128724 17.137358
1.160000 -8.880000 -2.800000 6.535570 -4.916763 66.888237
1.160000 -8.840000 -3.200000 -14.008564 4.873615 219.991989
1.160000 -8.840000 -3.160000 -16.148506 -5.598693 292.119629
1.160000 -8.840000 -3.120000 -9.853024 -16.218842 360.132904
1.160000 -8.840000 -3.080000 2.972521 -19.940994 406.479126
1.160000 -8.840000 -3.040000 14.869596 -13.558796 404.945862
1.160000 -8.840000 -3.000000 18.214787 -1.235137 333.304016
1.160000 -8.840000 -2.960000 11.618340 8.096562 200.540131
1.160000 -8.840000 -2.920000 1.537285 7.809570 63.352623
1.160000 -8.840000 -2.880000 -2.734952 -0.786322 8.098263
1.160000 -8.840000 -2.840000 3.237176 -9.286715 96.722374
1.160000 -8.840000 -2.800000 15.164507 -9.060187 312.049255
1.160000 -8.800000 -3.200000 -10.543289 -11.292065 238.671677
1.160000 -8.800000 -3.160000 -3.509486 -17.824226 330.019531
1.160000 -8.800000 -3.120000 7.899662 -19.835241 455.841461
1.160000 -8.800000 -3.080000 19.813145 -13.789762 582.718201
1.160000 -8.800000 -3.040000 25.323639 -0.469638 641.507263
1.160000 -8.800000 -3.000000 19.832848 12.967337 561.493652
1.160000 -8.800000 -2.960000 6.614386 17.210772 339.960754
1.160000 -8.800000 -2.920000 -3.766890 8.938631 94.088577
1.160000 -8.800000 -2.880000 -1.563807 -4.609827 23.695995
1.160000 -8.800000 -2.840000 12.959063 -10.330643 274.659485
1.160000 -8.800000 -2.800000 28.204702 -0.393488 795.660095
1.200000 -9.200000 -3.200000 6.757248 -7.720371 105.264526
1.200000 -9.200000 -3.160000 0.772491 6.056686 37.280186
1.200000 -9.200000 -3.120000 -12.599785 7.420373 213.816528
1.200000 -9.200000 -3.080000 -19.191006 -2.794315 376.102905
1.200000 -9.200000 -3.040000 -13.211294 -12.317067 326.248444
1.200000 -9.200000 -3.000000 -2.474903 -10.762729 121.961472
1.200000 -9.200000 -2.960000 0.675881 -0.194189 0.494524
1.200000 -9.200000 -2.920000 -7.495034 7.909623 118.737671
1.200000 -9.200000 -2.880000 -18.917837 5.240842 385.350983
1.200000 -9.200000 -2.840000 -23.078619 -5.131066 558.950500
1.200000 -9.200000 -2.800000 -17.985256 -13.236798 498.682281
1.200000 -9.160000 -3.200000 5.903640 3.262075 45.494099
1.200000 -9.160000 -3.160000 -9.374002 10.221667 192.354401
1.200000 -9.160000 -3.120000 -22.721436 1.061677 517.390747
1.200000 -9.160000 -3.080000 -21.803886 -14.379432 682.177490
1.200000 -9.160000 -3.040000 -8.815111 -21.018995 519.504333
1.200000 -9.160000 -3.000000 2.676041 -13.441592 187.837601
1.200000 -9.160000 -2.960000 1.794791 -0.246400 3.281986
1.200000 -9.160000 -2.920000 -9.553778 5.731090 124.120056
1.200000 -9.160000 -2.880000 -20.280622 0.177506 411.335144
1.200000 -9.160000 -2.840000 -22.196995 -10.141435 595.555298
1.200000 -9.160000 -2.800000 -17.151352 -16.212955 557.028809
1.200000 -9.120000 -3.200000 -4.775040 8.363137 92.743073
1.200000 -9.120000 -3.160000 -20.797569 4.252027 450.618622
1.200000 -9.120000 -3.120000 -26.634785 -11.680338 845.842041
1.200000 -9.120000 -3.080000 -17.237097 -25.482914 946.496399
1.200000 -9.120000 -3.040000 -1.539232 -25.709675 663.356628
1.200000 -9.120000 -3.000000 6.525577 -13.800390 233.033936
1.200000 -9.120000 -2.960000 1.094717 -1.665026 3.970716
1.200000 -9.120000 -2.920000 -11.374182 0.219086 129.420013
1.200000 -9.120000 -2.880000 -19.755890 -8.226988 457.978516
1.200000 -9.120000 -2.840000 -18.894846 -18.754412 708.743164
1.200000 -9.120000 -2.800000 -12.523428 -24.100122 737.652161
1.200000 -9.080000 -3.200000 -14.917664 0.883204 223.316727
1.200000 -9.080000 -3.160000 -23.596878 -9.644264 649.824524
1.200000 -9.080000 -3.120000 -20.772511 -24.342138 1024.036865
1.200000 -9.080000 -3.080000 -7.607031 -31.998207 1081.752197
1.200000 -9.080000 -3.040000 5.925671 -27.185825 774.182678
1.200000 -9.080000 -3.000000 9.835426 -14.983768 321.248932
1.200000 -9.080000 -2.960000 2.692836 -6.150893 45.084854
1.200000 -9.080000 -2.920000 -7.862329 -7.578514 119.250099
1.200000 -9.080000 -2.880000 -12.558684 -17.041889 448.146545
1.200000 -9.080000 -2.840000 -8.312159 -26.479744 770.268799
1.200000 -9.080000 -2.800000 0.528969 -29.643860 879.038208
1.200000 -9.040000 -3.200000 -12.719254 -12.547747 319.225403
1.200000 -9.040000 -3.160000 -13.915888 -20.623909 618.997559
1.200000 -9.040000 -3.120000 -8.241171 -29.246258 923.260498
1.200000 -9.040000 -3.080000 2.950828 -32.244270 1048.400391
1.200000 -9.040000 -3.040000 13.203454 -26.711300 887.824707
1.200000 -9.040000 -3.000000 15.882203 -16.459080 523.145691
1.200000 -9.040000 -2.960000 10.208248 -9.476491 194.012207
1.200000 -9.040000 -2.920000 2.439856 -11.078875 128.694366
1.200000 -9.040000 -2.880000 0.519215 -19.069189 363.903564
1.200000 -9.040000 -2.840000 6.988246 -25.701862 709.421326
1.200000 -9.040000 -2.800000 16.866152 -24.756134 897.333252
1.200000 -9.000000 -3.200000 1.433055 -17.316277 301.907074
1.200000 -9.000000 -3.160000 0.326772 -18.945181 359.026672
1.200000 -9.000000 -3.120000 2.333272 -24.210754 591.604797
1.200000 -9.000000 -3.080000 10.413494 -27.843399 883.695740
1.200000 -9.000000 -3.040000 20.568760 -24.141237 1005.873169
1.200000 -9.000000 -3.000000 25.096943 -14.066307 827.717529
1.200000 -9.000000 -2.960000 20.893742 -5.366612 465.348969
1.200000 -9.000000 -2.920000 13.450318 -4.808793 204.035553
1.200000 -9.000000 -2.880000 11.518600 -10.789921 249.100525
1.200000 -9.000000 -2.840000 17.856510 -14.745050 536.271484
1.200000 -9.000000 -2.800000 26.101051 -10.171622 784.726807
1.200000 -8.960000 -3.200000 13.581431 -6.537715 227.196991
1.200000 -8.960000 -3.160000 5.980756 -6.628458 79.705894
1.200000 -8.960000 -3.120000 4.122807 -15.431150 255.117935
1.200000 -8.960000 -3.080000 13.475296 -22.767591 699.946838
1.200000 -8.960000 -3.040000 27.184809 -18.804352 1092.617432
1.200000 -8.960000 -3.000000 33.122513 -5.043777 1122.540527
1.200000 -8.960000 -2.960000 26.875111 7.120446 772.972290
1.200000 -8.960000 -2.920000 16.254585 8.662844 339.256409
1.200000 -8.960000 -2.880000 12.403602 2.299206 159.135681
1.200000 -8.960000 -2.840000 17.646688 -1.260550 312.994598
1.200000 -8.960000 -2.800000 23.569962 4.364019 574.587769
1.200000 -8.920000 -3.200000 10.529860 10.129150 213.477631
1.200000 -8.920000 -3.160000 -1.739994 3.368957 14.377448
1.200000 -8.920000 -3.120000 -0.960626 -12.071198 146.636612
1.200000 -8.920000 -3.080000 14.627394 -20.094728 617.758789
1.200000 -8.920000 -3.040000 31.550440 -11.067734 1117.924927
1.200000 -8.920000 -3.000000 34.747276 8.113538 1273.202637
1.200000 -8.920000 -2.960000 22.705725 21.354097 971.547363
1.200000 -8.920000 -2.920000 8.045671 19.833076 458.083740
1.200000 -8.920000 -2.880000 3.636826 9.918853 111.610146
1.200000 -8.920000 -2.840000 9.737576 4.833877 118.186737
1.200000 -8.920000 -2.800000 15.517710 10.119238 343.198303
1.200000 -8.880000 -3.200000 -5.020444 15.886780 277.594635
1.200000 -8.880000 -3.160000 -13.290778 0.503034 176.897827
1.200000 -8.880000 -3.120000 -3.736576 -16.702854 292.947357
1.200000 -8.880000 -3.080000 17.700874 -18.858860 668.977539
1.200000 -8.880000 -3.040000 32.892132 -2.220554 1086.823242
1.200000 -8.880000 -3.000000 29.063042 19.639214 1230.359131
1.200000 -8.880000 -2.960000 10.975605 29.068861 965.462585
1.200000 -8.880000 -2.920000 -4.572761 21.176540 469.355988
1.200000 -8.880000 -2.880000 -5.595103 7.158232 82.545471
1.200000 -8.880000 -2.840000 4.457102 1.766311 22.985613
1.200000 -8.880000 -2.800000 12.226411 8.797606 226.882996
1.200000 -8.840000 -3.200000 -16.213612 5.512652 293.270538
1.200000 -8.840000 -3.160000 -14.487974 -11.171823 334.710999
1.200000 -8.840000 -3.120000 2.356111 -21.731167 477.794891
1.200000 -8.840000 -3.080000 23.186371 -14.615856 751.231018
1.200000 -8.840000 -3.040000 31.195358 6.764306 1018.906250
1.200000 -8.840000 -3.000000 19.861904 25.884314 1064.492920
1.200000 -8.840000 -2.960000 -0.427355 28.172707 793.884033
1.200000 -8.840000 -2.920000 -12.081222 14.470541 355.352478
1.200000 -8.840000 -2.880000 -6.679309 -0.381166 44.758461
1.200000 -8.840000 -2.840000 7.938702 -2.006094 67.047394
1.200000 -8.840000 -2.800000 16.159817 10.415709 369.626678
1.200000 -8.800000 -3.200000 -10.507021 -7.488111 166.469299
1.200000 -8.800000 -3.160000 -2.779128 -16.239229 271.436096
1.200000 -8.800000 -3.120000 12.746660 -17.091961 454.612488
1.200000 -8.800000 -3.080000 26.181816 -4.546206 706.155457
1.200000 -8.800000 -3.040000 26.058081 15.192018 909.820923
1.200000 -8.800000 -3.000000 11.161301 27.799572 897.390869
1.200000 -8.800000 -2.960000 -6.466279 23.810642 608.759399
1.200000 -8.800000 -2.920000 -11.729119 8.360608 207.472000
1.200000 -8.800000 -2.880000 -0.733772 -2.641451 7.515684
1.200000 -8.800000 -2.840000 14.908419 2.837209 230.310699
1.200000 -8.800000 -2.800000 18.483465 21.350466 797.480835
