#kx 	ky 	kz 	real 	imag 	intensity
4.800000 2.800000 4.800000 -22.259291 -0.526814 495.753540
4.800000 2.800000 4.840000 -19.883327 -5.628103 427.022247
4.800000 2.800000 4.880000 -17.228155 -10.010628 397.022003
4.800000 2.800000 4.920000 -12.921736 -14.901773 389.034119
4.800000 2.800000 4.960000 -4.882976 -18.439976 363.876160
4.800000 2.800000 5.000000 5.827517 -16.708813 313.144379
4.800000 2.800000 5.040000 14.363972 -8.021227 270.663757
4.800000 2.800000 5.080000 15.899793 4.405495 272.211792
4.800000 2.800000 5.120000 9.994251 14.687065 315.594940
4.800000 2.800000 5.160000 0.614321 19.191000 368.671875
4.800000 2.800000 5.200000 -8.039131 18.695698 414.156738
4.800000 2.840000 4.800000 -17.479879 -17.395344 608.144165
4.800000 2.840000 4.840000 -12.861459 -17.868616 484.704590
4.800000 2.840000 4.880000 -9.514050 -19.103745 455.470215
4.800000 2.840000 4.920000 -4.179693 -20.425343 434.664429
4.800000 2.840000 4.960000 2.827449 -18.149401 337.395233
4.800000 2.840000 5.000000 7.098357 -11.277813 177.575729
4.800000 2.840000 5.040000 5.447658 -3.990257 45.599129
4.800000 2.840000 5.080000 0.440498 -1.394527 2.138744
4.800000 2.840000 5.120000 -2.007990 -3.292795 14.874523
4.800000 2.840000 5.160000 0.234131 -3.928232 15.485826
4.800000 2.840000 5.200000 2.114060 1.083719 5.643697
4.800000 2.880000 4.800000 -1.302468 -27.534735 759.858032
4.800000 2.880000 4.840000 2.315855 -23.293999 547.973511
4.800000 2.880000 4.880000 4.520608 -21.215387 470.528534
4.800000 2.880000 4.920000 7.584077 -18.555435 401.822388
4.800000 2.880000 4.960000 8.590302 -13.549034 257.369598
4.800000 2.880000 5.000000 4.841970 -9.978705 123.019241
4.800000 2.880000 5.040000 0.115444 -12.950262 167.722610
4.800000 2.880000 5.080000 2.416115 -20.653942 432.422943
4.800000 2.880000 5.120000 14.174075 -23.201214 739.200745
4.800000 2.880000 5.160000 26.344736 -12.311832 845.626343
4.800000 2.880000 5.200000 25.182713 7.764757 694.460449
4.800000 2.920000 4.800000 18.535797 -23.554640 898.396851
4.800000 2.920000 4.840000 18.380297 -16.195959 600.144409
4.800000 2.920000 4.880000 17.079020 -12.116379 438.499542
4.800000 2.920000 4.920000 15.024542 -8.716465 301.713623
4.800000 2.920000 4.960000 10.189077 -7.617973 161.850815
4.800000 2.920000 5.000000 5.613588 -13.264453 207.458084
4.800000 2.920000 5.040000 9.789640 -24.184328 680.718750
4.800000 2.920000 5.080000 26.735479 -29.090183 1561.024658
4.800000 2.920000 5.120000 46.828987 -15.992392 2448.710693
4.800000 2.920000 5.160000 51.517376 13.286070 2830.559570
4.800000 2.920000 5.200000 30.485676 39.767391 2510.821777
4.800000 2.960000 4.800000 30.338192 -6.274762 959.778503
4.800000 2.960000 4.840000 24.768797 1.088622 614.678406
4.800000 2.960000 4.880000 18.882217 3.672535 370.025665
4.800000 2.960000 4.920000 12.972051 2.713085 175.634918
4.800000 2.960000 4.960000 8.749460 -3.830367 91.224770
4.800000 2.960000 5.000000 12.890597 -15.103365 394.279114
4.800000 2.960000 5.040000 30.215176 -21.302856 1366.768555
4.800000 2.960000 5.080000 53.212101 -9.222130 2916.575195
4.800000 2.960000 5.120000 62.593857 22.937004 4444.097168
4.800000 2.960000 5.160000 43.112045 57.616226 5178.278320
4.800000 2.960000 5.200000 0.693586 68.924698 4751.094727
4.800000 3.000000 4.800000 26.548019 14.547651 916.431519
4.800000 3.000000 4.840000 16.152384 17.856131 579.740906
4.800000 3.000000 4.880000 8.000685 14.940710 287.235779
4.800000 3.000000 4.920000 3.948534 7.384606 70.123337
4.800000 3.000000 4.960000 7.714436 -2.986658 68.432640
4.800000 3.000000 5.000000 22.704063 -8.895660 594.607239
4.800000 3.000000 5.040000 43.758736 0.889270 1915.617676
4.800000 3.000000 5.080000 54.526894 30.236652 3887.437256
4.800000 3.000000 5.120000 38.621460 65.787407 5819.600098
4.800000 3.000000 5.160000 -3.218642 82.477234 6812.854004
4.800000 3.000000 5.200000 -48.101902 63.713566 6373.211426
4.800000 3.040000 4.800000 9.518005 26.650076 800.818970
4.800000 3.040000 4.840000 -2.160573 22.692118 519.600281
4.800000 3.040000 4.880000 -7.177798 13.183870 225.335220
4.800000 3.040000 4.920000 -3.486925 2.747559 19.707726
4.800000 3.040000 4.960000 9.329317 -2.378213 92.692055
4.800000 3.040000 5.000000 26.452408 5.599216 731.081055
4.800000 3.040000 5.040000 35.424210 29.640377 2133.426514
4.800000 3.040000 5.080000 22.594090 60.098660 4122.341797
4.800000 3.040000 5.120000 -13.726906 76.514511 6042.897949
4.800000 3.040000 5.160000 -56.355091 62.228828 7048.323242
4.800000 3.040000 5.200000 -78.867073 20.374380 6635.130371
4.800000 3.080000 4.800000 -10.290556 23.944429 679.231201
4.800000 3.080000 4.840000 -17.865969 12.682576 480.040588
4.800000 3.080000 4.880000 -14.773930 0.333749 218.380386
4.800000 3.080000 4.920000 -2.649937 -5.388465 36.057724
4.800000 3.080000 4.960000 11.945700 1.343167 144.503830
4.800000 3.080000 5.000000 18.432121 20.857738 774.788330
4.800000 3.080000 5.040000 7.102282 44.467285 2027.781860
4.800000 3.080000 5.080000 -22.584145 56.433250 3694.755371
4.800000 3.080000 5.120000 -57.428989 43.906212 5225.844238
4.800000 3.080000 5.160000 -76.748260 8.478508 5962.180664
4.800000 3.080000 5.200000 -67.218750 -31.766138 5527.447754
4.800000 3.120000 4.800000 -22.314880 10.117077 600.309143
4.800000 3.120000 4.840000 -21.548046 -4.571190 485.214081
4.800000 3.120000 4.880000 -9.773124 -13.140001 268.173584
4.800000 3.120000 4.920000 5.005823 -8.586442 98.785255
4.800000 3.120000 4.960000 11.323021 8.126614 194.252655
4.800000 3.120000 5.000000 1.224752 27.134180 737.763733
4.800000 3.120000 5.040000 -23.397295 34.550003 1741.136230
4.800000 3.120000 5.080000 -49.943062 21.512186 2957.083496
4.800000 3.120000 5.120000 -62.168163 -8.417114 3935.728516
4.800000 3.120000 5.160000 -51.373280 -39.994961 4238.810547
4.800000 3.120000 5.200000 -23.339012 -56.191090 3702.147949
4.800000 3.160000 4.800000 -23.124859 -5.726161 567.548035
4.800000 3.160000 4.840000 -13.576194 -18.121414 512.698669
4.800000 3.160000 4.880000 2.388165 -17.991829 329.409241
4.800000 3.160000 4.920000 11.859383 -4.049528 157.043640
4.800000 3.160000 4.960000 5.148207 13.588181 211.142700
4.800000 3.160000 5.000000 -15.694413 20.054668 648.504333
4.800000 3.160000 5.040000 -37.045143 7.209317 1424.316895
4.800000 3.160000 5.080000 -43.414467 -19.277847 2256.451416
4.800000 3.160000 5.120000 -29.282495 -43.564362 2755.318115
4.800000 3.160000 5.160000 -3.362245 -51.437958 2657.168213
4.800000 3.160000 5.200000 18.375801 -40.777222 2000.451904
4.800000 3.200000 4.800000 -16.730013 -16.848310 563.758911
4.800000 3.200000 4.840000 -1.681440 -22.837879 524.395996
4.800000 3.200000 4.880000 12.281089 -13.924747 344.723755
4.800000 3.200000 4.920000 12.231288 3.166608 159.631805
4.800000 3.200000 4.960000 -3.661740 12.799043 177.223831
4.800000 3.200000 5.000000 -22.782038 3.916383 534.359314
4.800000 3.200000 5.040000 -28.030041 -19.257849 1156.547852
4.800000 3.200000 5.080000 -12.787716 -39.812851 1748.588745
4.800000 3.200000 5.120000 12.902797 -42.375626 1962.175781
4.800000 3.200000 5.160000 30.876019 -26.204439 1640.001099
4.800000 3.200000 5.200000 30.347015 -5.265003 948.661621
4.840000 2.800000 4.800000 -26.117126 -1.196236 683.535278
4.840000 2.800000 4.840000 -23.560347 -9.450859 644.408630
4.840000 2.800000 4.880000 -17.485916 -16.305477 571.625854
4.840000 2.800000 4.920000 -8.368057 -20.067932 472.746277
4.840000 2.800000 4.960000 2.164963 -18.957710 364.081848
4.840000 2.800000 5.000000 11.102788 -12.317350 274.989014
4.840000 2.800000 5.040000 15.227783 -1.745266 234.931335
4.840000 2.800000 5.080000 13.037184 9.237560 255.300674
4.840000 2.800000 5.120000 5.609512 17.066759 322.740906
4.840000 2.800000 5.160000 -4.345222 19.819431 411.690796
4.840000 2.800000 5.200000 -14.138729 17.335205 500.412994
4.840000 2.840000 4.800000 -14.819150 -19.238441 589.724854
4.840000 2.840000 4.840000 -4.900663 -20.755419 454.803925
4.840000 2.840000 4.880000 4.198435 -16.163706 278.892242
4.840000 2.840000 4.920000 8.075922 -7.138875 116.184052
4.840000 2.840000 4.960000 4.785744 1.128089 24.175928
4.840000 2.840000 5.000000 -2.503143 3.350887 17.494173
4.840000 2.840000 5.040000 -7.206587 -1.033897 53.003845
4.840000 2.840000 5.080000 -5.000036 -6.590756 68.438431
4.840000 2.840000 5.120000 1.628635 -6.413530 43.785828
4.840000 2.840000 5.160000 4.960100 0.989403 25.581507
4.840000 2.840000 5.200000 -0.723589 9.228334 85.685738
4.840000 2.880000 4.800000 7.674330 -23.202126 597.233948
4.840000 2.880000 4.840000 18.369339 -12.309177 488.948486
4.840000 2.880000 4.880000 19.012470 4.921843 385.698578
4.840000 2.880000 4.920000 5.642895 18.546852 375.827972
4.840000 2.880000 4.960000 -15.181366 17.087637 522.461182
4.840000 2.880000 5.000000 -28.121599 -1.538113 793.190125
4.840000 2.880000 5.040000 -20.966928 -24.907700 1060.005615
4.840000 2.880000 5.080000 3.217579 -34.235924 1182.451294
4.840000 2.880000 5.120000 26.287842 -20.456688 1109.526611
4.840000 2.880000 5.160000 29.541063 6.498283 914.902100
4.840000 2.880000 5.200000 10.236244 25.118093 735.699341
4.840000 2.920000 4.800000 26.123837 -8.080090 747.742676
4.840000 2.920000 4.840000 26.863386 13.604628 906.727417
4.840000 2.920000 4.880000 9.449072 33.062481 1182.412598
4.840000 2.920000 4.920000 -21.187279 33.850700 1594.770630
4.840000 2.920000 4.960000 -45.180206 8.220612 2108.829590
4.840000 2.920000 5.000000 -41.048622 -30.808567 2634.157227
4.840000 2.920000 5.040000 -5.849834 -54.992817 3058.430420
4.840000 2.920000 5.080000 37.666286 -43.225727 3287.212646
4.840000 2.920000 5.120000 57.143837 -1.484962 3267.623291
4.840000 2.920000 5.160000 37.701038 39.701088 2997.544678
4.840000 2.920000 5.200000 -4.698891 50.113930 2533.485596
4.840000 2.960000 4.800000 26.334846 16.422506 963.222900
4.840000 2.960000 4.840000 10.501682 38.069839 1559.597900
4.840000 2.960000 4.880000 -22.154638 43.650318 2396.178223
4.840000 2.960000 4.920000 -53.933067 19.951481 3306.837158
4.840000 2.960000 4.960000 -58.401863 -25.782871 4075.534180
4.840000 2.960000 5.000000 -23.327019 -63.658218 4596.518555
4.840000 2.960000 5.040000 32.817192 -62.146820 4939.195312
4.840000 2.960000 5.080000 70.409943 -16.508842 5230.102051
4.840000 2.960000 5.120000 60.212608 42.806274 5457.935059
4.840000 2.960000 5.160000 9.256047 73.003448 5415.177734
4.840000 2.960000 5.200000 -43.934174 54.256622 4873.992676
4.840000 3.000000 4.800000 7.379474 32.519615 1111.982056
4.840000 3.000000 4.840000 -20.460464 40.814331 2084.440186
4.840000 3.000000 4.880000 -52.508675 24.125427 3339.197266
4.840000 3.000000 4.920000 -64.775658 -17.552391 4503.972168
4.840000 3.000000 4.960000 -38.848267 -60.855549 5212.585449
4.840000 3.000000 5.000000 16.830299 -71.727066 5428.030762
4.840000 3.000000 5.040000 65.856506 -34.210556 5507.441895
4.840000 3.000000 5.080000 70.200691 30.696945 5870.439453
4.840000 3.000000 5.120000 23.166695 77.508179 6544.213379
4.840000 3.000000 5.160000 -42.128136 72.561836 7040.000000
4.840000 3.000000 5.200000 -79.009201 22.166546 6733.809570
4.840000 3.040000 4.800000 -17.099255 28.684439 1115.181519
4.840000 3.040000 4.840000 -42.991119 18.420284 2187.543213
4.840000 3.040000 4.880000 -57.307072 -12.865610 3449.624512
4.840000 3.040000 4.920000 -42.497875 -51.286800 4436.405273
4.840000 3.040000 4.960000 1.746529 -69.111786 4779.489258
4.840000 3.040000 5.000000 49.940525 -45.713810 4583.808594
4.840000 3.040000 5.040000 65.796875 10.513900 4439.770508
4.840000 3.040000 5.080000 32.214352 62.479965 4941.510742
4.840000 3.040000 5.120000 -30.676437 71.768982 6091.830566
4.840000 3.040000 5.160000 -78.859192 30.817608 7168.497070
4.840000 3.040000 5.200000 -79.742889 -29.871572 7251.239258
4.840000 3.080000 4.800000 -30.244411 8.774325 991.713196
4.840000 3.080000 4.840000 -41.221954 -12.445005 1854.127686
4.840000 3.080000 4.880000 -33.326271 -40.111465 2719.570068
4.840000 3.080000 4.920000 -3.719900 -56.499222 3205.999756
4.840000 3.080000 4.960000 33.254528 -44.729099 3106.556152
4.840000 3.080000 5.000000 51.389393 -5.230957 2668.232422
4.840000 3.080000 5.040000 32.334461 38.397949 2519.919922
4.840000 3.080000 5.080000 -16.102642 54.137344 3190.147217
4.840000 3.080000 5.120000 -61.890617 27.419067 4582.253906
4.840000 3.080000 5.160000 -72.746109 -24.865971 5910.312988
4.840000 3.080000 5.200000 -42.304459 -66.693375 6237.673828
4.840000 3.120000 4.800000 -25.629581 -12.445842 811.774414
4.840000 3.120000 4.840000 -19.588017 -30.316933 1302.806763
4.840000 3.120000 4.880000 -0.630160 -40.395538 1632.196655
4.840000 3.120000 4.920000 22.481178 -33.358028 1618.161377
4.840000 3.120000 4.960000 34.506348 -9.237968 1276.028076
4.840000 3.120000 5.000000 23.692923 18.645878 909.023315
4.840000 3.120000 5.040000 -7.135147 30.327511 970.668274
4.840000 3.120000 5.080000 -39.064774 14.066057 1723.910522
4.840000 3.120000 5.120000 -49.493160 -22.446362 2953.412109
4.840000 3.120000 5.160000 -29.843906 -55.901611 4015.648926
4.840000 3.120000 5.200000 6.914444 -64.856430 4254.166016
4.840000 3.160000 4.800000 -10.669331 -22.670057 627.766113
4.840000 3.160000 4.840000 3.309257 -27.676323 776.929993
4.840000 3.160000 4.880000 17.167610 -20.659492 721.541504
4.840000 3.160000 4.920000 21.395073 -5.037720 483.127777
4.840000 3.160000 4.960000 11.773022 9.173033 222.748566
4.840000 3.160000 5.000000 -6.792730 11.350306 174.970627
4.840000 3.160000 5.040000 -22.360767 -2.243190 505.035797
4.840000 3.160000 5.080000 -23.546354 -24.834524 1171.184326
4.840000 3.160000 5.120000 -7.787794 -42.893906 1900.536865
4.840000 3.160000 5.160000 16.257301 -45.411766 2326.528320
4.840000 3.160000 5.200000 34.713821 -31.830044 2218.201172
4.840000 3.200000 4.800000 2.420799 -21.381964 463.048645
4.840000 3.200000 4.840000 13.202291 -14.945232 397.660461
4.840000 3.200000 4.880000 14.348465 -2.339119 211.349930
4.840000 3.200000 4.920000 4.138841 5.837040 51.201042
4.840000 3.200000 4.960000 -9.521400 1.518430 92.962692
4.840000 3.200000 5.000000 -14.994564 -13.761633 414.219482
4.840000 3.200000 5.040000 -6.248497 -29.598688 915.126038
4.840000 3.200000 5.080000 12.195491 -34.769440 1357.643921
4.840000 3.200000 5.120000 28.926626 -25.923538 1508.779541
4.840000 3.200000 5.160000 34.608902 -9.675671 1291.394775
4.840000 3.200000 5.200000 28.763664 3.241316 837.854492
4.880000 2.800000 4.800000 -29.720970 -7.676906 942.270935
4.880000 2.800000 4.840000 -23.465599 -18.326849 886.507690
4.880000 2.800000 4.880000 -12.066625 -24.087574 725.814697
4.880000 2.800000 4.920000 0.365200 -22.933546 526.080872
4.880000 2.800000 4.960000 9.779224 -16.061998 353.621033
4.880000 2.800000 5.000000 14.235973 -6.494110 244.836395
4.880000 2.800000 5.040000 13.963554 3.026089 204.138062
4.880000 2.800000 5.080000 9.981348 10.979622 220.179413
4.880000 2.800000 5.120000 3.010918 16.390278 277.706818
4.880000 2.800000 5.160000 -6.119240 17.854050 356.212189
4.880000 2.800000 5.200000 -15.250260 13.828659 423.802246
4.880000 2.840000 4.800000 -10.187897 -21.714123 575.296387
4.880000 2.840000 4.840000 4.926987 -17.071720 315.718842
4.880000 2.840000 4.880000 11.511124 -1.815765 135.802963
4.880000 2.840000 4.920000 3.411751 12.781897 175.016922
4.880000 2.840000 4.960000 -12.985573 14.489986 378.584808
4.880000 2.840000 5.000000 -23.303133 1.786484 546.227539
4.880000 2.840000 5.040000 -18.146172 -13.813438 520.094604
4.880000 2.840000 5.080000 -2.154064 -17.977066 327.814880
4.880000 2.840000 5.120000 10.000238 -6.913511 147.801407
4.880000 2.840000 5.160000 7.297733 9.003099 134.312714
4.880000 2.840000 5.200000 -7.375345 14.978619 278.754730
4.880000 2.880000 4.800000 13.762693 -14.250229 392.480774
4.880000 2.880000 4.840000 21.410149 11.394213 588.222534
4.880000 2.880000 4.880000 2.864040 38.324951 1477.004639
4.880000 2.880000 4.920000 -35.193703 41.447685 2956.507324
4.880000 2.880000 4.960000 -65.139946 10.918541 4362.426758
4.880000 2.880000 5.000000 -60.834480 -34.773918 4910.059570
4.880000 2.880000 5.040000 -22.206116 -61.733196 4304.099121
4.880000 2.880000 5.080000 22.384039 -49.700329 2971.167969
4.880000 2.880000 5.120000 39.985748 -10.149288 1701.868164
4.880000 2.880000 5.160000 21.388428 24.117958 1039.140747
4.880000 2.880000 5.200000 -12.519960 28.140497 948.636963
4.880000 2.920000 4.800000 21.801067 10.348384 582.375610
4.880000 2.920000 4.840000 4.906532 45.505600 2094.833496
4.880000 2.920000 4.880000 -43.616436 58.041668 5271.228516
4.880000 2.920000 4.920000 -93.501251 23.883556 9312.908203
4.880000 2.920000 4.960000 -102.291687 -44.419758 12436.704102
4.880000 2.920000 5.000000 -53.878654 -100.776382 13058.788086
4.880000 2.920000 5.040000 22.167919 -102.404755 10978.150391
4.880000 2.920000 5.080000 72.255791 -47.889587 7514.312012
4.880000 2.920000 5.120000 63.746166 20.265270 4474.254883
4.880000 2.920000 5.160000 11.739441 52.253662 2868.259766
4.880000 2.920000 5.200000 -37.011124 32.736042 2441.471680
4.880000 2.960000 4.800000 5.600534 31.727367 1037.991821
4.880000 2.960000 4.840000 -37.236683 53.246250 4221.733398
4.880000 2.960000 4.880000 -95.355164 29.558529 9966.314453
4.880000 2.960000 4.920000 -121.500916 -42.340996 16555.232422
4.880000 2.960000 4.960000 -81.296509 -120.095428 21032.035156
4.880000 2.960000 5.000000 9.780914 -145.258881 21195.808594
4.880000 2.960000 5.040000 91.647545 -94.008804 17236.927734
4.880000 2.960000 5.080000 107.579948 -1.581923 11575.948242
4.880000 2.960000 5.120000 52.314255 65.430725 7017.960938
4.880000 2.960000 5.160000 -24.848858 64.920578 4832.147461
4.880000 2.960000 5.200000 -64.609871 11.795579 4313.571289
4.880000 3.000000 4.800000 -22.361153 30.910694 1455.492188
4.880000 3.000000 4.840000 -72.390381 22.401745 5742.205566
4.880000 3.000000 4.880000 -108.227455 -34.200073 12882.826172
4.880000 3.000000 4.920000 -87.342873 -113.541733 20520.501953
4.880000 3.000000 4.960000 -4.721159 -158.490219 25141.439453
4.880000 3.000000 5.000000 91.787910 -126.766052 24494.652344
4.880000 3.000000 5.040000 135.099091 -32.351307 19298.371094
4.880000 3.000000 5.080000 95.136024 60.387428 12697.504883
4.880000 3.000000 5.120000 5.711008 88.687622 7898.109863
4.880000 3.000000 5.160000 -64.495697 42.946358 6004.084473
4.880000 3.000000 5.200000 -70.255203 -29.438860 5802.439941
4.880000 3.040000 4.800000 -39.172852 7.431091 1589.733398
4.880000 3.040000 4.840000 -71.333923 -26.158772 5772.810059
4.880000 3.040000 4.880000 -67.789406 -87.681152 12283.387695
4.880000 3.040000 4.920000 -10.161015 -136.700043 18790.148438
4.880000 3.040000 4.960000 76.280151 -128.005264 22204.009766
4.880000 3.040000 5.000000 134.026688 -53.856754 20863.703125
4.880000 3.040000 5.040000 118.944923 41.288090 15852.600586
4.880000 3.040000 5.080000 40.206993 92.763824 10221.729492
4.880000 3.040000 5.120000 -44.492218 68.731689 6703.602539
4.880000 3.040000 5.160000 -76.508163 -4.077689 5870.126465
4.880000 3.040000 5.200000 -43.575096 -65.718781 6217.747070
4.880000 3.080000 4.800000 -31.714863 -20.373066 1420.894287
4.880000 3.080000 4.840000 -34.955051 -56.577469 4422.865723
4.880000 3.080000 4.880000 -3.727108 -93.190819 8698.419922
4.880000 3.080000 4.920000 55.205780 -97.650017 12583.203125
4.880000 3.080000 4.960000 106.473480 -53.041924 14150.046875
4.880000 3.080000 5.000000 110.485313 20.570385 12630.145508
4.880000 3.080000 5.040000 58.162178 75.661697 9107.531250
4.880000 3.080000 5.080000 -16.707716 74.104965 5770.693848
4.880000 3.080000 5.120000 -62.366417 19.619465 4274.493652
4.880000 3.080000 5.160000 -50.917896 -44.809517 4600.524902
4.880000 3.080000 5.200000 0.497998 -73.174095 5354.696289
4.880000 3.120000 4.800000 -7.457491 -32.279610 1097.587280
4.880000 3.120000 4.840000 7.510311 -50.224930 2578.948242
4.880000 3.120000 4.880000 37.594139 -54.173882 4348.128906
4.880000 3.120000 4.920000 67.600784 -32.701714 5639.268555
4.880000 3.120000 4.960000 75.328659 8.884758 5753.345703
4.880000 3.120000 5.000000 49.310097 46.852028 4626.598145
4.880000 3.120000 5.040000 2.024033 54.717529 2998.104736
4.880000 3.120000 5.080000 -35.975616 25.152822 1926.909424
4.880000 3.120000 5.120000 -39.041039 -21.719868 1995.955322
4.880000 3.120000 5.160000 -7.228640 -53.120865 2874.079346
4.880000 3.120000 5.200000 34.076042 -49.640846 3625.390137
4.880000 3.160000 4.800000 14.123470 -23.736856 762.910767
4.880000 3.160000 4.840000 26.525682 -20.435648 1121.227539
4.880000 3.160000 4.880000 35.095497 -8.688547 1307.184814
4.880000 3.160000 4.920000 34.255287 7.328209 1227.127319
4.880000 3.160000 4.960000 22.320049 19.924213 895.158875
4.880000 3.160000 5.000000 3.844852 21.268421 467.128632
4.880000 3.160000 5.040000 -11.183033 8.650888 199.898102
4.880000 3.160000 5.080000 -12.847379 -11.952583 307.919373
4.880000 3.160000 5.120000 1.322842 -28.199192 796.944397
4.880000 3.160000 5.160000 23.287233 -29.552271 1415.631958
4.880000 3.160000 5.200000 39.581177 -15.280975 1800.177734
4.880000 3.200000 4.800000 20.251703 -7.410964 465.053894
4.880000 3.200000 4.840000 18.252775 3.676544 346.680756
4.880000 3.200000 4.880000 7.998036 8.814613 141.666000
4.880000 3.200000 4.920000 -2.280367 3.588783 18.079437
4.880000 3.200000 4.960000 -4.426071 -7.872450 81.565575
4.880000 3.200000 5.000000 2.917786 -17.008009 297.785828
4.880000 3.200000 5.040000 14.217384 -18.157497 531.828735
4.880000 3.200000 5.080000 22.620262 -12.221394 661.038696
4.880000 3.200000 5.120000 25.341536 -4.169885 659.581360
4.880000 3.200000 5.160000 24.233418 2.015803 591.322021
4.880000 3.200000 5.200000 22.372383 5.896299 535.289856
4.920000 2.800000 4.800000 -26.809772 -16.567142 993.234131
4.920000 2.800000 4.840000 -15.866127 -25.617123 907.971008
4.920000 2.800000 4.880000 -1.653706 -26.478373 703.838928
4.920000 2.800000 4.920000 9.675911 -19.698769 481.664734
4.920000 2.800000 4.960000 14.935547 -9.624943 315.710083
4.920000 2.800000 5.000000 15.073342 -0.405396 227.369995
4.920000 2.800000 5.040000 12.670696 6.720814 205.715881
4.920000 2.800000 5.080000 8.817036 12.563838 235.590149
4.920000 2.800000 5.120000 2.740198 17.114925 300.429382
4.920000 2.800000 5.160000 -5.708053 18.257477 365.917297
4.920000 2.800000 5.200000 -13.803499 13.757258 379.798767
4.920000 2.840000 4.800000 -3.488564 -20.257977 422.555695
4.920000 2.840000 4.840000 8.772514 -5.655449 108.941109
4.920000 2.840000 4.880000 2.816162 14.354420 213.980133
4.920000 2.840000 4.920000 -18.802197 20.809387 786.553223
4.920000 2.840000 4.960000 -37.451344 5.325783 1430.967163
4.920000 2.840000 5.000000 -35.237560 -20.318581 1654.530396
4.920000 2.840000 5.040000 -12.385315 -34.059410 1313.439453
4.920000 2.840000 5.080000 12.273720 -23.966337 725.029541
4.920000 2.840000 5.120000 18.642633 0.729389 348.079803
4.920000 2.840000 5.160000 3.675113 18.684235 362.607056
4.920000 2.840000 5.200000 -16.921398 16.438246 556.549622
4.920000 2.880000 4.800000 12.110401 -2.116985 151.143448
4.920000 2.880000 4.840000 1.769142 32.030251 1029.066772
4.920000 2.880000 4.880000 -41.311859 46.846294 3901.244873
4.920000 2.880000 4.920000 -87.536774 17.388199 7965.036133
4.920000 2.880000 4.960000 -95.809219 -44.171940 11130.566406
4.920000 2.880000 5.000000 -51.998932 -94.013329 11542.394531
4.920000 2.880000 5.040000 14.874954 -93.949097 9047.697266
4.920000 2.880000 5.080000 56.442497 -45.803955 5283.757812
4.920000 2.880000 5.120000 47.053947 10.561775 2325.625000
4.920000 2.880000 5.160000 4.192616 33.579502 1145.161011
4.920000 2.880000 5.200000 -31.071434 15.387119 1202.197510
4.920000 2.920000 4.800000 3.861135 21.338591 470.243805
4.920000 2.920000 4.840000 -41.356663 49.520477 4162.651367
4.920000 2.920000 4.880000 -107.655258 25.423073 12235.987305
4.920000 2.920000 4.920000 -138.196625 -55.254070 22151.318359
4.920000 2.920000 4.960000 -93.334732 -142.555054 29033.316406
4.920000 2.920000 5.000000 7.371246 -170.367798 29079.523438
4.920000 2.920000 5.040000 95.908379 -115.097069 22445.751953
4.920000 2.920000 5.080000 112.872604 -18.528522 13083.531250
4.920000 2.920000 5.120000 57.756802 48.460331 5684.251953
4.920000 2.920000 5.160000 -14.802998 47.061077 2433.873535
4.920000 2.920000 5.200000 -47.147560 -1.147266 2224.208496
4.920000 2.960000 4.800000 -22.516836 26.463411 1207.320068
4.920000 2.960000 4.840000 -87.899384 20.854942 8161.230469
4.920000 2.960000 4.880000 -137.751892 -51.723656 21650.919922
4.920000 2.960000 4.920000 -112.127441 -156.938370 37202.214844
4.920000 2.960000 4.960000 -4.568058 -217.334579 47255.187500
4.920000 2.960000 5.000000 120.603683 -178.396332 46370.500000
4.920000 2.960000 5.040000 177.680267 -61.014168 35293.007812
4.920000 2.960000 5.080000 132.674545 52.460892 20354.679688
4.920000 2.960000 5.120000 31.238615 88.055092 8729.550781
4.920000 2.960000 5.160000 -44.694695 40.555229 3642.342285
4.920000 2.960000 5.200000 -48.754662 -30.806419 3326.052490
4.920000 3.000000 4.800000 -43.046818 5.114511 1879.186768
4.920000 3.000000 4.840000 -95.605698 -39.561520 10705.563477
4.920000 3.000000 4.880000 -95.480499 -132.882690 26774.333984
4.920000 3.000000 4.920000 -10.555395 -210.793091 44545.144531
4.920000 3.000000 4.960000 120.682205 -202.052414 55389.375000
4.920000 3.000000 5.000000 210.811066 -95.140244 53492.968750
4.920000 3.000000 5.040000 195.718689 43.229698 40174.613281
4.920000 3.000000 5.080000 91.171661 120.733902 22888.945312
4.920000 3.000000 5.120000 -20.899311 96.476906 9744.574219
4.920000 3.000000 5.160000 -63.902943 10.881514 4201.993652
4.920000 3.000000 5.200000 -28.210602 -57.223145 4070.326416
4.920000 3.040000 4.800000 -37.412804 -26.534889 2103.818359
4.920000 3.040000 4.840000 -52.710674 -86.809174 10314.248047
4.920000 3.040000 4.880000 -4.516785 -156.647217 24558.750000
4.920000 3.040000 4.920000 99.627106 -172.691925 39748.062500
4.920000 3.040000 4.960000 196.081924 -100.150009 48478.144531
4.920000 3.040000 5.000000 212.930511 27.399023 46090.109375
4.920000 3.040000 5.040000 133.174957 128.010239 34122.187500
4.920000 3.040000 5.080000 13.153154 137.908447 19191.746094
4.920000 3.040000 5.120000 -63.883823 64.162834 8198.011719
4.920000 3.040000 5.160000 -56.808464 -25.377174 3871.202637
4.920000 3.040000 5.200000 5.246848 -63.776585 4094.981934
4.920000 3.080000 4.800000 -8.102321 -42.488007 1870.878296
4.920000 3.080000 4.840000 9.787304 -85.750259 7448.898438
4.920000 3.080000 4.880000 70.656708 -107.818588 16617.218750
4.920000 3.080000 4.920000 143.820984 -72.722153 25972.986328
4.920000 3.080000 4.960000 175.155533 15.466522 30918.673828
4.920000 3.080000 5.000000 132.346893 106.262062 28807.324219
4.920000 3.080000 5.040000 37.270569 139.772827 20925.539062
4.920000 3.080000 5.080000 -47.671249 96.533577 11591.279297
4.920000 3.080000 5.120000 -69.783188 14.112783 5068.864258
4.920000 3.080000 5.160000 -27.750076 -45.564667 2846.205566
4.920000 3.080000 5.200000 32.716354 -47.788239 3354.075684
4.920000 3.120000 4.800000 22.177938 -30.805027 1440.810669
4.920000 3.120000 4.840000 46.526192 -42.398270 3962.299805
4.920000 3.120000 4.880000 82.628296 -29.878973 7720.187988
4.920000 3.120000 4.920000 105.279877 13.228828 11258.854492
4.920000 3.120000 4.960000 90.335037 68.173813 12808.087891
4.920000 3.120000 5.000000 37.544930 100.452774 11500.381836
4.920000 3.120000 5.040000 -23.953720 86.549881 8064.662598
4.920000 3.120000 5.080000 -55.954277 34.979561 4354.450684
4.920000 3.120000 5.120000 -41.306770 -18.690046 2055.567139
4.920000 3.120000 5.160000 2.899235 -39.983429 1607.080078
4.920000 3.120000 5.200000 41.060356 -22.028603 2171.212158
4.920000 3.160000 4.800000 32.043800 -3.504285 1039.085205
4.920000 3.160000 4.840000 38.679298 4.336069 1514.889648
4.920000 3.160000 4.880000 40.786423 17.634937 1974.523193
4.920000 3.160000 4.920000 34.160954 32.993698 2255.554688
4.920000 3.160000 4.960000 17.404297 43.492939 2194.545410
4.920000 3.160000 5.000000 -4.734428 41.518597 1746.208618
4.920000 3.160000 5.040000 -21.611145 24.744370 1079.325439
4.920000 3.160000 5.080000 -22.889185 0.378990 524.058411
4.920000 3.160000 5.120000 -6.910406 -17.767601 363.441376
4.920000 3.160000 5.160000 16.452263 -18.786320 623.602783
4.920000 3.160000 5.200000 32.250076 -3.179289 1050.175293
4.920000 3.200000 4.800000 20.374821 16.618168 691.296875
4.920000 3.200000 4.840000 7.182111 20.827240 485.356628
4.920000 3.200000 4.880000 -4.691055 13.033243 191.871429
4.920000 3.200000 4.920000 -5.670540 -0.434780 32.344055
4.920000 3.200000 4.960000 3.709602 -8.179209 80.660599
4.920000 3.200000 5.000000 13.717937 -5.071545 213.902374
4.920000 3.200000 5.040000 15.659149 3.253128 255.791794
4.920000 3.200000 5.080000 10.472254 7.172707 161.115814
4.920000 3.200000 5.120000 6.727295 3.580832 58.078850
4.920000 3.200000 5.160000 10.650909 -1.158079 114.783020
4.920000 3.200000 5.200000 19.073196 1.407293 365.767303
4.960000 2.800000 4.800000 -17.959919 -20.110151 726.976868
4.960000 2.800000 4.840000 -5.705502 -24.618250 638.610962
4.960000 2.800000 4.880000 6.568901 -20.989250 483.699066
4.960000 2.800000 4.920000 14.005939 -12.056084 341.515503
4.960000 2.800000 4.960000 15.755543 -2.417427 254.081070
4.960000 2.800000 5.000000 14.078915 5.265923 225.945770
4.960000 2.800000 5.040000 11.151314 11.255123 251.029602
4.960000 2.800000 5.080000 6.990982 16.623371 325.210297
4.960000 2.800000 5.120000 0.462677 20.737782 430.269653
4.960000 2.800000 5.160000 -8.039364 21.239063 515.729187
4.960000 2.800000 5.200000 -15.410104 16.663977 515.159424
4.960000 2.840000 4.800000 -0.588593 -13.198423 174.544815
4.960000 2.840000 4.840000 0.183277 5.287605 27.992359
4.960000 2.840000 4.880000 -18.511768 16.512562 615.350281
4.960000 2.840000 4.920000 -41.322617 4.906410 1731.631470
4.960000 2.840000 4.960000 -45.404434 -24.041817 2639.571777
4.960000 2.840000 5.000000 -22.793945 -46.782288 2708.146484
4.960000 2.840000 5.040000 10.549484 -43.090546 1968.086792
4.960000 2.840000 5.080000 28.640808 -15.096535 1048.201294
4.960000 2.840000 5.120000 18.980534 14.733498 577.336609
4.960000 2.840000 5.160000 -7.119280 24.446335 648.307434
4.960000 2.840000 5.200000 -26.623703 11.672562 845.070190
4.960000 2.880000 4.800000 0.007549 5.406189 29.226936
4.960000 2.880000 4.840000 -31.462074 29.135849 1838.759766
4.960000 2.880000 4.880000 -81.406471 12.720863 6788.833984
4.960000 2.880000 4.920000 -104.274803 -47.928074 13170.334961
4.960000 2.880000 4.960000 -69.007103 -113.122665 17558.718750
4.960000 2.880000 5.000000 7.873634 -131.531555 17362.544922
4.960000 2.880000 5.040000 72.952972 -86.855865 12866.078125
4.960000 2.880000 5.080000 82.129745 -13.512451 6927.881348
4.960000 2.880000 5.120000 38.291306 34.386330 2648.643799
4.960000 2.880000 5.160000 -15.097898 30.428324 1153.829346
4.960000 2.880000 5.200000 -36.150471 -5.523885 1337.369873
4.960000 2.920000 4.800000 -18.814995 14.113705 553.200684
4.960000 2.920000 4.840000 -79.243057 11.614098 6414.349121
4.960000 2.920000 4.880000 -126.404587 -55.789059 19090.539062
4.960000 2.920000 4.920000 -101.519150 -154.541748 34189.289062
4.960000 2.920000 4.960000 0.572334 -209.718185 43982.046875
4.960000 2.920000 5.000000 117.017723 -170.918243 42906.195312
4.960000 2.920000 5.040000 167.595749 -60.954765 31803.820312
4.960000 2.920000 5.080000 124.245171 41.756207 17180.443359
4.960000 2.920000 5.120000 33.033554 71.444748 6195.567871
4.960000 2.920000 5.160000 -31.190937 28.631632 1792.644897
4.960000 2.920000 5.200000 -31.479866 -29.990547 1890.414917
4.960000 2.960000 4.800000 -38.547417 -0.993908 1486.891113
4.960000 2.960000 4.840000 -97.527756 -47.200222 11739.523438
4.960000 2.960000 4.880000 -98.461807 -149.892822 32162.585938
4.960000 2.960000 4.920000 -4.358013 -235.780975 55611.660156
4.960000 2.960000 4.960000 140.302322 -224.998337 70308.992188
4.960000 2.960000 5.000000 237.839111 -107.147385 68048.000000
4.960000 2.960000 5.040000 220.392609 41.971382 50334.500000
4.960000 2.960000 5.080000 109.574326 123.139893 27169.966797
4.960000 2.960000 5.120000 -4.821310 97.716553 9571.769531
4.960000 2.960000 5.160000 -45.573666 13.696792 2264.561035
4.960000 2.960000 5.200000 -10.070520 -47.023735 2312.646973
4.960000 3.000000 4.800000 -36.412239 -30.571877 2260.490723
4.960000 3.000000 4.840000 -59.898998 -105.656464 14751.177734
4.960000 3.000000 4.880000 -0.329895 -196.432373 38585.785156
4.960000 3.000000 4.920000 133.092529 -218.216278 65331.964844
4.960000 3.000000 4.960000 256.584229 -125.925674 81692.742188
4.960000 3.000000 5.000000 278.207581 35.231911 78640.750000
4.960000 3.000000 5.040000 179.713104 160.581284 58083.148438
4.960000 3.000000 5.080000 34.731586 173.681305 31371.478516
4.960000 3.000000 5.120000 -55.516167 88.854462 10977.160156
4.960000 3.000000 5.160000 -47.732155 -9.275251 2364.388916
4.960000 3.000000 5.200000 16.730497 -45.784760 2376.153809
4.960000 3.040000 4.800000 -8.177017 -49.057899 2473.541016
4.960000 3.040000 4.840000 12.458015 -116.459595 13718.039062
4.960000 3.040000 4.880000 102.989075 -154.778351 34563.085938
4.960000 3.040000 4.920000 215.699066 -104.928650 57536.109375
4.960000 3.040000 4.960000 265.653900 27.126015 71307.812500
4.960000 3.040000 5.000000 204.240814 163.286163 68376.679688
4.960000 3.040000 5.040000 66.744186 214.623245 50517.921875
4.960000 3.040000 5.080000 -54.256489 156.454147 27421.667969
4.960000 3.040000 5.120000 -86.685379 46.700962 9695.334961
4.960000 3.040000 5.160000 -35.317371 -28.670338 2069.305176
4.960000 3.040000 5.200000 33.623074 -29.326056 1990.528564
4.960000 3.080000 4.800000 26.278448 -38.549316 2176.606689
4.960000 3.080000 4.840000 67.597267 -70.529831 9543.847656
4.960000 3.080000 4.880000 140.488174 -55.666962 22835.738281
4.960000 3.080000 4.920000 191.422806 23.975365 37217.507812
4.960000 3.080000 4.960000 168.857330 130.974136 45667.023438
4.960000 3.080000 5.000000 72.168350 196.088531 43658.980469
4.960000 3.080000 5.040000 -41.230919 175.155975 32379.603516
4.960000 3.080000 5.080000 -100.967476 87.342484 17823.140625
4.960000 3.080000 5.120000 -80.844574 -1.663515 6538.612305
4.960000 3.080000 5.160000 -15.768503 -35.715126 1524.215820
4.960000 3.080000 5.200000 34.704384 -11.105524 1327.726929
4.960000 3.120000 4.800000 40.927143 -5.942398 1710.343140
4.960000 3.120000 4.840000 69.473801 -5.139463 4853.022949
4.960000 3.120000 4.880000 97.689011 27.083252 10276.645508
4.960000 3.120000 4.920000 95.254181 83.179375 15992.167969
4.960000 3.120000 4.960000 48.294624 130.125305 19264.966797
4.960000 3.120000 5.000000 -23.727768 133.464294 18375.726562
4.960000 3.120000 5.040000 -79.273041 86.732948 13806.819336
4.960000 3.120000 5.080000 -86.721436 19.006241 7881.844727
4.960000 3.120000 5.120000 -49.138409 -27.594343 3176.031006
4.960000 3.120000 5.160000 0.291522 -30.773674 947.103943
4.960000 3.120000 5.200000 27.033350 -2.246248 735.847656
4.960000 3.160000 4.800000 27.483360 23.806353 1322.077515
4.960000 3.160000 4.840000 28.512934 31.580351 1810.305908
4.960000 3.160000 4.880000 24.433586 43.597401 2497.733398
4.960000 3.160000 4.920000 11.106071 55.315041 3183.098389
4.960000 3.160000 4.960000 -11.116119 58.713608 3570.855957
4.960000 3.160000 5.000000 -34.718575 47.114105 3425.118408
4.960000 3.160000 5.040000 -47.708080 21.532211 2739.697266
4.960000 3.160000 5.080000 -41.597542 -7.235073 1782.701782
4.960000 3.160000 5.120000 -18.797504 -24.386959 948.069946
4.960000 3.160000 5.160000 7.472125 -21.419550 514.629761
4.960000 3.160000 5.200000 21.981630 -2.635872 490.139893
4.960000 3.200000 4.800000 1.588840 31.320591 983.503845
4.960000 3.200000 4.840000 -12.879692 23.739809 729.465027
4.960000 3.200000 4.880000 -16.858574 7.397678 338.937164
4.960000 3.200000 4.920000 -7.208450 -4.730175 74.336311
4.960000 3.200000 4.960000 5.920647 -3.170471 45.105946
4.960000 3.200000 5.000000 9.069881 7.697571 141.515350
4.960000 3.200000 5.040000 -0.240250 13.766273 189.568008
4.960000 3.200000 5.080000 -10.416821 6.181793 146.724716
4.960000 3.200000 5.120000 -7.817179 -8.615471 135.334625
4.960000 3.200000 5.160000 8.354654 -14.875099 291.068817
4.960000 3.200000 5.200000 24.141506 -3.751314 596.884705
5.000000 2.800000 4.800000 -11.078646 -15.058836 349.504944
5.000000 2.800000 4.840000 -1.888451 -16.859209 287.799194
5.000000 2.800000 4.880000 6.711155 -13.224819 219.935440
5.000000 2.800000 4.920000 12.105762 -5.941063 181.845718
5.000000 2.800000 4.960000 13.492477 2.559242 188.596680
5.000000 2.800000 5.000000 11.435837 10.403751 239.016418
5.000000 2.800000 5.040000 6.914047 16.681320 326.070496
5.000000 2.800000 5.080000 0.638451 21.026352 442.515106
5.000000 2.800000 5.120000 -6.926778 22.960922 575.184204
5.000000 2.800000 5.160000 -14.901913 21.742344 694.796509
5.000000 2.800000 5.200000 -21.523235 17.081263 755.019165
5.000000 2.840000 4.800000 -6.584415 -6.603851 86.965378
5.000000 2.840000 4.840000 -16.525036 3.787086 287.418823
5.000000 2.840000 4.880000 -35.340530 -2.112579 1253.416138
5.000000 2.840000 4.920000 -42.733650 -26.447197 2525.619141
5.000000 2.840000 4.960000 -25.362640 -51.355396 3280.640137
5.000000 2.840000 5.000000 8.322609 -54.450180 3034.087891
5.000000 2.840000 5.040000 33.936928 -30.030182 2053.526855
5.000000 2.840000 5.080000 32.659439 4.869644 1090.352295
5.000000 2.840000 5.120000 7.583593 25.514259 708.488281
5.000000 2.840000 5.160000 -20.373960 20.889811 851.482422
5.000000 2.840000 5.200000 -32.047512 1.161243 1028.391479
5.000000 2.880000 4.800000 -16.090757 -0.856270 259.645660
5.000000 2.880000 4.840000 -53.008614 -2.285496 2815.136475
5.000000 2.880000 4.880000 -81.387764 -45.958660 8736.166992
5.000000 2.880000 4.920000 -62.177261 -108.920685 15729.727539
5.000000 2.880000 4.960000 6.572899 -141.149628 19966.419922
5.000000 2.880000 5.000000 81.641174 -110.824638 18947.382812
5.000000 2.880000 5.040000 110.384216 -35.749512 13462.702148
5.000000 2.880000 5.080000 76.930756 30.889591 6872.508301
5.000000 2.880000 5.120000 14.374950 47.100769 2425.121582
5.000000 2.880000 5.160000 -27.657785 16.099825 1024.157471
5.000000 2.880000 5.200000 -27.002260 -23.202629 1267.484131
5.000000 2.920000 4.800000 -29.044693 -11.226286 969.623657
5.000000 2.920000 4.840000 -74.799240 -47.538960 7854.878906
5.000000 2.920000 4.880000 -73.367783 -129.749054 22217.648438
5.000000 2.920000 4.920000 5.226608 -196.804993 38759.523438
5.000000 2.920000 4.960000 122.709824 -183.741089 48818.492188
5.000000 2.920000 5.000000 198.526978 -84.735039 46592.988281
5.000000 2.920000 5.040000 179.670197 35.848423 33566.488281
5.000000 2.920000 5.080000 87.612762 97.934967 17267.253906
5.000000 2.920000 5.120000 -3.121517 74.083954 5498.175781
5.000000 2.920000 5.160000 -32.647842 6.771362 1111.732910
5.000000 2.920000 5.200000 -3.508638 -38.331154 1481.587891
5.000000 2.960000 4.800000 -26.793474 -34.329639 1896.414429
5.000000 2.960000 4.840000 -48.746002 -103.895569 13170.461914
5.000000 2.960000 4.880000 8.916187 -188.960846 35785.703125
5.000000 2.960000 4.920000 136.686584 -207.014648 61538.289062
5.000000 2.960000 4.960000 252.535843 -115.961090 77221.328125
5.000000 2.960000 5.000000 269.177185 38.012436 73901.304688
5.000000 2.960000 5.040000 172.985092 153.988434 53636.281250
5.000000 2.960000 5.080000 37.381947 162.549835 27819.859375
5.000000 2.960000 5.120000 -42.932457 82.547989 8657.366211
5.000000 2.960000 5.160000 -32.840931 -4.232207 1096.438354
5.000000 2.960000 5.200000 23.649851 -31.660591 1561.708496
5.000000 3.000000 4.800000 -2.224838 -50.302990 2535.340820
5.000000 3.000000 4.840000 18.813168 -124.121643 15760.118164
5.000000 3.000000 4.880000 118.879242 -166.393890 41819.199219
5.000000 3.000000 4.920000 243.417847 -109.800140 71308.320312
5.000000 3.000000 4.960000 296.516449 37.322983 89315.015625
5.000000 3.000000 5.000000 226.202286 185.882706 85719.851562
5.000000 3.000000 5.040000 75.585297 238.670456 62676.722656
5.000000 3.000000 5.080000 -52.211231 173.740234 32911.683594
5.000000 3.000000 5.120000 -82.915649 58.974880 10353.041016
5.000000 3.000000 5.160000 -28.977848 -13.906246 1033.099365
5.000000 3.000000 5.200000 35.291523 -9.328545 1332.513306
5.000000 3.040000 4.800000 30.343300 -41.052006 2605.982910
5.000000 3.040000 4.840000 82.443993 -85.884445 14173.149414
5.000000 3.040000 4.880000 179.180893 -68.418114 36786.832031
5.000000 3.040000 4.920000 246.925583 36.277908 62288.328125
5.000000 3.040000 4.960000 216.520203 176.289001 77958.812500
5.000000 3.040000 5.000000 90.132500 258.903015 75154.640625
5.000000 3.040000 5.040000 -53.708790 229.498199 55554.054688
5.000000 3.040000 5.080000 -125.268417 118.781807 29801.292969
5.000000 3.040000 5.120000 -98.028152 13.229408 9784.536133
5.000000 3.040000 5.160000 -22.939976 -21.569992 991.507080
5.000000 3.040000 5.200000 26.513174 9.137968 786.450867
5.000000 3.080000 4.800000 46.479088 -8.721479 2236.369873
5.000000 3.080000 4.840000 96.905411 -14.628410 9604.648438
5.000000 3.080000 4.880000 150.320404 37.067627 23970.234375
5.000000 3.080000 4.920000 149.989456 132.838165 40142.816406
5.000000 3.080000 4.960000 72.079887 212.172333 50212.609375
5.000000 3.080000 5.000000 -45.941097 216.079468 48800.921875
5.000000 3.080000 5.040000 -132.053406 139.090408 36784.242188
5.000000 3.080000 5.080000 -138.948059 35.089764 20537.853516
5.000000 3.080000 5.120000 -80.868683 -29.045759 7383.399902
5.000000 3.080000 5.160000 -15.092112 -27.876091 1004.848328
5.000000 3.080000 5.200000 11.136633 9.864511 221.333176
5.000000 3.120000 4.800000 33.973305 24.698326 1764.192749
5.000000 3.120000 4.840000 57.504948 38.600533 4796.820312
5.000000 3.120000 4.880000 64.568802 80.718933 10684.676758
5.000000 3.120000 4.920000 32.015869 127.611031 17309.591797
5.000000 3.120000 4.960000 -34.171318 142.840332 21571.041016
5.000000 3.120000 5.000000 -98.714188 107.633133 21329.382812
5.000000 3.120000 5.040000 -123.591133 38.775337 16778.294922
5.000000 3.120000 5.080000 -98.215065 -23.594177 10202.884766
5.000000 3.120000 5.120000 -46.328724 -47.570457 4409.298828
5.000000 3.120000 5.160000 -4.424826 -32.162331 1053.994629
5.000000 3.120000 5.200000 7.293707 -2.318663 58.574360
5.000000 3.160000 4.800000 4.016222 37.037392 1387.898438
5.000000 3.160000 4.840000 1.894581 42.793339 1834.859375
5.000000 3.160000 4.880000 -7.352829 50.891628 2644.021973
5.000000 3.160000 4.920000 -25.316643 54.148754 3573.020020
5.000000 3.160000 4.960000 -47.165176 45.394707 4285.233398
5.000000 3.160000 5.000000 -63.022045 22.723770 4488.147949
5.000000 3.160000 5.040000 -63.354496 -7.518684 4070.322754
5.000000 3.160000 5.080000 -45.517944 -32.938633 3156.836914
5.000000 3.160000 5.120000 -16.834211 -42.040718 2050.812744
5.000000 3.160000 5.160000 8.810202 -31.758615 1086.229370
5.000000 3.160000 5.200000 19.382797 -9.976912 475.231598
5.000000 3.200000 4.800000 -19.921232 25.509851 1047.608032
5.000000 3.200000 4.840000 -27.169729 11.230749 864.323914
5.000000 3.200000 4.880000 -21.639286 -4.686491 490.221893
5.000000 3.200000 4.920000 -7.202354 -9.900978 149.903275
5.000000 3.200000 4.960000 2.355103 -1.750832 8.611919
5.000000 3.200000 5.000000 -2.370447 8.127892 71.681641
5.000000 3.200000 5.040000 -15.049088 5.166447 253.167206
5.000000 3.200000 5.080000 -18.731071 -11.874157 491.848633
5.000000 3.200000 5.120000 -3.544533 -27.547562 771.431885
5.000000 3.200000 5.160000 21.285578 -24.382561 1047.585083
5.000000 3.200000 5.200000 34.713917 -1.284516 1206.706055
5.040000 2.800000 4.800000 -13.370805 -7.305216 232.144608
5.040000 2.800000 4.840000 -7.447754 -11.455904 186.706772
5.040000 2.800000 4.880000 0.987972 -11.278282 128.175735
5.040000 2.800000 4.920000 8.465431 -5.241665 99.138580
5.040000 2.800000 4.960000 10.863533 4.867943 141.713211
5.040000 2.800000 5.000000 6.728088 14.492528 255.300537
5.040000 2.800000 5.040000 -1.459923 19.758663 392.536163
5.040000 2.800000 5.080000 -9.747787 20.296516 506.967957
5.040000 2.800000 5.120000 -16.246847 18.408592 602.836304
5.040000 2.800000 5.160000 -21.841845 15.707917 723.804810
5.040000 2.800000 5.200000 -27.490635 11.341340 884.360962
5.040000 2.840000 4.800000 -17.976614 -9.525826 413.900024
5.040000 2.840000 4.840000 -27.100031 -13.523079 917.285339
5.040000 2.840000 4.880000 -31.074587 -30.114059 1872.486572
5.040000 2.840000 4.920000 -17.905754 -49.365814 2757.599609
5.040000 2.840000 4.960000 9.845375 -53.864517 2998.317627
5.040000 2.840000 5.000000 34.745674 -35.287231 2452.450684
5.040000 2.840000 5.040000 38.933838 -3.493408 1528.047607
5.040000 2.840000 5.080000 19.643698 21.024944 827.923096
5.040000 2.840000 5.120000 -8.832085 24.127987 660.165466
5.040000 2.840000 5.160000 -27.970505 8.534916 855.193909
5.040000 2.840000 5.200000 -29.946110 -11.014603 1018.090942
5.040000 2.880000 4.800000 -22.330687 -21.040010 941.341614
5.040000 2.880000 4.840000 -42.242771 -42.709404 3608.544922
5.040000 2.880000 4.880000 -35.174294 -86.815369 8774.138672
5.040000 2.880000 4.920000 13.213440 -118.675552 14258.481445
5.040000 2.880000 4.960000 78.901367 -103.834717 17007.074219
5.040000 2.880000 5.000000 116.469879 -42.667206 15385.722656
5.040000 2.880000 5.040000 98.876556 26.077904 10456.629883
5.040000 2.880000 5.080000 41.715385 57.817207 5083.002930
5.040000 2.880000 5.120000 -11.475527 39.752258 1711.929810
5.040000 2.880000 5.160000 -27.929329 -1.964176 783.905396
5.040000 2.880000 5.200000 -10.784643 -30.119085 1023.467834
5.040000 2.920000 4.800000 -14.559025 -38.847054 1721.058838
5.040000 2.920000 4.840000 -24.764019 -85.218727 7875.488281
5.040000 2.920000 4.880000 19.386524 -140.032623 19984.972656
5.040000 2.920000 4.920000 109.472755 -146.154388 33345.390625
5.040000 2.920000 4.960000 186.934723 -76.630615 40816.839844
5.040000 2.920000 5.000000 192.104095 33.095718 37999.312500
5.040000 2.920000 5.040000 119.120155 111.438164 26608.074219
5.040000 2.920000 5.080000 22.480484 112.203499 13094.997070
5.040000 2.920000 5.120000 -31.673918 52.411091 3750.159424
5.040000 2.920000 5.160000 -21.837347 -8.849194 555.177979
5.040000 2.920000 5.200000 18.292068 -26.912195 1058.865967
5.040000 2.960000 4.800000 9.386765 -48.444733 2435.003418
5.040000 2.960000 4.840000 28.667206 -104.933189 11832.783203
5.040000 2.960000 4.880000 111.292923 -134.920807 30589.738281
5.040000 2.960000 4.920000 211.420776 -83.581833 51684.667969
5.040000 2.960000 4.960000 249.946777 39.992889 64072.820312
5.040000 2.960000 5.000000 186.531509 160.414154 60526.703125
5.040000 2.960000 5.040000 60.430580 198.661530 43118.257812
5.040000 2.960000 5.080000 -41.998272 140.815033 21592.728516
5.040000 2.960000 5.120000 -62.510403 46.505810 6070.340820
5.040000 2.960000 5.160000 -16.309845 -9.282087 352.168182
5.040000 2.960000 5.200000 33.240456 -1.991436 1108.893677
5.040000 3.000000 4.800000 37.742119 -36.465996 2754.236328
5.040000 3.000000 4.840000 86.405838 -76.496262 13317.646484
5.040000 3.000000 4.880000 177.331268 -57.309525 34730.761719
5.040000 3.000000 4.920000 238.999359 44.763313 59124.449219
5.040000 3.000000 4.960000 205.530228 177.983154 73920.679688
5.040000 3.000000 5.000000 82.050858 252.734573 70607.109375
5.040000 3.000000 5.040000 -53.288147 219.665451 51092.535156
5.040000 3.000000 5.080000 -115.800064 113.103897 26202.146484
5.040000 3.000000 5.120000 -85.727631 17.570076 7657.934082
5.040000 3.000000 5.160000 -16.817604 -8.516926 355.369843
5.040000 3.000000 5.200000 21.782158 22.615005 985.900879
5.040000 3.040000 4.800000 50.562660 -5.152229 2583.127930
5.040000 3.040000 4.840000 106.695274 -12.369314 11536.881836
5.040000 3.040000 4.880000 166.926208 46.517773 30028.261719
5.040000 3.040000 4.920000 164.859344 155.394684 51326.109375
5.040000 3.040000 4.960000 74.382027 243.096649 64628.667969
5.040000 3.040000 5.000000 -58.321484 243.023254 62461.695312
5.040000 3.040000 5.040000 -150.008316 153.632797 46105.531250
5.040000 3.040000 5.080000 -151.310608 40.479691 24533.505859
5.040000 3.040000 5.120000 -85.591858 -22.398567 7827.662109
5.040000 3.040000 5.160000 -20.375645 -14.385168 622.099976
5.040000 3.040000 5.200000 -3.008463 24.536755 611.103149
5.040000 3.080000 4.800000 37.251854 26.740963 2102.779785
5.040000 3.080000 4.840000 75.150909 44.890785 7662.841797
5.040000 3.080000 4.880000 88.700462 107.453163 19413.955078
5.040000 3.080000 4.920000 41.647984 177.091080 33095.804688
5.040000 3.080000 4.960000 -54.427032 197.439606 41944.699219
5.040000 3.080000 5.000000 -143.471024 143.575806 41197.945312
5.040000 3.080000 5.040000 -170.929825 46.604401 31388.976562
5.040000 3.080000 5.080000 -129.421280 -32.306179 17793.556641
5.040000 3.080000 5.120000 -61.210926 -53.575775 6617.141602
5.040000 3.080000 5.160000 -17.371105 -27.650103 1066.283447
5.040000 3.080000 5.200000 -14.890772 3.755628 235.839828
5.040000 3.120000 4.800000 6.946516 39.145027 1580.587158
5.040000 3.120000 4.840000 17.851873 59.348404 3840.922607
5.040000 3.120000 4.880000 2.502159 93.408676 8731.441406
5.040000 3.120000 4.920000 -44.925835 111.621719 14477.738281
5.040000 3.120000 4.960000 -101.542274 89.932823 18398.746094
5.040000 3.120000 5.000000 -132.413116 32.459282 18586.839844
5.040000 3.120000 5.040000 -119.015945 -30.194035 15076.474609
5.040000 3.120000 5.080000 -73.450821 -65.400383 9672.232422
5.040000 3.120000 5.120000 -26.400526 -63.071007 4674.939453
5.040000 3.120000 5.160000 -1.604714 -38.991791 1522.934814
5.040000 3.120000 5.200000 -0.577442 -16.971630 288.369659
5.040000 3.160000 4.800000 -19.187819 27.911283 1147.212158
5.040000 3.160000 4.840000 -23.087305 31.804220 1544.532104
5.040000 3.160000 4.880000 -35.015755 33.288879 2334.252441
5.040000 3.160000 4.920000 -50.842999 25.457596 3233.099609
5.040000 3.160000 4.960000 -62.452026 6.704735 3945.208984
5.040000 3.160000 5.000000 -62.730354 -18.403824 4273.798340
5.040000 3.160000 5.040000 -49.172749 -41.637405 4151.632812
5.040000 3.160000 5.080000 -24.957291 -54.719551 3617.095703
5.040000 3.160000 5.120000 1.989403 -52.737934 2785.247559
5.040000 3.160000 5.160000 21.759884 -36.805000 1828.100586
5.040000 3.160000 5.200000 27.038309 -14.710169 947.459229
5.040000 3.200000 4.800000 -26.749788 7.213210 767.581543
5.040000 3.200000 4.840000 -26.924341 -5.450304 754.625977
5.040000 3.200000 4.880000 -17.223471 -15.996048 552.521484
5.040000 3.200000 4.920000 -3.917233 -15.678864 261.171478
5.040000 3.200000 4.960000 1.089334 -6.618629 44.992905
5.040000 3.200000 5.000000 -5.842514 -1.668995 36.920517
5.040000 3.200000 5.040000 -13.708145 -10.685997 302.103760
5.040000 3.200000 5.080000 -7.169159 -27.660967 816.525940
5.040000 3.200000 5.120000 15.917168 -34.302666 1430.029053
5.040000 3.200000 5.160000 39.113503 -18.500244 1872.125122
5.040000 3.200000 5.200000 41.904053 11.173693 1880.801025
5.080000 2.800000 4.800000 -23.198860 -6.669397 582.667969
5.080000 2.800000 4.840000 -15.647739 -15.763845 493.350586
5.080000 2.800000 4.880000 -2.456457 -17.060759 297.103668
5.080000 2.800000 4.920000 8.209846 -7.929766 130.282761
5.080000 2.800000 4.960000 8.956474 6.125654 117.742065
5.080000 2.800000 5.000000 0.016167 15.879738 252.166336
5.080000 2.800000 5.040000 -11.321443 16.653702 405.520874
5.080000 2.800000 5.080000 -18.193895 11.716637 468.297394
5.080000 2.800000 5.120000 -20.394653 7.348173 469.937531
5.080000 2.800000 5.160000 -22.706198 5.436309 545.124878
5.080000 2.800000 5.200000 -27.749947 2.003980 774.075439
5.080000 2.840000 4.800000 -23.688602 -23.883427 1131.567993
5.080000 2.840000 4.840000 -19.818193 -35.630585 1662.299316
5.080000 2.840000 4.880000 -5.934731 -46.279259 2176.990723
5.080000 2.840000 4.920000 15.658863 -45.874596 2349.678467
5.080000 2.840000 4.960000 33.806763 -29.807859 2031.405762
5.080000 2.840000 5.000000 36.904526 -4.674019 1383.790405
5.080000 2.840000 5.040000 22.603779 15.788013 760.192200
5.080000 2.840000 5.080000 -0.207485 21.072460 444.091644
5.080000 2.840000 5.120000 -18.634811 11.091214 470.271240
5.080000 2.840000 5.160000 -25.162592 -5.538441 663.830322
5.080000 2.840000 5.200000 -21.155779 -19.387596 823.445862
5.080000 2.880000 4.800000 -9.282528 -42.155487 1863.250366
5.080000 2.880000 4.840000 -3.371405 -62.271957 3889.163086
5.080000 2.880000 4.880000 25.129223 -79.829674 7004.254883
5.080000 2.880000 4.920000 68.230316 -71.565773 9777.035156
5.080000 2.880000 4.960000 98.362030 -30.451836 10602.403320
5.080000 2.880000 5.000000 91.576073 23.179539 8923.467773
5.080000 2.880000 5.040000 50.100380 56.327263 5682.808594
5.080000 2.880000 5.080000 1.794037 50.858337 2589.789062
5.080000 2.880000 5.120000 -23.363615 17.785814 862.193726
5.080000 2.880000 5.160000 -17.327497 -14.661882 515.212952
5.080000 2.880000 5.200000 3.527425 -26.511265 715.289917
5.080000 2.920000 4.800000 18.876127 -47.129707 2577.517334
5.080000 2.920000 4.840000 36.723930 -72.656067 6627.551270
5.080000 2.920000 4.880000 86.230026 -80.272568 13879.302734
5.080000 2.920000 4.920000 140.045593 -41.771992 21357.666016
5.080000 2.920000 4.960000 154.181274 34.086586 24933.759766
5.080000 2.920000 5.000000 109.112907 102.253136 22361.332031
5.080000 2.920000 5.040000 31.252964 118.624886 15048.611328
5.080000 2.920000 5.080000 -28.090879 78.719620 6985.875977
5.080000 2.920000 5.120000 -36.775978 20.070410 1755.293945
5.080000 2.920000 5.160000 -6.401337 -13.287614 217.537796
5.080000 2.920000 5.200000 24.631693 -8.668216 681.858215
5.080000 2.960000 4.800000 46.321144 -29.475197 3014.435547
5.080000 2.960000 4.840000 79.711090 -48.382164 8694.691406
5.080000 2.960000 4.880000 137.923828 -28.185183 19817.386719
5.080000 2.960000 4.920000 173.238220 45.455566 32077.689453
5.080000 2.960000 4.960000 142.790085 135.860901 38847.191406
5.080000 2.960000 5.000000 53.124783 182.042023 35961.539062
5.080000 2.960000 5.040000 -39.972389 152.855042 24962.455078
5.080000 2.960000 5.080000 -78.923157 75.581192 11941.380859
5.080000 2.960000 5.120000 -53.470066 10.272087 2964.563721
5.080000 2.960000 5.160000 -4.128889 -4.402483 36.429581
5.080000 2.960000 5.200000 20.826246 19.407021 810.364990
5.080000 3.000000 4.800000 54.652241 4.447076 3006.643799
5.080000 3.000000 4.840000 94.947433 3.599146 9027.968750
5.080000 3.000000 4.880000 137.353516 52.666248 21639.722656
5.080000 3.000000 4.920000 129.921829 138.697693 36116.734375
5.080000 3.000000 4.960000 53.334267 204.711823 44751.472656
5.080000 3.000000 5.000000 -53.332069 198.729874 42337.871094
5.080000 3.000000 5.040000 -122.751060 122.830505 30155.156250
5.080000 3.000000 5.080000 -118.003326 32.707920 14994.592773
5.080000 3.000000 5.120000 -62.533638 -12.589725 4068.957031
5.080000 3.000000 5.160000 -13.172358 -0.988390 174.487915
5.080000 3.000000 5.200000 -5.459585 30.353500 951.142029
5.080000 3.040000 4.800000 36.993301 34.856754 2583.497559
5.080000 3.040000 4.840000 68.830063 52.286545 7471.460449
5.080000 3.040000 4.880000 78.417976 110.403305 18338.269531
5.080000 3.040000 4.920000 31.211266 173.793121 31178.191406
5.080000 3.040000 4.960000 -60.520962 188.711670 39274.878906
5.080000 3.040000 5.000000 -141.746948 133.414352 37891.585938
5.080000 3.040000 5.040000 -161.534760 41.225040 27792.982422
5.080000 3.040000 5.080000 -117.598007 -27.972136 14611.731445
5.080000 3.040000 5.120000 -55.019936 -40.145172 4638.828125
5.080000 3.040000 5.160000 -22.031843 -12.224529 634.841187
5.080000 3.040000 5.200000 -28.083841 12.099895 935.109619
5.080000 3.080000 4.800000 5.017473 43.708996 1935.651367
5.080000 3.080000 4.840000 18.536860 67.462494 4894.803223
5.080000 3.080000 4.880000 0.188572 108.847427 11847.797852
5.080000 3.080000 4.920000 -57.608128 130.057831 20233.734375
5.080000 3.080000 4.960000 -124.591721 101.317619 25788.355469
5.080000 3.080000 5.000000 -156.470245 30.959232 25441.412109
5.080000 3.080000 5.040000 -133.846558 -39.484089 19473.894531
5.080000 3.080000 5.080000 -78.351456 -71.086800 11192.283203
5.080000 3.080000 5.120000 -31.006084 -59.268654 4474.150879
5.080000 3.080000 5.160000 -15.538591 -31.795820 1252.421997
5.080000 3.080000 5.200000 -22.585150 -18.203621 841.460815
5.080000 3.120000 4.800000 -20.251774 29.449821 1277.426270
5.080000 3.120000 4.840000 -22.115402 45.088703 2522.082275
5.080000 3.120000 4.880000 -46.376297 58.101421 5526.536133
5.080000 3.120000 4.920000 -83.141251 47.285019 9148.340820
5.080000 3.120000 4.960000 -107.646706 8.599998 11661.773438
5.080000 3.120000 5.000000 -101.428116 -39.707439 11864.343750
5.080000 3.120000 5.040000 -67.788284 -72.181015 9805.350586
5.080000 3.120000 5.080000 -27.481699 -76.592041 6621.584473
5.080000 3.120000 5.120000 -0.330385 -60.775299 3693.746094
5.080000 3.120000 5.160000 8.894430 -41.721016 1819.754028
5.080000 3.120000 5.200000 8.657164 -29.948185 971.840271
5.080000 3.160000 4.800000 -26.054621 7.264289 731.613159
5.080000 3.160000 4.840000 -31.628862 8.682026 1075.762573
5.080000 3.160000 4.880000 -41.385731 2.464539 1718.852661
5.080000 3.160000 4.920000 -47.046871 -12.393623 2367.010010
5.080000 3.160000 4.960000 -43.373631 -30.314926 2800.266602
5.080000 3.160000 5.000000 -31.063866 -44.852219 2976.685303
5.080000 3.160000 5.040000 -13.755295 -52.799339 2976.978516
5.080000 3.160000 5.080000 5.488430 -53.285301 2869.446045
5.080000 3.160000 5.120000 23.809509 -45.396580 2627.742188
5.080000 3.160000 5.160000 36.389111 -29.195141 2176.523682
5.080000 3.160000 5.200000 37.775558 -9.177362 1511.216797
5.080000 3.200000 4.800000 -17.447674 -5.576802 335.522034
5.080000 3.200000 4.840000 -16.617624 -14.024426 472.829956
5.080000 3.200000 4.880000 -7.629924 -21.018143 499.978058
5.080000 3.200000 4.920000 3.690819 -18.989956 374.240570
5.080000 3.200000 4.960000 7.413715 -10.881596 173.372299
5.080000 3.200000 5.000000 2.505814 -7.987247 70.075211
5.080000 3.200000 5.040000 0.178810 -16.143692 260.650787
5.080000 3.200000 5.080000 11.659718 -26.364927 831.058411
5.080000 3.200000 5.120000 33.332573 -22.556501 1619.856201
5.080000 3.200000 5.160000 47.152748 0.302935 2223.473389
5.080000 3.200000 5.200000 38.324009 27.648872 2233.189697
5.120000 2.800000 4.800000 -30.887924 -16.979645 1242.372192
5.120000 2.800000 4.840000 -16.655060 -27.568092 1037.390747
5.120000 2.800000 4.880000 1.712683 -24.489193 602.653870
5.120000 2.800000 4.920000 11.567816 -9.136052 217.281799
5.120000 2.800000 4.960000 6.779030 6.995840 94.897026
5.120000 2.800000 5.000000 -6.655728 12.738605 206.570786
5.120000 2.800000 5.040000 -17.017006 7.276115 342.520355
5.120000 2.800000 5.080000 -18.515408 -0.734734 343.360138
5.120000 2.800000 5.120000 -15.707086 -3.510575 259.036682
5.120000 2.800000 5.160000 -16.445744 -2.371334 276.085724
5.120000 2.800000 5.200000 -21.799822 -4.925530 499.493103
5.120000 2.840000 4.800000 -15.449491 -40.492867 1878.359009
5.120000 2.840000 4.840000 2.481941 -45.859859 2109.286621
5.120000 2.840000 4.880000 21.989122 -38.872990 1994.630859
5.120000 2.840000 4.920000 33.416325 -20.766233 1547.887207
5.120000 2.840000 4.960000 30.967827 -0.128792 959.022888
5.120000 2.840000 5.000000 17.200602 13.073875 466.786926
5.120000 2.840000 5.040000 0.574627 14.444965 208.987228
5.120000 2.840000 5.080000 -11.209927 6.830815 172.322495
5.120000 2.840000 5.120000 -15.696971 -3.811507 260.922485
5.120000 2.840000 5.160000 -14.650079 -13.434585 395.112854
5.120000 2.840000 5.200000 -10.173387 -21.049999 546.600281
5.120000 2.880000 4.800000 17.349907 -47.496243 2556.912354
5.120000 2.880000 4.840000 36.077740 -46.904408 3501.626709
5.120000 2.880000 4.880000 56.859562 -34.299080 4409.436523
5.120000 2.880000 4.920000 68.790909 -7.862137 4794.001953
5.120000 2.880000 4.960000 61.574013 23.249237 4331.886230
5.120000 2.880000 5.000000 35.672516 43.229115 3141.284668
5.120000 2.880000 5.040000 4.331768 41.482281 1739.543823
5.120000 2.880000 5.080000 -15.593853 21.309370 697.257507
5.120000 2.880000 5.120000 -16.170233 -2.846537 269.579224
5.120000 2.880000 5.160000 -3.056632 -17.100452 301.768463
5.120000 2.880000 5.200000 11.298584 -17.997635 451.572845
5.120000 2.920000 4.800000 48.926788 -27.144993 3130.681152
5.120000 2.920000 4.840000 66.019333 -21.039913 4801.229980
5.120000 2.920000 4.880000 85.069519 0.216175 7236.870117
5.120000 2.920000 4.920000 88.989471 37.889877 9354.768555
5.120000 2.920000 4.960000 64.781403 75.094955 9835.882812
5.120000 2.920000 5.000000 19.497112 88.154739 8151.395508
5.120000 2.920000 5.040000 -21.662275 67.746109 5058.789551
5.120000 2.920000 5.080000 -35.398659 28.772324 2080.911621
5.120000 2.920000 5.120000 -19.817303 -1.802615 395.974915
5.120000 2.920000 5.160000 5.663887 -7.925858 94.898834
5.120000 2.920000 5.200000 19.463221 3.965923 394.545502
5.120000 2.960000 4.800000 57.255260 11.731408 3415.790771
5.120000 2.960000 4.840000 70.662491 22.256449 5488.537109
5.120000 2.960000 4.880000 81.278656 51.896057 9299.419922
5.120000 2.960000 4.920000 67.097015 93.860336 13311.771484
5.120000 2.960000 4.960000 21.337650 121.217056 15148.870117
5.120000 2.960000 5.000000 -34.857086 110.390556 13401.091797
5.120000 2.960000 5.040000 -67.569481 65.321136 8832.486328
5.120000 2.960000 5.080000 -59.904053 16.589025 3863.691406
5.120000 2.960000 5.120000 -26.800518 -5.207657 745.387451
5.120000 2.960000 5.160000 0.248212 4.243790 18.071360
5.120000 2.960000 5.200000 2.985778 22.887199 532.738770
5.120000 3.000000 4.800000 35.371700 44.991966 3275.434082
5.120000 3.000000 4.840000 43.387756 58.020447 5248.869629
5.120000 3.000000 4.880000 39.849224 89.399628 9580.253906
5.120000 3.000000 4.920000 6.326760 120.737564 14617.587891
5.120000 3.000000 4.960000 -49.578880 122.427177 17446.480469
5.120000 3.000000 5.000000 -95.432945 83.464783 16073.817383
5.120000 3.000000 5.040000 -102.049973 25.693474 11074.351562
5.120000 3.000000 5.080000 -70.782974 -13.995632 5206.107422
5.120000 3.000000 5.120000 -31.849953 -16.703693 1293.432861
5.120000 3.000000 5.160000 -15.124264 3.488321 240.911728
5.120000 3.000000 5.200000 -23.315590 17.001438 832.665649
5.120000 3.040000 4.800000 -1.577693 52.006699 2707.185791
5.120000 3.040000 4.840000 0.302814 64.708237 4187.247559
5.120000 3.040000 4.880000 -16.323837 87.645775 7948.249512
5.120000 3.040000 4.920000 -57.336597 96.417274 12583.776367
5.120000 3.040000 4.960000 -102.049896 71.071686 15465.366211
5.120000 3.040000 5.000000 -119.702774 18.807056 14682.458984
5.120000 3.040000 5.040000 -98.479996 -29.478382 10567.284180
5.120000 3.040000 5.080000 -57.162262 -46.700935 5448.501465
5.120000 3.040000 5.120000 -27.045172 -33.487225 1852.835449
5.120000 3.040000 5.160000 -22.732685 -14.340641 722.428955
5.120000 3.040000 5.200000 -31.595886 -11.182920 1123.357788
5.120000 3.080000 4.800000 -28.476297 32.509834 1867.788818
5.120000 3.080000 4.840000 -31.856365 41.801746 2762.213867
5.120000 3.080000 4.880000 -52.856754 49.600128 5254.008789
5.120000 3.080000 4.920000 -83.759476 36.994957 8384.276367
5.120000 3.080000 4.960000 -102.113548 0.572388 10427.503906
5.120000 3.080000 5.000000 -91.746773 -41.545944 10143.536133
5.120000 3.080000 5.040000 -58.639778 -65.334381 7707.205078
5.120000 3.080000 5.080000 -25.217369 -62.437778 4534.391602
5.120000 3.080000 5.120000 -9.213335 -45.787056 2181.340088
5.120000 3.080000 5.160000 -9.002844 -34.501671 1271.416382
5.120000 3.080000 5.200000 -9.545908 -34.871407 1307.139404
5.120000 3.120000 4.800000 -31.245008 5.697052 1008.706970
5.120000 3.120000 4.840000 -37.426804 9.283537 1486.949707
5.120000 3.120000 4.880000 -51.934639 3.612125 2710.254150
5.120000 3.120000 4.920000 -62.225719 -16.497503 4144.208008
5.120000 3.120000 4.960000 -56.723351 -42.732090 5043.570312
5.120000 3.120000 5.000000 -35.873692 -60.759586 4978.648926
5.120000 3.120000 5.040000 -11.050560 -63.116982 4105.868164
5.120000 3.120000 5.080000 6.580711 -54.266388 2988.146484
5.120000 3.120000 5.120000 15.080020 -43.751953 2141.640381
5.120000 3.120000 5.160000 19.935534 -36.174004 1705.984131
5.120000 3.120000 5.200000 25.293989 -28.827406 1470.805176
5.120000 3.160000 4.800000 -17.325371 -7.841005 361.649841
5.120000 3.160000 4.840000 -22.916639 -10.765324 641.064575
5.120000 3.160000 4.880000 -24.968826 -21.496849 1085.556763
5.120000 3.160000 4.920000 -18.058710 -33.276119 1433.417236
5.120000 3.160000 4.960000 -5.363441 -38.731121 1528.866211
5.120000 3.160000 5.000000 6.204674 -37.413673 1438.280884
5.120000 3.160000 5.040000 14.250668 -34.272942 1377.716064
5.120000 3.160000 5.080000 22.310419 -31.814743 1509.932617
5.120000 3.160000 5.120000 32.988003 -26.281452 1778.923096
5.120000 3.160000 5.160000 41.993793 -13.126216 1935.776123
5.120000 3.160000 5.200000 41.467682 4.965250 1744.222290
5.120000 3.200000 4.800000 -6.097837 -4.160268 54.491447
5.120000 3.200000 4.840000 -7.486324 -12.606706 214.974091
5.120000 3.200000 4.880000 1.361242 -19.460733 380.573120
5.120000 3.200000 4.920000 12.897764 -16.190525 428.485413
5.120000 3.200000 4.960000 16.461006 -6.619443 314.781738
5.120000 3.200000 5.000000 11.861712 -2.189072 145.492233
5.120000 3.200000 5.040000 10.226751 -7.157812 155.820709
5.120000 3.200000 5.080000 20.167793 -11.828861 546.661865
5.120000 3.200000 5.120000 35.396683 -3.073936 1262.374268
5.120000 3.200000 5.160000 39.508640 19.082575 1925.077271
5.120000 3.200000 5.200000 24.095610 38.532993 2065.390137
5.160000 2.800000 4.800000 -27.976070 -31.970423 1804.768433
5.160000 2.800000 4.840000 -7.553527 -37.471912 1461.199951
5.160000 2.800000 4.880000 10.678045 -26.588291 820.957886
5.160000 2.800000 4.920000 14.614436 -7.307117 266.975708
5.160000 2.800000 4.960000 4.074688 5.930634 51.775497
5.160000 2.800000 5.000000 -9.487149 5.468224 119.907471
5.160000 2.800000 5.040000 -14.603189 -3.363619 224.567078
5.160000 2.800000 5.080000 -10.525509 -9.294863 197.180817
5.160000 2.800000 5.120000 -6.007702 -7.445104 91.522064
5.160000 2.800000 5.160000 -8.194901 -3.593288 80.068115
5.160000 2.800000 5.200000 -14.199894 -6.276607 241.032776
5.160000 2.840000 4.800000 3.283586 -46.853527 2206.034912
5.160000 2.840000 4.840000 24.097565 -37.459267 1983.889282
5.160000 2.840000 4.880000 33.354317 -16.653906 1389.863037
5.160000 2.840000 4.920000 26.618023 3.337296 719.656738
5.160000 2.840000 4.960000 10.557643 11.802670 250.766830
5.160000 2.840000 5.000000 -3.299311 7.648077 69.378532
5.160000 2.840000 5.040000 -8.336306 -1.605829 72.072678
5.160000 2.840000 5.080000 -6.708675 -8.137084 111.218460
5.160000 2.840000 5.120000 -4.396671 -10.601161 131.715332
5.160000 2.840000 5.160000 -3.715398 -12.875897 179.592911
5.160000 2.840000 5.200000 -1.534481 -17.361492 303.776062
5.160000 2.880000 4.800000 39.668625 -31.996281 2597.361816
5.160000 2.880000 4.840000 49.174828 -11.235672 2544.403809
5.160000 2.880000 4.880000 44.515430 10.673900 2095.555664
5.160000 2.880000 4.920000 28.904289 24.408157 1431.216064
5.160000 2.880000 4.960000 10.638035 25.904482 784.209961
5.160000 2.880000 5.000000 -2.468163 17.763443 321.631744
5.160000 2.880000 5.040000 -7.197721 6.157206 89.718369
5.160000 2.880000 5.080000 -5.025599 -3.608144 38.275352
5.160000 2.880000 5.120000 0.684160 -9.332151 87.557121
5.160000 2.880000 5.160000 7.318622 -11.196486 178.923523
5.160000 2.880000 5.200000 13.586967 -9.925072 283.112732
5.160000 2.920000 4.800000 54.413361 7.807801 3021.775391
5.160000 2.920000 4.840000 47.610016 28.338127 3069.763184
5.160000 2.920000 4.880000 32.081703 41.764824 2773.536133
5.160000 2.920000 4.920000 13.288856 45.452354 2242.510254
5.160000 2.920000 4.960000 -3.534063 39.741554 1591.880737
5.160000 2.920000 5.000000 -14.049836 27.164789 935.323669
5.160000 2.920000 5.040000 -15.576009 12.344524 394.999329
5.160000 2.920000 5.080000 -8.724194 1.106079 77.334969
5.160000 2.920000 5.120000 1.926792 -2.370815 9.333293
5.160000 2.920000 5.160000 10.159132 1.525233 105.534302
5.160000 2.920000 5.200000 12.469235 8.042917 220.170349
5.160000 2.960000 4.800000 34.520451 46.635284 3366.511230
5.160000 2.960000 4.840000 17.023317 55.818897 3405.542480
5.160000 2.960000 4.880000 -0.786499 56.652245 3210.095459
5.160000 2.960000 4.920000 -16.591167 51.006462 2876.926025
5.160000 2.960000 4.960000 -28.668158 39.443382 2377.643555
5.160000 2.960000 5.000000 -33.610268 23.380709 1676.307617
5.160000 2.960000 5.040000 -28.724586 8.003265 889.154114
5.160000 2.960000 5.080000 -16.614513 0.333960 276.153595
5.160000 2.960000 5.120000 -5.330738 3.040989 37.664383
5.160000 2.960000 5.160000 -2.042099 10.926277 123.553703
5.160000 2.960000 5.200000 -6.226444 15.239687 271.016663
5.160000 3.000000 4.800000 -6.561898 57.775665 3381.086182
5.160000 3.000000 4.840000 -23.348881 53.120213 3366.927246
5.160000 3.000000 4.880000 -35.551163 44.440125 3238.809814
5.160000 3.000000 4.920000 -44.554485 33.236908 3089.794189
5.160000 3.000000 4.960000 -49.347000 18.660206 2783.329834
5.160000 3.000000 5.000000 -46.387493 2.779620 2159.525879
5.160000 3.000000 5.040000 -35.231194 -7.997974 1305.204468
5.160000 3.000000 5.080000 -22.176624 -8.591671 565.619507
5.160000 3.000000 5.120000 -15.858374 -1.747629 254.542236
5.160000 3.000000 5.160000 -18.524790 3.314479 354.153625
5.160000 3.000000 5.200000 -23.029198 0.088023 530.351685
5.160000 3.040000 4.800000 -39.382385 36.332298 2871.008301
5.160000 3.040000 4.840000 -47.573711 24.494198 2863.223633
5.160000 3.040000 4.880000 -51.654182 12.780066 2831.484619
5.160000 3.040000 4.920000 -53.036816 0.328853 2813.011963
5.160000 3.040000 4.960000 -49.608528 -13.063001 2631.648193
5.160000 3.040000 5.000000 -39.713066 -23.468035 2127.876221
5.160000 3.040000 5.040000 -26.927031 -26.008789 1401.522095
5.160000 3.040000 5.080000 -18.505274 -21.222412 792.835938
5.160000 3.040000 5.120000 -17.980160 -16.249512 587.332764
5.160000 3.040000 5.160000 -20.492348 -17.932461 741.509460
5.160000 3.040000 5.200000 -17.288280 -24.863110 917.058838
5.160000 3.080000 4.800000 -43.590828 2.831387 1908.177002
5.160000 3.080000 4.840000 -44.074764 -7.656614 2001.208618
5.160000 3.080000 4.880000 -42.383934 -17.952381 2118.685791
5.160000 3.080000 4.920000 -37.169067 -28.327831 2184.005615
5.160000 3.080000 4.960000 -27.275146 -35.976906 2038.271362
5.160000 3.080000 5.000000 -15.463236 -37.335106 1633.021851
5.160000 3.080000 5.040000 -7.236202 -32.947433 1137.895996
5.160000 3.080000 5.080000 -5.202307 -28.386269 832.844238
5.160000 3.080000 5.120000 -5.455952 -28.902044 865.095581
5.160000 3.080000 5.160000 -1.100555 -33.240681 1106.154053
5.160000 3.080000 5.200000 9.988047 -33.961231 1253.126343
5.160000 3.120000 4.800000 -24.502996 -15.989278 856.053833
5.160000 3.120000 4.840000 -23.568953 -22.602970 1066.389771
5.160000 3.120000 4.880000 -18.978071 -31.081371 1326.218750
5.160000 3.120000 4.920000 -8.919769 -37.016697 1449.798096
5.160000 3.120000 4.960000 2.847188 -36.049084 1307.642822
5.160000 3.120000 5.000000 10.030576 -29.503424 971.064453
5.160000 3.120000 5.040000 10.685479 -23.905590 685.656677
5.160000 3.120000 5.080000 9.943554 -24.073994 678.431458
5.160000 3.120000 5.120000 14.668669 -27.314856 961.271179
5.160000 3.120000 5.160000 25.448410 -25.706532 1308.447266
5.160000 3.120000 5.200000 34.933853 -14.612281 1433.892944
5.160000 3.160000 4.800000 -5.667992 -11.093489 155.191620
5.160000 3.160000 4.840000 -6.881767 -18.152470 376.870880
5.160000 3.160000 4.880000 0.525036 -25.847836 668.386230
5.160000 3.160000 4.920000 12.983237 -25.523052 819.990662
5.160000 3.160000 4.960000 20.871723 -16.689201 714.158264
5.160000 3.160000 5.000000 19.614952 -7.940683 447.800781
5.160000 3.160000 5.040000 15.203001 -7.013878 280.325714
5.160000 3.160000 5.080000 17.309681 -11.392944 429.424255
5.160000 3.160000 5.120000 27.531450 -10.708002 872.642090
5.160000 3.160000 5.160000 36.511139 1.279876 1334.701294
5.160000 3.160000 5.200000 33.768932 18.682026 1489.358887
5.160000 3.200000 4.800000 -5.159544 2.947020 35.305817
5.160000 3.200000 4.840000 -4.967557 -9.100194 107.490150
5.160000 3.200000 4.880000 6.876594 -14.715837 263.843384
5.160000 3.200000 4.920000 18.180571 -7.385585 385.080017
5.160000 3.200000 4.960000 18.244831 4.773764 355.662689
5.160000 3.200000 5.000000 10.164968 9.092773 186.005112
5.160000 3.200000 5.040000 6.677953 3.716526 58.407623
5.160000 3.200000 5.080000 14.271610 0.008908 203.678940
5.160000 3.200000 5.120000 24.453669 8.822575 675.819763
5.160000 3.200000 5.160000 22.934784 26.552290 1231.028442
5.160000 3.200000 5.200000 6.558269 37.832413 1474.302368
5.200000 2.800000 4.800000 -15.227699 -41.473648 1951.946289
5.200000 2.800000 4.840000 5.341055 -38.832493 1536.489380
5.200000 2.800000 4.880000 17.690128 -23.111338 847.074585
5.200000 2.800000 4.920000 15.242866 -5.720550 265.069641
5.200000 2.800000 4.960000 3.519316 1.829397 15.732277
5.200000 2.800000 5.000000 -5.683081 -1.982744 36.228680
5.200000 2.800000 5.040000 -5.713419 -8.675670 107.910400
5.200000 2.800000 5.080000 -0.490576 -9.468577 89.894623
5.200000 2.800000 5.120000 1.306360 -4.265680 19.902605
5.200000 2.800000 5.160000 -3.506437 -0.589102 12.642143
5.200000 2.800000 5.200000 -9.159449 -4.191131 101.461075
5.200000 2.840000 4.800000 20.080746 -39.268822 1945.276733
5.200000 2.840000 4.840000 31.412966 -19.979240 1385.944458
5.200000 2.840000 4.880000 25.771736 0.158190 664.207397
5.200000 2.840000 4.920000 9.527660 8.275673 159.263077
5.200000 2.840000 4.960000 -3.896170 2.261794 20.295853
5.200000 2.840000 5.000000 -6.055165 -8.807898 114.244080
5.200000 2.840000 5.040000 0.258250 -14.341476 205.744644
5.200000 2.840000 5.080000 5.918025 -11.923965 177.203979
5.200000 2.840000 5.120000 5.627100 -7.647361 90.146393
5.200000 2.840000 5.160000 2.575936 -7.860007 68.415154
5.200000 2.840000 5.200000 3.420714 -11.790604 150.719635
5.200000 2.880000 4.800000 43.323792 -7.888635 1939.181519
5.200000 2.880000 4.840000 33.435471 15.326607 1352.835571
5.200000 2.880000 4.880000 11.102563 23.032610 653.768005
5.200000 2.880000 4.920000 -6.967851 12.516685 205.218338
5.200000 2.880000 4.960000 -9.656125 -4.948218 117.725616
5.200000 2.880000 5.000000 0.361966 -15.292260 233.984238
5.200000 2.880000 5.040000 11.535797 -13.701748 320.812500
5.200000 2.880000 5.080000 15.291792 -6.404663 274.858612
5.200000 2.880000 5.120000 12.784442 -2.084971 167.789062
5.200000 2.880000 5.160000 10.962845 -2.870312 128.422668
5.200000 2.880000 5.200000 13.719220 -3.754325 202.311951
5.200000 2.920000 4.800000 33.938568 32.548290 2211.217773
5.200000 2.920000 4.840000 5.790961 41.170517 1728.546753
5.200000 2.920000 4.880000 -18.242977 26.501842 1035.153809
5.200000 2.920000 4.920000 -22.468031 1.209403 506.275055
5.200000 2.920000 4.960000 -7.917110 -15.829234 313.245300
5.200000 2.920000 5.000000 10.923193 -15.467739 358.567078
5.200000 2.920000 5.040000 20.285633 -3.556403 424.154907
5.200000 2.920000 5.080000 17.855392 7.516926 375.319214
5.200000 2.920000 5.120000 11.231709 10.861263 244.118317
5.200000 2.920000 5.160000 8.089550 9.097095 148.197937
5.200000 2.920000 5.200000 9.148661 8.565240 157.061325
5.200000 2.960000 4.800000 -3.606485 52.131523 2730.702637
5.200000 2.960000 4.840000 -33.081566 36.823639 2450.370361
5.200000 2.960000 4.880000 -41.336376 5.492020 1738.858276
5.200000 2.960000 4.920000 -24.786777 -19.636526 999.977539
5.200000 2.960000 4.960000 1.725980 -23.368286 549.055786
5.200000 2.960000 5.000000 19.023628 -8.314136 431.023285
5.200000 2.960000 5.040000 18.957355 10.573115 471.172089
5.200000 2.960000 5.080000 7.730106 20.266361 470.479950
5.200000 2.960000 5.120000 -3.060970 18.760618 361.330322
5.200000 2.960000 5.160000 -6.999213 12.635683 208.649475
5.200000 2.960000 5.200000 -5.525249 8.620948 104.849121
5.200000 3.000000 4.800000 -41.828129 36.751316 3100.251465
5.200000 3.000000 4.840000 -55.114346 5.056748 3063.161865
5.200000 3.000000 4.880000 -41.350891 -26.077690 2389.942139
5.200000 3.000000 4.920000 -11.106787 -36.658611 1467.214478
5.200000 3.000000 4.960000 14.370383 -23.043194 737.496704
5.200000 3.000000 5.000000 20.376961 1.384043 417.136108
5.200000 3.000000 5.040000 8.212177 18.889874 424.267181
5.200000 3.000000 5.080000 -9.366866 20.848244 522.387451
5.200000 3.000000 5.120000 -20.021088 11.120961 524.519775
5.200000 3.000000 5.160000 -19.835213 -0.506526 393.692230
5.200000 3.000000 5.200000 -12.701898 -6.625041 205.229370
5.200000 3.040000 4.800000 -53.562378 0.671965 2869.379639
5.200000 3.040000 4.840000 -46.385475 -30.013651 3052.431641
5.200000 3.040000 4.880000 -19.389038 -46.754677 2561.934570
5.200000 3.040000 4.920000 10.131560 -39.577698 1669.042725
5.200000 3.040000 4.960000 24.041512 -15.458092 816.946899
5.200000 3.040000 5.000000 16.542280 8.129555 339.736694
5.200000 3.040000 5.040000 -3.355740 16.747105 291.726501
5.200000 3.040000 5.080000 -20.392105 8.241808 483.765350
5.200000 3.040000 5.120000 -24.311361 -8.258968 659.252869
5.200000 3.040000 5.160000 -15.261302 -20.673168 660.287231
5.200000 3.040000 5.200000 -1.224134 -22.048859 487.650665
5.200000 3.080000 4.800000 -35.428997 -26.599571 1962.750977
5.200000 3.080000 4.840000 -18.219250 -44.161156 2282.148682
5.200000 3.080000 4.880000 7.421773 -45.271408 2104.583252
5.200000 3.080000 4.920000 26.382431 -28.456276 1505.792236
5.200000 3.080000 4.960000 27.527281 -4.575284 778.684387
5.200000 3.080000 5.000000 11.988314 10.830694 261.023621
5.200000 3.080000 5.040000 -7.808207 8.800361 138.414444
5.200000 3.080000 5.080000 -17.479650 -6.945353 353.776093
5.200000 3.080000 5.120000 -11.036466 -23.511280 674.583862
5.200000 3.080000 5.160000 5.645081 -28.758200 858.901001
5.200000 3.080000 5.200000 20.261066 -19.763418 801.103516
5.200000 3.120000 4.800000 -9.137064 -27.149899 820.602966
5.200000 3.120000 4.840000 4.638649 -33.576454 1148.895386
5.200000 3.120000 4.880000 21.396540 -28.474144 1268.588745
5.200000 3.120000 4.920000 30.470238 -12.192831 1077.100464
5.200000 3.120000 4.960000 24.889582 5.489676 649.627808
5.200000 3.120000 5.000000 8.598344 12.132173 221.121124
5.200000 3.120000 5.040000 -5.361439 3.270767 39.442947
5.200000 3.120000 5.080000 -5.361347 -12.895189 195.029953
5.200000 3.120000 5.120000 8.675194 -21.981030 558.424622
5.200000 3.120000 5.160000 25.145042 -15.691933 878.509888
5.200000 3.120000 5.200000 30.965546 1.387421 960.789917
5.200000 3.160000 4.800000 0.439981 -9.581384 91.996498
5.200000 3.160000 4.840000 7.119312 -15.600600 294.063324
5.200000 3.160000 4.880000 18.667366 -12.991962 517.261658
5.200000 3.160000 4.920000 24.488796 -0.621520 600.087402
5.200000 3.160000 4.960000 17.948805 11.901824 463.813019
5.200000 3.160000 5.000000 4.570368 13.336021 198.737732
5.200000 3.160000 5.040000 -2.456717 2.905337 14.476440
5.200000 3.160000 5.080000 4.351084 -7.886256 81.124962
5.200000 3.160000 5.120000 18.602360 -6.515467 388.499084
5.200000 3.160000 5.160000 26.139618 7.800714 744.130737
5.200000 3.160000 5.200000 19.199902 23.407751 916.559021
5.200000 3.200000 4.800000 -11.235087 1.949760 130.028748
5.200000 3.200000 4.840000 -4.067082 -10.044329 117.429703
5.200000 3.200000 4.880000 9.782270 -9.536507 186.637787
5.200000 3.200000 4.920000 16.075615 2.423256 264.297546
5.200000 3.200000 4.960000 9.441941 12.964256 257.222198
5.200000 3.200000 5.000000 -1.130418 11.947658 144.024368
5.200000 3.200000 5.040000 -2.982968 3.202992 19.157261
5.200000 3.200000 5.080000 5.551972 -0.287886 30.907276
5.200000 3.200000 5.120000 13.275828 8.371944 246.337067
5.200000 3.200000 5.160000 9.074770 21.883608 561.243774
5.200000 3.200000 5.200000 -5.323155 26.996979 757.172852
