#kx 	ky 	kz 	real 	imag 	intensity
4.800000 2.800000 4.983333 -44.116859 -50.916683 4538.805664
4.800000 2.800000 4.991667 -44.856163 -28.028927 2797.696045
4.800000 2.800000 5.000000 -11.199707 -87.572617 7794.396973
4.800000 2.800000 5.008333 15.818123 -57.957016 3609.228516
4.800000 2.800000 5.016667 61.795452 -28.606899 4637.032715
4.800000 2.900000 4.983333 -30.210539 -30.768532 1859.379150
4.800000 2.900000 4.991667 44.180984 3.866590 1966.909912
4.800000 2.900000 5.000000 -7.674732 32.766083 1132.517700
4.800000 2.900000 5.008333 -22.114372 -1.376701 490.940765
4.800000 2.900000 5.016667 12.141900 -39.418758 1701.264282
4.800000 3.000000 4.983333 23.151791 -69.809280 5409.340820
4.800000 3.000000 4.991667 29.519686 18.692528 1220.822510
4.800000 3.000000 5.000000 -19.170341 19.715496 756.202759
4.800000 3.000000 5.008333 -13.481838 -65.885132 4522.610352
4.800000 3.000000 5.016667 127.672600 52.572697 19064.181641
4.800000 3.100000 4.983333 20.665962 11.053692 549.266113
4.800000 3.100000 4.991667 75.219162 87.975624 13397.632812
4.800000 3.100000 5.000000 -131.930801 77.164360 23360.074219
4.800000 3.100000 5.008333 29.236721 -44.381180 2824.474854
4.800000 3.100000 5.016667 -135.260712 123.774399 33615.562500
4.800000 3.200000 4.983333 14.070679 -54.215424 3137.296143
4.800000 3.200000 4.991667 -46.303310 141.824509 22258.187500
4.800000 3.200000 5.000000 -128.897049 -151.160309 39463.890625
4.800000 3.200000 5.008333 66.644142 -16.041981 4698.787109
4.800000 3.200000 5.016667 -41.812340 -148.632660 23839.939453
4.900000 2.800000 4.983333 -91.929131 9.202087 8535.643555
4.900000 2.800000 4.991667 -30.213634 -207.923798 44145.167969
4.900000 2.800000 5.000000 101.876549 36.615036 11719.492188
4.900000 2.800000 5.008333 -80.440727 -93.925140 15292.642578
4.900000 2.800000 5.016667 129.749115 -14.246726 17037.800781
4.900000 2.900000 4.983333 285.395996 -670.928833 531596.375000
4.900000 2.900000 4.991667 -71.904785 563.123169 322278.031250
4.900000 2.900000 5.000000 -750.152649 -480.303528 793420.500000
4.900000 2.900000 5.008333 47.658737 -679.036682 463362.156250
4.900000 2.900000 5.016667 372.547913 -563.917236 456794.625000
4.900000 3.000000 4.983333 1036.114746 303.684052 1165757.750000
4.900000 3.000000 4.991667 -917.915344 -77.094604 848512.125000
4.900000 3.000000 5.000000 571.461060 -1177.376587 1712783.375000
4.900000 3.000000 5.008333 898.172607 -198.011276 845922.500000
4.900000 3.000000 5.016667 1062.395752 403.935211 1291848.375000
4.900000 3.100000 4.983333 -23.403345 670.089111 449567.125000
4.900000 3.100000 4.991667 -108.564590 -473.343872 235840.687500
4.900000 3.100000 5.000000 671.787109 140.939453 471161.843750
4.900000 3.100000 5.008333 283.574310 474.100800 305185.937500
4.900000 3.100000 5.016667 -164.238861 712.407654 534499.062500
4.900000 3.200000 4.983333 25.937424 166.618439 28434.455078
4.900000 3.200000 4.991667 -234.010971 -89.292633 62734.308594
4.900000 3.200000 5.000000 147.019989 -153.299225 45115.531250
4.900000 3.200000 5.008333 14.560093 95.044525 9245.458008
4.900000 3.200000 5.016667 9.388286 -47.482777 2342.753906
5.000000 2.800000 4.983333 -93.098061 -166.963455 36544.042969
5.000000 2.800000 4.991667 241.732361 -110.411972 70625.335938
5.000000 2.800000 5.000000 -27.379478 82.528915 7560.657715
5.000000 2.800000 5.008333 92.482079 -190.824860 44967.062500
5.000000 2.800000 5.016667 177.775330 105.989220 42837.781250
5.000000 2.900000 4.983333 1056.390381 226.542297 1167282.000000
5.000000 2.900000 4.991667 -821.775879 6.883667 675363.000000
5.000000 2.900000 5.000000 556.055847 -1226.282715 1812967.375000
5.000000 2.900000 5.008333 1054.712769 -104.217392 1123280.250000
5.000000 2.900000 5.016667 979.122070 457.352417 1167851.250000
5.000000 3.000000 4.983333 -203.811447 1560.360840 2476265.000000
5.000000 3.000000 4.991667 -69.247131 -1378.672852 1905534.000000
5.000000 3.000000 5.000000 1920.665771 585.057434 4031249.250000
5.000000 3.000000 5.008333 491.404449 1307.430420 1950852.625000
5.000000 3.000000 5.016667 -272.373749 1697.324097 2955096.500000
5.000000 3.100000 4.983333 -994.851257 97.360573 999208.062500
5.000000 3.100000 4.991667 763.822876 -224.134674 633661.750000
5.000000 3.100000 5.000000 -132.207581 1132.876587 1300888.250000
5.000000 3.100000 5.008333 -657.767883 478.980774 662081.187500
5.000000 3.100000 5.016667 -1155.813965 19.313705 1336278.875000
5.000000 3.200000 4.983333 -210.235291 2.587990 44205.578125
5.000000 3.200000 4.991667 83.907684 -230.521561 60180.691406
5.000000 3.200000 5.000000 148.782867 62.545971 26048.339844
5.000000 3.200000 5.008333 -47.029503 19.498032 2591.947510
5.000000 3.200000 5.016667 63.131912 -100.061470 13997.936523
5.100000 2.800000 4.983333 110.546249 -62.413082 16115.866211
5.100000 2.800000 4.991667 58.037956 128.079346 19772.722656
5.100000 2.800000 5.000000 -64.153816 21.540195 4579.691895
5.100000 2.800000 5.008333 101.972153 -38.866653 11908.937500
5.100000 2.800000 5.016667 56.547279 200.014801 43203.515625
5.100000 2.900000 4.983333 -52.470596 667.759460 448655.843750
5.100000 2.900000 4.991667 -64.740692 -539.667664 295432.531250
5.100000 2.900000 5.000000 822.529114 207.297882 719526.562500
5.100000 2.900000 5.008333 226.395798 654.685059 479867.593750
5.100000 2.900000 5.016667 -244.860870 704.278198 555964.625000
5.100000 3.000000 4.983333 -961.148315 -29.036461 924649.187500
5.100000 3.000000 4.991667 847.514038 -168.056335 746523.000000
5.100000 3.000000 5.000000 -146.750183 1244.897949 1571306.500000
5.100000 3.000000 5.008333 -795.053894 442.129059 827588.812500
5.100000 3.000000 5.016667 -1048.520386 -41.548630 1101121.250000
5.100000 3.100000 4.983333 -89.331841 -637.863708 414850.312500
5.100000 3.100000 4.991667 223.920303 423.759430 229712.343750
5.100000 3.100000 5.000000 -670.281799 13.167040 449451.062500
5.100000 3.100000 5.008333 -316.863647 -387.367859 250456.437500
5.100000 3.100000 5.016667 -65.946129 -681.551636 468861.531250
5.100000 3.200000 4.983333 73.587234 -96.004578 14631.959961
5.100000 3.200000 4.991667 161.381714 57.027367 29296.177734
5.100000 3.200000 5.000000 49.342335 142.191956 22653.218750
5.100000 3.200000 5.008333 -5.749660 41.617165 1765.046997
5.100000 3.200000 5.016667 95.555077 114.328232 22201.716797
5.200000 2.800000 4.983333 -39.538452 41.773609 3308.323730
5.200000 2.800000 4.991667 -26.386868 -84.618393 7856.539062
5.200000 2.800000 5.000000 -15.656914 -64.106781 4354.818359
5.200000 2.800000 5.008333 131.716782 -55.397236 20418.164062
5.200000 2.800000 5.016667 -41.792404 147.159119 23402.412109
5.200000 2.900000 4.983333 3.526253 -76.192833 5817.782227
5.200000 2.900000 4.991667 113.963028 20.313826 13400.222656
5.200000 2.900000 5.000000 54.516029 44.802605 4979.270996
5.200000 2.900000 5.008333 0.184713 110.529846 12216.880859
5.200000 2.900000 5.016667 -63.747196 -50.994957 6664.190430
5.200000 3.000000 4.983333 126.969147 -9.274158 16207.173828
5.200000 3.000000 4.991667 5.662417 41.326508 1739.943237
5.200000 3.000000 5.000000 5.037983 39.457912 1582.308105
5.200000 3.000000 5.008333 -25.699471 -39.695713 2236.212402
5.200000 3.000000 5.016667 90.435966 33.938301 9330.472656
5.200000 3.100000 4.983333 104.000168 92.643631 19398.878906
5.200000 3.100000 4.991667 82.218765 43.913971 8688.362305
5.200000 3.100000 5.000000 39.949711 110.133728 13725.417969
5.200000 3.100000 5.008333 41.002934 67.074425 6180.219238
5.200000 3.100000 5.016667 -25.841946 140.147980 20309.263672
5.200000 3.200000 4.983333 -5.033195 168.502213 28418.330078
5.200000 3.200000 4.991667 -48.719128 95.122223 11421.791016
5.200000 3.200000 5.000000 -109.950142 110.422844 24282.238281
5.200000 3.200000 5.008333 -94.215897 22.307571 9374.262695
5.200000 3.200000 5.016667 -146.580826 41.046913 23170.789062
