#kx 	ky 	kz 	real 	imag 	intensity
2.800000 -1.200000 8.800000 -25.684612 -3.253649 670.285522
2.800000 -1.200000 8.840000 -22.427233 -11.371183 632.284607
2.800000 -1.200000 8.880000 -14.926611 -18.981365 583.095947
2.800000 -1.200000 8.920000 -3.114034 -22.322121 507.974274
2.800000 -1.200000 8.960000 9.217731 -18.427454 424.537628
2.800000 -1.200000 9.000000 16.735985 -8.532692 352.900024
2.800000 -1.200000 9.040000 16.962734 2.256908 292.827972
2.800000 -1.200000 9.080000 12.324649 9.077505 234.298065
2.800000 -1.200000 9.120000 7.628727 11.242717 184.596161
2.800000 -1.200000 9.160000 5.360401 12.042797 173.762863
2.800000 -1.200000 9.200000 3.624027 14.536695 224.449097
2.800000 -1.160000 8.800000 -19.619619 -16.293259 650.399780
2.800000 -1.160000 8.840000 -13.472895 -17.248051 479.014130
2.800000 -1.160000 8.880000 -7.305797 -17.308447 352.957001
2.800000 -1.160000 8.920000 -0.693439 -14.747198 217.960709
2.800000 -1.160000 8.960000 3.630976 -8.511057 85.622078
2.800000 -1.160000 9.000000 2.615330 -1.412144 8.834100
2.800000 -1.160000 9.040000 -2.650586 1.545137 9.413056
2.800000 -1.160000 9.080000 -6.615475 -1.503177 46.024048
2.800000 -1.160000 9.120000 -4.444448 -6.286857 59.277695
2.800000 -1.160000 9.160000 2.400066 -5.951902 41.185459
2.800000 -1.160000 9.200000 6.629330 1.799551 47.186398
2.800000 -1.120000 8.800000 -6.102414 -22.964718 564.617737
2.800000 -1.120000 8.840000 -2.699185 -16.934849 294.074707
2.800000 -1.120000 8.880000 -2.703624 -12.512702 163.877304
2.800000 -1.120000 8.920000 -4.259900 -9.604163 110.386703
2.800000 -1.120000 8.960000 -7.517711 -8.390154 126.910660
2.800000 -1.120000 9.000000 -11.670170 -11.008785 257.386230
2.800000 -1.120000 9.040000 -12.536608 -18.467731 498.223633
2.800000 -1.120000 9.080000 -5.459408 -26.578426 736.217834
2.800000 -1.120000 9.120000 8.567209 -27.253466 816.148499
2.800000 -1.120000 9.160000 20.800011 -15.766127 681.211182
2.800000 -1.120000 9.200000 20.877283 2.858805 444.033722
2.800000 -1.080000 8.800000 8.862909 -19.302887 451.152588
2.800000 -1.080000 8.840000 5.869559 -10.303362 140.610992
2.800000 -1.080000 8.880000 -1.353598 -7.101025 52.256779
2.800000 -1.080000 8.920000 -8.564772 -10.015477 173.665100
2.800000 -1.080000 8.960000 -12.697153 -18.164650 491.172180
2.800000 -1.080000 9.000000 -10.402029 -29.730074 992.079529
2.800000 -1.080000 9.040000 1.231873 -39.755081 1581.983887
2.800000 -1.080000 9.080000 20.471704 -40.275757 2041.227295
2.800000 -1.080000 9.120000 38.172821 -25.892637 2127.593018
2.800000 -1.080000 9.160000 42.049923 -0.707638 1768.696777
2.800000 -1.080000 9.200000 26.625668 21.367601 1165.500488
2.800000 -1.040000 8.800000 17.656340 -6.883365 359.127045
2.800000 -1.040000 8.840000 8.578035 0.133364 73.600471
2.800000 -1.040000 8.880000 -2.444868 -2.356565 11.530776
2.800000 -1.040000 8.920000 -8.833686 -13.090772 249.402313
2.800000 -1.040000 8.960000 -6.004181 -27.647018 800.407776
2.800000 -1.040000 9.000000 7.819556 -39.243050 1601.162476
2.800000 -1.040000 9.040000 29.579739 -39.858208 2463.637695
2.800000 -1.040000 9.080000 49.859848 -24.382046 3080.488525
2.800000 -1.040000 9.120000 56.078968 3.661154 3158.254639
2.800000 -1.040000 9.160000 41.072304 30.733158 2631.460938
2.800000 -1.040000 9.200000 10.701344 40.598534 1762.759766
2.800000 -1.000000 8.800000 16.127304 7.431844 315.322235
2.800000 -1.000000 8.840000 4.194250 9.675746 111.211784
2.800000 -1.000000 8.880000 -5.405600 1.094326 30.418062
2.800000 -1.000000 8.920000 -5.434794 -13.718620 217.737534
2.800000 -1.000000 8.960000 6.696560 -26.453842 744.649719
2.800000 -1.000000 9.000000 27.455101 -28.392223 1559.900879
2.800000 -1.000000 9.040000 47.406929 -14.582370 2460.062500
2.800000 -1.000000 9.080000 54.603230 11.919800 3123.594238
2.800000 -1.000000 9.120000 41.590721 39.029140 3253.062012
2.800000 -1.000000 9.160000 12.218241 51.191952 2769.901367
2.800000 -1.000000 9.200000 -18.155537 39.777359 1911.861816
2.800000 -0.960000 8.800000 6.676447 16.166338 305.925446
2.800000 -0.960000 8.840000 -4.758319 13.887630 215.507889
2.800000 -0.960000 8.880000 -9.589272 2.462991 98.020454
2.800000 -0.960000 8.920000 -2.748078 -10.034832 108.249786
2.800000 -0.960000 8.960000 13.467636 -14.138417 381.272064
2.800000 -0.960000 9.000000 30.340221 -4.474057 940.546265
2.800000 -0.960000 9.040000 37.098587 16.579042 1651.169800
2.800000 -0.960000 9.080000 27.112011 38.954838 2252.540527
2.800000 -0.960000 9.120000 2.964185 49.681667 2477.054443
2.800000 -0.960000 9.160000 -23.297867 40.852764 2211.739014
2.800000 -0.960000 9.200000 -36.598076 15.941189 1593.540649
2.800000 -0.920000 8.800000 -3.952172 16.733099 295.616272
2.800000 -0.920000 8.840000 -13.352442 11.641725 313.817444
2.800000 -0.920000 8.880000 -13.624152 1.287566 187.275345
2.800000 -0.920000 8.920000 -4.290388 -4.792589 41.376335
2.800000 -0.920000 8.960000 7.564878 -0.308695 57.322662
2.800000 -0.920000 9.000000 12.490322 13.331884 333.747284
2.800000 -0.920000 9.040000 5.207567 27.929169 807.157227
2.800000 -0.920000 9.080000 -11.741344 33.759171 1277.540771
2.800000 -0.920000 9.120000 -29.232748 25.807526 1520.581909
2.800000 -0.920000 9.160000 -36.957401 7.249466 1418.404297
2.800000 -0.920000 9.200000 -29.836426 -11.954973 1033.133667
2.800000 -0.880000 8.800000 -10.574880 12.541433 269.115631
2.800000 -0.880000 8.840000 -17.893799 5.760107 353.366882
2.800000 -0.880000 8.880000 -16.033106 -1.655380 259.800781
2.800000 -0.880000 8.920000 -9.607807 -2.096562 96.705536
2.800000 -0.880000 8.960000 -7.099812 4.518188 70.821358
2.800000 -0.880000 9.000000 -12.967701 11.212645 293.884674
2.800000 -0.880000 9.040000 -23.844110 10.465612 678.070679
2.800000 -0.880000 9.080000 -31.655552 0.673944 1002.528198
2.800000 -0.880000 9.120000 -30.245348 -12.758175 1077.552124
2.800000 -0.880000 9.160000 -19.872805 -21.818729 870.985352
2.800000 -0.880000 9.200000 -6.505911 -21.597170 508.764618
2.800000 -0.840000 8.800000 -13.496225 8.535892 255.009552
2.800000 -0.840000 8.840000 -18.528740 0.177762 343.345795
2.800000 -0.840000 8.880000 -16.610825 -4.803236 298.990570
2.800000 -0.840000 8.920000 -15.547632 -3.727277 255.621460
2.800000 -0.840000 8.960000 -20.615765 -2.469305 431.107239
2.800000 -0.840000 9.000000 -28.327374 -8.459751 874.007446
2.800000 -0.840000 9.040000 -29.690403 -21.858356 1359.307739
2.800000 -0.840000 9.080000 -19.573311 -34.168125 1550.575317
2.800000 -0.840000 9.120000 -2.642857 -35.744251 1284.636230
2.800000 -0.840000 9.160000 10.051713 -24.794304 715.794434
2.800000 -0.840000 9.200000 10.451099 -9.224619 194.319077
2.800000 -0.800000 8.800000 -16.472569 5.733185 304.214935
2.800000 -0.800000 8.840000 -18.014000 -3.838042 339.234741
2.800000 -0.800000 8.880000 -16.438299 -7.537985 327.038910
2.800000 -0.800000 8.920000 -19.362774 -8.757642 451.613312
2.800000 -0.800000 8.960000 -25.722013 -16.066006 919.738525
2.800000 -0.800000 9.000000 -25.727598 -31.789011 1672.450439
2.800000 -0.800000 9.040000 -11.651707 -46.615501 2308.767090
2.800000 -0.800000 9.080000 11.781730 -47.158600 2362.742676
2.800000 -0.800000 9.120000 29.024906 -29.525635 1714.208252
2.800000 -0.800000 9.160000 26.940958 -5.115629 751.984924
2.800000 -0.800000 9.200000 7.160089 7.921936 114.023941
2.840000 -1.200000 8.800000 -30.912376 -15.990669 1211.276489
2.840000 -1.200000 8.840000 -18.732368 -21.841164 827.938110
2.840000 -1.200000 8.880000 -6.167366 -21.367210 494.594086
2.840000 -1.200000 8.920000 3.635370 -15.818455 263.439423
2.840000 -1.200000 8.960000 9.167150 -7.770269 144.413742
2.840000 -1.200000 9.000000 10.705198 0.428998 114.785309
2.840000 -1.200000 9.040000 9.297119 7.531636 143.161972
2.840000 -1.200000 9.080000 5.780931 13.058364 203.940048
2.840000 -1.200000 9.120000 0.729204 16.570173 275.102386
2.840000 -1.200000 9.160000 -5.028633 17.570087 333.995117
2.840000 -1.200000 9.200000 -10.317804 16.007126 362.685181
2.840000 -1.160000 8.800000 -12.491203 -32.202385 1193.023804
2.840000 -1.160000 8.840000 1.010956 -25.240911 638.125671
2.840000 -1.160000 8.880000 7.355619 -13.141899 226.814651
2.840000 -1.160000 8.920000 5.120247 -1.534621 28.571991
2.840000 -1.160000 8.960000 -2.888309 4.202101 25.999977
2.840000 -1.160000 9.000000 -10.740336 2.169834 120.063011
2.840000 -1.160000 9.040000 -12.980171 -4.538855 189.086044
2.840000 -1.160000 9.080000 -8.401327 -9.821525 167.044647
2.840000 -1.160000 9.120000 -0.910131 -8.911248 80.238686
2.840000 -1.160000 9.160000 3.388416 -1.871344 14.983292
2.840000 -1.160000 9.200000 0.739526 6.522762 43.093327
2.840000 -1.120000 8.800000 13.393186 -30.943823 1136.897583
2.840000 -1.120000 8.840000 19.447506 -12.219962 527.532959
2.840000 -1.120000 8.880000 11.525476 5.598203 164.176453
2.840000 -1.120000 8.920000 -6.746696 12.436686 200.189056
2.840000 -1.120000 8.960000 -24.443926 3.184313 607.645325
2.840000 -1.120000 9.000000 -29.265240 -17.208530 1152.587769
2.840000 -1.120000 9.040000 -16.417246 -35.343704 1518.703369
2.840000 -1.120000 9.080000 6.748024 -38.212868 1505.759033
2.840000 -1.120000 9.120000 25.135612 -22.933969 1157.765991
2.840000 -1.120000 9.160000 26.730530 0.713449 715.030273
2.840000 -1.120000 9.200000 11.333898 17.454561 433.118958
2.840000 -1.080000 8.800000 31.082352 -11.307906 1093.981323
2.840000 -1.080000 8.840000 23.165955 12.050644 681.879456
2.840000 -1.080000 8.880000 -0.813680 24.009367 577.111755
2.840000 -1.080000 8.920000 -28.364603 13.962554 999.503662
2.840000 -1.080000 8.960000 -40.820709 -15.732162 1913.831299
2.840000 -1.080000 9.000000 -26.371616 -47.707985 2971.513916
2.840000 -1.080000 9.040000 9.066370 -59.955463 3676.856445
2.840000 -1.080000 9.080000 43.691837 -42.177261 3687.897949
2.840000 -1.080000 9.120000 54.909065 -4.758310 3037.646973
2.840000 -1.080000 9.160000 36.171917 28.165531 2101.704590
2.840000 -1.080000 9.200000 1.584942 36.528183 1336.820190
2.840000 -1.040000 8.800000 29.262753 14.663048 1071.313721
2.840000 -1.040000 8.840000 7.299742 32.373947 1101.358765
2.840000 -1.040000 8.880000 -24.813797 28.153088 1408.320801
2.840000 -1.040000 8.920000 -46.333450 -1.827700 2150.129150
2.840000 -1.040000 8.960000 -38.368202 -42.442841 3273.513672
2.840000 -1.040000 9.000000 -0.112797 -66.722336 4451.882812
2.840000 -1.040000 9.040000 46.596367 -55.167191 5214.640625
2.840000 -1.040000 9.080000 71.147766 -12.290256 5213.054688
2.840000 -1.040000 9.120000 56.984177 34.672520 4449.379883
2.840000 -1.040000 9.160000 14.621380 55.477013 3291.483643
2.840000 -1.040000 9.200000 -26.498667 39.282139 2245.265625
2.840000 -1.000000 8.800000 10.166265 30.349257 1024.430298
2.840000 -1.000000 8.840000 -18.653910 34.654163 1548.879395
2.840000 -1.000000 8.880000 -45.221954 13.000310 2214.033203
2.840000 -1.000000 8.920000 -47.727207 -26.491169 2979.668213
2.840000 -1.000000 8.960000 -17.354654 -58.956909 3777.101318
2.840000 -1.000000 9.000000 31.009506 -59.323990 4480.925293
2.840000 -1.000000 9.040000 66.274826 -22.713314 4908.247070
2.840000 -1.000000 9.080000 63.641464 28.887241 4884.708984
2.840000 -1.000000 9.120000 24.416634 61.409760 4367.330566
2.840000 -1.000000 9.160000 -24.067518 54.205208 3517.449951
2.840000 -1.000000 9.200000 -49.137840 15.325576 2649.400635
2.840000 -0.960000 8.800000 -12.104520 27.406521 897.636780
2.840000 -0.960000 8.840000 -37.309361 17.768784 1707.718018
2.840000 -0.960000 8.880000 -48.199150 -11.871161 2464.082520
2.840000 -0.960000 8.920000 -31.514757 -43.942520 2924.125000
2.840000 -0.960000 8.960000 7.096409 -54.720459 3044.687744
2.840000 -0.960000 9.000000 43.827168 -32.528763 2978.940918
2.840000 -0.960000 9.040000 52.914074 10.922623 2919.202881
2.840000 -0.960000 9.080000 26.762909 47.022850 2927.401855
2.840000 -0.960000 9.120000 -16.827129 51.177303 2902.268799
2.840000 -0.960000 9.160000 -47.333927 21.685234 2710.750000
2.840000 -0.960000 9.200000 -44.511108 -19.048632 2344.089111
2.840000 -0.920000 8.800000 -23.255085 11.696359 677.603760
2.840000 -0.920000 8.840000 -37.489609 -5.179355 1432.296509
2.840000 -0.920000 8.880000 -33.221897 -29.479567 1972.739258
2.840000 -0.920000 8.920000 -10.150742 -43.723064 2014.744019
2.840000 -0.920000 8.960000 17.676477 -35.878429 1599.719604
2.840000 -0.920000 9.000000 31.140730 -9.263496 1055.557373
2.840000 -0.920000 9.040000 20.265190 18.584816 756.073303
2.840000 -0.920000 9.080000 -7.526325 28.281612 856.495178
2.840000 -0.920000 9.120000 -32.166603 13.175223 1208.276855
2.840000 -0.920000 9.160000 -35.679577 -15.277695 1506.440186
2.840000 -0.920000 9.200000 -15.645928 -35.938644 1536.381226
2.840000 -0.880000 8.800000 -20.117699 -3.124228 414.482605
2.840000 -0.880000 8.840000 -23.164394 -18.254654 869.821533
2.840000 -0.880000 8.880000 -13.511438 -29.779654 1069.386719
2.840000 -0.880000 8.920000 0.896036 -29.807665 889.299744
2.840000 -0.880000 8.960000 9.595522 -19.650328 478.209412
2.840000 -0.880000 9.000000 7.467194 -7.816708 116.859894
2.840000 -0.880000 9.040000 -2.195923 -3.112543 14.510002
2.840000 -0.880000 9.080000 -10.849026 -8.386961 188.042480
2.840000 -0.880000 9.120000 -11.049253 -18.976143 482.179993
2.840000 -0.880000 9.160000 -1.562089 -26.238468 690.897339
2.840000 -0.880000 9.200000 11.786350 -23.501122 691.220764
2.840000 -0.840000 8.800000 -11.231984 -8.197319 193.353516
2.840000 -0.840000 8.840000 -8.627671 -16.308266 340.396240
2.840000 -0.840000 8.880000 -4.018782 -17.835899 334.269897
2.840000 -0.840000 8.920000 -3.644300 -16.611477 289.222076
2.840000 -0.840000 8.960000 -6.190327 -19.160629 405.449829
2.840000 -0.840000 9.000000 -5.035336 -26.480356 726.563904
2.840000 -0.840000 9.040000 3.717026 -32.492470 1069.576904
2.840000 -0.840000 9.080000 16.334824 -30.324474 1186.400146
2.840000 -0.840000 9.120000 24.663702 -19.389486 984.250366
2.840000 -0.840000 9.160000 23.557789 -5.979121 590.719299
2.840000 -0.840000 9.200000 14.795884 2.502000 225.178192
2.840000 -0.800000 8.800000 -6.850882 -6.197392 85.342247
2.840000 -0.800000 8.840000 -4.577520 -7.941543 84.021790
2.840000 -0.800000 8.880000 -8.198774 -7.966980 130.692673
2.840000 -0.800000 8.920000 -15.090098 -15.846806 478.832336
2.840000 -0.800000 8.960000 -13.626653 -32.843590 1264.387085
2.840000 -0.800000 9.000000 3.911964 -47.250511 2247.914307
2.840000 -0.800000 9.040000 30.540012 -44.323486 2897.263672
2.840000 -0.800000 9.080000 48.239426 -21.370821 2783.754150
2.840000 -0.800000 9.120000 43.537659 7.513725 1951.983765
2.840000 -0.800000 9.160000 19.993359 22.617207 911.272400
2.840000 -0.800000 9.200000 -4.639997 15.160915 251.382919
2.880000 -1.200000 8.800000 -25.280249 -34.637157 1838.823608
2.880000 -1.200000 8.840000 -7.793795 -30.785049 1008.462524
2.880000 -1.200000 8.880000 1.953872 -19.923868 400.778137
2.880000 -1.200000 8.920000 3.273838 -9.668251 104.193092
2.880000 -1.200000 8.960000 1.152309 -4.225623 19.183708
2.880000 -1.200000 9.000000 0.497412 -1.749184 3.307062
2.880000 -1.200000 9.040000 1.312383 1.967045 5.591614
2.880000 -1.200000 9.080000 -0.148067 7.835121 61.411045
2.880000 -1.200000 9.120000 -5.984966 12.242268 185.692947
2.880000 -1.200000 9.160000 -13.426226 11.413388 310.528961
2.880000 -1.200000 9.200000 -17.510033 6.069756 343.443176
2.880000 -1.160000 8.800000 7.253911 -41.905109 1808.657471
2.880000 -1.160000 8.840000 19.414036 -21.129015 823.340088
2.880000 -1.160000 8.880000 14.335249 0.841286 206.207123
2.880000 -1.160000 8.920000 -3.235632 10.923023 129.781754
2.880000 -1.160000 8.960000 -19.911926 4.435844 416.161530
2.880000 -1.160000 9.000000 -23.941605 -11.134951 697.187561
2.880000 -1.160000 9.040000 -14.203154 -22.539680 709.766785
2.880000 -1.160000 9.080000 0.052420 -21.594147 466.309906
2.880000 -1.160000 9.120000 7.885687 -10.657848 175.773788
2.880000 -1.160000 9.160000 5.264033 1.273937 29.332962
2.880000 -1.160000 9.200000 -3.728056 6.902058 61.536804
2.880000 -1.120000 8.800000 37.044426 -22.166260 1863.632568
2.880000 -1.120000 8.840000 32.234558 10.824722 1156.241333
2.880000 -1.120000 8.880000 3.454315 31.661547 1014.385864
2.880000 -1.120000 8.920000 -32.791729 24.004272 1651.502563
2.880000 -1.120000 8.960000 -51.316620 -9.287949 2719.661621
2.880000 -1.120000 9.000000 -37.967686 -45.582230 3519.284912
2.880000 -1.120000 9.040000 -1.940470 -59.267288 3516.376953
2.880000 -1.120000 9.080000 31.172714 -41.869019 2724.752930
2.880000 -1.120000 9.120000 39.786629 -7.815903 1644.064209
2.880000 -1.120000 9.160000 22.175293 18.672844 840.418701
2.880000 -1.120000 9.200000 -5.275177 22.890888 551.820251
2.880000 -1.080000 8.800000 43.102036 14.273248 2061.511230
2.880000 -1.080000 8.840000 14.506244 45.893600 2316.653809
2.880000 -1.080000 8.880000 -34.420956 46.848236 3379.559570
2.880000 -1.080000 8.920000 -71.905350 7.518364 5226.905273
2.880000 -1.080000 8.960000 -67.679314 -50.787601 7159.869629
2.880000 -1.080000 9.000000 -19.730087 -88.317436 8189.246094
2.880000 -1.080000 9.040000 40.644890 -77.947899 7727.881836
2.880000 -1.080000 9.080000 72.429581 -27.736252 6015.343750
2.880000 -1.080000 9.120000 57.201958 25.719006 3933.531250
2.880000 -1.080000 9.160000 11.827496 47.233009 2370.846924
2.880000 -1.080000 9.200000 -28.397127 29.402275 1670.890625
2.880000 -1.040000 8.800000 20.170954 43.262352 2278.498535
2.880000 -1.040000 8.840000 -27.079317 56.790432 3958.442383
2.880000 -1.040000 8.880000 -77.147804 26.189968 6637.698242
2.880000 -1.040000 8.920000 -90.257217 -39.514088 9707.728516
2.880000 -1.040000 8.960000 -47.321213 -98.860123 12012.621094
2.880000 -1.040000 9.000000 28.836817 -108.110947 12519.539062
2.880000 -1.040000 9.040000 87.416183 -58.070717 11013.797852
2.880000 -1.040000 9.080000 89.407967 16.218269 8256.817383
2.880000 -1.040000 9.120000 38.665901 63.155613 5483.683105
2.880000 -1.040000 9.160000 -23.250605 55.561745 3627.697998
2.880000 -1.040000 9.200000 -52.680367 9.020269 2856.586182
2.880000 -1.000000 8.800000 -15.618514 45.333736 2299.085693
2.880000 -1.000000 8.840000 -64.568802 31.921244 5188.096191
2.880000 -1.000000 8.880000 -92.345375 -23.124231 9062.398438
2.880000 -1.000000 8.920000 -67.627396 -89.836922 12644.136719
2.880000 -1.000000 8.960000 4.233465 -120.223419 14471.592773
2.880000 -1.000000 9.000000 78.735168 -87.249039 13811.621094
2.880000 -1.000000 9.040000 104.986534 -10.387335 11130.068359
2.880000 -1.000000 9.080000 66.980392 57.327866 7772.857422
2.880000 -1.000000 9.120000 -3.364663 71.340515 5100.790039
2.880000 -1.000000 9.160000 -53.230175 30.067579 3737.510742
2.880000 -1.000000 9.200000 -51.515465 -27.724770 3422.505859
2.880000 -0.960000 8.800000 -39.239117 21.381556 1996.879150
2.880000 -0.960000 8.840000 -71.073547 -12.447214 5206.382324
2.880000 -0.960000 8.880000 -66.258095 -68.666275 9105.192383
2.880000 -0.960000 8.920000 -15.289654 -108.924118 12098.237305
2.880000 -0.960000 8.960000 54.806675 -99.147385 12833.975586
2.880000 -0.960000 9.000000 97.493088 -39.759235 11085.699219
2.880000 -0.960000 9.040000 83.316017 30.769886 7888.344727
2.880000 -0.960000 9.080000 24.729420 64.915459 4825.560547
2.880000 -0.960000 9.120000 -33.516891 43.702896 3033.325195
2.880000 -0.960000 9.160000 -50.564804 -9.609207 2649.136230
2.880000 -0.960000 9.200000 -20.701555 -50.838936 3013.151855
2.880000 -0.920000 8.800000 -36.928818 -8.873413 1442.474976
2.880000 -0.920000 8.840000 -43.929195 -44.915703 3947.194580
2.880000 -0.920000 8.880000 -17.673405 -79.752747 6672.849609
2.880000 -0.920000 8.920000 31.217028 -85.676620 8314.986328
2.880000 -0.920000 8.960000 72.391983 -53.015823 8051.276367
2.880000 -0.920000 9.000000 78.010857 -0.292839 6085.779785
2.880000 -0.920000 9.040000 45.071358 38.316631 3499.591309
2.880000 -0.920000 9.080000 -1.419659 39.096600 1530.559448
2.880000 -0.920000 9.120000 -27.858307 7.023588 825.416077
2.880000 -0.920000 9.160000 -18.154581 -29.190056 1181.648193
2.880000 -0.920000 9.200000 15.181771 -40.672096 1884.705566
2.880000 -0.880000 8.800000 -15.998245 -24.251806 844.093933
2.880000 -0.880000 8.840000 -6.450058 -45.716805 2131.629395
2.880000 -0.880000 8.880000 18.063353 -54.139565 3257.377197
2.880000 -0.880000 8.920000 42.798248 -42.491341 3637.204102
2.880000 -0.880000 8.960000 53.036404 -17.242077 3110.149414
2.880000 -0.880000 9.000000 44.108089 6.660633 1989.887573
2.880000 -0.880000 9.040000 23.920662 16.340641 839.214600
2.880000 -0.880000 9.080000 6.775820 9.459543 135.394684
2.880000 -0.880000 9.120000 3.245756 -4.968994 35.225838
2.880000 -0.880000 9.160000 13.128590 -13.553180 356.048523
2.880000 -0.880000 9.200000 26.114845 -8.246883 749.996277
2.880000 -0.840000 8.800000 4.039605 -19.266510 387.516815
2.880000 -0.840000 8.840000 13.656441 -22.384054 687.544250
2.880000 -0.840000 8.880000 20.222874 -18.371910 746.491699
2.880000 -0.840000 8.920000 21.510807 -14.255756 665.941406
2.880000 -0.840000 8.960000 22.436607 -13.589565 688.077637
2.880000 -0.840000 9.000000 27.233139 -12.727991 903.645630
2.880000 -0.840000 9.040000 33.371231 -6.275307 1153.018555
2.880000 -0.840000 9.080000 34.182804 5.437378 1198.029175
2.880000 -0.840000 9.120000 26.648558 15.842983 961.145752
2.880000 -0.840000 9.160000 14.971691 18.931171 582.540771
2.880000 -0.840000 9.200000 5.996693 15.205473 267.166748
2.880000 -0.800000 8.800000 9.767101 -5.716356 128.072998
2.880000 -0.800000 8.840000 8.319063 0.139181 69.226181
2.880000 -0.800000 8.880000 -1.121331 -1.876678 4.779305
2.880000 -0.800000 8.920000 -4.572287 -16.928068 307.465271
2.880000 -0.800000 8.960000 10.201263 -32.933876 1188.705933
2.880000 -0.800000 9.000000 37.778622 -30.919107 2383.215332
2.880000 -0.800000 9.040000 56.883110 -5.060392 3261.295898
2.880000 -0.800000 9.080000 49.725746 28.811693 3302.763672
2.880000 -0.800000 9.120000 19.611761 46.131264 2512.714600
2.880000 -0.800000 9.160000 -11.322131 35.680141 1401.263184
2.880000 -0.800000 9.200000 -22.047924 8.870546 564.797546
2.920000 -1.200000 8.800000 -4.923846 -47.505577 2281.023926
2.920000 -1.200000 8.840000 8.816426 -31.703985 1082.872070
2.920000 -1.200000 8.880000 8.277691 -15.495475 308.629913
2.920000 -1.200000 8.920000 0.310368 -8.722608 76.180214
2.920000 -1.200000 8.960000 -4.233353 -10.786533 134.270584
2.920000 -1.200000 9.000000 -1.277944 -12.940613 169.092606
2.920000 -1.200000 9.040000 3.577757 -8.565901 86.175003
2.920000 -1.200000 9.080000 2.597931 -0.113482 6.762123
2.920000 -1.200000 9.120000 -4.929070 4.550663 45.004261
2.920000 -1.200000 9.160000 -12.188997 1.647966 151.287445
2.920000 -1.200000 9.200000 -13.044286 -4.267460 188.364609
2.920000 -1.160000 8.800000 31.725166 -35.183517 2244.366211
2.920000 -1.160000 8.840000 30.791691 -4.379396 967.307373
2.920000 -1.160000 8.880000 8.313217 15.215195 300.611725
2.920000 -1.160000 8.920000 -19.240604 10.708008 484.862305
2.920000 -1.160000 8.960000 -31.321566 -12.289604 1132.074829
2.920000 -1.160000 9.000000 -20.443356 -34.197098 1587.372314
2.920000 -1.160000 9.040000 2.405869 -38.325420 1474.626099
2.920000 -1.160000 9.080000 18.752306 -24.041950 929.664368
2.920000 -1.160000 9.120000 18.658573 -4.559917 368.935211
2.920000 -1.160000 9.160000 6.615214 6.626147 87.666885
2.920000 -1.160000 9.200000 -6.213945 6.380589 79.325027
2.920000 -1.120000 8.800000 49.102119 3.232756 2421.468750
2.920000 -1.120000 8.840000 22.124231 38.308155 1956.996338
2.920000 -1.120000 8.880000 -26.390175 42.334030 2488.611572
2.920000 -1.120000 8.920000 -63.588974 6.399578 4084.512207
2.920000 -1.120000 8.960000 -60.542927 -46.934559 5868.298828
2.920000 -1.120000 9.000000 -17.903271 -79.556892 6649.826172
2.920000 -1.120000 9.040000 33.333099 -68.943954 5864.364258
2.920000 -1.120000 9.080000 57.517406 -26.065416 3987.657959
2.920000 -1.120000 9.120000 42.822281 15.942950 2087.925293
2.920000 -1.120000 9.160000 7.113716 30.431480 976.679993
2.920000 -1.120000 9.200000 -21.415298 16.247101 722.583313
2.920000 -1.080000 8.800000 31.470350 43.823235 2910.858887
2.920000 -1.080000 8.840000 -22.814167 63.103638 4502.555176
2.920000 -1.080000 8.880000 -82.363663 31.013861 7745.632324
2.920000 -1.080000 8.920000 -100.361023 -42.420387 11871.824219
2.920000 -1.080000 8.960000 -55.058102 -109.300270 14977.943359
2.920000 -1.080000 9.000000 26.774134 -120.762314 15300.390625
2.920000 -1.080000 9.040000 88.675034 -68.587669 12567.530273
2.920000 -1.080000 9.080000 90.475006 7.397438 8240.448242
2.920000 -1.080000 9.120000 39.704121 53.376644 4425.483398
2.920000 -1.080000 9.160000 -19.163801 45.198311 2410.138672
2.920000 -1.080000 9.200000 -44.931126 2.504691 2025.079468
2.920000 -1.040000 8.800000 -11.279339 57.750256 3462.315430
2.920000 -1.040000 8.840000 -76.871758 43.329517 7786.713867
2.920000 -1.040000 8.880000 -117.057144 -27.588619 14463.506836
2.920000 -1.040000 8.920000 -88.413231 -116.286316 21339.406250
2.920000 -1.040000 8.960000 3.042692 -158.823761 25234.244141
2.920000 -1.040000 9.000000 98.918427 -119.552231 24077.591797
2.920000 -1.040000 9.040000 133.686859 -24.445837 18469.775391
2.920000 -1.040000 9.080000 88.771332 58.661091 11321.472656
2.920000 -1.040000 9.120000 6.039041 76.108170 5828.923828
2.920000 -1.040000 9.160000 -50.599358 29.699646 3442.363770
2.920000 -1.040000 9.200000 -48.347942 -32.302734 3380.990234
2.920000 -1.000000 8.800000 -49.340611 34.928616 3654.503906
2.920000 -1.000000 8.840000 -99.312225 -13.854486 10054.864258
2.920000 -1.000000 8.880000 -95.629929 -99.834305 19111.972656
2.920000 -1.000000 8.920000 -20.125496 -164.383636 27427.015625
2.920000 -1.000000 8.960000 87.130646 -153.045654 31014.722656
2.920000 -1.000000 9.000000 154.147690 -65.132751 28003.785156
2.920000 -1.000000 9.040000 135.626389 40.574650 20040.820312
2.920000 -1.000000 9.080000 51.222580 92.588554 11196.393555
2.920000 -1.000000 9.120000 -32.096268 64.697571 5215.946289
2.920000 -1.000000 9.160000 -56.990517 -6.851672 3294.864258
2.920000 -1.000000 9.200000 -19.710138 -59.837353 3968.998291
2.920000 -0.960000 8.800000 -56.538891 -7.039207 3246.196777
2.920000 -0.960000 8.840000 -71.250328 -69.446449 9899.417969
2.920000 -0.960000 8.880000 -26.147442 -134.585907 18797.056641
2.920000 -0.960000 8.920000 64.256500 -148.718643 26246.132812
2.920000 -0.960000 8.960000 143.419647 -89.239471 28532.878906
2.920000 -0.960000 9.000000 156.000519 10.702003 24450.695312
2.920000 -0.960000 9.040000 94.512024 85.285568 16206.150391
2.920000 -0.960000 9.080000 6.621010 88.832298 7935.015137
2.920000 -0.960000 9.120000 -44.528610 31.636387 2983.658203
2.920000 -0.960000 9.160000 -31.295607 -32.570339 2040.241943
2.920000 -0.960000 9.200000 21.069410 -54.055908 3365.961426
2.920000 -0.920000 8.800000 -31.219448 -37.492760 2380.360840
2.920000 -0.920000 8.840000 -13.491561 -84.860855 7383.386719
2.920000 -0.920000 8.880000 43.753384 -108.279190 13638.741211
2.920000 -0.920000 8.920000 108.852814 -80.635277 18350.982422
2.920000 -0.920000 8.960000 137.837784 -10.803928 19115.978516
2.920000 -0.920000 9.000000 109.502014 59.394707 15518.422852
2.920000 -0.920000 9.040000 43.833473 86.708961 9439.817383
2.920000 -0.920000 9.080000 -13.342670 60.338745 3818.791016
2.920000 -0.920000 9.120000 -26.827421 8.885666 798.665588
2.920000 -0.920000 9.160000 1.839127 -24.936628 625.217834
2.920000 -0.920000 9.200000 39.982101 -18.843960 1953.663330
2.920000 -0.880000 8.800000 4.235557 -37.914627 1455.458862
2.920000 -0.880000 8.840000 31.464098 -54.735828 3986.000488
2.920000 -0.880000 8.880000 67.973526 -45.987602 6735.259766
2.920000 -0.880000 8.920000 91.207413 -11.772827 8457.391602
2.920000 -0.880000 8.960000 86.194138 30.556335 8363.119141
2.920000 -0.880000 9.000000 56.032616 58.391285 6549.196289
2.920000 -0.880000 9.040000 19.243500 59.399757 3898.643555
2.920000 -0.880000 9.080000 -3.634516 39.139751 1545.129883
2.920000 -0.880000 9.120000 -4.011843 15.707193 262.810822
2.920000 -0.880000 9.160000 10.243736 5.996740 140.895035
2.920000 -0.880000 9.200000 22.305017 14.101990 696.379883
2.920000 -0.840000 8.800000 23.976570 -15.057693 801.609985
2.920000 -0.840000 8.840000 36.454170 -9.085302 1411.449219
2.920000 -0.840000 8.880000 41.284698 2.641205 1711.402222
2.920000 -0.840000 8.920000 39.793507 12.667068 1743.977783
2.920000 -0.840000 8.960000 37.126640 20.028355 1779.522461
2.920000 -0.840000 9.000000 34.110550 28.378674 1968.878784
2.920000 -0.840000 9.040000 26.469090 38.258434 2164.320312
2.920000 -0.840000 9.080000 11.922201 44.034492 2081.175293
2.920000 -0.840000 9.120000 -4.382343 39.853645 1607.517944
2.920000 -0.840000 9.160000 -13.645742 27.423159 938.235901
2.920000 -0.840000 9.200000 -12.662830 15.637749 404.886475
2.920000 -0.800000 8.800000 19.805855 8.647668 467.054047
2.920000 -0.800000 8.840000 10.364965 16.120903 367.316040
2.920000 -0.800000 8.880000 -0.944878 8.406792 71.566940
2.920000 -0.800000 8.920000 3.477520 -8.089500 77.533165
2.920000 -0.800000 8.960000 25.644836 -12.385403 811.055847
2.920000 -0.800000 9.000000 45.805302 8.585915 2171.843750
2.920000 -0.800000 9.040000 40.538834 43.181751 3508.060547
2.920000 -0.800000 9.080000 7.306736 63.386997 4071.299805
2.920000 -0.800000 9.120000 -30.716385 51.245285 3569.575684
2.920000 -0.800000 9.160000 -45.627411 16.476051 2353.320801
2.920000 -0.800000 9.200000 -30.592560 -12.994193 1104.753784
2.960000 -1.200000 8.800000 21.721067 -42.863525 2309.086670
2.960000 -1.200000 8.840000 23.547359 -21.013906 996.062378
2.960000 -1.200000 8.880000 11.838072 -8.863777 218.706482
2.960000 -1.200000 8.920000 0.709602 -11.288818 127.940956
2.960000 -1.200000 8.960000 0.754367 -19.272762 372.008423
2.960000 -1.200000 9.000000 9.324335 -20.324722 500.037537
2.960000 -1.200000 9.040000 15.072151 -11.492867 359.255737
2.960000 -1.200000 9.080000 11.033325 -1.095579 122.934563
2.960000 -1.200000 9.120000 1.520655 1.752653 5.384184
2.960000 -1.200000 9.160000 -4.113945 -2.691608 24.169296
2.960000 -1.200000 9.200000 -2.836788 -6.330331 48.120461
2.960000 -1.160000 8.800000 45.971413 -12.039425 2258.318604
2.960000 -1.160000 8.840000 27.088335 15.914139 987.037720
2.960000 -1.160000 8.880000 -6.165073 19.790024 429.653168
2.960000 -1.160000 8.920000 -28.947332 -3.094383 847.523254
2.960000 -1.160000 8.960000 -24.364931 -33.718678 1730.599121
2.960000 -1.160000 9.000000 1.931915 -47.683441 2277.442627
2.960000 -1.160000 9.040000 27.831650 -36.008224 2071.192871
2.960000 -1.160000 9.080000 34.862717 -10.634912 1328.510376
2.960000 -1.160000 9.120000 22.390163 8.894640 580.434021
2.960000 -1.160000 9.160000 3.804561 12.789948 178.057465
2.960000 -1.160000 9.200000 -8.478386 5.653632 103.846581
2.960000 -1.120000 8.800000 38.867691 30.825169 2460.888428
2.960000 -1.120000 8.840000 -7.004433 49.228138 2472.471680
2.960000 -1.120000 8.880000 -56.563751 24.100552 3780.294678
2.960000 -1.120000 8.920000 -70.999886 -33.949890 6193.579102
2.960000 -1.120000 8.960000 -35.134525 -84.592331 8390.296875
2.960000 -1.120000 9.000000 26.700802 -90.541283 8910.656250
2.960000 -1.120000 9.040000 70.115929 -49.252251 7342.027832
2.960000 -1.120000 9.080000 67.679512 6.203991 4619.005859
2.960000 -1.120000 9.120000 29.171110 36.888588 2211.721680
2.960000 -1.120000 9.160000 -11.798756 29.353710 1000.850952
2.960000 -1.120000 9.200000 -28.846779 0.608006 832.506348
2.960000 -1.080000 8.800000 -0.174245 55.570930 3088.158691
2.960000 -1.080000 8.840000 -64.257721 43.562782 6026.770508
2.960000 -1.080000 8.880000 -104.216110 -23.261875 11402.113281
2.960000 -1.080000 8.920000 -78.341553 -106.975845 17581.230469
2.960000 -1.080000 8.960000 6.374454 -146.485077 21498.509766
2.960000 -1.080000 9.000000 93.764099 -109.689415 20823.472656
2.960000 -1.080000 9.040000 123.647888 -23.078384 15821.412109
2.960000 -1.080000 9.080000 81.800079 50.295586 9220.898438
2.960000 -1.080000 9.120000 8.598587 64.047005 4175.954590
2.960000 -1.080000 9.160000 -39.552094 23.350071 2109.593750
2.960000 -1.080000 9.200000 -37.491009 -28.042444 2191.954346
2.960000 -1.040000 8.800000 -45.779289 42.105034 3868.577148
2.960000 -1.040000 8.840000 -102.155693 -10.044306 10536.672852
2.960000 -1.040000 8.880000 -100.193863 -104.512817 20961.738281
2.960000 -1.040000 8.920000 -18.784195 -176.241180 31413.798828
2.960000 -1.040000 8.960000 97.690292 -164.750214 36686.027344
2.960000 -1.040000 9.000000 169.840134 -69.984985 33743.570312
2.960000 -1.040000 9.040000 149.295593 42.872070 24127.187500
2.960000 -1.040000 9.080000 59.435204 97.025513 12946.494141
2.960000 -1.040000 9.120000 -27.163832 67.101456 5240.479492
2.960000 -1.040000 9.160000 -52.055290 -5.893989 2744.492188
2.960000 -1.040000 9.200000 -15.369434 -57.609097 3555.027588
2.960000 -1.000000 8.800000 -65.310707 -1.250816 4267.052734
2.960000 -1.000000 8.840000 -85.929123 -79.136887 13646.460938
2.960000 -1.000000 8.880000 -30.536064 -163.031647 27511.769531
2.960000 -1.000000 8.920000 84.266266 -182.638245 40457.531250
2.960000 -1.000000 8.960000 185.423218 -107.418228 45920.445312
2.960000 -1.000000 9.000000 200.949524 19.697102 40768.687500
2.960000 -1.000000 9.040000 122.029709 113.424789 27756.433594
2.960000 -1.000000 9.080000 11.202862 116.411072 13677.041992
2.960000 -1.000000 9.120000 -51.682495 44.463875 4648.116211
2.960000 -1.000000 9.160000 -35.220383 -33.432072 2358.178711
2.960000 -1.000000 9.200000 25.603363 -58.198719 4042.623047
2.960000 -0.960000 8.800000 -45.487881 -43.144711 3930.613281
2.960000 -0.960000 8.840000 -22.097427 -113.980759 13479.909180
2.960000 -0.960000 8.880000 63.384411 -151.821320 27067.296875
2.960000 -0.960000 8.920000 163.812164 -110.742249 39098.273438
2.960000 -0.960000 8.960000 208.323502 -2.272684 43403.843750
2.960000 -0.960000 9.000000 161.684341 106.593048 37503.906250
2.960000 -0.960000 9.040000 56.663090 145.989120 24523.529297
2.960000 -0.960000 9.080000 -32.209427 100.272514 11092.024414
2.960000 -0.960000 9.120000 -50.430664 17.810318 2860.459473
2.960000 -0.960000 9.160000 -4.715498 -33.955364 1175.202759
2.960000 -0.960000 9.200000 51.372147 -24.901852 3259.199707
2.960000 -0.920000 8.800000 -3.008593 -54.576397 2987.634521
2.960000 -0.920000 8.840000 44.407516 -90.389328 10142.257812
2.960000 -0.920000 8.880000 117.440659 -77.797646 19844.781250
2.960000 -0.920000 8.920000 167.064514 -8.075287 27975.763672
2.960000 -0.920000 8.960000 153.534576 82.706276 30413.193359
2.960000 -0.920000 9.000000 80.924911 138.688034 25783.212891
2.960000 -0.920000 9.040000 -3.844673 128.295807 16474.595703
2.960000 -0.920000 9.080000 -48.223164 68.773163 7055.221680
2.960000 -0.920000 9.120000 -34.932930 9.691374 1314.232300
2.960000 -0.920000 9.160000 8.796997 -8.825723 155.280548
2.960000 -0.920000 9.200000 39.189545 14.382498 1742.676636
2.960000 -0.880000 8.800000 30.387465 -31.721746 1929.667236
2.960000 -0.880000 8.840000 68.572662 -30.371330 5624.627930
2.960000 -0.880000 8.880000 100.666992 3.239986 10144.340820
2.960000 -0.880000 8.920000 102.583054 55.676170 13623.119141
2.960000 -0.880000 8.960000 68.558197 98.987419 14498.735352
2.960000 -0.880000 9.000000 15.929817 110.264595 12412.040039
2.960000 -0.880000 9.040000 -27.267067 87.416954 8385.216797
2.960000 -0.880000 9.080000 -41.969971 49.191406 4181.272949
2.960000 -0.880000 9.120000 -29.827770 20.300385 1301.801514
2.960000 -0.880000 9.160000 -8.988174 13.945078 275.252472
2.960000 -0.880000 9.200000 1.225451 24.876684 620.351135
2.960000 -0.840000 8.800000 34.369308 3.829906 1195.917603
2.960000 -0.840000 8.840000 42.814857 19.203222 2201.875732
2.960000 -0.840000 8.880000 39.906845 36.843269 2949.982910
2.960000 -0.840000 8.920000 29.435604 49.877609 3354.230713
2.960000 -0.840000 8.960000 16.111626 57.969990 3620.104248
2.960000 -0.840000 9.000000 0.290497 62.479897 3903.822021
2.960000 -0.840000 9.040000 -18.891190 60.896336 4065.240723
2.960000 -0.840000 9.080000 -37.303234 48.882980 3781.076904
2.960000 -0.840000 9.120000 -46.195492 27.797434 2906.720703
2.960000 -0.840000 9.160000 -40.617859 7.448172 1705.285645
2.960000 -0.840000 9.200000 -26.437489 -1.370033 700.817810
2.960000 -0.800000 8.800000 13.997480 25.867348 865.049133
2.960000 -0.800000 8.840000 -1.442423 28.322674 804.254395
2.960000 -0.800000 8.880000 -9.730301 15.671513 340.275085
2.960000 -0.800000 8.920000 0.470558 4.182759 17.716900
2.960000 -0.800000 8.960000 18.018784 12.770664 487.766418
2.960000 -0.800000 9.000000 18.448946 39.790478 1923.645752
2.960000 -0.800000 9.040000 -9.645054 60.527481 3756.603027
2.960000 -0.800000 9.080000 -49.302895 50.660446 4997.255859
2.960000 -0.800000 9.120000 -69.136658 12.056410 4925.234375
2.960000 -0.800000 9.160000 -53.622746 -26.944889 3601.426025
2.960000 -0.800000 9.200000 -18.437922 -38.258057 1803.635864
3.000000 -1.200000 8.800000 38.495300 -20.252743 1892.061768
3.000000 -1.200000 8.840000 27.612505 -2.764514 770.092957
3.000000 -1.200000 8.880000 11.528431 -1.294897 134.581482
3.000000 -1.200000 8.920000 5.246650 -11.378334 156.993820
3.000000 -1.200000 8.960000 12.148317 -18.689690 496.886108
3.000000 -1.200000 9.000000 22.065594 -14.165398 687.548889
3.000000 -1.200000 9.040000 23.358261 -2.306463 550.928101
3.000000 -1.200000 9.080000 15.037416 5.594116 257.418030
3.000000 -1.200000 9.120000 5.940759 4.475227 55.320274
3.000000 -1.200000 9.160000 3.212051 -0.152882 10.340644
3.000000 -1.200000 9.200000 4.285933 -0.649992 18.791718
3.000000 -1.160000 8.800000 39.845951 14.580008 1800.276489
3.000000 -1.160000 8.840000 10.457525 27.155031 846.755493
3.000000 -1.160000 8.880000 -18.382336 12.285412 488.841614
3.000000 -1.160000 8.920000 -24.235567 -19.143639 953.841675
3.000000 -1.160000 8.960000 -3.198471 -42.102333 1782.836670
3.000000 -1.160000 9.000000 26.798382 -39.361362 2267.470215
3.000000 -1.160000 9.040000 42.592140 -15.460894 2053.129639
3.000000 -1.160000 9.080000 35.392712 9.851124 1349.688721
3.000000 -1.160000 9.120000 14.990541 20.290554 636.422852
3.000000 -1.160000 9.160000 -2.796137 14.838634 228.003448
3.000000 -1.160000 9.200000 -10.428018 3.252557 119.322678
3.000000 -1.120000 8.800000 11.870112 41.859943 1893.154419
3.000000 -1.120000 8.840000 -34.667557 34.058773 2361.839355
3.000000 -1.120000 8.880000 -62.745869 -12.296459 4088.246826
3.000000 -1.120000 8.920000 -44.533985 -68.511818 6677.145020
3.000000 -1.120000 8.960000 12.157860 -92.601555 8722.861328
3.000000 -1.120000 9.000000 67.543930 -65.723572 8881.770508
3.000000 -1.120000 9.040000 83.080200 -8.798874 6979.740234
3.000000 -1.120000 9.080000 53.081802 36.331280 4137.639648
3.000000 -1.120000 9.120000 5.885842 42.472099 1838.522461
3.000000 -1.120000 9.160000 -23.872734 15.991682 825.641296
3.000000 -1.120000 9.200000 -23.511177 -15.546283 794.462341
3.000000 -1.080000 8.800000 -29.971495 38.760143 2400.639160
3.000000 -1.080000 8.840000 -76.840118 -3.056004 5913.743164
3.000000 -1.080000 8.880000 -76.077576 -79.540054 12114.417969
3.000000 -1.080000 8.920000 -10.914028 -137.109314 18918.080078
3.000000 -1.080000 8.960000 81.564995 -127.160950 22822.755859
3.000000 -1.080000 9.000000 137.180481 -51.290676 21449.218750
3.000000 -1.080000 9.040000 118.780388 37.041683 15480.866211
3.000000 -1.080000 9.080000 47.118584 77.521362 8229.722656
3.000000 -1.080000 9.120000 -20.004463 52.498169 3156.236328
3.000000 -1.080000 9.160000 -38.688202 -4.246969 1514.813721
3.000000 -1.080000 9.200000 -11.457127 -43.682419 2039.419434
3.000000 -1.040000 8.800000 -55.965103 3.827347 3146.741455
3.000000 -1.040000 8.840000 -76.385269 -68.003983 10459.250977
3.000000 -1.040000 8.880000 -25.819166 -146.725601 22195.031250
3.000000 -1.040000 8.920000 80.938171 -165.566437 33963.230469
3.000000 -1.040000 8.960000 174.833221 -95.432022 39673.925781
3.000000 -1.040000 9.000000 188.097351 22.722088 35896.906250
3.000000 -1.040000 9.040000 113.511292 108.454086 24647.101562
3.000000 -1.040000 9.080000 10.811045 109.174133 12035.870117
3.000000 -1.040000 9.120000 -46.008289 41.633568 3850.116699
3.000000 -1.040000 9.160000 -30.134165 -29.455481 1775.693237
3.000000 -1.040000 9.200000 24.102850 -51.571838 3240.602051
3.000000 -1.000000 8.800000 -46.138470 -39.029934 3652.093994
3.000000 -1.000000 8.840000 -23.038813 -114.702751 13687.507812
3.000000 -1.000000 8.880000 68.200043 -156.756271 29223.775391
3.000000 -1.000000 8.920000 177.136719 -112.958015 44136.929688
3.000000 -1.000000 8.960000 225.021545 5.100801 50660.714844
3.000000 -1.000000 9.000000 172.495499 123.029373 44890.921875
3.000000 -1.000000 9.040000 56.706928 163.389374 29911.763672
3.000000 -1.000000 9.080000 -39.168518 110.382881 13718.553711
3.000000 -1.000000 9.120000 -56.340111 19.356691 3548.889404
3.000000 -1.000000 9.160000 -5.227819 -35.779617 1307.511108
3.000000 -1.000000 9.200000 54.010834 -25.410624 3562.869873
3.000000 -0.960000 8.800000 -7.601814 -58.946484 3532.475586
3.000000 -0.960000 8.840000 49.664864 -105.959045 13693.917969
3.000000 -0.960000 8.880000 143.203003 -92.245407 29016.314453
3.000000 -0.960000 8.920000 208.074249 -2.443478 43300.863281
3.000000 -0.960000 8.960000 188.817291 116.151749 49143.195312
3.000000 -0.960000 9.000000 90.363960 186.891388 43094.035156
3.000000 -0.960000 9.040000 -21.990990 166.906265 28341.304688
3.000000 -0.960000 9.080000 -76.119080 82.336349 12573.388672
3.000000 -0.960000 9.120000 -51.463230 3.094790 2658.041748
3.000000 -0.960000 9.160000 10.548813 -18.003782 435.413635
3.000000 -0.960000 9.200000 49.903046 15.157663 2720.068848
3.000000 -0.920000 8.800000 31.092365 -43.112473 2825.420410
3.000000 -0.920000 8.840000 90.873466 -47.395134 10504.286133
3.000000 -0.920000 8.880000 147.166000 4.128830 21674.878906
3.000000 -0.920000 8.920000 152.078598 93.186707 31811.664062
3.000000 -0.920000 8.960000 89.799965 166.622894 35827.222656
3.000000 -0.920000 9.000000 -6.006447 177.311005 31475.269531
3.000000 -0.920000 9.040000 -77.037193 122.726822 20996.601562
3.000000 -0.920000 9.080000 -86.598953 46.160538 9630.173828
3.000000 -0.920000 9.120000 -46.204231 -0.293190 2134.916992
3.000000 -0.920000 9.160000 -0.290657 3.056225 9.424992
3.000000 -0.920000 9.200000 14.187639 34.067287 1361.869141
3.000000 -0.880000 8.800000 43.642635 -5.983945 1940.487183
3.000000 -0.880000 8.840000 75.828979 17.118822 6043.088379
3.000000 -0.880000 8.880000 84.901062 65.870316 11547.088867
3.000000 -0.880000 8.920000 55.848228 115.027664 16350.387695
3.000000 -0.880000 8.960000 -1.460182 135.456558 18350.611328
3.000000 -0.880000 9.000000 -58.159950 115.272469 16670.322266
3.000000 -0.880000 9.040000 -86.797775 68.044617 12163.923828
3.000000 -0.880000 9.080000 -79.875458 21.804447 6855.522949
3.000000 -0.880000 9.120000 -52.318157 -1.432877 2739.242676
3.000000 -0.880000 9.160000 -27.613434 0.824146 763.180908
3.000000 -0.880000 9.200000 -20.268185 14.153030 611.107605
3.000000 -0.840000 8.800000 26.127693 24.821285 1298.752563
3.000000 -0.840000 8.840000 24.797182 44.312828 2578.526855
3.000000 -0.840000 8.880000 10.929482 60.561127 3787.103760
3.000000 -0.840000 8.920000 -9.541748 67.905029 4702.137695
3.000000 -0.840000 8.960000 -31.333694 66.285622 5375.583984
3.000000 -0.840000 9.000000 -52.074989 56.315121 5883.197266
3.000000 -0.840000 9.040000 -68.542030 37.068970 6072.118164
3.000000 -0.840000 9.080000 -74.256485 10.174572 5617.547363
3.000000 -0.840000 9.120000 -64.150475 -15.907715 4368.338379
3.000000 -0.840000 9.160000 -42.117905 -29.413363 2639.063721
3.000000 -0.840000 9.200000 -21.405455 -25.514183 1109.166992
3.000000 -0.800000 8.800000 -3.617975 31.697981 1017.851685
3.000000 -0.800000 8.840000 -19.227066 26.800072 1087.923828
3.000000 -0.800000 8.880000 -22.319290 12.909776 664.813049
3.000000 -0.800000 8.920000 -12.134575 8.105534 212.947586
3.000000 -0.800000 8.960000 -6.586834 20.854256 478.286377
3.000000 -0.800000 9.000000 -22.696064 36.822823 1871.031616
3.000000 -0.800000 9.040000 -54.749092 31.508711 3990.261963
3.000000 -0.800000 9.080000 -75.729919 -2.847546 5743.128906
3.000000 -0.800000 9.120000 -63.321129 -45.305031 6062.111328
3.000000 -0.800000 9.160000 -23.955914 -64.217842 4697.816895
3.000000 -0.800000 9.200000 11.457501 -48.110535 2445.897949
3.040000 -1.200000 8.800000 34.370914 6.981269 1230.097900
3.040000 -1.200000 8.840000 18.209915 12.859117 496.957886
3.040000 -1.200000 8.880000 6.793133 4.874878 69.911087
3.040000 -1.200000 8.920000 8.394583 -5.878944 105.031006
3.040000 -1.200000 8.960000 17.691368 -7.595057 370.669373
3.040000 -1.200000 9.000000 22.860886 0.451628 522.824097
3.040000 -1.200000 9.040000 18.577248 9.045086 426.927704
3.040000 -1.200000 9.080000 10.271741 10.483706 215.416748
3.040000 -1.200000 9.120000 5.941814 6.584139 78.656044
3.040000 -1.200000 9.160000 6.320657 4.467272 59.907219
3.040000 -1.200000 9.200000 5.211921 6.386395 67.950157
3.040000 -1.160000 8.800000 17.440489 27.843178 1079.413208
3.040000 -1.160000 8.840000 -7.853436 23.107082 595.613708
3.040000 -1.160000 8.880000 -20.785763 -0.335445 432.160461
3.040000 -1.160000 8.920000 -10.513897 -25.050852 738.087219
3.040000 -1.160000 8.960000 14.643272 -32.058727 1242.187378
3.040000 -1.160000 9.000000 34.890224 -17.395374 1519.926758
3.040000 -1.160000 9.040000 36.446701 5.930420 1363.531982
3.040000 -1.160000 9.080000 21.615036 20.988808 907.739868
3.040000 -1.160000 9.120000 3.370376 20.855099 446.294586
3.040000 -1.160000 9.160000 -7.567686 10.737776 172.569702
3.040000 -1.160000 9.200000 -9.632632 -0.631084 93.185875
3.040000 -1.120000 8.800000 -12.709311 29.260035 1017.676208
3.040000 -1.120000 8.840000 -40.850670 4.229942 1686.669678
3.040000 -1.120000 8.880000 -40.172256 -40.325840 3239.983398
3.040000 -1.120000 8.920000 -2.604156 -72.398964 5248.391602
3.040000 -1.120000 8.960000 48.733051 -65.300163 6639.021484
3.040000 -1.120000 9.000000 77.536041 -22.301689 6509.203125
3.040000 -1.120000 9.040000 65.082283 25.458420 4883.834961
3.040000 -1.120000 9.080000 24.837889 45.699455 2705.360840
3.040000 -1.120000 9.120000 -11.608229 30.764029 1081.176514
3.040000 -1.120000 9.160000 -22.076906 -0.462267 487.603485
3.040000 -1.120000 9.200000 -8.774197 -23.011171 606.500488
3.040000 -1.080000 8.800000 -35.144062 5.772854 1268.430908
3.040000 -1.080000 8.840000 -49.385441 -42.496632 4244.885742
3.040000 -1.080000 8.880000 -15.510162 -95.931244 9443.369141
3.040000 -1.080000 8.920000 56.580338 -108.701958 15017.449219
3.040000 -1.080000 8.960000 119.584396 -61.084686 18031.765625
3.040000 -1.080000 9.000000 127.549973 18.532158 16612.435547
3.040000 -1.080000 9.040000 76.311630 75.389717 11507.074219
3.040000 -1.080000 9.080000 6.887135 74.503464 5598.198730
3.040000 -1.080000 9.120000 -31.038195 27.987703 1746.681030
3.040000 -1.080000 9.160000 -20.224960 -20.553026 831.475891
3.040000 -1.080000 9.200000 16.031902 -36.661331 1601.075073
3.040000 -1.040000 8.800000 -31.606915 -27.898643 1777.331299
3.040000 -1.040000 8.840000 -14.779762 -85.870758 7592.228516
3.040000 -1.040000 8.880000 55.829735 -119.202682 17326.238281
3.040000 -1.040000 8.920000 141.452057 -85.216454 27270.527344
3.040000 -1.040000 8.960000 179.120270 7.976479 32147.695312
3.040000 -1.040000 9.000000 136.805771 101.094063 28935.828125
3.040000 -1.040000 9.040000 44.230148 131.940048 19364.482422
3.040000 -1.040000 9.080000 -31.687130 88.103088 8766.228516
3.040000 -1.040000 9.120000 -44.115181 14.520685 2156.999512
3.040000 -1.040000 9.160000 -2.266371 -29.617933 882.358398
3.040000 -1.040000 9.200000 45.293324 -21.622074 2518.999268
3.040000 -1.000000 8.800000 -3.001017 -47.135876 2230.796875
3.040000 -1.000000 8.840000 46.172333 -89.173233 10083.750000
3.040000 -1.000000 8.880000 130.185272 -77.885330 23014.330078
3.040000 -1.000000 8.920000 189.601379 3.657437 35962.058594
3.040000 -1.000000 8.960000 171.351685 112.719971 42067.191406
3.040000 -1.000000 9.000000 79.026962 177.010910 37578.121094
3.040000 -1.000000 9.040000 -25.570347 155.689896 24893.185547
3.040000 -1.000000 9.080000 -73.890923 74.154984 10958.830078
3.040000 -1.000000 9.120000 -47.393257 -0.429966 2246.305664
3.040000 -1.000000 9.160000 12.921832 -18.575006 512.004578
3.040000 -1.000000 9.200000 49.834541 13.809319 2674.178711
3.040000 -0.960000 8.800000 30.067242 -37.607254 2318.344482
3.040000 -0.960000 8.840000 91.168068 -44.405598 10283.473633
3.040000 -0.960000 8.880000 152.063766 8.867657 23202.023438
3.040000 -0.960000 8.920000 157.850677 105.298080 36004.523438
3.040000 -0.960000 8.960000 88.160576 185.088928 42030.195312
3.040000 -0.960000 9.000000 -19.016005 193.178070 37679.375000
3.040000 -0.960000 9.040000 -95.528534 126.914398 25232.964844
3.040000 -0.960000 9.080000 -99.288521 38.437325 11335.637695
3.040000 -0.960000 9.120000 -46.677132 -10.896927 2297.497559
3.040000 -0.960000 9.160000 7.717418 -0.910145 60.386902
3.040000 -0.960000 9.200000 21.905325 38.117687 1932.801392
3.040000 -0.920000 8.800000 44.046638 -7.026218 1989.474121
3.040000 -0.920000 8.840000 88.238754 17.997442 8109.985352
3.040000 -0.920000 8.880000 104.638779 82.647652 17779.908203
3.040000 -0.920000 8.920000 65.312065 151.762054 27297.386719
3.040000 -0.920000 8.960000 -17.651978 177.879547 31952.724609
3.040000 -0.920000 9.000000 -97.099350 140.494583 29167.011719
3.040000 -0.920000 9.040000 -127.390480 64.371750 20372.056641
3.040000 -0.920000 9.080000 -100.336304 -0.683306 10067.840820
3.040000 -0.920000 9.120000 -48.396534 -20.373421 2757.300781
3.040000 -0.920000 9.160000 -13.875956 0.010487 192.542252
3.040000 -0.920000 9.200000 -14.120138 27.480947 954.580750
3.040000 -0.880000 8.800000 31.248215 22.213753 1469.901733
3.040000 -0.880000 8.840000 43.285564 54.925362 4890.435547
3.040000 -0.880000 8.880000 25.599127 96.364365 9941.406250
3.040000 -0.880000 8.920000 -22.001446 119.892967 14858.386719
3.040000 -0.880000 8.960000 -78.162415 107.001846 17558.757812
3.040000 -0.880000 9.000000 -114.225647 61.697563 16854.087891
3.040000 -0.880000 9.040000 -114.424240 7.758247 13153.096680
3.040000 -0.880000 9.080000 -85.699249 -28.652126 8165.305664
3.040000 -0.880000 9.120000 -50.165897 -36.513023 3849.818115
3.040000 -0.880000 9.160000 -27.854240 -24.185133 1360.779297
3.040000 -0.880000 9.200000 -24.240725 -9.270035 673.546265
3.040000 -0.840000 8.800000 3.844580 32.042843 1041.524536
3.040000 -0.840000 8.840000 -7.235523 47.161018 2276.514404
3.040000 -0.840000 8.880000 -27.785801 53.747749 3660.871338
3.040000 -0.840000 8.920000 -50.459324 48.744881 4922.207031
3.040000 -0.840000 8.960000 -69.613037 33.557076 5972.052246
3.040000 -0.840000 9.000000 -81.605835 10.320412 6766.022949
3.040000 -0.840000 9.040000 -82.341286 -18.073202 7106.728027
3.040000 -0.840000 9.080000 -68.236320 -44.860992 6668.704102
3.040000 -0.840000 9.120000 -41.588238 -59.747017 5299.287598
3.040000 -0.840000 9.160000 -13.531328 -55.972565 3316.024902
3.040000 -0.840000 9.200000 1.877769 -38.154236 1459.271729
3.040000 -0.800000 8.800000 -18.998512 21.466240 821.742920
3.040000 -0.800000 8.840000 -30.034157 11.793208 1041.130371
3.040000 -0.800000 8.880000 -29.000458 -0.088022 841.034302
3.040000 -0.800000 8.920000 -22.623693 -1.476673 514.012085
3.040000 -0.800000 8.960000 -26.298183 5.452965 721.329285
3.040000 -0.800000 9.000000 -44.210026 3.427311 1966.272827
3.040000 -0.800000 9.040000 -60.079903 -20.543119 4031.614502
3.040000 -0.800000 9.080000 -51.697388 -56.919739 5912.476562
3.040000 -0.800000 9.120000 -15.649624 -78.670013 6433.881836
3.040000 -0.800000 9.160000 25.003536 -67.217453 5143.362793
3.040000 -0.800000 9.200000 40.951668 -32.753021 2749.799316
3.080000 -1.200000 8.800000 13.128625 21.424065 631.351318
3.080000 -1.200000 8.840000 1.548317 16.812141 285.045380
3.080000 -1.200000 8.880000 -1.114844 6.725452 46.474586
3.080000 -1.200000 8.920000 4.433765 0.964691 20.588905
3.080000 -1.200000 8.960000 9.983238 3.022828 108.802536
3.080000 -1.200000 9.000000 9.681889 7.655048 152.338730
3.080000 -1.200000 9.040000 5.862644 8.453829 105.837822
3.080000 -1.200000 9.080000 4.510618 5.624540 51.981125
3.080000 -1.200000 9.120000 6.833586 4.585256 67.722466
3.080000 -1.200000 9.160000 7.759198 7.789283 120.878082
3.080000 -1.200000 9.200000 3.216737 10.559992 121.860825
3.080000 -1.160000 8.800000 -5.255550 20.525503 448.917114
3.080000 -1.160000 8.840000 -16.392872 8.535678 341.584045
3.080000 -1.160000 8.880000 -14.773220 -9.010215 299.432007
3.080000 -1.160000 8.920000 -0.523083 -19.549501 382.456635
3.080000 -1.160000 8.960000 16.035782 -16.074215 515.526672
3.080000 -1.160000 9.000000 23.766207 -2.633415 571.767456
3.080000 -1.160000 9.040000 19.572666 10.470631 492.723389
3.080000 -1.160000 9.080000 8.855137 15.692478 324.667328
3.080000 -1.160000 9.120000 -0.848726 12.579899 158.974197
3.080000 -1.160000 9.160000 -5.506462 5.178228 57.135170
3.080000 -1.160000 9.200000 -4.982080 -2.582737 31.491648
3.080000 -1.120000 8.800000 -17.699841 4.429122 332.901489
3.080000 -1.120000 8.840000 -23.476318 -17.631948 862.023132
3.080000 -1.120000 8.880000 -7.850704 -41.672462 1798.227661
3.080000 -1.120000 8.920000 24.420528 -47.446892 2847.569824
3.080000 -1.120000 8.960000 52.410130 -26.725914 3461.096191
3.080000 -1.120000 9.000000 56.396893 7.835388 3242.002686
3.080000 -1.120000 9.040000 34.794781 32.756542 2283.667969
3.080000 -1.120000 9.080000 4.891968 33.151520 1122.954712
3.080000 -1.120000 9.120000 -12.444934 13.595941 339.725952
3.080000 -1.120000 9.160000 -9.264331 -8.311121 154.902557
3.080000 -1.120000 9.200000 6.162642 -17.894093 358.176697
3.080000 -1.080000 8.800000 -12.804611 -16.819262 446.845642
3.080000 -1.080000 8.840000 -4.263424 -45.826836 2118.275635
3.080000 -1.080000 8.880000 32.597382 -63.489677 5093.528320
3.080000 -1.080000 8.920000 78.577499 -45.969273 8287.597656
3.080000 -1.080000 8.960000 99.813889 3.915337 9978.142578
3.080000 -1.080000 9.000000 77.847900 54.874058 9071.457031
3.080000 -1.080000 9.040000 27.646612 72.618782 6037.822266
3.080000 -1.080000 9.080000 -14.534197 49.144070 2626.382568
3.080000 -1.080000 9.120000 -22.154104 8.130405 556.907837
3.080000 -1.080000 9.160000 1.044554 -17.697960 314.308868
3.080000 -1.080000 9.200000 28.919676 -14.599858 1049.503540
3.080000 -1.040000 8.800000 7.865837 -26.769150 778.458801
3.080000 -1.040000 8.840000 35.567131 -50.677414 3833.220947
3.080000 -1.040000 8.880000 86.194229 -44.243969 9386.974609
3.080000 -1.040000 8.920000 123.730225 6.110029 15346.500977
3.080000 -1.040000 8.960000 112.968079 75.509491 18463.470703
3.080000 -1.040000 9.000000 53.935120 117.503517 16716.074219
3.080000 -1.040000 9.040000 -14.293554 103.984818 11017.147461
3.080000 -1.040000 9.080000 -46.152164 50.145630 4644.606445
3.080000 -1.040000 9.120000 -28.101435 0.175867 789.721558
3.080000 -1.040000 9.160000 13.248588 -12.166719 323.554138
3.080000 -1.040000 9.200000 39.291821 9.920466 1642.262817
3.080000 -1.000000 8.800000 29.361420 -16.536631 1135.553101
3.080000 -1.000000 8.840000 68.945435 -21.343857 5209.033203
3.080000 -1.000000 8.880000 111.533791 15.445692 12678.355469
3.080000 -1.000000 8.920000 116.057709 85.206863 20729.601562
3.080000 -1.000000 8.960000 64.399658 144.492737 25025.466797
3.080000 -1.000000 9.000000 -16.673756 150.171646 22829.537109
3.080000 -1.000000 9.040000 -74.693802 98.413605 15264.401367
3.080000 -1.000000 9.080000 -75.849190 29.266321 6609.617188
3.080000 -1.000000 9.120000 -32.539486 -8.503668 1131.130493
3.080000 -1.000000 9.160000 11.528631 1.348454 134.727661
3.080000 -1.000000 9.200000 22.600803 34.027103 1668.640137
3.080000 -0.960000 8.800000 35.376591 6.942337 1299.699219
3.080000 -0.960000 8.840000 69.619598 25.170645 5480.450195
3.080000 -0.960000 8.880000 83.771454 78.123566 13120.947266
3.080000 -0.960000 8.920000 50.076424 137.509369 21416.474609
3.080000 -0.960000 8.960000 -23.597359 159.658096 26047.542969
3.080000 -0.960000 9.000000 -94.400650 123.643967 24199.312500
3.080000 -0.960000 9.040000 -118.632416 52.043144 16782.138672
3.080000 -0.960000 9.080000 -88.456848 -7.056015 7874.400879
3.080000 -0.960000 9.120000 -36.499542 -20.667496 1759.361938
3.080000 -0.960000 9.160000 -4.741264 4.096634 39.261997
3.080000 -0.960000 9.200000 -8.525956 32.695759 1141.704590
3.080000 -0.920000 8.800000 21.941494 26.723244 1195.560913
3.080000 -0.920000 8.840000 36.065483 56.727615 4518.741699
3.080000 -0.920000 8.880000 19.928923 100.339745 10465.226562
3.080000 -0.920000 8.920000 -31.635929 126.400269 16977.859375
3.080000 -0.920000 8.960000 -94.425446 109.520676 20910.943359
3.080000 -0.920000 9.000000 -131.254791 53.538414 20094.181641
3.080000 -0.920000 9.040000 -121.796295 -9.226819 14919.471680
3.080000 -0.920000 9.080000 -78.725800 -43.639053 8102.118164
3.080000 -0.920000 9.120000 -35.438332 -39.070240 2782.358887
3.080000 -0.920000 9.160000 -17.501661 -13.985554 501.903870
3.080000 -0.920000 9.200000 -24.501225 4.291939 618.730713
3.080000 -0.880000 8.800000 -0.240989 30.368639 922.312317
3.080000 -0.880000 8.840000 -6.889044 53.619370 2922.495850
3.080000 -0.880000 8.880000 -34.953712 71.005035 6263.476562
3.080000 -0.880000 8.920000 -75.047234 65.640152 9940.716797
3.080000 -0.880000 8.960000 -106.702888 33.248264 12490.954102
3.080000 -0.880000 9.000000 -112.418098 -13.213623 12812.428711
3.080000 -0.880000 9.040000 -90.024521 -52.065594 10815.240234
3.080000 -0.880000 9.080000 -53.465660 -67.703262 7442.308594
3.080000 -0.880000 9.120000 -22.019163 -59.859596 4068.014648
3.080000 -0.880000 9.160000 -7.356771 -40.997894 1734.949463
3.080000 -0.880000 9.200000 -8.189603 -25.600391 722.449646
3.080000 -0.840000 8.800000 -16.517601 19.164898 640.124451
3.080000 -0.840000 8.840000 -30.535896 24.118967 1514.165527
3.080000 -0.840000 8.880000 -47.687546 19.219042 2643.473633
3.080000 -0.840000 8.920000 -61.716324 4.877712 3832.696533
3.080000 -0.840000 8.960000 -68.654922 -16.112244 4973.103027
3.080000 -0.840000 9.000000 -65.714928 -40.488064 5957.734863
3.080000 -0.840000 9.040000 -50.517250 -63.142429 6538.958984
3.080000 -0.840000 9.080000 -24.059298 -76.041519 6361.162109
3.080000 -0.840000 9.120000 5.630287 -72.076935 5226.784668
3.080000 -0.840000 9.160000 25.591820 -52.296272 3389.841309
3.080000 -0.840000 9.200000 27.125381 -28.533920 1549.970947
3.080000 -0.800000 8.800000 -20.764288 3.885805 446.255127
3.080000 -0.800000 8.840000 -26.257841 -6.365079 729.988464
3.080000 -0.800000 8.880000 -23.219660 -15.156010 768.857239
3.080000 -0.800000 8.920000 -19.892658 -16.862278 680.054321
3.080000 -0.800000 8.960000 -24.265493 -18.401716 927.437317
3.080000 -0.800000 9.000000 -31.265129 -31.246113 1953.827881
3.080000 -0.800000 9.040000 -25.288305 -55.068977 3672.090820
3.080000 -0.800000 9.080000 2.145440 -72.757233 5298.217773
3.080000 -0.800000 9.120000 38.778934 -65.527489 5797.657227
3.080000 -0.800000 9.160000 59.488182 -33.901302 4688.142090
3.080000 -0.800000 9.200000 50.315739 -0.994927 2532.663574
3.120000 -1.200000 8.800000 -9.306207 15.376875 323.053772
3.120000 -1.200000 8.840000 -11.488215 8.045476 196.708771
3.120000 -1.200000 8.880000 -8.689919 2.562440 82.080803
3.120000 -1.200000 8.920000 -5.313271 1.061892 29.358459
3.120000 -1.200000 8.960000 -4.320364 0.467356 18.883966
3.120000 -1.200000 9.000000 -3.412689 -2.470483 17.749733
3.120000 -1.200000 9.040000 1.370731 -5.861456 36.235573
3.120000 -1.200000 9.080000 9.178385 -4.419330 103.773216
3.120000 -1.200000 9.120000 13.708744 3.380704 199.358810
3.120000 -1.200000 9.160000 10.175144 11.770101 242.068817
3.120000 -1.200000 9.200000 1.829581 13.123185 175.565353
3.120000 -1.160000 8.800000 -13.112164 0.663659 172.369308
3.120000 -1.160000 8.840000 -12.102381 -5.513963 176.871414
3.120000 -1.160000 8.880000 -7.480068 -10.725078 170.978714
3.120000 -1.160000 8.920000 -0.777115 -12.751610 163.207458
3.120000 -1.160000 8.960000 5.718243 -11.267981 159.665680
3.120000 -1.160000 9.000000 10.442041 -7.129904 159.871765
3.120000 -1.160000 9.040000 12.405470 -1.427290 155.932846
3.120000 -1.160000 9.080000 10.833745 4.175858 134.807816
3.120000 -1.160000 9.120000 6.202477 7.113808 89.076973
3.120000 -1.160000 9.160000 1.389991 5.519737 32.399574
3.120000 -1.160000 9.200000 0.353602 0.746423 0.682182
3.120000 -1.120000 8.800000 -2.414171 -12.523043 162.654816
3.120000 -1.120000 8.840000 0.748938 -17.720657 314.582611
3.120000 -1.120000 8.880000 9.851148 -21.985466 580.405823
3.120000 -1.120000 8.920000 22.607191 -19.000994 872.122803
3.120000 -1.120000 8.960000 31.479122 -7.040007 1040.496826
3.120000 -1.120000 9.000000 30.030123 8.238188 969.676025
3.120000 -1.120000 9.040000 18.907722 17.733345 671.973511
3.120000 -1.120000 9.080000 5.861340 16.239624 298.080688
3.120000 -1.120000 9.120000 -0.287519 6.639724 44.168606
3.120000 -1.120000 9.160000 3.440801 -2.604155 18.620731
3.120000 -1.120000 9.200000 12.319665 -4.445449 171.536163
3.120000 -1.080000 8.800000 16.589005 -11.686986 411.780701
3.120000 -1.080000 8.840000 22.562714 -15.502730 749.410706
3.120000 -1.080000 8.880000 36.723988 -13.860380 1540.761353
3.120000 -1.080000 8.920000 50.211082 1.260790 2522.742432
3.120000 -1.080000 8.960000 49.730404 25.590469 3127.985107
3.120000 -1.080000 9.000000 31.166206 43.943935 2902.401855
3.120000 -1.080000 9.040000 5.520287 43.350788 1909.764282
3.120000 -1.080000 9.080000 -9.650236 25.384029 737.476013
3.120000 -1.080000 9.120000 -5.552965 5.264943 58.555046
3.120000 -1.080000 9.160000 10.569587 -1.714912 114.657089
3.120000 -1.080000 9.200000 23.069511 6.711939 577.252441
3.120000 -1.040000 8.800000 28.784302 5.596352 859.855164
3.120000 -1.040000 8.840000 37.451630 5.535530 1433.266602
3.120000 -1.040000 8.880000 51.181480 17.695992 2932.692139
3.120000 -1.040000 8.920000 53.986542 44.342747 4880.825684
3.120000 -1.040000 8.960000 34.173439 70.530037 6142.310547
3.120000 -1.040000 9.000000 -1.168079 75.980988 5774.474609
3.120000 -1.040000 9.040000 -29.547421 54.706505 3865.851807
3.120000 -1.040000 9.080000 -32.569683 22.328197 1559.332764
3.120000 -1.040000 9.120000 -12.597093 2.737345 166.179794
3.120000 -1.040000 9.160000 10.113244 6.847665 149.168228
3.120000 -1.040000 9.200000 16.898705 24.347591 878.371460
3.120000 -1.000000 8.800000 22.693884 27.690735 1281.789185
3.120000 -1.000000 8.840000 30.994259 33.550995 2086.313477
3.120000 -1.000000 8.880000 35.592999 54.193665 4203.814941
3.120000 -1.000000 8.920000 20.337482 81.194992 7006.240234
3.120000 -1.000000 8.960000 -16.014795 93.084946 8921.280273
3.120000 -1.000000 9.000000 -53.918743 75.337357 8582.948242
3.120000 -1.000000 9.040000 -68.458206 36.424141 6013.244141
3.120000 -1.000000 9.080000 -51.997410 2.408112 2709.529785
3.120000 -1.000000 9.120000 -21.315464 -5.797964 487.965393
3.120000 -1.000000 9.160000 -1.772606 9.747809 98.161919
3.120000 -1.000000 9.200000 -4.292760 28.494350 830.355774
3.120000 -0.960000 8.800000 1.271552 37.922390 1439.724487
3.120000 -0.960000 8.840000 4.541019 48.434742 2366.545166
3.120000 -0.960000 8.880000 -4.250116 68.374748 4693.169434
3.120000 -0.960000 8.920000 -32.851341 81.961227 7796.853027
3.120000 -0.960000 8.960000 -70.433731 71.438354 10064.349609
3.120000 -0.960000 9.000000 -93.565430 35.497032 10014.528320
3.120000 -0.960000 9.040000 -86.409210 -6.258040 7505.714844
3.120000 -0.960000 9.080000 -55.623932 -28.916664 3930.195312
3.120000 -0.960000 9.120000 -24.715820 -23.513754 1163.768311
3.120000 -0.960000 9.160000 -13.108179 -3.238247 182.310593
3.120000 -0.960000 9.200000 -20.486908 10.878407 538.053162
3.120000 -0.920000 8.800000 -20.099747 29.141960 1253.253662
3.120000 -0.920000 8.840000 -24.196959 39.236794 2125.018799
3.120000 -0.920000 8.880000 -41.600826 48.904541 4122.282715
3.120000 -0.920000 8.920000 -69.519936 44.222961 6788.691895
3.120000 -0.920000 8.960000 -92.651093 18.346712 8920.826172
3.120000 -0.920000 9.000000 -94.535065 -19.670864 9323.822266
3.120000 -0.920000 9.040000 -71.962944 -50.093491 7688.023438
3.120000 -0.920000 9.080000 -38.570419 -57.992527 4850.810547
3.120000 -0.920000 9.120000 -13.732313 -44.794678 2195.139648
3.120000 -0.920000 9.160000 -7.192636 -25.338308 693.763855
3.120000 -0.920000 9.200000 -13.531160 -14.079679 381.329681
3.120000 -0.880000 8.800000 -27.350597 9.773837 843.583069
3.120000 -0.880000 8.840000 -36.319611 13.972013 1514.331299
3.120000 -0.880000 8.880000 -51.893070 11.116982 2816.478027
3.120000 -0.880000 8.920000 -67.149071 -3.993294 4524.943848
3.120000 -0.880000 8.960000 -72.204704 -29.552151 6086.849121
3.120000 -0.880000 9.000000 -60.937401 -56.219048 6873.948242
3.120000 -0.880000 9.040000 -35.917870 -72.381607 6529.190430
3.120000 -0.880000 9.080000 -7.421731 -71.540031 5173.058105
3.120000 -0.880000 9.120000 12.845393 -56.339195 3339.109131
3.120000 -0.880000 9.160000 18.826906 -36.466660 1684.269653
3.120000 -0.880000 9.200000 13.018487 -22.192600 661.992493
3.120000 -0.840000 8.800000 -20.016006 -4.922378 424.870300
3.120000 -0.840000 8.840000 -27.944378 -8.453311 852.346680
3.120000 -0.840000 8.880000 -33.808929 -17.412807 1446.249512
3.120000 -0.840000 8.920000 -35.535835 -29.847198 2153.650879
3.120000 -0.840000 8.960000 -31.899429 -44.339909 2983.601074
3.120000 -0.840000 9.000000 -20.769070 -58.824356 3891.659180
3.120000 -0.840000 9.040000 -0.810572 -68.110748 4639.731445
3.120000 -0.840000 9.080000 24.121916 -65.189178 4831.495605
3.120000 -0.840000 9.120000 43.842400 -47.503490 4178.737305
3.120000 -0.840000 9.160000 48.041737 -22.336731 2806.937988
3.120000 -0.840000 9.200000 35.815281 -3.846575 1297.530518
3.120000 -0.800000 8.800000 -9.779188 -7.673242 154.511154
3.120000 -0.800000 8.840000 -11.331061 -15.905503 381.377991
3.120000 -0.800000 8.880000 -7.549254 -21.723816 528.915405
3.120000 -0.800000 8.920000 -4.629082 -24.115005 602.961914
3.120000 -0.800000 8.960000 -4.312050 -29.156656 868.704346
3.120000 -0.800000 9.000000 0.628870 -40.392570 1631.955200
3.120000 -0.800000 9.040000 18.168896 -50.320206 2862.231934
3.120000 -0.800000 9.080000 44.472336 -45.219700 4022.609863
3.120000 -0.800000 9.120000 62.762749 -20.474829 4358.381348
3.120000 -0.800000 9.160000 58.187073 10.454885 3495.040039
3.120000 -0.800000 9.200000 34.414688 25.829636 1851.540771
3.160000 -1.200000 8.800000 -17.720142 -3.623663 327.134369
3.160000 -1.200000 8.840000 -13.474312 -6.067842 218.375793
3.160000 -1.200000 8.880000 -11.624326 -6.288892 174.675110
3.160000 -1.200000 8.920000 -12.133472 -8.929165 226.951141
3.160000 -1.200000 8.960000 -9.759963 -15.814388 345.351746
3.160000 -1.200000 9.000000 0.183835 -21.902121 479.736664
3.160000 -1.200000 9.040000 14.981107 -19.252790 595.103516
3.160000 -1.200000 9.080000 25.074177 -5.809628 662.466125
3.160000 -1.200000 9.120000 22.922672 10.733048 640.647217
3.160000 -1.200000 9.160000 11.087273 19.423008 500.180847
3.160000 -1.200000 9.200000 0.210645 16.758343 280.886414
3.160000 -1.160000 8.800000 -3.532838 -15.775626 261.351318
3.160000 -1.160000 8.840000 -1.077464 -10.946905 120.995659
3.160000 -1.160000 8.880000 -3.701988 -9.444609 102.905350
3.160000 -1.160000 8.920000 -5.132899 -14.325342 231.562073
3.160000 -1.160000 8.960000 0.873097 -21.153564 448.235596
3.160000 -1.160000 9.000000 13.457492 -21.507582 643.680176
3.160000 -1.160000 9.040000 24.229458 -11.460116 718.400940
3.160000 -1.160000 9.080000 24.936325 3.629847 634.996094
3.160000 -1.160000 9.120000 15.708103 13.700979 434.461334
3.160000 -1.160000 9.160000 5.026573 13.682002 212.463608
3.160000 -1.160000 9.200000 1.050913 8.150642 67.537384
3.160000 -1.120000 8.800000 17.854094 -10.227249 423.365265
3.160000 -1.120000 8.840000 12.692552 -1.910768 164.751892
3.160000 -1.120000 8.880000 5.575155 -3.026527 40.242222
3.160000 -1.120000 8.920000 5.514476 -10.150244 133.436890
3.160000 -1.120000 8.960000 14.151472 -13.819511 391.243042
3.160000 -1.120000 9.000000 24.153379 -7.855301 645.091492
3.160000 -1.120000 9.040000 26.539412 4.546929 725.014954
3.160000 -1.120000 9.080000 19.556862 14.216686 584.585022
3.160000 -1.120000 9.120000 9.953287 15.319056 333.741394
3.160000 -1.120000 9.160000 5.524700 10.726295 145.575729
3.160000 -1.120000 9.200000 7.118958 7.992342 114.557106
3.160000 -1.080000 8.800000 27.864265 13.732327 964.994141
3.160000 -1.080000 8.840000 14.257799 18.264795 536.887573
3.160000 -1.080000 8.880000 5.902708 11.627774 170.047104
3.160000 -1.080000 8.920000 8.469540 3.883821 86.817169
3.160000 -1.080000 8.960000 16.540966 4.341547 292.452576
3.160000 -1.080000 9.000000 20.130783 12.787518 568.769043
3.160000 -1.080000 9.040000 15.090201 20.925388 665.586060
3.160000 -1.080000 9.080000 6.537971 21.839195 519.695496
3.160000 -1.080000 9.120000 2.317279 16.962841 293.107758
3.160000 -1.080000 9.160000 4.268806 13.435313 198.730347
3.160000 -1.080000 9.200000 6.980326 15.426043 286.687744
3.160000 -1.040000 8.800000 13.980639 39.881271 1785.973999
3.160000 -1.040000 8.840000 -2.865065 35.107437 1240.740723
3.160000 -1.040000 8.880000 -8.073751 23.367844 611.241577
3.160000 -1.040000 8.920000 -3.186717 16.788849 292.020599
3.160000 -1.040000 8.960000 1.705789 19.482029 382.459167
3.160000 -1.040000 9.000000 -0.672278 25.136530 632.297119
3.160000 -1.040000 9.040000 -7.880297 25.451996 709.903137
3.160000 -1.040000 9.080000 -11.986941 19.501574 523.998169
3.160000 -1.040000 9.120000 -9.262943 13.866614 278.085114
3.160000 -1.040000 9.160000 -4.113675 14.317463 221.912064
3.160000 -1.040000 9.200000 -3.282091 19.117535 376.252258
3.160000 -1.000000 8.800000 -17.452059 47.082558 2521.341797
3.160000 -1.000000 8.840000 -29.872694 33.383492 2006.835449
3.160000 -1.000000 8.880000 -29.248121 20.020351 1256.267090
3.160000 -1.000000 8.920000 -23.295540 15.538977 784.141968
3.160000 -1.000000 8.960000 -21.726429 17.541546 779.743530
3.160000 -1.000000 9.000000 -26.155193 17.485134 989.824036
3.160000 -1.000000 9.040000 -29.942318 11.154733 1020.970459
3.160000 -1.000000 9.080000 -27.010519 3.014406 738.654785
3.160000 -1.000000 9.120000 -19.085495 0.345606 364.375580
3.160000 -1.000000 9.160000 -13.397625 4.619699 200.837982
3.160000 -1.000000 9.200000 -14.198197 10.189635 305.417480
3.160000 -0.960000 8.800000 -44.521156 27.815067 2755.811279
3.160000 -0.960000 8.840000 -47.990776 11.159877 2427.657471
3.160000 -0.960000 8.880000 -42.241364 0.372831 1784.471802
3.160000 -0.960000 8.920000 -36.564735 -2.093085 1341.360840
3.160000 -0.960000 8.960000 -36.477333 -2.488171 1336.786865
3.160000 -0.960000 9.000000 -38.768124 -7.470765 1558.779785
3.160000 -0.960000 9.040000 -36.401447 -16.454704 1595.822632
3.160000 -0.960000 9.080000 -27.161526 -22.626045 1249.686401
3.160000 -0.960000 9.120000 -16.300484 -20.828730 699.541748
3.160000 -0.960000 9.160000 -10.835093 -13.135014 289.927826
3.160000 -0.960000 9.200000 -12.377608 -6.228015 191.993347
3.160000 -0.920000 8.800000 -48.011330 -4.115339 2322.023926
3.160000 -0.920000 8.840000 -44.244633 -16.952276 2244.967285
3.160000 -0.920000 8.880000 -36.736061 -23.079525 1882.202637
3.160000 -0.920000 8.920000 -32.156746 -24.333494 1626.175293
3.160000 -0.920000 8.960000 -31.544544 -26.882797 1717.743164
3.160000 -0.920000 9.000000 -29.773361 -33.890282 2035.004150
3.160000 -0.920000 9.040000 -21.671473 -41.718582 2210.092773
3.160000 -0.920000 9.080000 -8.173184 -43.536686 1962.243896
3.160000 -0.920000 9.120000 3.940241 -36.348785 1336.759766
3.160000 -0.920000 9.160000 8.190634 -24.187681 652.130432
3.160000 -0.920000 9.200000 4.077540 -14.470902 226.033340
3.160000 -0.880000 8.800000 -28.336260 -25.211613 1438.569092
3.160000 -0.880000 8.840000 -23.105438 -31.925512 1553.099609
3.160000 -0.880000 8.880000 -17.086235 -34.587273 1488.218872
3.160000 -0.880000 8.920000 -13.618572 -35.579578 1451.371826
3.160000 -0.880000 8.960000 -11.637554 -39.003521 1656.707275
3.160000 -0.880000 9.000000 -6.312893 -45.470242 2107.395508
3.160000 -0.880000 9.040000 5.658747 -50.053108 2537.335205
3.160000 -0.880000 9.080000 21.285900 -46.219788 2589.358398
3.160000 -0.880000 9.120000 32.325138 -32.491882 2100.636963
3.160000 -0.880000 9.160000 31.998390 -15.281553 1257.422852
3.160000 -0.880000 9.200000 21.417812 -4.430229 478.349609
3.160000 -0.840000 8.800000 -4.669535 -23.217155 560.840881
3.160000 -0.840000 8.840000 -2.202616 -27.036407 735.818848
3.160000 -0.840000 8.880000 1.736451 -29.006302 844.380798
3.160000 -0.840000 8.920000 4.688460 -30.166822 932.018860
3.160000 -0.840000 8.960000 7.678933 -33.426437 1176.292725
3.160000 -0.840000 9.000000 15.141357 -38.361065 1700.832031
3.160000 -0.840000 9.040000 29.215368 -38.976036 2372.668945
3.160000 -0.840000 9.080000 44.534046 -28.712673 2807.698730
3.160000 -0.840000 9.120000 50.627235 -8.587710 2636.865723
3.160000 -0.840000 9.160000 41.501122 10.670141 1836.195068
3.160000 -0.840000 9.200000 23.133852 16.779259 816.718628
3.160000 -0.800000 8.800000 3.462154 -7.400598 66.755356
3.160000 -0.800000 8.840000 4.270483 -12.838346 183.060165
3.160000 -0.800000 8.880000 8.064470 -15.382013 301.642029
3.160000 -0.800000 8.920000 10.927860 -16.314217 385.571777
3.160000 -0.800000 8.960000 14.167061 -19.279650 572.410522
3.160000 -0.800000 9.000000 22.913671 -22.850594 1047.185913
3.160000 -0.800000 9.040000 37.757320 -19.243271 1795.918701
3.160000 -0.800000 9.080000 49.769802 -2.831414 2485.050049
3.160000 -0.800000 9.120000 47.149490 20.488346 2642.846680
3.160000 -0.800000 9.160000 28.321308 35.314281 2049.195068
3.160000 -0.800000 9.200000 6.873955 30.896376 1001.837280
3.200000 -1.200000 8.800000 -9.099784 -20.098585 486.759186
3.200000 -1.200000 8.840000 -5.317386 -15.932652 282.123962
3.200000 -1.200000 8.880000 -7.563173 -15.440235 295.602448
3.200000 -1.200000 8.920000 -7.691154 -22.854670 581.489807
3.200000 -1.200000 8.960000 2.672897 -32.005177 1031.475708
3.200000 -1.200000 9.000000 21.992294 -31.091442 1450.338867
3.200000 -1.200000 9.040000 38.089951 -14.682405 1666.417358
3.200000 -1.200000 9.080000 38.879803 9.456358 1601.061768
3.200000 -1.200000 9.120000 24.067320 26.569286 1285.162842
3.200000 -1.200000 9.160000 5.485616 28.458897 840.000793
3.200000 -1.200000 9.200000 -4.579412 20.371510 435.969421
3.200000 -1.160000 8.800000 13.218236 -18.191616 505.656677
3.200000 -1.160000 8.840000 8.179570 -7.787608 127.552200
3.200000 -1.160000 8.880000 -1.818031 -9.806072 99.464287
3.200000 -1.160000 8.920000 -2.408423 -22.533066 513.539551
3.200000 -1.160000 8.960000 12.404083 -31.880161 1170.205933
3.200000 -1.160000 9.000000 33.112488 -24.826126 1712.773438
3.200000 -1.160000 9.040000 43.082542 -2.613630 1862.936523
3.200000 -1.160000 9.080000 34.358597 20.000692 1580.540894
3.200000 -1.160000 9.120000 14.775108 28.840149 1050.058105
3.200000 -1.160000 9.160000 -0.712396 23.084972 533.423462
3.200000 -1.160000 9.200000 -4.837938 13.809464 214.106934
3.200000 -1.120000 8.800000 26.622244 5.408558 737.996399
3.200000 -1.120000 8.840000 7.762430 12.459591 215.496735
3.200000 -1.120000 8.880000 -7.047046 -0.233505 49.715378
3.200000 -1.120000 8.920000 -2.483495 -20.203014 414.329559
3.200000 -1.120000 8.960000 19.051146 -27.468704 1117.475830
3.200000 -1.120000 9.000000 39.409077 -13.314447 1730.349854
3.200000 -1.120000 9.040000 41.820663 11.932604 1891.354980
3.200000 -1.120000 9.080000 25.905922 29.567434 1545.349976
3.200000 -1.120000 9.120000 5.971900 30.104050 941.917358
3.200000 -1.120000 9.160000 -4.321800 19.962252 417.169434
3.200000 -1.120000 9.200000 -4.121722 11.836219 157.084656
3.200000 -1.080000 8.800000 14.133646 35.230309 1440.934570
3.200000 -1.080000 8.840000 -13.528348 27.124380 918.748169
3.200000 -1.080000 8.880000 -22.972656 0.120996 527.757568
3.200000 -1.080000 8.920000 -6.261372 -22.893898 563.335327
3.200000 -1.080000 8.960000 22.118828 -22.611723 1000.532593
3.200000 -1.080000 9.000000 38.786564 -0.222251 1504.447021
3.200000 -1.080000 9.040000 32.399303 25.318264 1690.729248
3.200000 -1.080000 9.080000 11.708655 35.812004 1419.592285
3.200000 -1.080000 9.120000 -5.607130 29.090889 877.719727
3.200000 -1.080000 9.160000 -10.180350 16.965689 391.474121
3.200000 -1.080000 9.200000 -6.689504 10.724047 159.754639
3.200000 -1.040000 8.800000 -21.172972 46.214348 2584.060547
3.200000 -1.040000 8.840000 -43.689228 18.653370 2256.696777
3.200000 -1.040000 8.880000 -36.696217 -16.290485 1611.992188
3.200000 -1.040000 8.920000 -6.019889 -32.231102 1075.083008
3.200000 -1.040000 8.960000 23.806816 -18.893345 923.722900
3.200000 -1.040000 9.000000 31.327480 10.191314 1085.273926
3.200000 -1.040000 9.040000 15.541081 31.591843 1239.569702
3.200000 -1.040000 9.080000 -6.703905 32.819908 1122.088745
3.200000 -1.040000 9.120000 -18.410271 20.148739 744.909790
3.200000 -1.040000 9.160000 -16.541874 8.342357 343.228516
3.200000 -1.040000 9.200000 -10.110085 5.395023 131.320099
3.200000 -1.000000 8.800000 -55.482712 25.295898 3718.213867
3.200000 -1.000000 8.840000 -59.452343 -13.219823 3709.344727
3.200000 -1.000000 8.880000 -33.307888 -42.063694 2878.769775
3.200000 -1.000000 8.920000 3.880058 -41.484451 1736.014526
3.200000 -1.000000 8.960000 25.504751 -15.284787 884.117065
3.200000 -1.000000 9.000000 19.813854 13.963913 587.579651
3.200000 -1.000000 9.040000 -2.477410 25.535736 658.211365
3.200000 -1.000000 9.080000 -20.799965 16.893944 718.043884
3.200000 -1.000000 9.120000 -23.589865 1.648953 559.200745
3.200000 -1.000000 9.160000 -15.381275 -5.952273 272.013184
3.200000 -1.000000 9.200000 -8.050760 -3.213693 75.142563
3.200000 -0.960000 8.800000 -62.987122 -15.298674 4201.426758
3.200000 -0.960000 8.840000 -46.169861 -48.491047 4483.037598
3.200000 -0.960000 8.880000 -10.257935 -59.355591 3628.311523
3.200000 -0.960000 8.920000 20.324402 -41.541965 2138.816162
3.200000 -0.960000 8.960000 26.480049 -10.739401 816.527710
3.200000 -0.960000 9.000000 9.724480 9.684814 188.361145
3.200000 -0.960000 9.040000 -11.552494 8.560143 206.736145
3.200000 -0.960000 9.080000 -19.880886 -6.046902 431.814667
3.200000 -0.960000 9.120000 -12.954813 -17.464031 472.819580
3.200000 -0.960000 9.160000 -2.011025 -16.532942 277.382385
3.200000 -0.960000 9.200000 1.387319 -7.644118 60.357193
3.200000 -0.920000 8.800000 -38.392265 -46.787823 3663.066406
3.200000 -0.920000 8.840000 -11.768950 -62.770954 4078.700684
3.200000 -0.920000 8.880000 18.765245 -55.166100 3395.433105
3.200000 -0.920000 8.920000 33.420723 -29.796749 2004.791016
3.200000 -0.920000 8.960000 25.528225 -5.901623 686.519409
3.200000 -0.920000 9.000000 6.528323 0.737544 43.162975
3.200000 -0.920000 9.040000 -5.418625 -9.232976 114.609344
3.200000 -0.920000 9.080000 -1.853965 -21.492870 465.380676
3.200000 -0.920000 9.120000 10.060967 -22.746670 618.634094
3.200000 -0.920000 9.160000 16.610441 -12.618189 435.125458
3.200000 -0.920000 9.200000 11.367458 -1.895772 132.813065
3.200000 -0.880000 8.800000 -2.103725 -48.233456 2330.892090
3.200000 -0.880000 8.840000 19.214611 -48.267429 2698.945801
3.200000 -0.880000 8.880000 35.007217 -33.060860 2318.525635
3.200000 -0.880000 8.920000 35.162045 -12.963799 1404.429443
3.200000 -0.880000 8.960000 22.729307 -2.245542 521.663879
3.200000 -0.880000 9.000000 11.136102 -5.980376 159.777664
3.200000 -0.880000 9.040000 11.365269 -15.636761 373.677612
3.200000 -0.880000 9.080000 21.612890 -17.908960 787.847900
3.200000 -0.880000 9.120000 29.696785 -8.038411 946.515076
3.200000 -0.880000 9.160000 25.718227 5.680268 693.692688
3.200000 -0.880000 9.200000 12.138313 10.625528 260.240509
3.200000 -0.840000 8.800000 17.748838 -24.447287 912.691040
3.200000 -0.840000 8.840000 26.826298 -20.199898 1127.686157
3.200000 -0.840000 8.880000 30.631834 -9.957029 1037.451660
3.200000 -0.840000 8.920000 26.213173 -1.249207 688.690979
3.200000 -0.840000 8.960000 19.184250 -0.526803 368.312958
3.200000 -0.840000 9.000000 18.314198 -5.601931 366.791443
3.200000 -0.840000 9.040000 25.726847 -7.072829 711.895569
3.200000 -0.840000 9.080000 33.408066 1.713119 1119.033691
3.200000 -0.840000 9.120000 30.858261 16.425890 1222.042236
3.200000 -0.840000 9.160000 16.659565 24.777523 891.466797
3.200000 -0.840000 9.200000 1.520020 18.841761 357.322388
3.200000 -0.800000 8.800000 10.153488 -0.462566 103.307289
3.200000 -0.800000 8.840000 12.399313 -2.393358 159.471130
3.200000 -0.800000 8.880000 14.470284 -1.111622 210.624802
3.200000 -0.800000 8.920000 14.603423 0.085626 213.267288
3.200000 -0.800000 8.960000 15.884841 -0.739341 252.874802
3.200000 -0.800000 9.000000 21.282652 -0.029062 452.952118
3.200000 -0.800000 9.040000 27.517969 7.605064 815.075684
3.200000 -0.800000 9.080000 26.358856 21.376556 1151.746460
3.200000 -0.800000 9.120000 13.689965 31.914982 1205.981201
3.200000 -0.800000 9.160000 -3.485693 29.407452 876.948303
3.200000 -0.800000 9.200000 -11.534174 14.863468 353.959839
