#kx 	ky 	kz 	real 	imag 	intensity
3.800000 7.800000 -2.200000 8.537331 -41.368065 1784.202759
3.800000 7.800000 -2.160000 19.768148 -29.883942 1283.829712
3.800000 7.800000 -2.120000 18.547758 -18.100912 671.662354
3.800000 7.800000 -2.080000 11.815611 -15.526651 380.685547
3.800000 7.800000 -2.040000 10.411200 -20.844654 542.892700
3.800000 7.800000 -2.000000 18.066027 -24.531010 928.151733
3.800000 7.800000 -1.960000 28.551594 -19.159355 1182.274414
3.800000 7.800000 -1.920000 32.858536 -6.351365 1120.023193
3.800000 7.800000 -1.880000 27.967957 6.044116 818.737976
3.800000 7.800000 -1.840000 18.262106 12.187415 482.037598
3.800000 7.800000 -1.800000 9.516253 12.619928 249.821671
3.800000 7.840000 -2.200000 22.450384 -30.610424 1441.017822
3.800000 7.840000 -2.160000 27.174870 -20.970095 1178.218384
3.800000 7.840000 -2.120000 25.139328 -15.598770 875.307495
3.800000 7.840000 -2.080000 24.738605 -16.452633 882.687744
3.800000 7.840000 -2.040000 30.681313 -16.918810 1227.589111
3.800000 7.840000 -2.000000 38.708107 -10.156298 1601.467896
3.800000 7.840000 -1.960000 40.654533 2.867826 1661.015503
3.800000 7.840000 -1.920000 33.539993 14.459047 1333.995239
3.800000 7.840000 -1.880000 22.367607 18.508839 842.886963
3.800000 7.840000 -1.840000 14.092847 16.265553 463.176544
3.800000 7.840000 -1.800000 10.334778 13.366565 285.472687
3.800000 7.880000 -2.200000 25.651127 -17.642174 969.226562
3.800000 7.880000 -2.160000 29.483322 -12.616442 1028.440918
3.800000 7.880000 -2.120000 32.218575 -9.712698 1132.373047
3.800000 7.880000 -2.080000 37.334751 -6.308050 1433.675171
3.800000 7.880000 -2.040000 42.704899 1.894566 1827.297729
3.800000 7.880000 -2.000000 42.631649 14.258509 2020.762573
3.800000 7.880000 -1.960000 34.837719 24.645121 1821.048584
3.800000 7.880000 -1.920000 23.779602 27.755901 1335.859619
3.800000 7.880000 -1.880000 16.125809 24.821041 876.125854
3.800000 7.880000 -1.840000 13.669978 21.796829 661.970093
3.800000 7.880000 -1.800000 12.124801 22.189045 639.364502
3.800000 7.920000 -2.200000 23.478348 -9.735539 646.013550
3.800000 7.920000 -2.160000 30.568954 -5.401050 963.632324
3.800000 7.920000 -2.120000 36.492210 1.650272 1334.404785
3.800000 7.920000 -2.080000 39.603256 11.908935 1710.240601
3.800000 7.920000 -2.040000 37.219620 23.465736 1935.940918
3.800000 7.920000 -2.000000 29.245640 31.893499 1872.502686
3.800000 7.920000 -1.960000 19.766731 34.187420 1559.503296
3.800000 7.920000 -1.920000 13.667809 32.261024 1227.582642
3.800000 7.920000 -1.880000 11.575787 31.183687 1106.421143
3.800000 7.920000 -1.840000 9.229665 33.479740 1206.079712
3.800000 7.920000 -1.800000 2.677419 35.963287 1300.526611
3.800000 7.960000 -2.200000 22.965923 -4.968596 552.120605
3.800000 7.960000 -2.160000 30.584427 3.961564 951.101135
3.800000 7.960000 -2.120000 32.363857 16.138613 1307.874146
3.800000 7.960000 -2.080000 27.503706 27.070736 1489.278564
3.800000 7.960000 -2.040000 18.911133 32.810066 1434.131470
3.800000 7.960000 -2.000000 11.610840 33.177799 1235.578003
3.800000 7.960000 -1.960000 8.510870 32.262798 1113.323120
3.800000 7.960000 -1.920000 7.400863 34.602303 1252.092163
3.800000 7.960000 -1.880000 2.936892 40.212177 1625.644531
3.800000 7.960000 -1.840000 -7.582530 43.775444 1973.784302
3.800000 7.960000 -1.800000 -20.415245 39.686184 1991.775391
3.800000 8.000000 -2.200000 23.576065 3.185251 565.976685
3.800000 8.000000 -2.160000 24.660244 15.802995 857.862305
3.800000 8.000000 -2.120000 17.739979 25.776875 979.154114
3.800000 8.000000 -2.080000 8.083570 28.294106 865.900513
3.800000 8.000000 -2.040000 2.791407 25.132484 639.433716
3.800000 8.000000 -2.000000 3.985479 23.512007 568.698486
3.800000 8.000000 -1.960000 6.060444 29.061710 881.312012
3.800000 8.000000 -1.920000 0.693022 39.423138 1554.664062
3.800000 8.000000 -1.880000 -14.584828 45.362690 2270.490967
3.800000 8.000000 -1.840000 -32.758728 39.167435 2607.222168
3.800000 8.000000 -1.800000 -42.903160 22.396530 2342.285645
3.800000 8.040000 -2.200000 17.825476 15.497051 557.906189
3.800000 8.040000 -2.160000 9.406451 23.525129 641.913025
3.800000 8.040000 -2.120000 -1.234426 22.407963 503.640594
3.800000 8.040000 -2.080000 -4.931076 14.530022 235.437042
3.800000 8.040000 -2.040000 1.166168 9.906065 99.490074
3.800000 8.040000 -2.000000 9.064976 16.839134 365.730225
3.800000 8.040000 -1.960000 6.285119 32.437557 1091.697754
3.800000 8.040000 -1.920000 -11.798398 43.346951 2018.160278
3.800000 8.040000 -1.880000 -35.907959 37.450470 2691.919189
3.800000 8.040000 -1.840000 -50.087082 15.566937 2751.045410
3.800000 8.040000 -1.800000 -45.791824 -8.625655 2171.292969
3.800000 8.080000 -2.200000 1.411316 23.410583 550.047241
3.800000 8.080000 -2.160000 -10.064013 18.590939 446.907349
3.800000 8.080000 -2.120000 -12.700110 5.705923 193.850357
3.800000 8.080000 -2.080000 -2.096848 -3.586402 17.259048
3.800000 8.080000 -2.040000 13.172525 2.207788 178.389755
3.800000 8.080000 -2.000000 16.915039 22.008505 770.492859
3.800000 8.080000 -1.960000 0.204496 40.165161 1613.281982
3.800000 8.080000 -1.920000 -28.371620 39.164623 2338.816406
3.800000 8.080000 -1.880000 -48.533829 15.929889 2609.293945
3.800000 8.080000 -1.840000 -45.889778 -14.445816 2314.553467
3.800000 8.080000 -1.800000 -24.468571 -31.916332 1617.363281
3.800000 8.120000 -2.200000 -18.953663 17.301958 658.599121
3.800000 8.120000 -2.160000 -21.681610 0.180331 470.124756
3.800000 8.120000 -2.120000 -8.267774 -14.283628 272.378113
3.800000 8.120000 -2.080000 13.781757 -11.948719 332.708710
3.800000 8.120000 -2.040000 26.305206 9.546396 783.097534
3.800000 8.120000 -2.000000 15.480366 35.179623 1477.247559
3.800000 8.120000 -1.960000 -14.041985 43.291924 2071.367920
3.800000 8.120000 -1.920000 -40.782436 24.672338 2271.931396
3.800000 8.120000 -1.880000 -44.298401 -8.202235 2029.624878
3.800000 8.120000 -1.840000 -22.999285 -31.605148 1527.852539
3.800000 8.120000 -1.800000 5.307559 -31.237976 1003.981323
3.800000 8.160000 -2.200000 -29.850540 -2.157218 895.708313
3.800000 8.160000 -2.160000 -16.759378 -21.200708 730.346802
3.800000 8.160000 -2.120000 9.128074 -24.038204 661.156982
3.800000 8.160000 -2.080000 29.844254 -4.374579 909.816406
3.800000 8.160000 -2.040000 27.791660 26.091383 1453.136719
3.800000 8.160000 -2.000000 1.775215 44.536335 1986.636475
3.800000 8.160000 -1.960000 -29.555096 35.704762 2148.333496
3.800000 8.160000 -1.920000 -42.283806 5.892494 1822.641724
3.800000 8.160000 -1.880000 -27.578249 -21.828550 1237.045410
3.800000 8.160000 -1.840000 1.245178 -27.491247 757.319153
3.800000 8.160000 -1.800000 21.588068 -10.624628 578.927368
3.800000 8.200000 -2.200000 -23.995819 -22.557322 1084.632080
3.800000 8.200000 -2.160000 1.032980 -31.564953 997.413330
3.800000 8.200000 -2.120000 26.694704 -17.590704 1022.040100
3.800000 8.200000 -2.080000 33.734856 12.695211 1299.208984
3.800000 8.200000 -2.040000 15.141553 38.642807 1722.533081
3.800000 8.200000 -2.000000 -16.363932 41.344673 1977.160156
3.800000 8.200000 -1.960000 -37.549969 19.629107 1795.302002
3.800000 8.200000 -1.920000 -33.756935 -8.528412 1212.264404
3.800000 8.200000 -1.880000 -10.799779 -21.336639 571.887390
3.800000 8.200000 -1.840000 11.274765 -11.290815 254.602844
3.800000 8.200000 -1.800000 16.186476 10.446364 371.128510
3.840000 7.800000 -2.200000 41.442039 -17.448214 2021.882812
3.840000 7.800000 -2.160000 36.367058 -1.722047 1325.528320
3.840000 7.800000 -2.120000 24.333252 2.090135 596.475830
3.840000 7.800000 -2.080000 18.823040 -4.808023 377.423920
3.840000 7.800000 -2.040000 24.913525 -10.469845 730.301392
3.840000 7.800000 -2.000000 34.655750 -5.300540 1229.116699
3.840000 7.800000 -1.960000 36.349377 8.134403 1387.445801
3.840000 7.800000 -1.920000 27.002598 18.793713 1082.343872
3.840000 7.800000 -1.880000 14.470478 19.431377 586.973145
3.840000 7.800000 -1.840000 7.787923 13.451121 241.584412
3.840000 7.800000 -1.800000 7.450451 9.306637 142.122711
3.840000 7.840000 -2.200000 36.925224 4.769670 1386.221924
3.840000 7.840000 -2.160000 31.208529 9.520785 1064.617554
3.840000 7.840000 -2.120000 28.943998 8.576248 911.307129
3.840000 7.840000 -2.080000 32.680119 9.803031 1164.089478
3.840000 7.840000 -2.040000 35.692902 18.622572 1620.783447
3.840000 7.840000 -2.000000 29.702744 30.579023 1817.329590
3.840000 7.840000 -1.960000 15.186152 35.395908 1483.489502
3.840000 7.840000 -1.920000 2.096067 28.429886 812.651917
3.840000 7.840000 -1.880000 -0.458000 16.429993 270.154449
3.840000 7.840000 -1.840000 5.814803 10.581326 145.776382
3.840000 7.840000 -1.800000 10.366838 14.261930 310.873962
3.840000 7.880000 -2.200000 20.578550 13.807840 614.133179
3.840000 7.880000 -2.160000 24.001339 13.743212 764.940125
3.840000 7.880000 -2.120000 30.150469 20.113283 1313.594971
3.840000 7.880000 -2.080000 30.219757 34.296410 2089.477295
3.840000 7.880000 -2.040000 17.544670 47.629154 2576.351807
3.840000 7.880000 -2.000000 -3.196397 48.186493 2332.155029
3.840000 7.880000 -1.960000 -17.886810 33.290230 1428.177368
3.840000 7.880000 -1.920000 -15.966499 14.197501 456.498169
3.840000 7.880000 -1.880000 -1.508979 6.381561 43.001339
3.840000 7.880000 -1.840000 10.028502 14.401459 307.972870
3.840000 7.880000 -1.800000 7.086750 27.278473 794.337158
3.840000 7.920000 -2.200000 8.622103 8.136194 140.538300
3.840000 7.920000 -2.160000 20.144785 15.121950 634.485718
3.840000 7.920000 -2.120000 22.594904 33.587330 1638.638428
3.840000 7.920000 -2.080000 7.455507 51.071480 2663.880615
3.840000 7.920000 -2.040000 -18.627678 51.608887 3010.467773
3.840000 7.920000 -2.000000 -36.847076 31.566748 2354.166504
3.840000 7.920000 -1.960000 -32.799957 5.604248 1107.244751
3.840000 7.920000 -1.920000 -10.993724 -5.352131 149.507263
3.840000 7.920000 -1.880000 8.248780 6.393162 108.914886
3.840000 7.920000 -1.840000 7.669934 27.821941 832.888306
3.840000 7.920000 -1.800000 -10.656323 37.900200 1549.982422
3.840000 7.960000 -2.200000 9.362797 0.484401 87.896606
3.840000 7.960000 -2.160000 17.277084 19.325548 671.974487
3.840000 7.960000 -2.120000 5.002603 40.824379 1691.655884
3.840000 7.960000 -2.080000 -22.803463 45.284184 2570.655273
3.840000 7.960000 -2.040000 -45.082611 25.118855 2663.398682
3.840000 7.960000 -2.000000 -42.568985 -5.162410 1838.769043
3.840000 7.960000 -1.960000 -16.958260 -20.238865 697.194214
3.840000 7.960000 -1.920000 8.944614 -7.382133 134.502014
3.840000 7.960000 -1.880000 11.886042 21.011662 582.767944
3.840000 7.960000 -1.840000 -10.109995 38.933361 1618.018677
3.840000 7.960000 -1.800000 -36.612129 31.373867 2324.767578
3.840000 8.000000 -2.200000 15.226686 2.998879 240.845245
3.840000 8.000000 -2.160000 8.833982 25.056938 705.889404
3.840000 8.000000 -2.120000 -15.879934 34.085606 1414.000854
3.840000 8.000000 -2.080000 -39.925056 18.202610 1925.345215
3.840000 8.000000 -2.040000 -41.149025 -12.028987 1837.938843
3.840000 8.000000 -2.000000 -16.321674 -30.497047 1196.466919
3.840000 8.000000 -1.960000 13.241646 -19.547810 557.458008
3.840000 8.000000 -1.920000 20.315605 12.118201 559.574585
3.840000 8.000000 -1.880000 -2.569041 36.518986 1340.236328
3.840000 8.000000 -1.840000 -36.006622 32.435478 2348.537109
3.840000 8.000000 -1.800000 -52.499466 4.733437 2778.599365
3.840000 8.040000 -2.200000 12.347544 13.491267 334.476135
3.840000 8.040000 -2.160000 -6.275315 24.004820 615.610962
3.840000 8.040000 -2.120000 -28.018621 13.491160 967.054565
3.840000 8.040000 -2.080000 -31.986576 -12.718249 1184.894897
3.840000 8.040000 -2.040000 -10.896785 -31.887283 1135.538696
3.840000 8.040000 -2.000000 18.577951 -24.173141 929.481079
3.840000 8.040000 -1.960000 29.066803 6.801878 891.144592
3.840000 8.040000 -1.920000 8.252056 34.931370 1288.296997
3.840000 8.040000 -1.880000 -28.355453 35.094036 2035.623169
3.840000 8.040000 -1.840000 -51.296066 6.526354 2673.879639
3.840000 8.040000 -1.800000 -44.320293 -27.176006 2702.823730
3.840000 8.080000 -2.200000 -2.875746 17.959599 330.817108
3.840000 8.080000 -2.160000 -19.333046 10.274878 479.339783
3.840000 8.080000 -2.120000 -22.792625 -10.636202 632.632568
3.840000 8.080000 -2.080000 -5.270113 -27.464931 782.096558
3.840000 8.080000 -2.040000 21.591351 -21.953308 948.134155
3.840000 8.080000 -2.000000 33.760437 6.119339 1177.213379
3.840000 8.080000 -1.960000 16.679451 35.126816 1512.097290
3.840000 8.080000 -1.920000 -19.211073 39.542847 1932.702026
3.840000 8.080000 -1.880000 -46.108833 13.542593 2309.426270
3.840000 8.080000 -1.840000 -43.581711 -23.150364 2435.304688
3.840000 8.080000 -1.800000 -16.397120 -43.420303 2154.188232
3.840000 8.120000 -2.200000 -18.690983 6.586991 392.741302
3.840000 8.120000 -2.160000 -18.983463 -10.866982 478.463196
3.840000 8.120000 -2.120000 -2.698679 -24.122179 589.162415
3.840000 8.120000 -2.080000 21.341209 -18.817383 809.541138
3.840000 8.120000 -2.040000 33.681030 6.391986 1175.269287
3.840000 8.120000 -2.000000 20.431126 34.572403 1612.682007
3.840000 8.120000 -1.960000 -12.182673 42.685204 1970.444092
3.840000 8.120000 -1.920000 -40.512268 21.895111 2120.639893
3.840000 8.120000 -1.880000 -43.062561 -13.379930 2033.406738
3.840000 8.120000 -1.840000 -19.079227 -37.444962 1766.142090
3.840000 8.120000 -1.800000 11.707891 -35.484383 1396.216064
3.840000 8.160000 -2.200000 -20.159046 -14.483335 616.154175
3.840000 8.160000 -2.160000 -3.220952 -25.527546 662.030090
3.840000 8.160000 -2.120000 19.357075 -19.652689 760.924561
3.840000 8.160000 -2.080000 31.564787 3.572753 1009.100342
3.840000 8.160000 -2.040000 21.660862 30.462559 1397.160400
3.840000 8.160000 -2.000000 -6.608515 41.576607 1772.286743
3.840000 8.160000 -1.960000 -34.438408 27.293045 1930.914185
3.840000 8.160000 -1.920000 -42.009571 -3.070229 1774.230347
3.840000 8.160000 -1.880000 -24.659906 -27.992020 1391.664062
3.840000 8.160000 -1.840000 3.631985 -31.198122 986.514099
3.840000 8.160000 -1.800000 22.721195 -14.068878 714.186035
3.840000 8.200000 -2.200000 -5.272318 -28.745686 854.111816
3.840000 8.200000 -2.160000 16.859585 -23.741875 847.922241
3.840000 8.200000 -2.120000 29.632587 -2.682604 885.286560
3.840000 8.200000 -2.080000 23.100758 22.591471 1044.019531
3.840000 8.200000 -2.040000 -0.267466 35.892162 1288.318848
3.840000 8.200000 -2.000000 -26.014111 28.179718 1470.830444
3.840000 8.200000 -1.960000 -37.586838 4.779168 1435.610840
3.840000 8.200000 -1.920000 -28.544783 -18.239197 1147.472900
3.840000 8.200000 -1.880000 -6.976405 -26.163273 733.187073
3.840000 8.200000 -1.840000 11.547911 -16.163456 394.611542
3.840000 8.200000 -1.800000 16.072960 2.354519 263.883789
3.880000 7.800000 -2.200000 44.129440 30.414616 2872.456299
3.880000 7.800000 -2.160000 22.732557 34.972664 1739.856323
3.880000 7.800000 -2.120000 9.046027 22.977791 609.809509
3.880000 7.800000 -2.080000 12.331785 9.280630 238.203018
3.880000 7.800000 -2.040000 24.317902 8.769501 668.264526
3.880000 7.800000 -2.000000 28.605522 21.083061 1262.771362
3.880000 7.800000 -1.960000 18.370205 31.948149 1358.148682
3.880000 7.800000 -1.920000 3.091644 29.386749 873.139343
3.880000 7.800000 -1.880000 -2.858763 16.629503 284.712891
3.880000 7.800000 -1.840000 3.557745 7.522516 69.245796
3.880000 7.800000 -1.800000 11.350509 10.157020 231.999084
3.880000 7.840000 -2.200000 13.695879 43.000801 2036.645996
3.880000 7.840000 -2.160000 5.499229 34.840366 1244.092651
3.880000 7.840000 -2.120000 8.523563 29.492722 942.471741
3.880000 7.840000 -2.080000 12.443398 35.486507 1414.130371
3.880000 7.840000 -2.040000 4.590652 46.618439 2194.352783
3.880000 7.840000 -2.000000 -14.803863 47.567192 2481.791992
3.880000 7.840000 -1.960000 -30.670155 30.917578 1896.554932
3.880000 7.840000 -1.920000 -28.092545 7.111625 839.766235
3.880000 7.840000 -1.880000 -8.814915 -4.674846 99.556900
3.880000 7.840000 -1.840000 9.169667 3.900616 99.297600
3.880000 7.840000 -1.800000 9.598906 21.231846 542.930298
3.880000 7.880000 -2.200000 -13.298206 28.519812 990.221924
3.880000 7.880000 -2.160000 -3.777886 25.626228 670.975952
3.880000 7.880000 -2.120000 1.100710 39.099243 1529.962402
3.880000 7.880000 -2.080000 -14.070896 55.880226 3320.589844
3.880000 7.880000 -2.040000 -44.697800 53.677952 4879.215820
3.880000 7.880000 -2.000000 -66.695869 24.322817 5039.938477
3.880000 7.880000 -1.960000 -58.578995 -14.500292 3641.757080
3.880000 7.880000 -1.920000 -23.859499 -33.410160 1685.514404
3.880000 7.880000 -1.880000 10.063726 -18.957253 460.656006
3.880000 7.880000 -1.840000 17.004595 13.032118 458.992340
3.880000 7.880000 -1.800000 -3.489088 32.640881 1077.600830
3.880000 7.920000 -2.200000 -17.286737 2.120146 303.326324
3.880000 7.920000 -2.160000 -3.621807 18.114965 341.269470
3.880000 7.920000 -2.120000 -16.088642 43.484413 2149.738525
3.880000 7.920000 -2.080000 -53.328190 47.772606 5126.117676
3.880000 7.920000 -2.040000 -85.428909 14.894005 7519.930176
3.880000 7.920000 -2.000000 -80.098473 -36.739601 7765.563477
3.880000 7.920000 -1.960000 -35.099297 -67.464401 5783.405762
3.880000 7.920000 -1.920000 16.446789 -52.623875 3039.769043
3.880000 7.920000 -1.880000 35.284828 -6.347393 1285.308472
3.880000 7.920000 -1.840000 11.900541 31.489891 1133.236084
3.880000 7.920000 -1.800000 -26.402992 32.653091 1763.342285
3.880000 7.960000 -2.200000 -0.725579 -12.400421 154.296906
3.880000 7.960000 -2.160000 -2.288254 17.769939 321.006866
3.880000 7.960000 -2.120000 -36.597664 33.799580 2481.800781
3.880000 7.960000 -2.080000 -76.628479 9.245253 5957.398438
3.880000 7.960000 -2.040000 -81.879517 -45.756958 8797.955078
3.880000 7.960000 -2.000000 -38.070908 -88.331779 9251.897461
3.880000 7.960000 -1.960000 25.108152 -81.076630 7203.839355
3.880000 7.960000 -1.920000 58.691402 -28.196033 4239.696777
3.880000 7.960000 -1.880000 39.069321 27.140900 2263.040283
3.880000 7.960000 -1.840000 -11.243120 42.628288 1943.578735
3.880000 7.960000 -1.800000 -46.905411 14.587266 2412.906006
3.880000 8.000000 -2.200000 15.764759 -5.582220 279.688812
3.880000 8.000000 -2.160000 -7.449053 19.226999 425.165894
3.880000 8.000000 -2.120000 -47.473579 9.754897 2348.898682
3.880000 8.000000 -2.080000 -64.544525 -36.674713 5511.030273
3.880000 8.000000 -2.040000 -32.995121 -84.395462 8211.272461
3.880000 8.000000 -2.000000 29.691353 -89.323166 8860.204102
3.880000 8.000000 -1.960000 74.537476 -41.433430 7272.564453
3.880000 8.000000 -1.920000 65.160973 23.034626 4776.545898
3.880000 8.000000 -1.880000 11.607513 53.738091 3022.516846
3.880000 8.000000 -1.840000 -39.882309 31.909739 2608.829834
3.880000 8.000000 -1.800000 -50.684448 -15.296938 2802.909668
3.880000 8.040000 -2.200000 15.005554 9.945748 324.084564
3.880000 8.040000 -2.160000 -16.671480 13.151345 450.896149
3.880000 8.040000 -2.120000 -39.331059 -17.497828 1853.106079
3.880000 8.040000 -2.080000 -23.838270 -60.241821 4197.340332
3.880000 8.040000 -2.040000 26.597454 -74.857437 6311.060547
3.880000 8.040000 -2.000000 73.417404 -40.610542 7039.331543
3.880000 8.040000 -1.960000 75.819641 20.462606 6167.336426
3.880000 8.040000 -1.920000 29.364973 60.722439 4549.516113
3.880000 8.040000 -1.880000 -28.707541 49.865711 3310.711914
3.880000 8.040000 -1.840000 -53.677200 1.753731 2884.317627
3.880000 8.040000 -1.800000 -33.391190 -40.981583 2794.461670
3.880000 8.080000 -2.200000 -0.021809 14.316003 204.948410
3.880000 8.080000 -2.160000 -19.422243 -2.018151 381.296478
3.880000 8.080000 -2.120000 -15.013795 -32.554573 1285.214233
3.880000 8.080000 -2.080000 18.412474 -49.056545 2745.563965
3.880000 8.080000 -2.040000 57.249706 -29.279951 4134.844238
3.880000 8.080000 -2.000000 66.736420 18.556856 4798.106445
3.880000 8.080000 -1.960000 33.383698 58.614212 4550.097168
3.880000 8.080000 -1.920000 -19.839119 58.221268 3783.306641
3.880000 8.080000 -1.880000 -52.521706 17.861811 3077.573730
3.880000 8.080000 -1.840000 -42.696442 -29.447746 2690.155762
3.880000 8.080000 -1.800000 -4.760089 -48.882408 2412.148193
3.880000 8.120000 -2.200000 -11.161339 1.481740 126.771042
3.880000 8.120000 -2.160000 -8.821118 -16.590160 353.045563
3.880000 8.120000 -2.120000 11.398793 -27.578848 890.525330
3.880000 8.120000 -2.080000 37.439342 -16.220955 1664.823730
3.880000 8.120000 -2.040000 46.621513 16.158112 2434.649902
3.880000 8.120000 -2.000000 25.394302 47.766674 2926.525635
3.880000 8.120000 -1.960000 -15.455517 52.689903 3015.098877
3.880000 8.120000 -1.920000 -46.993931 24.145256 2791.422852
3.880000 8.120000 -1.880000 -46.212059 -17.915482 2456.519043
3.880000 8.120000 -1.840000 -15.814224 -43.475483 2140.207275
3.880000 8.120000 -1.800000 19.345388 -38.015743 1819.440796
3.880000 8.160000 -2.200000 -5.364851 -15.617631 272.692017
3.880000 8.160000 -2.160000 9.716015 -18.807951 448.139954
3.880000 8.160000 -2.120000 25.105816 -8.431990 701.400452
3.880000 8.160000 -2.080000 29.097004 13.211679 1021.184082
3.880000 8.160000 -2.040000 14.518137 33.928368 1361.910400
3.880000 8.160000 -2.000000 -13.298840 38.367317 1648.910156
3.880000 8.160000 -1.960000 -37.447777 20.188576 1809.914551
3.880000 8.160000 -1.920000 -41.153694 -10.888271 1812.181030
3.880000 8.160000 -1.880000 -21.280321 -35.007713 1678.392090
3.880000 8.160000 -1.840000 8.674919 -37.275032 1464.682251
3.880000 8.160000 -1.800000 29.386314 -18.913313 1221.268921
3.880000 8.200000 -2.200000 11.984994 -20.134596 549.041992
3.880000 8.200000 -2.160000 22.714546 -7.133590 566.838745
3.880000 8.200000 -2.120000 21.666389 10.387418 577.330872
3.880000 8.200000 -2.080000 8.739385 23.277046 618.197693
3.880000 8.200000 -2.040000 -10.183195 24.545387 706.173462
3.880000 8.200000 -2.000000 -25.827755 12.649771 827.089600
3.880000 8.200000 -1.960000 -29.812368 -7.226148 940.994507
3.880000 8.200000 -1.920000 -19.267075 -25.094458 1000.951965
3.880000 8.200000 -1.880000 0.809079 -31.292379 979.867615
3.880000 8.200000 -1.840000 19.768436 -22.296535 887.926575
3.880000 8.200000 -1.800000 27.511885 -3.195894 767.117554
3.920000 7.800000 -2.200000 5.864688 68.253136 4692.885254
3.920000 7.800000 -2.160000 -19.351540 50.859940 2961.215576
3.920000 7.800000 -2.120000 -21.924818 24.590443 1085.387451
3.920000 7.800000 -2.080000 -6.172226 11.370974 167.395416
3.920000 7.800000 -2.040000 7.553226 18.193117 388.040741
3.920000 7.800000 -2.000000 4.273573 31.164845 989.510986
3.920000 7.800000 -1.960000 -10.464149 31.674904 1112.797974
3.920000 7.800000 -1.920000 -18.132057 17.013889 618.243896
3.920000 7.800000 -1.880000 -8.772232 2.686095 84.167168
3.920000 7.800000 -1.840000 7.630376 4.154175 75.479805
3.920000 7.800000 -1.800000 12.739577 18.794905 515.545288
3.920000 7.840000 -2.200000 -36.427139 50.284245 3855.441650
3.920000 7.840000 -2.160000 -35.699612 30.501993 2204.833984
3.920000 7.840000 -2.120000 -25.424540 25.600101 1301.772461
3.920000 7.840000 -2.080000 -24.914690 33.742126 1759.272949
3.920000 7.840000 -2.040000 -40.760952 36.204285 2972.205566
3.920000 7.840000 -2.000000 -57.849625 18.203033 3677.929443
3.920000 7.840000 -1.960000 -54.360245 -12.780350 3118.373535
3.920000 7.840000 -1.920000 -26.021317 -31.986908 1700.271240
3.920000 7.840000 -1.880000 6.605173 -22.162724 534.814636
3.920000 7.840000 -1.840000 17.141775 7.558453 350.970673
3.920000 7.840000 -1.800000 -0.197666 29.483761 869.331238
3.920000 7.880000 -2.200000 -50.243462 7.537758 2581.223389
3.920000 7.880000 -2.160000 -33.430435 8.720802 1193.646362
3.920000 7.880000 -2.120000 -36.068352 26.303211 1992.784912
3.920000 7.880000 -2.080000 -64.411880 30.712130 5092.125000
3.920000 7.880000 -2.040000 -92.878265 0.754662 8626.941406
3.920000 7.880000 -2.000000 -87.197166 -50.517349 10155.348633
3.920000 7.880000 -1.960000 -40.171291 -83.827362 8640.759766
3.920000 7.880000 -1.920000 17.098713 -70.324898 5237.957520
3.920000 7.880000 -1.880000 42.194519 -20.664551 2207.401123
3.920000 7.880000 -1.840000 20.894394 23.795525 1002.802673
3.920000 7.880000 -1.800000 -20.331573 29.729176 1297.196777
3.920000 7.920000 -2.200000 -28.119141 -27.645983 1554.986450
3.920000 7.920000 -2.160000 -20.847652 -1.067898 435.765015
3.920000 7.920000 -2.120000 -51.599545 16.734982 2942.572510
3.920000 7.920000 -2.080000 -93.725845 -9.273285 8870.528320
3.920000 7.920000 -2.040000 -99.041458 -72.804245 15109.667969
3.920000 7.920000 -2.000000 -46.058624 -125.372803 17839.736328
3.920000 7.920000 -1.960000 33.928055 -119.761429 15493.913086
3.920000 7.920000 -1.920000 82.057259 -56.154465 9886.717773
3.920000 7.920000 -1.880000 65.604607 15.961206 4558.724609
3.920000 7.920000 -1.840000 7.298941 43.199615 1919.481323
3.920000 7.920000 -1.800000 -38.485493 16.210196 1743.903564
3.920000 7.960000 -2.200000 8.097298 -31.615929 1065.133179
3.920000 7.960000 -2.160000 -11.997475 0.983521 144.906708
3.920000 7.960000 -2.120000 -59.903049 -6.753734 3633.988281
3.920000 7.960000 -2.080000 -83.348145 -65.457947 11231.656250
3.920000 7.960000 -2.040000 -42.730350 -131.724213 19177.150391
3.920000 7.960000 -2.000000 44.945915 -144.247253 22827.404297
3.920000 7.960000 -1.960000 115.555641 -82.718132 20195.396484
3.920000 7.960000 -1.920000 115.184669 9.587371 13359.425781
3.920000 7.960000 -1.880000 49.753189 63.977158 6568.456543
3.920000 7.960000 -1.840000 -22.229485 48.498543 2846.258545
3.920000 7.960000 -1.800000 -45.714146 -6.979941 2138.502686
3.920000 8.000000 -2.200000 28.514587 -9.232367 898.318237
3.920000 8.000000 -2.160000 -12.483747 3.946859 171.421646
3.920000 8.000000 -2.120000 -49.402191 -34.576797 3636.131348
3.920000 8.000000 -2.080000 -32.996777 -99.722626 11033.389648
3.920000 8.000000 -2.040000 41.573948 -130.777557 18831.162109
3.920000 8.000000 -2.000000 121.886993 -88.021271 22604.183594
3.920000 8.000000 -1.960000 142.612259 5.471954 20368.197266
3.920000 8.000000 -1.920000 86.085190 81.008636 13973.058594
3.920000 8.000000 -1.880000 -0.950404 85.910339 7381.489746
3.920000 8.000000 -1.840000 -51.340744 29.451122 3503.240723
3.920000 8.000000 -1.800000 -38.188141 -31.055531 2422.780029
3.920000 8.040000 -2.200000 22.232183 13.985550 689.865601
3.920000 8.040000 -2.160000 -15.436491 -0.685811 238.755585
3.920000 8.040000 -2.120000 -21.185898 -49.853127 2934.176514
3.920000 8.040000 -2.080000 26.206188 -88.856926 8582.317383
3.920000 8.040000 -2.040000 97.322983 -71.494011 14583.156250
3.920000 8.040000 -2.000000 132.831268 2.801615 17651.996094
3.920000 8.040000 -1.960000 97.459946 82.263412 16265.710938
3.920000 8.040000 -1.920000 14.814240 107.147232 11699.991211
3.920000 8.040000 -1.880000 -52.809212 63.385086 6806.481934
3.920000 8.040000 -1.840000 -60.605301 -6.908353 3720.727783
3.920000 8.040000 -1.800000 -18.371071 -47.248035 2569.873291
3.920000 8.080000 -2.200000 3.908090 17.867935 334.536285
3.920000 8.080000 -2.160000 -11.001452 -9.846574 217.986969
3.920000 8.080000 -2.120000 9.670370 -42.626617 1910.544678
3.920000 8.080000 -2.080000 57.836700 -43.798706 5263.410645
3.920000 8.080000 -2.040000 93.927460 1.326567 8824.127930
3.920000 8.080000 -2.000000 80.519844 65.539162 10778.827148
3.920000 8.080000 -1.960000 19.110630 99.522827 10270.008789
3.920000 8.080000 -1.920000 -47.474243 75.475945 7950.421875
3.920000 8.080000 -1.880000 -71.831192 12.654149 5319.847656
3.920000 8.080000 -1.840000 -43.104652 -40.576477 3504.461426
3.920000 8.080000 -1.800000 7.012909 -50.371380 2586.456787
3.920000 8.120000 -2.200000 -4.477216 5.042222 45.469467
3.920000 8.120000 -2.160000 1.763968 -13.191340 177.123047
3.920000 8.120000 -2.120000 25.835098 -18.896545 1024.531738
3.920000 8.120000 -2.080000 49.817192 1.787233 2484.946777
3.920000 8.120000 -2.040000 48.568932 40.673409 4013.267334
3.920000 8.120000 -2.000000 13.404625 69.146057 4960.861328
3.920000 8.120000 -1.960000 -35.690720 61.264931 5027.219238
3.920000 8.120000 -1.920000 -64.041733 18.012320 4425.787598
3.920000 8.120000 -1.880000 -51.498093 -31.400431 3638.040527
3.920000 8.120000 -1.840000 -9.541623 -53.914371 2997.802002
3.920000 8.120000 -1.800000 30.055702 -39.935036 2498.152344
3.920000 8.160000 -2.200000 4.016872 -6.141295 53.850777
3.920000 8.160000 -2.160000 13.591398 -5.314190 212.966721
3.920000 8.160000 -2.120000 21.801403 4.456236 495.159210
3.920000 8.160000 -2.080000 20.419214 21.254307 868.689819
3.920000 8.160000 -2.040000 4.143597 35.222977 1257.827515
3.920000 8.160000 -2.000000 -21.824921 33.396118 1591.627808
3.920000 8.160000 -1.960000 -41.672863 10.779472 1852.824585
3.920000 8.160000 -1.920000 -39.675049 -22.318626 2072.230469
3.920000 8.160000 -1.880000 -13.701720 -45.600052 2267.101807
3.920000 8.160000 -1.840000 21.281361 -43.981396 2387.259521
3.920000 8.160000 -1.800000 44.186142 -19.534092 2333.995850
3.920000 8.200000 -2.200000 17.435089 -2.931448 312.575714
3.920000 8.200000 -2.160000 15.237875 7.931388 295.099762
3.920000 8.200000 -2.120000 7.163771 14.072643 249.358902
3.920000 8.200000 -2.080000 -2.336758 14.496031 215.595337
3.920000 8.200000 -2.040000 -11.132830 10.082470 225.596100
3.920000 8.200000 -2.000000 -17.647314 0.473444 311.651855
3.920000 8.200000 -1.960000 -17.799898 -14.153446 517.156372
3.920000 8.200000 -1.920000 -6.767441 -28.772139 873.634216
3.920000 8.200000 -1.880000 14.739721 -33.638775 1348.826538
3.920000 8.200000 -1.840000 36.868614 -21.455261 1819.622925
3.920000 8.200000 -1.800000 45.766567 4.515140 2114.965088
3.960000 7.800000 -2.200000 -51.253883 66.027138 6986.543457
3.960000 7.800000 -2.160000 -63.239998 28.774538 4827.271484
3.960000 7.800000 -2.120000 -46.550415 -1.158276 2168.282715
3.960000 7.800000 -2.080000 -20.270233 -5.929302 446.038971
3.960000 7.800000 -2.040000 -8.145081 7.682739 125.366821
3.960000 7.800000 -2.000000 -15.139328 17.396896 531.851257
3.960000 7.800000 -1.960000 -24.660530 10.138542 710.931763
3.960000 7.800000 -1.920000 -19.028011 -4.547367 382.743774
3.960000 7.800000 -1.880000 -0.213638 -6.849205 46.957253
3.960000 7.800000 -1.840000 12.365606 9.469425 242.578232
3.960000 7.800000 -1.800000 4.382652 28.848446 851.440491
3.960000 7.840000 -2.200000 -78.319946 15.441718 6372.460938
3.960000 7.840000 -2.160000 -62.283329 -6.576402 3922.462158
3.960000 7.840000 -2.120000 -46.370411 -6.862650 2197.311035
3.960000 7.840000 -2.080000 -47.864552 -0.567574 2291.337402
3.960000 7.840000 -2.040000 -60.051846 -9.502464 3696.520996
3.960000 7.840000 -2.000000 -59.163139 -36.378815 4823.695312
3.960000 7.840000 -1.960000 -31.379776 -59.015022 4467.463379
3.960000 7.840000 -1.920000 8.884827 -52.526993 2838.025146
3.960000 7.840000 -1.880000 30.524370 -16.916733 1217.913086
3.960000 7.840000 -1.840000 16.608168 19.823204 668.790649
3.960000 7.840000 -1.800000 -17.494419 28.032295 1091.864258
3.960000 7.880000 -2.200000 -59.142570 -38.254601 4961.258301
3.960000 7.880000 -2.160000 -40.229179 -28.343128 2421.719727
3.960000 7.880000 -2.120000 -50.943722 -14.271959 2798.951416
3.960000 7.880000 -2.080000 -77.379089 -29.265755 6844.007812
3.960000 7.880000 -2.040000 -80.459671 -76.023438 12253.322266
3.960000 7.880000 -2.000000 -36.958870 -118.190292 15334.903320
3.960000 7.880000 -1.960000 31.906281 -113.734177 13953.473633
3.960000 7.880000 -1.920000 76.166862 -57.942966 9158.778320
3.960000 7.880000 -1.880000 63.614304 8.475212 4118.608887
3.960000 7.880000 -1.840000 10.752981 36.218376 1427.397339
3.960000 7.880000 -1.800000 -33.361210 12.854521 1278.208984
3.960000 7.920000 -2.200000 -9.498531 -58.555504 3518.969238
3.960000 7.920000 -2.160000 -15.825970 -28.635345 1070.444336
3.960000 7.920000 -2.120000 -53.954021 -31.144585 3881.021484
3.960000 7.920000 -2.080000 -74.460335 -83.090721 12448.409180
3.960000 7.920000 -2.040000 -34.571503 -146.077606 22533.857422
3.960000 7.920000 -2.000000 53.643459 -158.557175 28017.998047
3.960000 7.920000 -1.960000 127.617874 -96.299721 25559.957031
3.960000 7.920000 -1.920000 130.638245 0.045757 17066.353516
3.960000 7.920000 -1.880000 65.186600 60.196049 7872.857422
3.960000 7.920000 -1.840000 -10.159767 48.321781 2438.215576
3.960000 7.920000 -1.800000 -36.726604 -7.306206 1402.224121
3.960000 7.960000 -2.200000 33.216660 -37.306316 2495.107666
3.960000 7.960000 -2.160000 -3.856907 -17.191441 310.421356
3.960000 7.960000 -2.120000 -43.238659 -53.964237 4781.720703
3.960000 7.960000 -2.080000 -26.205303 -124.711365 16239.642578
3.960000 7.960000 -2.040000 58.210983 -160.986450 29305.156250
3.960000 7.960000 -2.000000 153.305313 -113.595535 36406.464844
3.960000 7.960000 -1.960000 182.817261 -4.533121 33442.703125
3.960000 7.960000 -1.920000 122.141945 88.503677 22751.554688
3.960000 7.960000 -1.880000 21.790947 102.116646 10902.655273
3.960000 7.960000 -1.840000 -40.452221 43.013058 3486.505371
3.960000 7.960000 -1.800000 -30.396599 -24.348949 1516.824585
3.960000 8.000000 -2.200000 42.800011 1.454403 1833.956177
3.960000 8.000000 -2.160000 -3.801038 -8.697962 90.102432
3.960000 8.000000 -2.120000 -15.192249 -67.582184 4798.156250
3.960000 8.000000 -2.080000 42.458908 -119.817062 16158.887695
3.960000 8.000000 -2.040000 136.391022 -101.939987 28994.273438
3.960000 8.000000 -2.000000 189.848938 -6.975880 36091.285156
3.960000 8.000000 -1.960000 152.202286 101.754982 33519.609375
3.960000 8.000000 -1.920000 48.124504 145.237610 23409.929688
3.960000 8.000000 -1.880000 -44.071770 99.805580 11903.475586
3.960000 8.000000 -1.840000 -63.864098 15.038134 4304.768555
3.960000 8.000000 -1.800000 -19.150597 -37.036362 1738.437500
3.960000 8.040000 -2.200000 23.832047 26.164436 1252.544189
3.960000 8.040000 -2.160000 -4.985857 -8.166041 91.543007
3.960000 8.040000 -2.120000 17.767708 -58.860554 3780.256104
3.960000 8.040000 -2.080000 87.705559 -68.621689 12401.201172
3.960000 8.040000 -2.040000 148.548889 -8.035572 22131.343750
3.960000 8.040000 -2.000000 140.459320 89.255516 27695.367188
3.960000 8.040000 -1.960000 57.669262 151.212265 26190.892578
3.960000 8.040000 -1.920000 -42.476261 131.377304 19064.228516
3.960000 8.040000 -1.880000 -90.031960 50.329044 10638.766602
3.960000 8.040000 -1.840000 -63.570198 -25.712498 4702.302734
3.960000 8.040000 -1.800000 -3.018042 -46.515053 2172.758789
3.960000 8.080000 -2.200000 1.483153 25.264954 640.517639
3.960000 8.080000 -2.160000 -0.470362 -9.088203 82.816681
3.960000 8.080000 -2.120000 36.100075 -30.712692 2246.484863
3.960000 8.080000 -2.080000 84.190369 -6.465225 7129.817383
3.960000 8.080000 -2.040000 96.271835 58.251904 12661.550781
3.960000 8.080000 -2.000000 48.453110 116.963371 16028.134766
3.960000 8.080000 -1.960000 -32.979557 120.748718 15667.904297
3.960000 8.080000 -1.920000 -91.222427 62.793262 12264.525391
3.960000 8.080000 -1.880000 -88.021034 -14.694631 7963.634766
3.960000 8.080000 -1.840000 -35.285519 -58.332077 4647.699219
3.960000 8.080000 -1.800000 20.151844 -49.085243 2815.458008
3.960000 8.120000 -2.200000 -4.921289 11.931443 166.578430
3.960000 8.120000 -2.160000 6.110538 -4.033492 53.607727
3.960000 8.120000 -2.120000 30.585274 -1.318684 937.197937
3.960000 8.120000 -2.080000 45.194893 27.439953 2795.529297
3.960000 8.120000 -2.040000 27.816412 64.444763 4926.880371
3.960000 8.120000 -2.000000 -19.232239 77.708618 6408.508301
3.960000 8.120000 -1.960000 -65.944061 48.897953 6739.628906
3.960000 8.120000 -1.920000 -77.826279 -7.818069 6118.051758
3.960000 8.120000 -1.880000 -45.403725 -55.477077 5139.204102
3.960000 8.120000 -1.840000 7.823347 -64.760857 4255.173340
3.960000 8.120000 -1.800000 46.383533 -36.877815 3511.405273
3.960000 8.160000 -2.200000 2.727859 5.440947 37.045116
3.960000 8.160000 -2.160000 6.906659 5.757426 80.849892
3.960000 8.160000 -2.120000 10.652180 11.719962 250.826447
3.960000 8.160000 -2.080000 7.113342 22.609747 561.800293
3.960000 8.160000 -2.040000 -8.391678 29.709530 953.076416
3.960000 8.160000 -2.000000 -30.096745 21.288979 1359.034668
3.960000 8.160000 -1.960000 -42.014938 -5.609688 1796.723633
3.960000 8.160000 -1.920000 -29.887341 -38.176254 2350.679443
3.960000 8.160000 -1.880000 4.920313 -54.899254 3038.137451
3.960000 8.160000 -1.840000 43.484505 -42.457409 3693.533691
3.960000 8.160000 -1.800000 62.977989 -7.294146 4019.431641
3.960000 8.200000 -2.200000 9.490496 11.347584 218.837158
3.960000 8.200000 -2.160000 0.344982 12.405334 154.011337
3.960000 8.200000 -2.120000 -5.074523 6.615340 69.513512
3.960000 8.200000 -2.080000 -4.730219 0.819441 23.046455
3.960000 8.200000 -2.040000 -3.538290 -1.876663 16.041361
3.960000 8.200000 -2.000000 -4.730497 -5.831341 56.382141
3.960000 8.200000 -1.960000 -3.244952 -15.705822 257.202576
3.960000 8.200000 -1.920000 9.482969 -26.938072 815.586426
3.960000 8.200000 -1.880000 33.540783 -26.500134 1827.241211
3.960000 8.200000 -1.840000 55.352547 -5.432286 3093.414307
3.960000 8.200000 -1.800000 57.194382 29.422535 4136.882812
4.000000 7.800000 -2.200000 -89.438293 23.516598 8552.239258
4.000000 7.800000 -2.160000 -77.946426 -19.699574 6463.718750
4.000000 7.800000 -2.120000 -43.568352 -39.843151 3485.677979
4.000000 7.800000 -2.080000 -13.248896 -31.053673 1139.863770
4.000000 7.800000 -2.040000 -4.822283 -11.555389 156.781433
4.000000 7.800000 -2.000000 -11.854282 -3.218430 150.882309
4.000000 7.800000 -1.960000 -14.367645 -9.188517 290.858063
4.000000 7.800000 -1.920000 -2.938530 -13.478329 190.300308
4.000000 7.800000 -1.880000 10.826986 -1.974876 121.123772
4.000000 7.800000 -1.840000 8.737104 19.439955 454.248840
4.000000 7.800000 -1.800000 -11.440487 30.455093 1058.397461
4.000000 7.840000 -2.200000 -82.048172 -39.507580 8292.750977
4.000000 7.840000 -2.160000 -53.128807 -53.220222 5655.062500
4.000000 7.840000 -2.120000 -34.640202 -46.797985 3389.995117
4.000000 7.840000 -2.080000 -33.758392 -41.946964 2899.176758
4.000000 7.840000 -2.040000 -34.072617 -53.018063 3971.858398
4.000000 7.840000 -2.000000 -15.734451 -69.625969 5095.348145
4.000000 7.840000 -1.960000 19.342033 -67.217606 4892.320801
4.000000 7.840000 -1.920000 45.561337 -35.325676 3323.738770
4.000000 7.840000 -1.880000 38.928665 7.180004 1566.993408
4.000000 7.840000 -1.840000 3.402918 27.896158 789.775452
4.000000 7.840000 -1.800000 -30.379591 12.667206 1083.377686
4.000000 7.880000 -2.200000 -31.043987 -77.023453 6896.341309
4.000000 7.880000 -2.160000 -16.353121 -59.946472 3861.004150
4.000000 7.880000 -2.120000 -28.628428 -53.934994 3728.570557
4.000000 7.880000 -2.080000 -38.246696 -79.274261 7747.218750
4.000000 7.880000 -2.040000 -11.658031 -116.406319 13686.340820
4.000000 7.880000 -2.000000 49.129002 -122.447281 17406.996094
4.000000 7.880000 -1.960000 102.141754 -75.741226 16169.670898
4.000000 7.880000 -1.920000 103.851486 -2.369514 10790.745117
4.000000 7.880000 -1.880000 52.519585 44.867935 4771.438477
4.000000 7.880000 -1.840000 -8.239317 35.484024 1327.002319
4.000000 7.880000 -1.800000 -30.338425 -10.804235 1037.151489
4.000000 7.920000 -2.200000 27.649540 -66.121941 5136.607910
4.000000 7.920000 -2.160000 9.519409 -43.811562 2010.072021
4.000000 7.920000 -2.120000 -18.194328 -65.488831 4619.820801
4.000000 7.920000 -2.080000 -4.131184 -118.307373 14013.701172
4.000000 7.920000 -2.040000 66.126602 -145.871719 25651.285156
4.000000 7.920000 -2.000000 147.258270 -103.407898 32378.191406
4.000000 7.920000 -1.960000 172.757690 -6.780064 29891.187500
4.000000 7.920000 -1.920000 118.710144 76.825760 19994.296875
4.000000 7.920000 -1.880000 28.386152 89.855904 8879.857422
4.000000 7.920000 -1.840000 -27.967585 36.688316 2128.218262
4.000000 7.920000 -1.800000 -17.821022 -24.339275 909.989136
4.000000 7.960000 -2.200000 56.211544 -21.371738 3616.489014
4.000000 7.960000 -2.160000 16.012897 -22.676556 770.639038
4.000000 7.960000 -2.120000 4.264532 -73.546051 5427.207520
4.000000 7.960000 -2.080000 58.875557 -122.095901 18373.740234
4.000000 7.960000 -2.040000 151.245514 -103.690048 33626.832031
4.000000 7.960000 -2.000000 205.448593 -8.060873 42274.101562
4.000000 7.960000 -1.960000 168.793289 103.147682 39130.617188
4.000000 7.960000 -1.920000 64.092010 149.854279 26564.089844
4.000000 7.960000 -1.880000 -29.930145 106.587646 12256.740234
4.000000 7.960000 -1.840000 -51.058952 22.904741 3131.643799
4.000000 7.960000 -1.800000 -6.780525 -27.414331 797.521118
4.000000 8.000000 -2.200000 45.018593 21.440147 2486.353516
4.000000 8.000000 -2.160000 11.302526 -10.007072 227.888611
4.000000 8.000000 -2.120000 33.505707 -64.701508 5308.917480
4.000000 8.000000 -2.080000 111.234924 -76.510590 18227.078125
4.000000 8.000000 -2.040000 181.937454 -8.339329 33170.781250
4.000000 8.000000 -2.000000 175.651154 104.221947 41715.542969
4.000000 8.000000 -1.960000 83.095604 179.186523 39012.691406
4.000000 8.000000 -1.920000 -31.801100 161.937897 27235.193359
4.000000 8.000000 -1.880000 -89.126953 74.312943 13466.027344
4.000000 8.000000 -1.840000 -63.734978 -8.944002 4142.142578
4.000000 8.000000 -1.800000 -0.735199 -30.896046 955.106140
4.000000 8.040000 -2.200000 14.784840 37.205315 1602.826904
4.000000 8.040000 -2.160000 7.015739 -5.462448 79.058937
4.000000 8.040000 -2.120000 52.112629 -36.096939 4018.715088
4.000000 8.040000 -2.080000 116.732819 -7.045223 13676.185547
4.000000 8.040000 -2.040000 136.827393 78.105087 24822.140625
4.000000 8.040000 -2.000000 77.937889 159.250702 31435.099609
4.000000 8.040000 -1.960000 -27.816530 171.045166 30030.208984
4.000000 8.040000 -1.920000 -107.109131 102.626587 22004.582031
4.000000 8.040000 -1.880000 -110.023163 7.113972 12155.705078
4.000000 8.040000 -1.840000 -51.229481 -47.944469 4923.131836
4.000000 8.040000 -1.800000 10.483687 -39.411728 1663.192017
4.000000 8.080000 -2.200000 -7.199312 28.468437 862.281982
4.000000 8.080000 -2.160000 5.933168 -1.522997 37.522007
4.000000 8.080000 -2.120000 46.501091 -2.528326 2168.743896
4.000000 8.080000 -2.080000 75.132759 41.496181 7366.864746
4.000000 8.080000 -2.040000 53.158909 103.110519 13457.648438
4.000000 8.080000 -2.000000 -17.920574 130.619492 17382.597656
4.000000 8.080000 -1.960000 -92.110222 94.102875 17339.644531
4.000000 8.080000 -1.920000 -116.971756 14.271439 13886.065430
4.000000 8.080000 -1.880000 -78.776718 -54.686333 9196.366211
4.000000 8.080000 -1.840000 -11.849906 -71.946999 5316.791016
4.000000 8.080000 -1.800000 35.170906 -41.615448 2968.838135
4.000000 8.120000 -2.200000 -10.878052 14.953302 341.933258
4.000000 8.120000 -2.160000 3.023058 4.602151 30.318672
4.000000 8.120000 -2.120000 21.661194 15.156231 698.918640
4.000000 8.120000 -2.080000 21.904066 43.926727 2409.345459
4.000000 8.120000 -2.040000 -8.233791 66.796181 4529.525391
4.000000 8.120000 -2.000000 -53.942184 57.165787 6177.686523
4.000000 8.120000 -1.960000 -81.946762 11.220123 6841.163086
4.000000 8.120000 -1.920000 -67.857033 -45.018909 6631.278809
4.000000 8.120000 -1.880000 -17.740143 -75.442413 6006.270508
4.000000 8.120000 -1.840000 36.548882 -62.977238 5301.953125
4.000000 8.120000 -1.800000 63.832150 -21.500532 4536.815918
4.000000 8.160000 -2.200000 -5.729969 11.010425 154.061996
4.000000 8.160000 -2.160000 -4.470583 8.233183 87.771416
4.000000 8.160000 -2.120000 -2.072393 9.516317 94.855110
4.000000 8.160000 -2.080000 -4.873566 14.478817 233.387787
4.000000 8.160000 -2.040000 -16.290058 15.041727 491.619568
4.000000 8.160000 -2.000000 -29.334404 1.815758 863.804260
4.000000 8.160000 -1.960000 -29.113762 -24.402336 1443.085205
4.000000 8.160000 -1.920000 -5.824818 -48.364597 2373.062744
4.000000 8.160000 -1.880000 33.383423 -50.337212 3648.287842
4.000000 8.160000 -1.840000 66.555389 -22.962242 4956.884277
4.000000 8.160000 -1.800000 73.118324 20.749409 5776.827637
4.000000 8.200000 -2.200000 -4.602624 14.890465 242.910080
4.000000 8.200000 -2.160000 -11.845037 5.254276 167.912338
4.000000 8.200000 -2.120000 -8.114099 -6.652178 110.090057
4.000000 8.200000 -2.080000 2.438568 -10.883865 124.405144
4.000000 8.200000 -2.040000 9.682844 -7.281147 146.772568
4.000000 8.200000 -2.000000 10.331472 -4.946445 131.206635
4.000000 8.200000 -1.960000 12.664164 -9.793365 256.291046
4.000000 8.200000 -1.920000 26.401539 -14.668539 912.207275
4.000000 8.200000 -1.880000 48.414276 -4.854484 2367.508057
4.000000 8.200000 -1.840000 61.191963 25.262978 4382.674316
4.000000 8.200000 -1.800000 48.034462 62.251328 6182.537109
4.040000 7.800000 -2.200000 -86.299217 -29.886097 8340.733398
4.040000 7.800000 -2.160000 -54.037865 -62.515293 6828.252930
4.040000 7.800000 -2.120000 -12.164780 -64.275620 4279.337402
4.040000 7.800000 -2.080000 13.822529 -41.697433 1929.738159
4.040000 7.800000 -2.040000 15.956833 -17.298294 553.851501
4.040000 7.800000 -2.000000 7.336029 -6.966865 102.354523
4.040000 7.800000 -1.960000 4.665508 -6.823292 68.324280
4.040000 7.800000 -1.920000 9.750389 -2.419262 100.922920
4.040000 7.800000 -1.880000 9.965422 11.561264 232.972458
4.040000 7.800000 -1.840000 -4.091845 23.989767 592.252075
4.040000 7.800000 -1.800000 -24.912273 20.465710 1039.466553
4.040000 7.840000 -2.200000 -47.629601 -78.314728 8401.775391
4.040000 7.840000 -2.160000 -14.225890 -78.462997 6358.817871
4.040000 7.840000 -2.120000 3.546804 -64.780296 4209.066406
4.040000 7.840000 -2.080000 7.819141 -56.375088 3239.289551
4.040000 7.840000 -2.040000 15.085365 -57.713692 3558.438477
4.040000 7.840000 -2.000000 34.280907 -54.582355 4154.414062
4.040000 7.840000 -1.960000 53.624908 -32.467518 3929.770508
4.040000 7.840000 -1.920000 52.001698 3.073067 2713.620361
4.040000 7.840000 -1.880000 23.352566 27.742161 1314.969849
4.040000 7.840000 -1.840000 -12.901499 22.001881 650.531433
4.040000 7.840000 -1.800000 -28.418097 -7.747137 867.606323
4.040000 7.880000 -2.200000 13.843527 -83.750526 7205.793945
4.040000 7.880000 -2.160000 22.299330 -64.713867 4685.145020
4.040000 7.880000 -2.120000 15.627108 -63.433498 4268.015137
4.040000 7.880000 -2.080000 23.579632 -81.668617 7225.762207
4.040000 7.880000 -2.040000 60.643513 -90.713341 11906.545898
4.040000 7.880000 -2.000000 105.081429 -61.912720 14875.291016
4.040000 7.880000 -1.960000 117.090500 -0.953285 13711.094727
4.040000 7.880000 -1.920000 79.403198 51.862034 8994.538086
4.040000 7.880000 -1.880000 18.017290 58.328575 3726.845459
4.040000 7.880000 -1.840000 -20.077837 19.473196 782.324890
4.040000 7.880000 -1.800000 -10.713487 -25.197914 749.713684
4.040000 7.920000 -2.200000 57.658161 -45.903198 5431.567383
4.040000 7.920000 -2.160000 37.807640 -36.186756 2738.898926
4.040000 7.920000 -2.120000 30.277470 -62.000031 4760.729004
4.040000 7.920000 -2.080000 66.625305 -90.379242 12607.337891
4.040000 7.920000 -2.040000 130.643646 -73.602341 22485.066406
4.040000 7.920000 -2.000000 167.785858 -1.126034 28153.361328
4.040000 7.920000 -1.960000 137.484482 82.764427 25751.933594
4.040000 7.920000 -1.920000 55.783882 117.131058 16831.525391
4.040000 7.920000 -1.880000 -16.690754 81.648056 6944.986328
4.040000 7.920000 -1.840000 -30.679903 15.213505 1172.707153
4.040000 7.920000 -1.800000 7.791493 -22.657175 574.054932
4.040000 7.960000 -2.200000 60.903648 5.052513 3734.782227
4.040000 7.960000 -2.160000 33.712730 -12.118725 1283.411743
4.040000 7.960000 -2.120000 49.765041 -52.536282 5236.620117
4.040000 7.960000 -2.080000 113.123123 -60.008572 16397.869141
4.040000 7.960000 -2.040000 172.005341 -0.123377 29585.853516
4.040000 7.960000 -2.000000 165.132111 98.364258 36944.140625
4.040000 7.960000 -1.960000 83.138451 164.188293 33869.796875
4.040000 7.960000 -1.920000 -18.088385 148.892044 22496.029297
4.040000 7.960000 -1.880000 -67.601654 71.993790 9753.089844
4.040000 7.960000 -1.840000 -43.547783 0.817644 1897.078003
4.040000 7.960000 -1.800000 12.043271 -13.668545 331.869507
4.040000 8.000000 -2.200000 33.018471 36.480431 2421.041016
4.040000 8.000000 -2.160000 22.709093 0.041136 515.704590
4.040000 8.000000 -2.120000 64.238602 -28.231422 4923.611328
4.040000 8.000000 -2.080000 126.902725 1.116799 16105.548828
4.040000 8.000000 -2.040000 146.540283 86.744171 28998.605469
4.040000 8.000000 -2.000000 87.411255 169.137482 36248.214844
4.040000 8.000000 -1.960000 -18.835636 182.427399 33634.535156
4.040000 8.000000 -1.920000 -98.510635 115.798813 23113.710938
4.040000 8.000000 -1.880000 -102.078293 23.246229 10960.364258
4.040000 8.000000 -1.840000 -45.976040 -27.583950 2874.670410
4.040000 8.000000 -1.800000 9.400051 -15.662095 333.662170
4.040000 8.040000 -2.200000 1.325911 38.470085 1481.705566
4.040000 8.040000 -2.160000 13.532113 5.029401 208.412964
4.040000 8.040000 -2.120000 59.568970 3.775909 3562.719727
4.040000 8.040000 -2.080000 93.077003 55.603325 11755.057617
4.040000 8.040000 -2.040000 67.647308 128.857330 21180.369141
4.040000 8.040000 -2.000000 -15.243530 162.802750 26737.099609
4.040000 8.040000 -1.960000 -101.784256 122.987457 25485.949219
4.040000 8.040000 -1.920000 -132.007355 34.461735 18613.552734
4.040000 8.040000 -1.880000 -92.364639 -40.484173 10170.195312
4.040000 8.040000 -1.840000 -23.953196 -57.876312 3923.423096
4.040000 8.040000 -1.800000 19.258558 -26.487970 1072.504639
4.040000 8.080000 -2.200000 -14.901451 24.586170 826.532959
4.040000 8.080000 -2.160000 5.422976 8.355510 99.223206
4.040000 8.080000 -2.120000 33.939144 24.563705 1755.241089
4.040000 8.080000 -2.080000 34.603920 68.540207 5895.190918
4.040000 8.080000 -2.040000 -9.511116 103.436554 10789.582031
4.040000 8.080000 -2.000000 -75.086861 91.577980 14024.562500
4.040000 8.080000 -1.960000 -115.092682 30.457413 14173.979492
4.040000 8.080000 -1.920000 -99.231232 -42.166672 11624.865234
4.040000 8.080000 -1.880000 -39.962772 -80.000763 7997.145508
4.040000 8.080000 -1.840000 20.233898 -66.568436 4840.767090
4.040000 8.080000 -1.800000 46.598999 -24.374401 2765.578125
4.040000 8.120000 -2.200000 -16.324291 12.822803 430.906769
4.040000 8.120000 -2.160000 -4.532349 8.776045 97.561150
4.040000 8.120000 -2.120000 3.831234 20.875561 450.467377
4.040000 8.120000 -2.080000 -6.896591 38.971882 1566.370605
4.040000 8.120000 -2.040000 -36.430618 41.471954 3047.112793
4.040000 8.120000 -2.000000 -64.200996 14.880722 4343.204102
4.040000 8.120000 -1.960000 -64.685944 -31.004135 5145.527832
4.040000 8.120000 -1.920000 -29.746634 -67.920120 5498.004883
4.040000 8.120000 -1.880000 22.768578 -71.148415 5580.504883
4.040000 8.120000 -1.840000 62.575123 -39.118793 5445.925781
4.040000 8.120000 -1.800000 70.313179 6.815571 4990.395508
4.040000 8.160000 -2.200000 -14.348590 9.124664 289.141541
4.040000 8.160000 -2.160000 -13.411329 2.721720 187.271515
4.040000 8.160000 -2.120000 -9.695498 -0.404083 94.165977
4.040000 8.160000 -2.080000 -8.482504 -0.386843 72.102524
4.040000 8.160000 -2.040000 -11.749887 -3.385662 149.522537
4.040000 8.160000 -2.000000 -13.108224 -15.011349 397.166138
4.040000 8.160000 -1.960000 -1.977928 -31.484343 995.176025
4.040000 8.160000 -1.920000 25.080879 -38.898037 2142.107666
4.040000 8.160000 -1.880000 56.953682 -23.898108 3814.841553
4.040000 8.160000 -1.840000 73.690201 12.998232 5599.199707
4.040000 8.160000 -1.800000 61.896084 54.639912 6816.645508
4.040000 8.200000 -2.200000 -15.619957 8.114786 309.832825
4.040000 8.200000 -2.160000 -14.889983 -7.202121 273.582153
4.040000 8.200000 -2.120000 -1.354698 -17.714558 315.640747
4.040000 8.200000 -2.080000 15.474179 -15.197620 470.417908
4.040000 8.200000 -2.040000 24.232811 -3.955479 602.874939
4.040000 8.200000 -2.000000 24.098524 4.666676 602.516724
4.040000 8.200000 -1.960000 25.044312 6.212360 665.810974
4.040000 8.200000 -1.920000 34.772911 9.445456 1298.372070
4.040000 8.200000 -1.880000 46.764610 26.624748 2895.805908
4.040000 8.200000 -1.840000 44.028023 57.416206 5235.087891
4.040000 8.200000 -1.800000 16.266018 84.463158 7398.608398
4.080000 7.800000 -2.200000 -51.276333 -60.615211 6303.465820
4.080000 7.800000 -2.160000 -11.069524 -73.495644 5524.144043
4.080000 7.800000 -2.120000 25.503765 -57.426430 3948.236816
4.080000 7.800000 -2.080000 40.152443 -26.028465 2289.699707
4.080000 7.800000 -2.040000 32.906979 0.087559 1082.876953
4.080000 7.800000 -2.000000 18.101311 11.012091 448.923584
4.080000 7.800000 -1.960000 8.221746 12.375000 220.737732
4.080000 7.800000 -1.920000 3.203524 14.307068 214.954742
4.080000 7.800000 -1.880000 -4.665401 18.399481 360.306854
4.080000 7.800000 -1.840000 -17.826221 17.149223 611.869995
4.080000 7.800000 -1.800000 -28.421665 5.310913 835.996887
4.080000 7.840000 -2.200000 -2.583671 -80.764389 6529.562012
4.080000 7.840000 -2.160000 26.695366 -68.988510 5472.057129
4.080000 7.840000 -2.120000 40.163944 -48.925407 4006.837891
4.080000 7.840000 -2.080000 42.730705 -33.533539 2950.411377
4.080000 7.840000 -2.040000 45.038574 -23.229738 2568.093750
4.080000 7.840000 -2.000000 48.942245 -9.427357 2484.218506
4.080000 7.840000 -1.960000 45.158966 11.004753 2160.436768
4.080000 7.840000 -1.920000 26.007093 27.874130 1453.336060
4.080000 7.840000 -1.880000 -1.622175 26.756350 718.533691
4.080000 7.840000 -1.840000 -19.177147 5.710151 400.368774
4.080000 7.840000 -1.800000 -13.863663 -19.354324 566.791016
4.080000 7.880000 -2.200000 45.352123 -60.312916 5694.462891
4.080000 7.880000 -2.160000 50.009796 -42.803375 4333.108398
4.080000 7.880000 -2.120000 49.433620 -38.671543 3939.171143
4.080000 7.880000 -2.080000 61.339161 -40.073414 5368.371094
4.080000 7.880000 -2.040000 84.144775 -26.234156 7768.574219
4.080000 7.880000 -2.000000 95.152756 10.578266 9165.946289
4.080000 7.880000 -1.960000 74.250809 51.220146 8136.686035
4.080000 7.880000 -1.920000 28.402899 65.275528 5067.619141
4.080000 7.880000 -1.880000 -10.652126 41.530102 1838.217163
4.080000 7.880000 -1.840000 -15.276115 1.298903 235.046844
4.080000 7.880000 -1.800000 11.521434 -20.625723 558.163879
4.080000 7.920000 -2.200000 63.642395 -15.557175 4292.380371
4.080000 7.920000 -2.160000 51.449364 -13.185734 2820.900635
4.080000 7.920000 -2.120000 57.933067 -27.146973 4093.198242
4.080000 7.920000 -2.080000 90.342148 -26.278736 8852.275391
4.080000 7.920000 -2.040000 120.891380 12.017254 14759.139648
4.080000 7.920000 -2.000000 112.363243 72.633614 17901.140625
4.080000 7.920000 -1.960000 57.905190 112.006172 15898.393555
4.080000 7.920000 -1.920000 -7.317381 99.152458 9884.753906
4.080000 7.920000 -1.880000 -37.007084 47.000519 3578.573242
4.080000 7.920000 -1.840000 -16.992931 1.049234 289.860596
4.080000 7.920000 -1.800000 22.941675 -3.793768 540.713135
4.080000 7.960000 -2.200000 48.241638 23.468996 2878.049316
4.080000 7.960000 -2.160000 39.228947 6.372737 1579.522095
4.080000 7.960000 -2.120000 64.458344 -8.998090 4235.843750
4.080000 7.960000 -2.080000 105.579575 13.835587 11338.470703
4.080000 7.960000 -2.040000 117.015121 76.445236 19536.414062
4.080000 7.960000 -2.000000 71.584373 136.617645 23788.703125
4.080000 7.960000 -1.960000 -8.086522 145.530853 21244.621094
4.080000 7.960000 -1.920000 -66.840714 95.059967 13504.078125
4.080000 7.960000 -1.880000 -67.463417 26.748373 5266.788086
4.080000 7.960000 -1.840000 -23.971067 -7.319322 628.184509
4.080000 7.960000 -1.800000 15.209688 7.740347 291.247589
4.080000 8.000000 -2.200000 17.842567 38.220547 1779.167358
4.080000 8.000000 -2.160000 24.527355 14.992794 826.375000
4.080000 8.000000 -2.120000 59.750290 15.695989 3816.461182
4.080000 8.000000 -2.080000 85.800125 60.068817 10969.923828
4.080000 8.000000 -2.040000 62.634285 122.762794 18993.757812
4.080000 8.000000 -2.000000 -9.336690 152.047485 23205.611328
4.080000 8.000000 -1.960000 -83.998734 118.258698 21040.906250
4.080000 8.000000 -1.920000 -109.807861 43.619488 13960.425781
4.080000 8.000000 -1.880000 -76.424644 -17.446148 6145.094238
4.080000 8.000000 -1.840000 -21.529697 -28.063200 1251.071045
4.080000 8.000000 -1.800000 7.573635 0.836925 58.060390
4.080000 8.040000 -2.200000 -6.250521 31.929726 1058.576416
4.080000 8.040000 -2.160000 11.231010 17.755478 441.392578
4.080000 8.040000 -2.120000 37.690498 35.008987 2646.202637
4.080000 8.040000 -2.080000 36.562412 79.966919 7731.518066
4.080000 8.040000 -2.040000 -9.468224 115.464607 13421.722656
4.080000 8.040000 -2.000000 -76.417480 103.735123 16600.607422
4.080000 8.040000 -1.960000 -116.929131 43.511318 15565.656250
4.080000 8.040000 -1.920000 -102.359268 -26.192938 11163.490234
4.080000 8.040000 -1.880000 -47.944878 -60.306938 5935.637695
4.080000 8.040000 -1.840000 3.148736 -46.390144 2161.959961
4.080000 8.040000 -1.800000 19.733173 -10.657326 502.976715
4.080000 8.080000 -2.200000 -16.632458 19.174753 644.309814
4.080000 8.080000 -2.160000 -1.974137 16.072342 262.217377
4.080000 8.080000 -2.120000 6.962925 34.293701 1224.540283
4.080000 8.080000 -2.080000 -10.014366 58.797405 3557.422363
4.080000 8.080000 -2.040000 -50.118523 61.342640 6274.785645
4.080000 8.080000 -2.000000 -85.505905 27.437565 8064.079590
4.080000 8.080000 -1.960000 -86.327011 -27.231548 8193.910156
4.080000 8.080000 -1.920000 -47.573158 -68.085434 6898.832031
4.080000 8.080000 -1.880000 6.126890 -70.568756 5017.487793
4.080000 8.080000 -1.840000 42.003677 -39.386990 3315.644043
4.080000 8.080000 -1.800000 45.713943 -0.938236 2090.645020
4.080000 8.120000 -2.200000 -18.873510 9.677018 449.854065
4.080000 8.120000 -2.160000 -13.356270 7.508391 234.765884
4.080000 8.120000 -2.120000 -12.743828 12.590532 320.926636
4.080000 8.120000 -2.080000 -22.825550 15.378731 757.511108
4.080000 8.120000 -2.040000 -37.201538 4.417645 1403.470093
4.080000 8.120000 -2.000000 -40.485008 -21.260368 2091.039062
4.080000 8.120000 -1.960000 -21.504496 -47.947666 2761.422119
4.080000 8.120000 -1.920000 15.310408 -56.574024 3435.028809
4.080000 8.120000 -1.880000 51.288528 -37.939713 4069.935059
4.080000 8.120000 -1.840000 67.001579 -0.441057 4489.405762
4.080000 8.120000 -1.800000 56.164993 36.381004 4478.083984
4.080000 8.160000 -2.200000 -19.501871 3.194307 390.526581
4.080000 8.160000 -2.160000 -16.690025 -6.548072 321.434204
4.080000 8.160000 -2.120000 -8.832952 -12.823159 242.454468
4.080000 8.160000 -2.080000 -0.424170 -14.260303 203.536179
4.080000 8.160000 -2.040000 5.903419 -14.114983 234.083084
4.080000 8.160000 -2.000000 12.890381 -15.603817 409.641052
4.080000 8.160000 -1.960000 25.514912 -16.129971 911.186707
4.080000 8.160000 -1.920000 43.441467 -7.610861 1945.086304
4.080000 8.160000 -1.880000 57.249260 15.611208 3521.187500
4.080000 8.160000 -1.840000 54.090019 48.479546 5275.996582
4.080000 8.160000 -1.800000 28.924751 75.642105 6558.369141
4.080000 8.200000 -2.200000 -18.762131 -3.230949 362.456573
4.080000 8.200000 -2.160000 -9.176101 -17.528244 391.440186
4.080000 8.200000 -2.120000 10.563688 -21.421402 570.467957
4.080000 8.200000 -2.080000 28.600939 -10.427002 926.736023
4.080000 8.200000 -2.040000 34.901173 8.043392 1282.787964
4.080000 8.200000 -2.000000 30.672234 22.546003 1449.108154
4.080000 8.200000 -1.960000 25.524637 29.728046 1535.263794
4.080000 8.200000 -1.920000 25.098457 37.061516 2003.488525
4.080000 8.200000 -1.880000 23.133644 52.513172 3292.798828
4.080000 8.200000 -1.840000 7.678086 72.378937 5297.663574
4.080000 8.200000 -1.800000 -24.365435 81.415970 7222.234375
4.120000 7.800000 -2.200000 -13.992446 -57.311768 3480.427246
4.120000 7.800000 -2.160000 19.955107 -52.758850 3181.702637
4.120000 7.800000 -2.120000 42.703873 -27.390820 2573.877686
4.120000 7.800000 -2.080000 43.550072 4.325503 1915.318726
4.120000 7.800000 -2.040000 26.447807 25.987293 1374.825928
4.120000 7.800000 -2.000000 4.763043 31.065395 987.745361
4.120000 7.800000 -1.960000 -10.459856 24.793121 724.107422
4.120000 7.800000 -1.920000 -17.438873 16.168892 565.547363
4.120000 7.800000 -1.880000 -20.648499 9.349705 513.777466
4.120000 7.800000 -1.840000 -23.168585 2.598840 543.537292
4.120000 7.800000 -1.800000 -23.301901 -6.107365 580.278503
4.120000 7.840000 -2.200000 23.509670 -56.269695 3718.983154
4.120000 7.840000 -2.160000 43.920067 -38.520428 3412.795654
4.120000 7.840000 -2.120000 49.925678 -15.397758 2729.664307
4.120000 7.840000 -2.080000 44.479877 3.464747 1990.463989
4.120000 7.840000 -2.040000 34.279755 15.366127 1411.219482
4.120000 7.840000 -2.000000 22.660561 22.366848 1013.776855
4.120000 7.840000 -1.960000 9.155629 25.003561 709.003601
4.120000 7.840000 -1.920000 -5.105316 20.443314 443.993317
4.120000 7.840000 -1.880000 -14.272145 7.469199 259.483063
4.120000 7.840000 -1.840000 -12.103532 -8.390988 216.904175
4.120000 7.840000 -1.800000 0.564939 -17.183048 295.576294
4.120000 7.880000 -2.200000 49.195076 -30.094883 3325.857422
4.120000 7.880000 -2.160000 52.745800 -13.854916 2974.078125
4.120000 7.880000 -2.120000 52.073013 -3.253894 2722.186523
4.120000 7.880000 -2.080000 53.749638 6.201244 2927.478760
4.120000 7.880000 -2.040000 54.083740 21.540974 3389.064453
4.120000 7.880000 -2.000000 43.333466 40.241241 3497.146729
4.120000 7.880000 -1.960000 19.347851 49.392849 2813.992920
4.120000 7.880000 -1.920000 -5.501114 38.849716 1539.562622
4.120000 7.880000 -1.880000 -13.818254 14.353447 396.965576
4.120000 7.880000 -1.840000 -0.518997 -4.925407 24.528992
4.120000 7.880000 -1.800000 20.607504 -3.748918 438.723602
4.120000 7.920000 -2.200000 50.562592 3.383999 2568.027100
4.120000 7.920000 -2.160000 46.549484 8.181318 2233.788574
4.120000 7.920000 -2.120000 51.837898 9.660883 2780.500488
4.120000 7.920000 -2.080000 63.231209 22.927307 4523.847168
4.120000 7.920000 -2.040000 62.970734 51.118721 6578.436523
4.120000 7.920000 -2.000000 38.362171 77.183731 7428.984375
4.120000 7.920000 -1.960000 -0.981554 78.750000 6202.525879
4.120000 7.920000 -1.920000 -28.604366 51.792072 3500.628418
4.120000 7.920000 -1.880000 -25.919582 17.510258 978.433899
4.120000 7.920000 -1.840000 -0.953678 3.402888 12.489151
4.120000 7.920000 -1.800000 19.039703 17.042759 652.965942
4.120000 7.960000 -2.200000 33.116508 26.056696 1775.654541
4.120000 7.960000 -2.160000 32.821442 21.659838 1546.395630
4.120000 7.960000 -2.120000 46.260170 25.498415 2790.172607
4.120000 7.960000 -2.080000 56.297668 50.319199 5701.449219
4.120000 7.960000 -2.040000 40.819588 84.976959 8887.322266
4.120000 7.960000 -2.000000 -1.675913 101.275604 10259.556641
4.120000 7.960000 -1.960000 -45.675606 81.429291 8716.990234
4.120000 7.960000 -1.920000 -60.705860 37.901028 5121.689453
4.120000 7.960000 -1.880000 -40.479492 3.615530 1651.661255
4.120000 7.960000 -1.840000 -8.963453 1.234339 81.867088
4.120000 7.960000 -1.800000 3.323559 22.540592 519.124329
4.120000 8.000000 -2.200000 11.079849 32.274193 1164.386597
4.120000 8.000000 -2.160000 17.060589 27.525696 1048.727661
4.120000 8.000000 -2.120000 29.632067 39.516590 2439.620361
4.120000 8.000000 -2.080000 26.206192 68.671753 5402.574219
4.120000 8.000000 -2.040000 -6.015111 92.264229 8548.869141
4.120000 8.000000 -2.000000 -52.539829 84.741440 9941.544922
4.120000 8.000000 -1.960000 -81.513519 44.290062 8606.063477
4.120000 8.000000 -1.920000 -72.934021 -2.497682 5325.609863
4.120000 8.000000 -1.880000 -37.791412 -24.139397 2010.901245
4.120000 8.000000 -1.840000 -7.314717 -12.851839 218.674866
4.120000 8.000000 -1.800000 -3.192571 10.480089 120.024773
4.120000 8.040000 -2.200000 -5.794716 27.508200 790.279785
4.120000 8.040000 -2.160000 0.581482 26.687811 712.577393
4.120000 8.040000 -2.120000 3.925809 40.499496 1655.621216
4.120000 8.040000 -2.080000 -11.756538 59.005135 3619.822266
4.120000 8.040000 -2.040000 -45.249069 60.423019 5698.419434
4.120000 8.040000 -2.000000 -74.843506 33.021076 6691.941895
4.120000 8.040000 -1.960000 -76.818008 -10.551559 6012.341797
4.120000 8.040000 -1.920000 -47.957413 -42.404106 4098.021484
4.120000 8.040000 -1.880000 -9.248087 -43.897438 2012.512207
4.120000 8.040000 -1.840000 13.192472 -21.363400 630.436157
4.120000 8.040000 -1.800000 10.855095 2.019794 121.912651
4.120000 8.080000 -2.200000 -16.228071 18.517952 606.264832
4.120000 8.080000 -2.160000 -14.207594 17.399767 504.607605
4.120000 8.080000 -2.120000 -17.153030 22.507010 800.791931
4.120000 8.080000 -2.080000 -30.516712 23.979845 1506.302734
4.120000 8.080000 -2.040000 -46.802784 10.754747 2306.165039
4.120000 8.080000 -2.000000 -50.412628 -16.381901 2809.799805
4.120000 8.080000 -1.960000 -32.195549 -42.419140 2835.936768
4.120000 8.080000 -1.920000 0.629883 -49.891617 2489.570068
4.120000 8.080000 -1.880000 29.367971 -33.835121 2007.293213
4.120000 8.080000 -1.840000 39.052280 -5.652150 1557.027344
4.120000 8.080000 -1.800000 29.528879 17.317253 1171.842041
4.120000 8.120000 -2.200000 -21.755674 7.612350 531.257263
4.120000 8.120000 -2.160000 -20.833002 0.406651 434.179352
4.120000 8.120000 -2.120000 -18.593685 -4.956971 370.296692
4.120000 8.120000 -2.080000 -16.459839 -10.685038 385.096313
4.120000 8.120000 -2.040000 -11.886510 -18.756222 493.084991
4.120000 8.120000 -2.000000 -0.734840 -26.833330 720.567566
4.120000 8.120000 -1.960000 17.558502 -28.374596 1113.418701
4.120000 8.120000 -1.920000 37.084908 -17.576067 1684.208496
4.120000 8.120000 -1.880000 48.167744 4.999580 2345.127441
4.120000 8.120000 -1.840000 43.906296 31.245073 2904.017334
4.120000 8.120000 -1.800000 25.249149 50.128246 3150.360596
4.120000 8.160000 -2.200000 -21.495916 -4.391169 481.356781
4.120000 8.160000 -2.160000 -14.264566 -16.300316 469.178162
4.120000 8.160000 -2.120000 0.194715 -22.171928 491.632324
4.120000 8.160000 -2.080000 15.901669 -18.740103 604.054504
4.120000 8.160000 -2.040000 26.985579 -8.364334 798.183533
4.120000 8.160000 -2.000000 32.131355 3.927904 1047.852417
4.120000 8.160000 -1.960000 34.019943 15.710491 1404.176147
4.120000 8.160000 -1.920000 34.290348 28.882399 2010.020996
4.120000 8.160000 -1.880000 29.809170 45.526680 2961.265381
4.120000 8.160000 -1.840000 15.198602 62.334770 4116.621094
4.120000 8.160000 -1.800000 -10.214852 70.374557 5056.921387
4.120000 8.200000 -2.200000 -14.272435 -13.525064 386.629761
4.120000 8.200000 -2.160000 1.185727 -21.929913 482.326996
4.120000 8.200000 -2.120000 22.135208 -17.224880 786.663940
4.120000 8.200000 -2.080000 36.655579 1.617570 1346.248047
4.120000 8.200000 -2.040000 36.551369 25.454054 1983.911377
4.120000 8.200000 -2.000000 24.250389 42.882702 2427.007568
4.120000 8.200000 -1.960000 9.255032 50.165073 2602.190186
4.120000 8.200000 -1.920000 -2.194266 52.743881 2786.731689
4.120000 8.200000 -1.880000 -12.962302 56.777023 3391.651611
4.120000 8.200000 -1.840000 -29.871773 60.254822 4522.966309
4.120000 8.200000 -1.800000 -53.173805 53.940987 5737.083984
4.160000 7.800000 -2.200000 2.174592 -35.069386 1234.590698
4.160000 7.800000 -2.160000 22.289928 -23.520826 1050.070190
4.160000 7.800000 -2.120000 30.824364 -0.074577 950.146973
4.160000 7.800000 -2.080000 21.706945 23.730865 1034.345459
4.160000 7.800000 -2.040000 -0.249996 35.209026 1239.738037
4.160000 7.800000 -2.000000 -22.383621 29.681719 1382.031006
4.160000 7.800000 -1.960000 -33.553123 13.439999 1306.445679
4.160000 7.800000 -1.920000 -31.810883 -2.101890 1016.350220
4.160000 7.800000 -1.880000 -23.985371 -9.674409 668.892212
4.160000 7.800000 -1.840000 -18.190033 -10.609871 443.446655
4.160000 7.800000 -1.800000 -16.631447 -11.156958 401.082703
4.160000 7.840000 -2.200000 22.348001 -30.779085 1446.785278
4.160000 7.840000 -2.160000 33.895309 -13.742662 1337.752686
4.160000 7.840000 -2.120000 32.248680 6.832959 1086.666748
4.160000 7.840000 -2.080000 18.836868 21.037872 797.419678
4.160000 7.840000 -2.040000 1.423408 23.464966 552.630676
4.160000 7.840000 -2.000000 -11.638730 15.764985 383.994812
4.160000 7.840000 -1.960000 -16.302906 4.010437 281.868378
4.160000 7.840000 -1.920000 -13.593570 -5.965459 220.371841
4.160000 7.840000 -1.880000 -7.094538 -11.307400 178.189758
4.160000 7.840000 -1.840000 -0.190080 -12.004519 144.144592
4.160000 7.840000 -1.800000 5.071077 -9.419518 114.443138
4.160000 7.880000 -2.200000 35.262062 -14.917871 1465.955811
4.160000 7.880000 -2.160000 37.801842 1.280386 1430.618652
4.160000 7.880000 -2.120000 31.554115 14.397713 1202.956299
4.160000 7.880000 -2.080000 21.534857 21.099216 908.927002
4.160000 7.880000 -2.040000 11.816558 22.378864 640.444580
4.160000 7.880000 -2.000000 3.727011 19.991318 413.543365
4.160000 7.880000 -1.960000 -1.916613 14.457293 212.686707
4.160000 7.880000 -1.920000 -3.019985 6.849881 56.041183
4.160000 7.880000 -1.880000 1.775138 0.962312 4.077159
4.160000 7.880000 -1.840000 9.680839 1.473966 95.891212
4.160000 7.880000 -1.800000 14.204897 9.070370 284.050720
4.160000 7.920000 -2.200000 36.588535 4.605265 1359.929443
4.160000 7.920000 -2.160000 33.478439 16.427723 1390.676025
4.160000 7.920000 -2.120000 27.906225 23.742683 1342.472412
4.160000 7.920000 -2.080000 22.540123 29.317780 1367.589355
4.160000 7.920000 -2.040000 15.204922 34.797455 1442.052612
4.160000 7.920000 -2.000000 4.057060 36.887493 1377.146851
4.160000 7.920000 -1.960000 -7.039134 31.397039 1035.323486
4.160000 7.920000 -1.920000 -10.804574 20.291441 528.481384
4.160000 7.920000 -1.880000 -4.898138 12.304369 175.389252
4.160000 7.920000 -1.840000 3.545428 14.705715 228.828110
4.160000 7.920000 -1.800000 3.818660 24.799791 629.611816
4.160000 7.960000 -2.200000 27.821602 20.990017 1214.622314
4.160000 7.960000 -2.160000 21.909155 28.272938 1279.370117
4.160000 7.960000 -2.120000 17.380032 33.157623 1401.493408
4.160000 7.960000 -2.080000 12.120084 39.919479 1740.461304
4.160000 7.960000 -2.040000 1.021820 46.355286 2149.856689
4.160000 7.960000 -2.000000 -15.089437 45.052185 2257.390381
4.160000 7.960000 -1.960000 -27.322865 32.796707 1822.162964
4.160000 7.960000 -1.920000 -27.244625 16.782066 1023.907349
4.160000 7.960000 -1.880000 -16.964672 9.047114 369.650391
4.160000 7.960000 -1.840000 -8.593769 14.045725 271.135254
4.160000 7.960000 -1.800000 -12.252944 23.122478 684.783630
4.160000 8.000000 -2.200000 12.423082 30.454739 1081.824097
4.160000 8.000000 -2.160000 4.464921 33.158657 1119.432129
4.160000 8.000000 -2.120000 -1.028641 35.234711 1242.542969
4.160000 8.000000 -2.080000 -8.694141 38.954720 1593.058350
4.160000 8.000000 -2.040000 -21.834412 39.158100 2010.098389
4.160000 8.000000 -2.000000 -35.506569 29.514328 2131.812012
4.160000 8.000000 -1.960000 -39.916695 11.852985 1733.835815
4.160000 8.000000 -1.920000 -31.138477 -3.043569 978.868103
4.160000 8.000000 -1.880000 -16.914276 -5.455634 315.856689
4.160000 8.000000 -1.840000 -9.985815 2.929154 108.296448
4.160000 8.000000 -1.800000 -15.262106 10.164354 336.245972
4.160000 8.040000 -2.200000 -5.771450 30.611111 970.349731
4.160000 8.040000 -2.160000 -14.438746 26.893188 931.721008
4.160000 8.040000 -2.120000 -19.401276 22.819778 897.151794
4.160000 8.040000 -2.080000 -24.673700 19.298641 981.229065
4.160000 8.040000 -2.040000 -31.078650 12.348293 1118.362793
4.160000 8.040000 -2.000000 -33.579506 -0.161894 1127.609497
4.160000 8.040000 -1.960000 -26.815453 -13.382866 898.169556
4.160000 8.040000 -1.920000 -12.503162 -18.755039 508.080566
4.160000 8.040000 -1.880000 0.279343 -12.712328 161.681320
4.160000 8.040000 -1.840000 3.205184 -1.185783 11.679288
4.160000 8.040000 -1.800000 -3.157659 5.628695 41.653008
4.160000 8.080000 -2.200000 -21.235117 20.326473 864.095703
4.160000 8.080000 -2.160000 -26.145378 9.163234 767.545654
4.160000 8.080000 -2.120000 -24.466877 -1.095516 599.828186
4.160000 8.080000 -2.080000 -19.657476 -8.235929 454.246918
4.160000 8.080000 -2.040000 -13.665928 -13.303379 363.737488
4.160000 8.080000 -2.000000 -5.746951 -16.822788 316.033630
4.160000 8.080000 -1.960000 4.571903 -16.672798 298.884521
4.160000 8.080000 -1.920000 14.530414 -10.291829 317.054657
4.160000 8.080000 -1.880000 19.143288 1.447703 368.561310
4.160000 8.080000 -1.840000 15.580033 13.388659 421.993622
4.160000 8.080000 -1.800000 6.183405 19.779318 429.455902
4.160000 8.120000 -2.200000 -27.101067 2.649553 741.487976
4.160000 8.120000 -2.160000 -22.909973 -12.193982 673.560059
4.160000 8.120000 -2.120000 -10.039906 -21.704229 571.873291
4.160000 8.120000 -2.080000 5.762758 -22.001518 517.276184
4.160000 8.120000 -2.040000 18.425850 -14.236837 542.199463
4.160000 8.120000 -2.000000 25.045441 -2.598419 634.025879
4.160000 8.120000 -1.960000 26.225765 9.244602 773.253418
4.160000 8.120000 -1.920000 23.673584 20.003813 960.591125
4.160000 8.120000 -1.880000 17.825911 29.687508 1199.111206
4.160000 8.120000 -1.840000 7.999525 37.254173 1451.865845
4.160000 8.120000 -1.800000 -5.341499 39.966217 1625.830078
4.160000 8.160000 -2.200000 -19.875484 -13.793653 585.299744
4.160000 8.160000 -2.160000 -6.013629 -24.338947 628.548096
4.160000 8.160000 -2.120000 14.337677 -23.903652 776.953552
4.160000 8.160000 -2.080000 31.652027 -10.006073 1101.972290
4.160000 8.160000 -2.040000 37.470669 11.746637 1542.034546
4.160000 8.160000 -2.000000 30.455391 31.651623 1929.355957
4.160000 8.160000 -1.960000 16.468018 43.201748 2137.586670
4.160000 8.160000 -1.920000 2.592701 46.957386 2211.718262
4.160000 8.160000 -1.880000 -8.894897 47.478535 2333.330322
4.160000 8.160000 -1.840000 -20.606855 46.945503 2628.522949
4.160000 8.160000 -1.800000 -34.511703 42.482159 2995.791504
4.160000 8.200000 -2.200000 -4.375910 -19.390438 395.137665
4.160000 8.200000 -2.160000 12.470643 -19.780807 546.797241
4.160000 8.200000 -2.120000 29.678411 -7.004491 929.870972
4.160000 8.200000 -2.080000 36.364368 16.973591 1610.470093
4.160000 8.200000 -2.040000 26.597370 41.612892 2439.052979
4.160000 8.200000 -2.000000 4.798470 55.424965 3094.952148
4.160000 8.200000 -1.960000 -17.938562 54.841988 3329.435547
4.160000 8.200000 -1.920000 -33.312210 45.753380 3203.075195
4.160000 8.200000 -1.880000 -41.725655 36.289970 3057.992188
4.160000 8.200000 -1.840000 -48.922997 28.544273 3208.234863
4.160000 8.200000 -1.800000 -57.403351 17.931314 3616.676758
4.200000 7.800000 -2.200000 -3.852403 -17.420025 318.298279
4.200000 7.800000 -2.160000 4.233261 -10.226480 122.501404
4.200000 7.800000 -2.120000 5.574139 3.545193 43.639420
4.200000 7.800000 -2.080000 -4.891840 16.172318 285.473969
4.200000 7.800000 -2.040000 -23.112885 17.488052 840.037415
4.200000 7.800000 -2.000000 -37.245087 4.598535 1408.343018
4.200000 7.800000 -1.960000 -37.565109 -14.047836 1608.479126
4.200000 7.800000 -1.920000 -25.556133 -25.543856 1305.604492
4.200000 7.800000 -1.880000 -12.526400 -24.287542 746.795410
4.200000 7.800000 -1.840000 -8.488317 -16.788765 353.914154
4.200000 7.800000 -1.800000 -12.432924 -14.267159 358.129425
4.200000 7.840000 -2.200000 8.056005 -22.548342 573.326904
4.200000 7.840000 -2.160000 14.577911 -11.122965 336.235840
4.200000 7.840000 -2.120000 9.997559 2.316964 105.319504
4.200000 7.840000 -2.080000 -3.604427 7.627838 71.175797
4.200000 7.840000 -2.040000 -16.289143 0.443775 265.533112
4.200000 7.840000 -2.000000 -18.598156 -13.583695 530.408203
4.200000 7.840000 -1.960000 -9.708282 -23.672039 654.616150
4.200000 7.840000 -1.920000 2.377406 -23.346695 550.720215
4.200000 7.840000 -1.880000 8.576006 -15.467689 312.797272
4.200000 7.840000 -1.840000 6.763155 -8.393502 116.191139
4.200000 7.840000 -1.800000 2.544344 -7.468733 62.255657
4.200000 7.880000 -2.200000 23.542969 -17.804932 871.286987
4.200000 7.880000 -2.160000 24.333904 -2.524883 598.513977
4.200000 7.880000 -2.120000 14.218339 6.789068 248.252609
4.200000 7.880000 -2.080000 2.823102 4.510709 28.316402
4.200000 7.880000 -2.040000 -0.426463 -4.678278 22.068153
4.200000 7.880000 -2.000000 5.605911 -11.122602 155.138504
4.200000 7.880000 -1.960000 14.127171 -9.222090 284.623901
4.200000 7.880000 -1.920000 17.749853 -1.359406 316.905273
4.200000 7.880000 -1.880000 14.792831 6.030040 255.189255
4.200000 7.880000 -1.840000 9.034968 8.963277 161.970978
4.200000 7.880000 -1.800000 4.699977 8.418850 92.966827
4.200000 7.920000 -2.200000 34.000679 -1.353328 1157.877686
4.200000 7.920000 -2.160000 25.526331 13.475948 833.194763
4.200000 7.920000 -2.120000 12.418548 15.606258 397.775635
4.200000 7.920000 -2.080000 6.500113 8.663866 117.314041
4.200000 7.920000 -2.040000 10.275817 3.429969 117.357101
4.200000 7.920000 -2.000000 16.488876 6.475012 313.808838
4.200000 7.920000 -1.960000 17.048880 14.936357 513.759094
4.200000 7.920000 -1.920000 10.843468 21.516762 580.551819
4.200000 7.920000 -1.880000 2.794466 22.612684 519.142517
4.200000 7.920000 -1.840000 -2.959243 20.431076 426.185974
4.200000 7.920000 -1.800000 -6.930432 18.237787 380.647766
4.200000 7.960000 -2.200000 30.589451 20.848743 1370.384521
4.200000 7.960000 -2.160000 13.452784 28.236454 978.274780
4.200000 7.960000 -2.120000 1.467934 21.640837 470.480621
4.200000 7.960000 -2.080000 1.739003 12.978671 171.470047
4.200000 7.960000 -2.040000 8.054642 12.850745 230.018890
4.200000 7.960000 -2.000000 9.605574 20.675999 519.763977
4.200000 7.960000 -1.960000 2.601575 27.732208 775.843567
4.200000 7.960000 -1.920000 -7.601821 27.747068 827.687439
4.200000 7.960000 -1.880000 -14.374276 22.557682 715.468872
4.200000 7.960000 -1.840000 -17.146492 17.564646 602.518982
4.200000 7.960000 -1.800000 -19.888210 14.106771 594.541870
4.200000 8.000000 -2.200000 11.449404 36.471878 1461.286743
4.200000 8.000000 -2.160000 -8.041481 30.921089 1020.779175
4.200000 8.000000 -2.120000 -13.732861 16.498901 460.805206
4.200000 8.000000 -2.080000 -6.955331 8.147805 114.763351
4.200000 8.000000 -2.040000 0.281678 11.445784 131.085312
4.200000 8.000000 -2.000000 -1.295880 19.514931 382.511810
4.200000 8.000000 -1.960000 -10.094337 22.541323 610.006836
4.200000 8.000000 -1.920000 -18.079185 18.080938 653.777222
4.200000 8.000000 -1.880000 -20.752142 11.287598 558.061279
4.200000 8.000000 -1.840000 -20.730091 6.803239 476.020721
4.200000 8.000000 -1.800000 -21.982191 3.218332 493.574402
4.200000 8.040000 -2.200000 -14.421004 34.708870 1412.671021
4.200000 8.040000 -2.160000 -26.747042 16.764761 996.461426
4.200000 8.040000 -2.120000 -21.549255 -0.948949 465.270905
4.200000 8.040000 -2.080000 -7.665161 -6.001035 94.767120
4.200000 8.040000 -2.040000 1.402993 1.055416 3.082293
4.200000 8.040000 -2.000000 -0.093016 10.140251 102.833344
4.200000 8.040000 -1.960000 -7.397887 12.875505 220.507370
4.200000 8.040000 -1.920000 -12.847858 9.356915 252.619324
4.200000 8.040000 -1.880000 -14.003209 4.816114 219.284821
4.200000 8.040000 -1.840000 -13.805160 2.077932 194.900238
4.200000 8.040000 -1.800000 -14.463061 -0.806623 209.830780
4.200000 8.080000 -2.200000 -31.675941 15.302555 1237.533447
4.200000 8.080000 -2.160000 -29.948128 -7.260235 949.601379
4.200000 8.080000 -2.120000 -13.013062 -20.543257 591.365173
4.200000 8.080000 -2.080000 6.325386 -17.486938 345.803528
4.200000 8.080000 -2.040000 15.919381 -3.458096 265.385132
4.200000 8.080000 -2.000000 13.100678 10.262665 276.950073
4.200000 8.080000 -1.960000 4.085693 16.314911 282.869202
4.200000 8.080000 -1.920000 -3.630905 15.288206 246.912720
4.200000 8.080000 -1.880000 -7.400690 11.896336 196.293015
4.200000 8.080000 -1.840000 -8.996255 9.075783 163.302429
4.200000 8.080000 -1.800000 -10.130606 6.370531 143.212830
4.200000 8.120000 -2.200000 -29.728058 -9.483713 973.698242
4.200000 8.120000 -2.160000 -14.826509 -25.832136 887.124634
4.200000 8.120000 -2.120000 8.536504 -27.486263 828.366577
4.200000 8.120000 -2.080000 27.103519 -12.843280 899.550598
4.200000 8.120000 -2.040000 31.276291 9.444429 1067.403564
4.200000 8.120000 -2.000000 21.229736 27.344128 1198.402954
4.200000 8.120000 -1.960000 5.147437 33.941490 1178.520874
4.200000 8.120000 -1.920000 -8.026867 30.710924 1007.591492
4.200000 8.120000 -1.880000 -14.707836 23.888504 786.981079
4.200000 8.120000 -1.840000 -16.990337 18.334312 624.818604
4.200000 8.120000 -1.800000 -18.352970 14.561198 548.859985
4.200000 8.160000 -2.200000 -11.525627 -23.289423 675.237305
4.200000 8.160000 -2.160000 7.890612 -26.721149 776.281616
4.200000 8.160000 -2.120000 27.985355 -15.352100 1018.867065
4.200000 8.160000 -2.080000 37.348297 8.292902 1463.667480
4.200000 8.160000 -2.040000 29.759481 33.514183 2008.827148
4.200000 8.160000 -2.000000 8.975953 48.345913 2417.895020
4.200000 8.160000 -1.960000 -13.983126 47.792664 2479.666504
4.200000 8.160000 -1.920000 -29.072723 36.495041 2177.111328
4.200000 8.160000 -1.880000 -33.958820 23.691696 1714.498047
4.200000 8.160000 -1.840000 -33.556896 15.269642 1359.227295
4.200000 8.160000 -1.800000 -33.592495 10.278481 1234.102905
4.200000 8.200000 -2.200000 8.215100 -18.384527 405.478699
4.200000 8.200000 -2.160000 21.687820 -11.040947 592.264038
4.200000 8.200000 -2.120000 30.646879 6.825778 985.822449
4.200000 8.200000 -2.080000 26.708570 30.411673 1638.217529
4.200000 8.200000 -2.040000 7.650676 48.718102 2431.986328
4.200000 8.200000 -2.000000 -19.107800 52.029579 3072.185059
4.200000 8.200000 -1.960000 -41.092728 39.623100 3258.602539
4.200000 8.200000 -1.920000 -50.119930 20.274296 2923.054443
4.200000 8.200000 -1.880000 -47.902420 4.654912 2316.310059
4.200000 8.200000 -1.840000 -42.672337 -3.292701 1831.770264
4.200000 8.200000 -1.800000 -40.412533 -7.764459 1693.459717
