#kx 	ky 	kz 	real 	imag 	intensity
1.800000 1.800000 3.800000 -11.890913 5.296053 169.442001
1.800000 1.800000 3.840000 -14.695849 0.949953 216.870392
1.800000 1.800000 3.880000 -14.994390 -5.406957 254.066925
1.800000 1.800000 3.920000 -11.401376 -12.118774 276.856079
1.800000 1.800000 3.960000 -3.698228 -16.520035 286.588440
1.800000 1.800000 4.000000 6.256001 -15.875814 291.179016
1.800000 1.800000 4.040000 14.660957 -9.236988 300.265625
1.800000 1.800000 4.080000 17.716408 1.195489 315.300293
1.800000 1.800000 4.120000 14.312743 10.969360 325.181488
1.800000 1.800000 4.160000 6.910963 16.352980 315.181366
1.800000 1.800000 4.200000 -0.538420 16.846779 284.103851
1.800000 1.840000 3.800000 -14.420940 -4.855225 231.536728
1.800000 1.840000 3.840000 -13.524479 -8.034135 247.458862
1.800000 1.840000 3.880000 -11.503572 -11.719460 269.677917
1.800000 1.840000 3.920000 -6.999960 -14.951109 272.535095
1.800000 1.840000 3.960000 -0.254970 -15.216903 231.619125
1.800000 1.840000 4.000000 5.812755 -10.902054 152.642883
1.800000 1.840000 4.040000 7.636845 -3.710308 72.087784
1.800000 1.840000 4.080000 4.503541 2.091171 24.654879
1.800000 1.840000 4.120000 -0.318434 3.499593 12.348550
1.800000 1.840000 4.160000 -2.679779 1.794014 10.399702
1.800000 1.840000 4.200000 -1.923757 1.143497 5.008426
1.800000 1.880000 3.800000 -7.857760 -15.547655 303.473969
1.800000 1.880000 3.840000 -4.974661 -15.319345 259.429596
1.800000 1.880000 3.880000 -2.894728 -15.379713 244.915024
1.800000 1.880000 3.920000 -0.172624 -15.259127 232.870743
1.800000 1.880000 3.960000 2.615535 -13.448524 187.703827
1.800000 1.880000 4.000000 3.350544 -10.349634 118.341072
1.800000 1.880000 4.040000 1.598683 -8.742125 78.980530
1.800000 1.880000 4.080000 0.331467 -10.499996 110.359795
1.800000 1.880000 4.120000 3.196144 -13.281043 186.601440
1.800000 1.880000 4.160000 9.636401 -11.819939 232.571182
1.800000 1.880000 4.200000 13.761805 -3.616451 202.465988
1.800000 1.920000 3.800000 6.059077 -18.406258 375.502747
1.800000 1.920000 3.840000 7.825088 -14.221446 263.481506
1.800000 1.920000 3.880000 7.277603 -11.656738 188.843048
1.800000 1.920000 3.920000 6.246828 -10.659586 152.649628
1.800000 1.920000 3.960000 5.013484 -10.841350 142.669876
1.800000 1.920000 4.000000 4.069983 -13.019115 186.062119
1.800000 1.920000 4.040000 5.915982 -17.383585 337.187866
1.800000 1.920000 4.080000 13.167271 -20.637133 599.268250
1.800000 1.920000 4.120000 24.103745 -17.001511 870.041870
1.800000 1.920000 4.160000 31.254120 -3.891428 991.963196
1.800000 1.920000 4.200000 26.590618 13.181898 880.823425
1.800000 1.960000 3.800000 18.546392 -9.412724 432.568054
1.800000 1.960000 3.840000 16.348356 -3.235674 277.738312
1.800000 1.960000 3.880000 11.874352 -1.009528 142.019394
1.800000 1.960000 3.920000 7.812306 -2.614657 67.868553
1.800000 1.960000 3.960000 6.133267 -7.405997 92.465759
1.800000 1.960000 4.000000 9.265046 -13.870144 278.221985
1.800000 1.960000 4.040000 18.938208 -17.790234 675.148071
1.800000 1.960000 4.080000 32.532570 -13.083473 1229.545410
1.800000 1.960000 4.120000 41.640465 2.957553 1742.675415
1.800000 1.960000 4.160000 36.940018 24.456034 1962.662598
1.800000 1.960000 4.200000 16.792435 38.498417 1764.113892
1.800000 2.000000 3.800000 20.499256 6.470583 462.087952
1.800000 2.000000 3.840000 13.717011 10.971380 308.527588
1.800000 2.000000 3.880000 6.751030 9.621819 138.155807
1.800000 2.000000 3.920000 3.089576 3.645571 22.835670
1.800000 2.000000 3.960000 5.476789 -4.270008 48.228191
1.800000 2.000000 4.000000 15.173052 -9.290733 316.539215
1.800000 2.000000 4.040000 29.246305 -5.241193 882.816467
1.800000 2.000000 4.080000 39.208565 10.827154 1654.538818
1.800000 2.000000 4.120000 35.192280 33.529541 2362.726562
1.800000 2.000000 4.160000 14.321831 49.779102 2683.073730
1.800000 2.000000 4.200000 -14.168116 47.403759 2447.852051
1.800000 2.040000 3.800000 10.405658 18.736835 459.346710
1.800000 2.040000 3.840000 1.338775 18.468771 342.887817
1.800000 2.040000 3.880000 -4.565825 12.378156 174.065491
1.800000 2.040000 3.920000 -4.074634 3.671388 30.081730
1.800000 2.040000 3.960000 3.942570 -2.591461 22.259531
1.800000 2.040000 4.000000 16.699097 -0.509617 279.119537
1.800000 2.040000 4.040000 26.441715 12.991245 867.936768
1.800000 2.040000 4.080000 23.742672 33.594982 1692.337280
1.800000 2.040000 4.120000 4.863130 49.436169 2467.584961
1.800000 2.040000 4.160000 -22.719427 48.278656 2847.000977
1.800000 2.040000 4.200000 -43.308498 27.573528 2635.925293
1.800000 2.080000 3.800000 -4.394283 20.121696 424.192383
1.800000 2.080000 3.840000 -11.966966 14.600866 356.393555
1.800000 2.080000 3.880000 -13.504392 5.638253 214.158493
1.800000 2.080000 3.920000 -7.692091 -1.743992 62.209770
1.800000 2.080000 3.960000 3.002154 -2.032376 13.143484
1.800000 2.080000 4.000000 11.857161 7.698832 199.864273
1.800000 2.080000 4.040000 10.607159 24.141323 695.315308
1.800000 2.080000 4.080000 -4.530094 37.388733 1418.439087
1.800000 2.080000 4.120000 -27.894552 36.569412 2115.427979
1.800000 2.080000 4.160000 -46.137379 18.493423 2470.664551
1.800000 2.080000 4.200000 -47.262047 -8.090976 2299.165039
1.800000 2.120000 3.800000 -14.490690 12.221843 359.353546
1.800000 2.120000 3.840000 -17.795935 3.645837 329.987396
1.800000 2.120000 3.880000 -14.125028 -4.628679 220.941071
1.800000 2.120000 3.920000 -5.301451 -7.202137 79.976158
1.800000 2.120000 3.960000 2.780240 -1.120453 8.985149
1.800000 2.120000 4.000000 2.915953 10.981609 129.098526
1.800000 2.120000 4.040000 -8.204391 20.871187 502.918457
1.800000 2.120000 4.080000 -25.996590 19.561699 1058.482788
1.800000 2.120000 4.120000 -39.553635 4.423502 1584.057373
1.800000 2.120000 4.160000 -39.086735 -17.367027 1829.386475
1.800000 2.120000 4.200000 -23.771940 -33.079849 1659.381592
1.800000 2.160000 3.800000 -16.467028 2.636223 278.112671
1.800000 2.160000 3.840000 -15.173610 -6.031429 266.616577
1.800000 2.160000 3.880000 -8.081239 -10.875868 183.590912
1.800000 2.160000 3.920000 -0.153942 -8.113155 65.846985
1.800000 2.160000 3.960000 1.724636 0.599828 3.334162
1.800000 2.160000 4.000000 -5.804978 8.039959 98.338715
1.800000 2.160000 4.040000 -18.730438 6.322702 390.805878
1.800000 2.160000 4.080000 -27.553730 -6.415571 800.367554
1.800000 2.160000 4.120000 -24.428349 -23.400696 1144.336792
1.800000 2.160000 4.160000 -9.842794 -33.796856 1239.108032
1.800000 2.160000 4.200000 7.209076 -31.163191 1023.115234
1.800000 2.200000 3.800000 -14.299042 -3.049851 213.764191
1.800000 2.200000 3.840000 -9.740714 -10.114687 197.188400
1.800000 2.200000 3.880000 -1.824605 -11.015471 124.669777
1.800000 2.200000 3.920000 2.580556 -5.196075 33.658470
1.800000 2.200000 3.960000 -1.243819 1.320234 3.290103
1.800000 2.200000 4.000000 -10.604725 0.532535 112.743782
1.800000 2.200000 4.040000 -16.590847 -9.933227 373.925171
1.800000 2.200000 4.080000 -11.673838 -23.555798 691.154114
1.800000 2.200000 4.120000 2.991731 -29.820152 898.191895
1.800000 2.200000 4.160000 17.776075 -23.409674 864.001709
1.800000 2.200000 4.200000 22.602341 -9.172119 594.993591
1.840000 1.800000 3.800000 -20.441265 3.890481 432.981140
1.840000 1.800000 3.840000 -19.567875 -5.531075 413.494537
1.840000 1.800000 3.880000 -13.249161 -12.448256 330.499329
1.840000 1.800000 3.920000 -4.874838 -14.530995 234.913864
1.840000 1.800000 3.960000 2.517866 -12.649152 166.340683
1.840000 1.800000 4.000000 8.154123 -8.536039 139.353699
1.840000 1.800000 4.040000 12.208156 -2.608694 155.844345
1.840000 1.800000 4.080000 13.693178 5.378229 216.428482
1.840000 1.800000 4.120000 10.631983 14.074288 311.124634
1.840000 1.800000 4.160000 2.594255 19.984560 406.112793
1.840000 1.800000 4.200000 -7.561077 19.893642 452.926910
1.840000 1.840000 3.800000 -16.129044 -12.177685 408.442078
1.840000 1.840000 3.840000 -4.641730 -17.158413 315.956787
1.840000 1.840000 3.880000 7.317340 -11.678546 189.931915
1.840000 1.840000 3.920000 10.941189 0.805160 120.357895
1.840000 1.840000 3.960000 4.055046 10.844660 134.050049
1.840000 1.840000 4.000000 -6.798187 11.399519 176.164383
1.840000 1.840000 4.040000 -12.480330 3.974239 171.553192
1.840000 1.840000 4.080000 -9.504898 -3.403307 101.925583
1.840000 1.840000 4.120000 -2.500404 -3.993546 22.200428
1.840000 1.840000 4.160000 0.941288 1.804533 4.142363
1.840000 1.840000 4.200000 -2.551277 7.774677 66.954620
1.840000 1.880000 3.800000 0.315263 -20.229771 409.343018
1.840000 1.880000 3.840000 17.100689 -11.980547 435.967072
1.840000 1.880000 3.880000 22.181353 9.438056 581.089294
1.840000 1.880000 3.920000 7.263945 29.292906 910.839233
1.840000 1.880000 3.960000 -19.640961 30.761127 1332.014282
1.840000 1.880000 4.000000 -38.965096 10.327879 1624.943726
1.840000 1.880000 4.040000 -35.877907 -17.735464 1601.770996
1.840000 1.880000 4.080000 -13.219158 -32.897068 1256.963135
1.840000 1.880000 4.120000 11.084227 -25.586443 777.526123
1.840000 1.880000 4.160000 19.581779 -4.339878 402.280609
1.840000 1.880000 4.200000 9.266293 12.963219 253.909225
1.840000 1.920000 3.800000 18.064045 -12.226261 475.791199
1.840000 1.920000 3.840000 27.916653 11.100860 902.568542
1.840000 1.920000 3.880000 13.489874 39.171062 1716.348877
1.840000 1.920000 3.920000 -22.821766 47.942055 2819.273682
1.840000 1.920000 3.960000 -57.306595 23.785652 3849.803223
1.840000 1.920000 4.000000 -62.639587 -21.164730 4371.664062
1.840000 1.920000 4.040000 -31.900402 -56.037018 4157.783203
1.840000 1.920000 4.080000 13.766653 -56.191902 3347.050537
1.840000 1.920000 4.120000 42.109028 -23.813942 2340.274170
1.840000 1.920000 4.160000 36.200748 14.772363 1528.716797
1.840000 1.920000 4.200000 6.568232 32.048615 1070.255371
1.840000 1.960000 3.800000 23.143093 7.403530 590.415039
1.840000 1.960000 3.840000 15.591232 36.466476 1572.890503
1.840000 1.960000 3.880000 -19.018890 53.411781 3214.536621
1.840000 1.960000 3.920000 -62.085594 35.761444 5133.501953
1.840000 1.960000 3.960000 -80.198586 -14.250646 6634.894043
1.840000 1.960000 4.000000 -53.388115 -65.388824 7125.989258
1.840000 1.960000 4.040000 4.393932 -80.515297 6502.019531
1.840000 1.960000 4.080000 53.700615 -48.026783 5190.328125
1.840000 1.960000 4.120000 61.378284 7.428442 3822.475342
1.840000 1.960000 4.160000 27.294630 45.529789 2817.958496
1.840000 1.960000 4.200000 -17.879990 43.435219 2206.312256
1.840000 2.000000 3.800000 10.721437 24.028412 692.313782
1.840000 2.000000 3.840000 -13.642381 43.735622 2098.919189
1.840000 2.000000 3.880000 -53.960480 36.992466 4280.175781
1.840000 2.000000 3.920000 -81.028557 -4.890075 6589.539551
1.840000 2.000000 3.960000 -66.780464 -60.421326 8110.367188
1.840000 2.000000 4.000000 -11.805078 -90.105286 8258.322266
1.840000 2.000000 4.040000 49.458401 -68.829514 7183.635254
1.840000 2.000000 4.080000 74.390869 -9.475393 5623.784668
1.840000 2.000000 4.120000 47.408157 45.669319 4333.220215
1.840000 2.000000 4.160000 -7.423725 59.402512 3583.770020
1.840000 2.000000 4.200000 -47.840965 29.046595 3132.462646
1.840000 2.040000 3.800000 -9.982967 24.998356 724.577393
1.840000 2.040000 3.840000 -38.763008 26.009981 2179.089844
1.840000 2.040000 3.880000 -65.443192 -0.907155 4283.634277
1.840000 2.040000 3.920000 -63.768417 -47.297577 6303.471680
1.840000 2.040000 3.960000 -23.514553 -82.483871 7356.522949
1.840000 2.040000 4.000000 34.521980 -76.499565 7043.950684
1.840000 2.040000 4.040000 70.682449 -27.748001 5765.960449
1.840000 2.040000 4.080000 58.400791 31.521408 4404.251465
1.840000 2.040000 4.120000 7.582777 59.830925 3637.238037
1.840000 2.040000 4.160000 -42.985962 40.367157 3477.300293
1.840000 2.040000 4.200000 -58.005951 -6.471376 3406.569092
1.840000 2.080000 3.800000 -23.557196 10.518377 665.577759
1.840000 2.080000 3.840000 -42.019802 -3.422655 1777.378418
1.840000 2.080000 3.880000 -45.992348 -33.536961 3240.023926
1.840000 2.080000 3.920000 -23.064896 -62.682949 4461.141602
1.840000 2.080000 3.960000 19.311565 -66.830032 4839.189941
1.840000 2.080000 4.000000 54.162746 -36.184624 4242.930176
1.840000 2.080000 4.040000 54.935875 12.189920 3166.544678
1.840000 2.080000 4.080000 18.964632 44.845421 2370.769043
1.840000 2.080000 4.120000 -27.932037 38.751663 2281.890137
1.840000 2.080000 4.160000 -51.750214 0.747471 2678.643311
1.840000 2.080000 4.200000 -38.095650 -38.541672 2936.739014
1.840000 2.120000 3.800000 -21.847345 -7.206434 529.239197
1.840000 2.120000 3.840000 -24.275526 -23.090755 1122.484131
1.840000 2.120000 3.880000 -12.910025 -40.025871 1768.739014
1.840000 2.120000 3.920000 10.866304 -45.119507 2153.846436
1.840000 2.120000 3.960000 33.791176 -29.978045 2040.526611
1.840000 2.120000 4.000000 38.725754 -0.674545 1500.138916
1.840000 2.120000 4.040000 19.255751 23.549282 925.352600
1.840000 2.120000 4.080000 -12.414749 24.514040 755.064148
1.840000 2.120000 4.120000 -33.396118 0.805456 1115.949463
1.840000 2.120000 4.160000 -28.482447 -29.832647 1701.236572
1.840000 2.120000 4.200000 -2.763274 -44.750507 2010.243652
1.840000 2.160000 3.800000 -10.128720 -15.714306 349.530396
1.840000 2.160000 3.840000 -2.759991 -22.559151 516.532837
1.840000 2.160000 3.880000 8.328026 -22.959179 596.479919
1.840000 2.160000 3.920000 17.282825 -15.119028 527.281067
1.840000 2.160000 3.960000 17.841160 -2.580006 324.963409
1.840000 2.160000 4.000000 8.256657 6.556166 111.155685
1.840000 2.160000 4.040000 -5.806019 4.885402 57.577003
1.840000 2.160000 4.080000 -14.103933 -7.978084 262.570740
1.840000 2.160000 4.120000 -9.424103 -23.726143 651.743591
1.840000 2.160000 4.160000 6.097187 -31.024899 999.719971
1.840000 2.160000 4.200000 21.952061 -24.469213 1080.635376
1.840000 2.200000 3.800000 -0.413031 -13.212320 174.736008
1.840000 2.200000 3.840000 6.141123 -10.125797 140.245163
1.840000 2.200000 3.880000 7.156260 -3.347939 62.420746
1.840000 2.200000 3.920000 1.626030 0.983902 3.612038
1.840000 2.200000 3.960000 -5.977459 -1.842529 39.124928
1.840000 2.200000 4.000000 -8.905659 -11.167624 204.026581
1.840000 2.200000 4.040000 -3.314930 -21.112549 456.728485
1.840000 2.200000 4.080000 8.670156 -24.800161 690.219604
1.840000 2.200000 4.120000 20.364014 -19.379959 790.275879
1.840000 2.200000 4.160000 25.303459 -8.024830 704.662964
1.840000 2.200000 4.200000 21.678837 2.497450 476.209198
1.880000 1.800000 3.800000 -26.289780 -6.541529 733.944153
1.880000 1.800000 3.840000 -17.815107 -16.981401 605.746033
1.880000 1.800000 3.880000 -5.407327 -18.818724 383.383545
1.880000 1.800000 3.920000 3.245594 -13.286253 187.058395
1.880000 1.800000 3.960000 5.641602 -6.756141 77.473106
1.880000 1.800000 4.000000 5.647171 -3.426571 43.631927
1.880000 1.800000 4.040000 7.625832 -1.316475 59.886414
1.880000 1.800000 4.080000 10.583281 4.123341 129.007767
1.880000 1.800000 4.120000 9.158318 13.216352 258.546753
1.880000 1.800000 4.160000 0.364071 20.218960 408.938873
1.880000 1.800000 4.200000 -11.733641 18.837601 492.533508
1.880000 1.840000 3.800000 -10.451244 -21.160152 556.980530
1.880000 1.840000 3.840000 11.484367 -16.191069 394.041382
1.880000 1.840000 3.880000 21.493374 7.019455 511.237854
1.880000 1.840000 3.920000 7.809372 30.627989 999.059937
1.880000 1.840000 3.960000 -20.339111 33.985008 1568.660278
1.880000 1.840000 4.000000 -39.925179 13.543781 1777.453857
1.880000 1.840000 4.040000 -35.408604 -13.226063 1428.697876
1.880000 1.840000 4.080000 -12.964592 -24.269234 757.076355
1.880000 1.840000 4.120000 6.393776 -13.303191 217.855270
1.880000 1.840000 4.160000 7.295120 5.992985 89.134644
1.880000 1.840000 4.200000 -6.740276 14.971627 269.580963
1.880000 1.880000 3.800000 12.135190 -17.709822 460.900635
1.880000 1.880000 3.840000 31.031492 13.181267 1136.699219
1.880000 1.880000 3.880000 14.028381 55.130371 3236.153320
1.880000 1.880000 3.920000 -37.164215 70.524628 6354.901855
1.880000 1.880000 3.960000 -87.099686 38.093750 9037.489258
1.880000 1.880000 4.000000 -95.802887 -23.840080 9746.542969
1.880000 1.880000 4.040000 -55.246056 -70.703606 8051.126953
1.880000 1.880000 4.080000 2.727318 -70.460487 4972.118652
1.880000 1.880000 4.120000 35.132072 -30.739784 2179.196777
1.880000 1.880000 4.160000 25.194771 11.133818 758.738403
1.880000 1.880000 4.200000 -7.143547 23.653482 610.517517
1.880000 1.920000 3.800000 23.345018 3.225693 555.394958
1.880000 1.920000 3.840000 17.182774 52.231453 3023.372559
1.880000 1.920000 3.880000 -38.395473 84.805458 8666.177734
1.880000 1.920000 3.920000 -112.184364 58.803051 16043.130859
1.880000 1.920000 3.960000 -145.812485 -23.297440 21804.052734
1.880000 1.920000 4.000000 -105.398354 -108.496689 22880.343750
1.880000 1.920000 4.040000 -15.340240 -136.057419 18746.943359
1.880000 1.920000 4.080000 60.463993 -90.258415 11802.476562
1.880000 1.920000 4.120000 73.446350 -12.766043 5557.337891
1.880000 1.920000 4.160000 29.414297 36.457260 2194.332764
1.880000 1.920000 4.200000 -23.420784 30.911400 1504.047852
1.880000 1.960000 3.800000 12.539965 25.367062 800.738525
1.880000 1.960000 3.840000 -27.255852 67.581894 5310.193848
1.880000 1.960000 3.880000 -104.308006 60.970863 14597.606445
1.880000 1.960000 3.920000 -160.489105 -15.791834 26006.134766
1.880000 1.960000 3.960000 -139.142944 -122.381226 34337.921875
1.880000 1.960000 4.000000 -40.371815 -183.391937 35262.484375
1.880000 1.960000 4.040000 71.821976 -152.623962 28452.470703
1.880000 1.960000 4.080000 121.601067 -54.873272 17797.894531
1.880000 1.960000 4.120000 85.089386 35.644234 8510.714844
1.880000 1.960000 4.160000 6.338572 59.791489 3615.199707
1.880000 1.960000 4.200000 -47.076073 19.854332 2610.351318
1.880000 2.000000 3.800000 -12.701550 29.815704 1050.305542
1.880000 2.000000 3.840000 -71.058380 41.406189 6763.766113
1.880000 2.000000 3.880000 -133.090271 -9.827202 17809.593750
1.880000 2.000000 3.920000 -137.039444 -109.500931 30770.261719
1.880000 2.000000 3.960000 -56.534241 -190.943329 39655.476562
1.880000 2.000000 4.000000 66.089020 -188.415985 39868.339844
1.880000 2.000000 4.040000 148.701904 -97.064636 31533.800781
1.880000 2.000000 4.080000 137.916977 18.827370 19375.562500
1.880000 2.000000 4.120000 53.716606 79.690582 9236.062500
1.880000 2.000000 4.160000 -31.419157 56.749138 4207.627930
1.880000 2.000000 4.200000 -57.399330 -10.506760 3405.075195
1.880000 2.040000 3.800000 -32.098145 11.872797 1171.254150
1.880000 2.040000 3.840000 -80.400894 -10.276600 6569.912109
1.880000 2.040000 3.880000 -99.913490 -80.349411 16438.732422
1.880000 2.040000 3.920000 -52.039185 -157.455826 27500.414062
1.880000 2.040000 3.960000 50.317265 -178.870850 34526.609375
1.880000 2.040000 4.000000 143.090912 -115.663132 33852.968750
1.880000 2.040000 4.040000 161.387589 -4.193247 26063.537109
1.880000 2.040000 4.080000 95.537994 80.174583 15555.472656
1.880000 2.040000 4.120000 -0.250248 85.567459 7321.852539
1.880000 2.040000 4.160000 -55.365334 24.783886 3679.561035
1.880000 2.040000 4.200000 -41.613976 -41.804779 3479.362305
1.880000 2.080000 3.800000 -30.244690 -14.486488 1124.599609
1.880000 2.080000 3.840000 -48.928986 -50.261261 4920.240234
1.880000 2.080000 3.880000 -29.240934 -102.595245 11380.816406
1.880000 2.080000 3.920000 35.291672 -130.173737 18190.703125
1.880000 2.080000 3.960000 110.291389 -99.269806 22018.683594
1.880000 2.080000 4.000000 143.090576 -18.391190 20813.148438
1.880000 2.080000 4.040000 107.283058 62.027916 15357.117188
1.880000 2.080000 4.080000 28.056465 89.056702 8718.261719
1.880000 2.080000 4.120000 -37.350430 51.277008 4024.386230
1.880000 2.080000 4.160000 -47.360550 -13.305077 2420.046875
1.880000 2.080000 4.200000 -8.237556 -52.236305 2796.489014
1.880000 2.120000 3.800000 -9.912321 -29.178362 949.630920
1.880000 2.120000 3.840000 -2.958588 -52.696884 2785.714844
1.880000 2.120000 3.880000 26.922653 -69.242851 5519.401367
1.880000 2.120000 3.920000 68.412476 -58.212570 8068.969727
1.880000 2.120000 3.960000 94.116348 -15.730522 9105.335938
1.880000 2.120000 4.000000 81.797348 36.316002 8009.658203
1.880000 2.120000 4.040000 35.525822 64.339859 5401.701660
1.880000 2.120000 4.080000 -14.295513 50.287369 2733.181152
1.880000 2.120000 4.120000 -34.509346 7.548519 1247.875122
1.880000 2.120000 4.160000 -16.139952 -29.988817 1159.827148
1.880000 2.120000 4.200000 19.758841 -36.322113 1709.707642
1.880000 2.160000 3.800000 11.544348 -23.773006 698.427795
1.880000 2.160000 3.840000 23.225380 -24.479847 1138.681152
1.880000 2.160000 3.880000 35.195198 -16.884981 1523.804688
1.880000 2.160000 3.920000 40.968388 -1.564552 1680.856689
1.880000 2.160000 3.960000 35.368477 15.565456 1493.212646
1.880000 2.160000 4.000000 19.146637 25.300537 1006.710938
1.880000 2.160000 4.040000 0.563316 21.214277 450.362885
1.880000 2.160000 4.080000 -9.103764 5.458782 112.676811
1.880000 2.160000 4.120000 -3.880779 -11.332943 143.496033
1.880000 2.160000 4.160000 11.606043 -17.459446 439.532471
1.880000 2.160000 4.200000 25.208389 -9.292988 721.822510
1.880000 2.200000 3.800000 18.810555 -7.627490 412.015564
1.880000 2.200000 3.840000 17.699064 4.442965 332.996796
1.880000 2.200000 3.880000 6.854963 10.559856 158.501083
1.880000 2.200000 3.920000 -4.548977 4.968933 45.383488
1.880000 2.200000 3.960000 -6.652824 -7.847984 105.850929
1.880000 2.200000 4.000000 2.322746 -17.458447 310.192505
1.880000 2.200000 4.040000 15.172798 -16.836369 513.677124
1.880000 2.200000 4.080000 22.796221 -7.732315 579.456360
1.880000 2.200000 4.120000 21.854040 2.346746 483.106293
1.880000 2.200000 4.160000 15.981168 7.483323 311.397858
1.880000 2.200000 4.200000 10.713500 7.469656 170.574844
1.920000 1.800000 3.800000 -21.479689 -19.776514 852.487549
1.920000 1.800000 3.840000 -6.433676 -24.739489 653.434509
1.920000 1.800000 3.880000 6.455776 -17.918961 362.766174
1.920000 1.800000 3.920000 9.411179 -6.707153 133.556183
1.920000 1.800000 3.960000 4.976509 -0.874172 25.529819
1.920000 1.800000 4.000000 2.338335 -2.300072 10.758141
1.920000 1.800000 4.040000 6.566158 -3.663834 56.538109
1.920000 1.800000 4.080000 12.737251 2.503914 168.507141
1.920000 1.800000 4.120000 11.516548 14.535357 343.907471
1.920000 1.800000 4.160000 0.079030 22.590271 510.326599
1.920000 1.800000 4.200000 -13.817966 18.970192 550.804382
1.920000 1.840000 3.800000 1.877728 -23.116913 537.917542
1.920000 1.840000 3.840000 22.416399 -0.589308 502.842224
1.920000 1.840000 3.880000 14.074501 34.270149 1372.534668
1.920000 1.840000 3.920000 -23.363686 49.768154 3022.730957
1.920000 1.840000 3.960000 -61.199696 27.623474 4508.458984
1.920000 1.840000 4.000000 -67.118912 -17.240532 4802.184082
1.920000 1.840000 4.040000 -35.918839 -48.963905 3687.626953
1.920000 1.840000 4.080000 5.429024 -43.840549 1951.468018
1.920000 1.840000 4.120000 23.593479 -11.370857 685.948669
1.920000 1.840000 4.160000 9.431538 17.131237 382.433167
1.920000 1.840000 4.200000 -16.803625 19.504385 662.782837
1.920000 1.880000 3.800000 19.066793 -5.459625 393.350098
1.920000 1.880000 3.840000 17.396801 45.650246 2386.593506
1.920000 1.880000 3.880000 -37.364491 82.218460 8155.979980
1.920000 1.880000 3.920000 -113.052582 58.413452 16193.017578
1.920000 1.880000 3.960000 -148.158966 -23.735893 22514.472656
1.920000 1.880000 4.000000 -107.735779 -108.781090 23440.324219
1.920000 1.880000 4.040000 -18.332443 -134.633011 18462.125000
1.920000 1.880000 4.080000 54.151905 -87.736008 10630.035156
1.920000 1.880000 4.120000 62.945312 -13.029213 4131.872559
1.920000 1.880000 4.160000 18.504902 29.841839 1232.966797
1.920000 1.880000 4.200000 -28.609138 19.465397 1197.384521
1.920000 1.920000 3.800000 13.959904 19.709761 583.353577
1.920000 1.920000 3.840000 -30.854488 73.954613 6421.284180
1.920000 1.920000 3.880000 -124.462646 69.440231 20312.896484
1.920000 1.920000 3.920000 -194.453598 -21.969837 38294.875000
1.920000 1.920000 3.960000 -170.326630 -150.747086 51735.843750
1.920000 1.920000 4.000000 -52.700481 -224.486984 53171.746094
1.920000 1.920000 4.040000 79.917252 -188.484375 41913.125000
1.920000 1.920000 4.080000 137.498489 -74.993858 24529.912109
1.920000 1.920000 4.120000 95.408798 27.024307 9833.152344
1.920000 1.920000 4.160000 8.958344 51.500420 2732.545166
1.920000 1.920000 4.200000 -44.384808 7.064556 2019.919067
1.920000 1.960000 3.800000 -11.237072 30.005861 1026.623535
1.920000 1.960000 3.840000 -91.153709 51.206432 10931.097656
1.920000 1.960000 3.880000 -180.047455 -17.032005 32707.175781
1.920000 1.960000 3.920000 -188.611725 -155.751816 59833.011719
1.920000 1.960000 3.960000 -78.673050 -270.576904 79401.304688
1.920000 1.960000 4.000000 90.192978 -269.473083 80750.515625
1.920000 1.960000 4.040000 204.216461 -147.064026 63332.191406
1.920000 1.960000 4.080000 192.376526 7.344955 37062.675781
1.920000 1.960000 4.120000 84.969376 87.643494 14901.176758
1.920000 1.960000 4.160000 -20.496674 60.192070 4043.198730
1.920000 1.960000 4.200000 -49.409416 -18.820992 2795.520264
1.920000 2.000000 3.800000 -35.789902 14.061672 1478.647705
1.920000 2.000000 3.840000 -115.143188 -15.039604 13484.143555
1.920000 2.000000 3.880000 -151.358551 -125.251770 38597.414062
1.920000 2.000000 3.920000 -78.728668 -250.581558 68989.320312
1.920000 2.000000 3.960000 83.176224 -288.580231 90196.828125
1.920000 2.000000 4.000000 231.802765 -192.440521 90765.875000
1.920000 2.000000 4.040000 264.972534 -20.083138 70613.781250
1.920000 2.000000 4.080000 169.260559 111.271500 41030.484375
1.920000 2.000000 4.120000 29.132637 124.514977 16352.690430
1.920000 2.000000 4.160000 -50.731625 42.524895 4382.064453
1.920000 2.000000 4.200000 -33.916039 -44.524574 3132.735352
1.920000 2.040000 3.800000 -37.898773 -17.145535 1730.286377
1.920000 2.040000 3.840000 -80.364777 -78.910751 12685.404297
1.920000 2.040000 3.880000 -51.025631 -178.884888 34603.417969
1.920000 2.040000 3.920000 66.615829 -236.487152 60363.839844
1.920000 2.040000 3.960000 208.490356 -184.879272 77648.578125
1.920000 2.040000 4.000000 275.114319 -38.242149 77150.351562
1.920000 2.040000 4.040000 216.944580 110.743538 59329.078125
1.920000 2.040000 4.080000 79.559067 166.456131 34037.289062
1.920000 2.040000 4.120000 -35.816357 109.782928 13335.102539
1.920000 2.040000 4.160000 -59.173134 7.634167 3559.740234
1.920000 2.040000 4.200000 -4.343513 -52.874123 2814.539062
1.920000 2.080000 3.800000 -14.161063 -39.150024 1733.260010
1.920000 2.080000 3.840000 -11.657555 -95.096588 9179.259766
1.920000 2.080000 3.880000 50.812660 -143.736343 23242.062500
1.920000 2.080000 3.920000 150.116394 -128.815445 39128.351562
1.920000 2.080000 3.960000 218.965179 -35.036720 49173.320312
1.920000 2.080000 4.000000 200.470825 88.112068 47952.289062
1.920000 2.080000 4.040000 100.600502 161.538101 36215.019531
1.920000 2.080000 4.080000 -12.878460 142.019196 20335.306641
1.920000 2.080000 4.120000 -66.524292 57.517082 7733.696289
1.920000 2.080000 4.160000 -40.841690 -20.308962 2080.497559
1.920000 2.080000 4.200000 20.810812 -39.027695 1956.250977
1.920000 2.120000 3.800000 17.406620 -35.415974 1557.281494
1.920000 2.120000 3.840000 40.657406 -58.002953 5017.367188
1.920000 2.120000 3.880000 87.598274 -56.416451 10856.273438
1.920000 2.120000 3.920000 129.572708 -13.146873 16961.925781
1.920000 2.120000 3.960000 130.671753 57.184250 20345.146484
1.920000 2.120000 4.000000 79.666389 113.088814 19135.812500
1.920000 2.120000 4.040000 4.179062 118.056458 13954.791992
1.920000 2.120000 4.080000 -48.874016 71.507095 7501.934082
1.920000 2.120000 4.120000 -50.763340 9.853531 2674.008789
1.920000 2.120000 4.160000 -12.767502 -24.048264 741.328064
1.920000 2.120000 4.200000 26.879580 -15.203012 953.643372
1.920000 2.160000 3.800000 33.792381 -11.298376 1269.578369
1.920000 2.160000 3.840000 45.080364 -3.963337 2047.947266
1.920000 2.160000 3.880000 52.133690 11.960304 2860.970459
1.920000 2.160000 3.920000 48.526051 32.654167 3421.072266
1.920000 2.160000 3.960000 31.713341 49.522171 3458.181152
1.920000 2.160000 4.000000 6.563553 53.301746 2884.156494
1.920000 2.160000 4.040000 -15.641243 40.585876 1891.861816
1.920000 2.160000 4.080000 -23.811548 17.741234 881.741211
1.920000 2.160000 4.120000 -15.078289 -2.136456 231.919235
1.920000 2.160000 4.160000 2.427740 -8.161623 72.506012
1.920000 2.160000 4.200000 15.340905 0.337368 235.457184
1.920000 2.200000 3.800000 27.133451 12.357071 888.921387
1.920000 2.200000 3.840000 13.391218 24.260391 767.891296
1.920000 2.200000 3.880000 -5.139328 20.084389 429.795349
1.920000 2.200000 3.920000 -12.454685 2.729115 162.567245
1.920000 2.200000 3.960000 -2.603661 -12.442423 161.592941
1.920000 2.200000 4.000000 14.501907 -12.438549 365.022827
1.920000 2.200000 4.040000 23.102356 1.067490 534.858398
1.920000 2.200000 4.080000 16.886271 14.390877 492.243469
1.920000 2.200000 4.120000 3.956280 16.020555 272.310364
1.920000 2.200000 4.160000 -2.806900 7.312069 61.345039
1.920000 2.200000 4.200000 1.003340 -0.817415 1.674858
1.960000 1.800000 3.800000 -7.495335 -24.857405 674.070618
1.960000 1.800000 3.840000 7.738270 -20.956009 499.035126
1.960000 1.800000 3.880000 14.245049 -7.988464 266.736969
1.960000 1.800000 3.920000 9.217690 2.476955 91.101105
1.960000 1.800000 3.960000 1.350723 2.646927 8.830675
1.960000 1.800000 4.000000 1.287237 -3.284866 12.447327
1.960000 1.800000 4.040000 9.826408 -3.911499 111.858131
1.960000 1.800000 4.080000 16.747978 6.575761 323.735413
1.960000 1.800000 4.120000 11.805260 21.389603 596.879272
1.960000 1.800000 4.160000 -3.889480 27.760454 785.770874
1.960000 1.800000 4.200000 -18.412561 20.165457 745.668091
1.960000 1.840000 3.800000 11.500814 -13.983635 327.810791
1.960000 1.840000 3.840000 15.857815 20.036446 652.929443
1.960000 1.840000 3.880000 -15.998940 47.401196 2502.839355
1.960000 1.840000 3.920000 -63.766907 36.171913 5374.625977
1.960000 1.840000 3.960000 -86.396469 -13.290771 7640.994629
1.960000 1.840000 4.000000 -60.707008 -64.314194 7821.656250
1.960000 1.840000 4.040000 -5.127625 -76.298294 5847.722168
1.960000 1.840000 4.080000 36.383072 -42.263626 3109.941895
1.960000 1.840000 4.120000 34.790810 5.838577 1244.489380
1.960000 1.840000 4.160000 0.667398 28.684385 823.239380
1.960000 1.840000 4.200000 -30.127666 15.505488 1148.096436
1.960000 1.880000 3.800000 12.784063 8.950710 243.547485
1.960000 1.880000 3.840000 -22.103947 57.320312 3774.202637
1.960000 1.880000 3.880000 -100.851685 56.683929 13384.130859
1.960000 1.880000 3.920000 -160.970200 -18.596474 26257.232422
1.960000 1.880000 3.960000 -141.266144 -126.146484 35869.058594
1.960000 1.880000 4.000000 -42.660400 -186.508575 36605.359375
1.960000 1.880000 4.040000 66.811928 -153.870377 28139.927734
1.960000 1.880000 4.080000 110.936668 -57.892441 15658.478516
1.960000 1.880000 4.120000 71.620102 24.705772 5739.813965
1.960000 1.880000 4.160000 -1.128550 40.037315 1604.260254
1.960000 1.880000 4.200000 -41.815826 -0.242439 1748.622070
1.960000 1.920000 3.800000 -7.420093 23.118305 589.513855
1.960000 1.920000 3.840000 -86.658188 47.629711 9778.230469
1.960000 1.920000 3.880000 -177.320633 -18.894588 31799.613281
1.960000 1.920000 3.920000 -187.310104 -158.000717 60049.300781
1.960000 1.920000 3.960000 -77.358353 -273.264465 80657.781250
1.960000 1.920000 4.000000 91.328903 -271.401062 81999.507812
1.960000 1.920000 4.040000 203.455795 -148.568817 63466.953125
1.960000 1.920000 4.080000 189.402267 3.637329 35886.449219
1.960000 1.920000 4.120000 82.810150 79.746719 13217.060547
1.960000 1.920000 4.160000 -17.718555 50.194771 2833.462402
1.960000 1.920000 4.200000 -41.199074 -25.349148 2339.942871
1.960000 1.960000 3.800000 -32.732807 12.729626 1233.479980
1.960000 1.960000 3.840000 -125.820961 -17.455925 16135.623047
1.960000 1.960000 3.880000 -170.352844 -144.394943 49869.992188
1.960000 1.960000 3.920000 -87.557556 -290.608124 92119.406250
1.960000 1.960000 3.960000 99.730148 -335.355164 122409.187500
1.960000 1.960000 4.000000 271.148102 -224.537262 123938.281250
1.960000 1.960000 4.040000 308.710144 -27.030785 96032.617188
1.960000 1.960000 4.080000 199.603790 121.452972 54592.496094
1.960000 1.960000 4.120000 43.104084 135.226517 20144.173828
1.960000 1.960000 4.160000 -42.827663 44.767845 3838.368652
1.960000 1.960000 4.200000 -22.333458 -46.350586 2647.160156
1.960000 2.000000 3.800000 -39.540829 -17.186039 1858.837158
1.960000 2.000000 3.840000 -100.369705 -96.822617 19448.697266
1.960000 2.000000 3.880000 -64.968315 -231.466919 57797.816406
1.960000 2.000000 3.920000 90.813553 -310.929077 104923.992188
1.960000 2.000000 3.960000 280.344604 -244.011719 138134.812500
1.960000 2.000000 4.000000 369.694824 -50.299015 139204.250000
1.960000 2.000000 4.040000 294.098541 145.718597 107727.859375
1.960000 2.000000 4.080000 116.188095 218.696243 61327.718750
1.960000 2.000000 4.120000 -30.866535 147.196381 22619.517578
1.960000 2.000000 4.160000 -59.772522 21.131655 4019.301270
1.960000 2.000000 4.200000 6.131143 -49.226395 2460.828857
1.960000 2.040000 3.800000 -18.220085 -43.351410 2211.316162
1.960000 2.040000 3.840000 -21.913418 -132.169571 17948.992188
1.960000 2.040000 3.880000 72.492188 -214.044876 51070.324219
1.960000 2.040000 3.920000 229.415924 -195.776550 90960.125000
1.960000 2.040000 3.960000 340.378662 -51.210449 118480.140625
1.960000 2.040000 4.000000 314.389771 140.837418 118676.109375
1.960000 2.040000 4.040000 161.818954 255.747009 91591.906250
1.960000 2.040000 4.080000 -10.752079 228.098572 52144.562500
1.960000 2.040000 4.120000 -91.924194 103.852890 19235.480469
1.960000 2.040000 4.160000 -56.590744 -7.788528 3263.173340
1.960000 2.040000 4.200000 26.783104 -32.801929 1793.301270
1.960000 2.080000 3.800000 17.357693 -44.072517 2243.676270
1.960000 2.080000 3.840000 54.612541 -98.878250 12759.437500
1.960000 2.080000 3.880000 149.009460 -107.886566 33843.328125
1.960000 2.080000 3.920000 240.238937 -28.364189 58519.273438
1.960000 2.080000 3.960000 250.056427 111.664597 74997.195312
1.960000 2.080000 4.000000 153.092606 225.813919 74429.273438
1.960000 2.080000 4.040000 5.782295 239.104843 57204.558594
1.960000 2.080000 4.080000 -97.765472 151.762787 32590.031250
1.960000 2.080000 4.120000 -103.560959 36.897552 12086.301758
1.960000 2.080000 4.160000 -37.223156 -24.801882 2000.696777
1.960000 2.080000 4.200000 28.417017 -10.696596 921.944031
1.960000 2.120000 3.800000 41.506248 -18.198990 2053.971924
1.960000 2.120000 3.840000 78.385368 -26.903175 6868.046875
1.960000 2.120000 3.880000 124.782295 4.396965 15589.954102
1.960000 2.120000 3.920000 139.801483 75.348778 25221.894531
1.960000 2.120000 3.960000 96.244637 148.191040 31223.613281
1.960000 2.120000 4.000000 8.927094 174.233597 30437.039062
1.960000 2.120000 4.040000 -72.212868 134.343948 23262.996094
1.960000 2.120000 4.080000 -100.904587 56.313015 13352.890625
1.960000 2.120000 4.120000 -70.909103 -7.801853 5088.970215
1.960000 2.120000 4.160000 -17.485390 -23.891390 876.537354
1.960000 2.120000 4.200000 15.634596 0.575249 244.771500
1.960000 2.160000 3.800000 38.973595 14.509348 1729.462158
1.960000 2.160000 3.840000 45.115005 27.982529 2818.385742
1.960000 2.160000 3.880000 42.217880 47.900547 4076.811768
1.960000 2.160000 3.920000 25.878052 66.619843 5107.876953
1.960000 2.160000 3.960000 -1.606873 74.228340 5512.428711
1.960000 2.160000 4.000000 -30.681931 64.348312 5082.085938
1.960000 2.160000 4.040000 -48.930798 39.134003 3925.693115
1.960000 2.160000 4.080000 -48.493404 9.477661 2441.436523
1.960000 2.160000 4.120000 -31.648335 -10.964005 1121.826416
1.960000 2.160000 4.160000 -9.856485 -14.423706 305.193604
1.960000 2.160000 4.200000 3.830511 -4.088209 31.386269
1.960000 2.200000 3.800000 16.897821 31.601135 1284.168213
1.960000 2.200000 3.840000 -4.942257 33.807056 1167.343018
1.960000 2.200000 3.880000 -20.679565 16.895664 713.107910
1.960000 2.200000 3.920000 -16.217903 -5.176902 289.820709
1.960000 2.200000 3.960000 3.299683 -12.691895 171.972092
1.960000 2.200000 4.000000 18.050663 -0.189507 325.862366
1.960000 2.200000 4.040000 13.538212 17.896149 503.555298
1.960000 2.200000 4.080000 -4.816479 22.143242 513.521606
1.960000 2.200000 4.120000 -17.809883 7.990437 381.039001
1.960000 2.200000 4.160000 -12.565668 -10.296249 263.908752
1.960000 2.200000 4.200000 4.741375 -15.175066 252.763260
2.000000 1.800000 3.800000 4.834269 -16.971977 311.418152
2.000000 1.800000 3.840000 13.434151 -7.496574 236.675034
2.000000 1.800000 3.880000 11.398808 4.307396 148.486481
2.000000 1.800000 3.920000 2.337322 8.204521 72.777245
2.000000 1.800000 3.960000 -2.855753 2.627411 15.058613
2.000000 1.800000 4.000000 2.306473 -3.214485 15.652732
2.000000 1.800000 4.040000 12.376144 1.021095 154.211578
2.000000 1.800000 4.080000 15.083038 15.382177 464.109436
2.000000 1.800000 4.120000 4.075510 28.699505 840.271362
2.000000 1.800000 4.160000 -14.078300 29.477924 1067.146484
2.000000 1.800000 4.200000 -26.098396 17.316990 981.004395
2.000000 1.840000 3.800000 9.093925 -0.580311 83.036240
2.000000 1.840000 3.840000 -6.731705 28.150120 837.745117
2.000000 1.840000 3.880000 -48.705345 31.314507 3352.809082
2.000000 1.840000 3.920000 -82.066101 -6.933517 6782.918457
2.000000 1.840000 3.960000 -71.928261 -63.409348 9194.419922
2.000000 1.840000 4.000000 -18.810394 -93.390724 9075.658203
2.000000 1.840000 4.040000 38.392990 -71.683327 6612.521484
2.000000 1.840000 4.080000 56.879456 -16.640274 3512.171143
2.000000 1.840000 4.120000 28.372126 27.126007 1540.797852
2.000000 1.840000 4.160000 -16.136560 29.970812 1158.638184
2.000000 1.840000 4.200000 -38.386013 1.413139 1475.482910
2.000000 1.880000 3.800000 -4.462548 12.306614 171.367081
2.000000 1.880000 3.840000 -60.457394 32.075768 4683.951172
2.000000 1.880000 3.880000 -126.479805 -14.346466 16202.961914
2.000000 1.880000 3.920000 -134.278168 -114.345039 31105.414062
2.000000 1.880000 3.960000 -54.563347 -196.896332 41745.324219
2.000000 1.880000 4.000000 67.156609 -193.367950 41901.175781
2.000000 1.880000 4.040000 145.644989 -102.062531 31629.222656
2.000000 1.880000 4.080000 130.800079 8.129814 17174.753906
2.000000 1.880000 4.120000 49.822857 59.657417 6041.324219
2.000000 1.880000 4.160000 -23.103416 33.144516 1632.326782
2.000000 1.880000 4.200000 -36.884766 -24.514551 1961.449219
2.000000 1.920000 3.800000 -25.327209 6.321398 681.427612
2.000000 1.920000 3.840000 -105.489449 -17.839306 11446.264648
2.000000 1.920000 3.880000 -144.717957 -126.932144 37055.054688
2.000000 1.920000 3.920000 -73.110245 -253.420532 69567.070312
2.000000 1.920000 3.960000 89.358566 -291.251099 92812.156250
2.000000 1.920000 4.000000 236.786987 -193.598618 93548.500000
2.000000 1.920000 4.040000 266.475281 -22.138512 71499.195312
2.000000 1.920000 4.080000 169.374481 104.029633 39509.878906
2.000000 1.920000 4.120000 34.228226 112.043976 13725.423828
2.000000 1.920000 4.160000 -36.666050 31.803535 2355.864014
2.000000 1.920000 4.200000 -15.593579 -44.956207 2264.220215
2.000000 1.960000 3.800000 -33.228569 -18.129890 1432.830811
2.000000 1.960000 3.840000 -95.237122 -95.913239 18269.458984
2.000000 1.960000 3.880000 -60.991634 -230.731018 56956.781250
2.000000 1.960000 3.920000 94.987885 -310.598389 105494.054688
2.000000 1.960000 3.960000 284.772888 -242.916992 140104.265625
2.000000 1.960000 4.000000 372.864380 -48.391739 141369.609375
2.000000 1.960000 4.040000 295.394287 146.409393 108693.492188
2.000000 1.960000 4.080000 117.782043 216.382080 60693.812500
2.000000 1.960000 4.120000 -25.737396 143.333649 21206.949219
2.000000 1.960000 4.160000 -50.780594 20.052034 2980.752686
2.000000 1.960000 4.200000 14.726531 -44.590382 2205.172852
2.000000 2.000000 3.800000 -16.309113 -42.756058 2094.067627
2.000000 2.000000 3.840000 -23.937508 -144.845795 21553.308594
2.000000 2.000000 3.880000 83.419640 -241.278259 65174.035156
2.000000 2.000000 3.920000 264.945312 -221.628464 119315.187500
2.000000 2.000000 3.960000 393.314392 -54.955215 157716.296875
2.000000 2.000000 4.000000 362.697388 165.984589 159100.281250
2.000000 2.000000 4.040000 187.033691 296.338043 122797.835938
2.000000 2.000000 4.080000 -8.753494 262.836609 69159.710938
2.000000 2.000000 4.120000 -97.891220 121.976448 24460.945312
2.000000 2.000000 4.160000 -56.323479 -0.252968 3172.398193
2.000000 2.000000 4.200000 34.000717 -23.617043 1713.813477
2.000000 2.040000 3.800000 16.786022 -46.261806 2421.925293
2.000000 2.040000 3.840000 62.918392 -124.999832 19583.681641
2.000000 2.040000 3.880000 191.616669 -142.638916 57062.812500
2.000000 2.040000 3.920000 318.750732 -37.043850 102974.281250
2.000000 2.040000 3.960000 334.278259 153.316422 135247.875000
2.000000 2.040000 4.000000 203.296753 308.107300 136259.687500
2.000000 2.040000 4.040000 5.160213 324.860199 105560.773438
2.000000 2.040000 4.080000 -131.247238 206.999847 60074.773438
2.000000 2.040000 4.120000 -136.153793 56.360611 21714.375000
2.000000 2.040000 4.160000 -49.253490 -20.295395 2837.809326
2.000000 2.040000 4.200000 30.698189 0.838118 943.081238
2.000000 2.080000 3.800000 43.094803 -23.112331 2391.341797
2.000000 2.080000 3.840000 105.866837 -50.385765 13746.512695
2.000000 2.080000 3.880000 193.722366 -4.746712 37550.886719
2.000000 2.080000 3.920000 228.733841 117.378929 66096.984375
2.000000 2.080000 3.960000 157.903229 246.796631 85842.007812
2.000000 2.080000 4.000000 7.967613 293.574127 86249.250000
2.000000 2.080000 4.040000 -129.839050 224.364105 67197.429688
2.000000 2.080000 4.080000 -174.576965 91.955116 38932.859375
2.000000 2.080000 4.120000 -120.704552 -11.386932 14699.250977
2.000000 2.080000 4.160000 -34.110649 -31.807312 2175.241455
2.000000 2.080000 4.200000 12.547586 9.714771 251.818695
2.000000 2.120000 3.800000 44.671158 11.407209 2125.636719
2.000000 2.120000 3.840000 82.175438 23.766680 7317.657715
2.000000 2.120000 3.880000 105.640182 77.816711 17215.289062
2.000000 2.120000 3.920000 78.508209 149.554474 28530.080078
2.000000 2.120000 3.960000 -1.693298 189.924652 36074.242188
2.000000 2.120000 4.000000 -94.414841 164.647552 36022.976562
2.000000 2.120000 4.040000 -145.732758 84.977386 28459.193359
2.000000 2.120000 4.080000 -131.194702 0.022362 17212.050781
2.000000 2.120000 4.120000 -73.355202 -42.887741 7220.344238
2.000000 2.120000 4.160000 -19.296017 -33.761971 1512.206909
2.000000 2.120000 4.200000 -0.793694 -0.835697 1.328339
2.000000 2.160000 3.800000 23.262478 34.628277 1740.260498
2.000000 2.160000 3.840000 22.068359 49.874298 2974.458008
2.000000 2.160000 3.880000 8.497421 66.629303 4511.669922
2.000000 2.160000 3.920000 -17.147583 74.754066 5882.209961
2.000000 2.160000 3.960000 -46.902840 66.539558 6627.389160
2.000000 2.160000 4.000000 -68.921188 41.709831 6489.840332
2.000000 2.160000 4.040000 -73.742249 8.363190 5507.862305
2.000000 2.160000 4.080000 -59.643459 -20.783913 3989.313232
2.000000 2.160000 4.120000 -33.949081 -35.016323 2378.683105
2.000000 2.160000 4.160000 -9.215583 -31.509136 1077.752686
2.000000 2.160000 4.200000 3.924370 -16.820311 298.323517
2.000000 2.200000 3.800000 -3.032452 35.615215 1277.639404
2.000000 2.200000 3.840000 -23.055664 26.234053 1219.789185
2.000000 2.200000 3.880000 -27.993591 3.310446 794.600220
2.000000 2.200000 3.920000 -12.697556 -13.313915 338.488281
2.000000 2.200000 3.960000 7.319378 -9.030830 135.129196
2.000000 2.200000 4.000000 11.272104 9.384621 215.131439
2.000000 2.200000 4.040000 -4.847610 20.017792 424.211304
2.000000 2.200000 4.080000 -23.358826 8.720068 621.674377
2.000000 2.200000 4.120000 -23.079155 -15.569382 775.053040
2.000000 2.200000 4.160000 -1.608009 -29.732796 886.624817
2.000000 2.200000 4.200000 22.001869 -20.379967 899.425293
2.040000 1.800000 3.800000 5.192303 -2.980579 35.843861
2.040000 1.800000 3.840000 5.881557 4.545382 55.253212
2.040000 1.800000 3.880000 0.027599 9.178009 84.236610
2.040000 1.800000 3.920000 -6.106318 6.397911 78.220383
2.040000 1.800000 3.960000 -5.227173 0.013588 27.323521
2.040000 1.800000 4.000000 2.634270 -1.108957 8.169163
2.040000 1.800000 4.040000 9.044785 7.623995 139.933426
2.040000 1.800000 4.080000 5.141663 20.891495 462.891266
2.040000 1.800000 4.120000 -9.253485 27.754768 855.954102
2.040000 1.800000 4.160000 -24.813913 21.935917 1096.914795
2.040000 1.800000 4.200000 -31.205242 7.720241 1033.369263
2.040000 1.840000 3.800000 -4.289247 4.483591 38.500225
2.040000 1.840000 3.840000 -28.662409 14.446709 1030.241089
2.040000 1.840000 3.880000 -58.708050 -5.660255 3478.673584
2.040000 1.840000 3.920000 -62.222729 -50.736713 6445.881836
2.040000 1.840000 3.960000 -25.118622 -87.325829 8256.745117
2.040000 1.840000 4.000000 30.676529 -82.880836 7810.282227
2.040000 1.840000 4.040000 64.069572 -37.361801 5500.814453
2.040000 1.840000 4.080000 51.543198 14.909805 2879.003418
2.040000 1.840000 4.120000 7.881447 35.961632 1355.356201
2.040000 1.840000 4.160000 -29.203232 17.387829 1155.165283
2.040000 1.840000 4.200000 -34.349762 -15.892628 1432.481689
2.040000 1.880000 3.800000 -18.698889 -1.533010 351.998566
2.040000 1.880000 3.840000 -66.796532 -16.101990 4721.050781
2.040000 1.880000 3.880000 -90.222717 -83.296814 15078.498047
2.040000 1.880000 3.920000 -44.658585 -161.175934 27972.070312
2.040000 1.880000 3.960000 57.320129 -182.843948 36717.507812
2.040000 1.880000 4.000000 148.336975 -119.079460 36183.773438
2.040000 1.880000 4.040000 163.389099 -10.071732 26797.437500
2.040000 1.880000 4.080000 98.017914 67.663445 14185.853516
2.040000 1.880000 4.120000 10.510612 68.300217 4775.392578
2.040000 1.880000 4.160000 -33.121033 12.880901 1262.920410
2.040000 1.880000 4.200000 -16.328936 -38.093555 1717.753174
2.040000 1.920000 3.800000 -22.941734 -21.090612 971.137085
2.040000 1.920000 3.840000 -67.567703 -77.812805 10620.226562
2.040000 1.920000 3.880000 -41.012283 -177.410278 33156.414062
2.040000 1.920000 3.920000 76.550514 -235.650635 61391.203125
2.040000 1.920000 3.960000 218.607178 -182.586151 81126.796875
2.040000 1.920000 4.000000 282.501190 -34.616234 81005.203125
2.040000 1.920000 4.040000 220.778244 111.413094 61155.906250
2.040000 1.920000 4.080000 84.869850 160.861465 33079.300781
2.040000 1.920000 4.120000 -22.279236 101.894470 10878.847656
2.040000 1.920000 4.160000 -37.718174 7.249107 1475.210205
2.040000 1.920000 4.200000 14.601759 -39.998001 1813.051514
2.040000 1.960000 3.800000 -7.637680 -40.237465 1677.387695
2.040000 1.960000 3.840000 -14.102993 -126.650177 16239.162109
2.040000 1.960000 3.880000 78.919647 -209.115601 49957.648438
2.040000 1.960000 3.920000 236.436218 -190.654892 92251.375000
2.040000 1.960000 3.960000 346.777313 -44.160942 122204.695312
2.040000 1.960000 4.000000 317.528442 148.293442 122815.257812
2.040000 1.960000 4.040000 162.482498 259.495544 93738.500000
2.040000 1.960000 4.080000 -7.345184 226.880432 51528.683594
2.040000 1.960000 4.120000 -81.520271 102.691223 17191.042969
2.040000 1.960000 4.160000 -42.084759 -1.575165 1773.608154
2.040000 1.960000 4.200000 36.231926 -17.940727 1634.622070
2.040000 2.000000 3.800000 20.645550 -41.890079 2181.017578
2.040000 2.000000 3.840000 64.888580 -120.197739 18658.023438
2.040000 2.000000 3.880000 193.186157 -138.423935 56482.078125
2.040000 2.000000 3.920000 320.597412 -32.402664 103832.632812
2.040000 2.000000 3.960000 335.144989 158.924072 137579.031250
2.040000 2.000000 4.000000 202.111023 313.025543 138833.859375
2.040000 2.000000 4.040000 3.463879 326.921753 106889.835938
2.040000 2.000000 4.080000 -130.160004 206.754364 59688.992188
2.040000 2.000000 4.120000 -131.030228 57.600945 20486.789062
2.040000 2.000000 4.160000 -43.251839 -14.187889 2072.017822
2.040000 2.000000 4.200000 32.454510 10.577986 1165.188965
2.040000 2.040000 3.800000 43.259823 -21.026094 2313.508789
2.040000 2.040000 3.840000 115.758347 -56.963436 16644.828125
2.040000 2.040000 3.880000 221.433289 -5.966030 49068.296875
2.040000 2.040000 3.920000 265.152954 138.222672 89411.593750
2.040000 2.040000 3.960000 181.812744 291.838196 118225.406250
2.040000 2.040000 4.000000 4.357841 345.927612 119684.906250
2.040000 2.040000 4.040000 -156.277847 261.933563 93031.960938
2.040000 2.040000 4.080000 -204.357239 106.089539 53016.875000
2.040000 2.040000 4.120000 -137.632339 -10.697910 19057.105469
2.040000 2.040000 4.160000 -38.228943 -28.401974 2268.124023
2.040000 2.040000 4.200000 9.321091 21.882149 565.711182
2.040000 2.080000 3.800000 44.734493 10.217116 2105.564453
2.040000 2.080000 3.840000 105.427551 20.128172 11520.112305
2.040000 2.080000 3.880000 149.549561 98.852142 32136.816406
2.040000 2.080000 3.920000 114.956970 210.238159 57415.187500
2.040000 2.080000 3.960000 -4.570686 274.588165 75419.554688
2.040000 2.080000 4.000000 -143.766998 236.452896 76578.921875
2.040000 2.080000 4.040000 -216.744339 115.768570 60380.468750
2.040000 2.080000 4.080000 -188.472137 -7.696083 35580.976562
2.040000 2.080000 4.120000 -100.012131 -62.242249 13876.524414
2.040000 2.080000 4.160000 -26.237236 -40.127098 2298.576660
2.040000 2.080000 4.200000 -9.814877 8.243275 164.283386
2.040000 2.120000 3.800000 25.443356 32.604012 1710.385986
2.040000 2.120000 3.840000 48.809040 60.557106 6049.485352
2.040000 2.120000 3.880000 39.914116 114.567162 14718.771484
2.040000 2.120000 3.920000 -17.665108 156.869080 24919.964844
2.040000 2.120000 3.960000 -100.771606 148.064987 32078.156250
2.040000 2.120000 4.000000 -160.951874 82.307106 32679.964844
2.040000 2.120000 4.040000 -162.846649 -5.019188 26544.222656
2.040000 2.120000 4.080000 -112.099670 -65.129822 16808.230469
2.040000 2.120000 4.120000 -47.987000 -73.768326 7744.518555
2.040000 2.120000 4.160000 -9.364466 -45.540962 2161.672363
2.040000 2.120000 4.200000 -6.087471 -14.799350 256.078064
2.040000 2.160000 3.800000 0.013763 35.653969 1271.205688
2.040000 2.160000 3.840000 -7.528603 48.286625 2388.278076
2.040000 2.160000 3.880000 -27.216370 55.962814 3872.567383
2.040000 2.160000 3.920000 -52.827194 49.758186 5266.589844
2.040000 2.160000 3.960000 -73.302322 27.864815 6149.678223
2.040000 2.160000 4.000000 -79.287018 -3.484573 6298.573242
2.040000 2.160000 4.040000 -67.762741 -33.640968 5723.503906
2.040000 2.160000 4.080000 -42.913433 -52.618404 4610.259277
2.040000 2.160000 4.120000 -14.006126 -55.135403 3236.084229
2.040000 2.160000 4.160000 8.447752 -42.742840 1898.314819
2.040000 2.160000 4.200000 17.362450 -23.386108 848.364746
2.040000 2.200000 3.800000 -16.340937 24.483770 866.481201
2.040000 2.200000 3.840000 -27.977863 9.737127 877.572510
2.040000 2.200000 3.880000 -22.676720 -9.639404 607.151733
2.040000 2.200000 3.920000 -4.578880 -15.823128 271.337524
2.040000 2.200000 3.960000 7.680300 -4.214890 76.752296
2.040000 2.200000 4.000000 1.037071 10.004463 101.164803
2.040000 2.200000 4.040000 -16.533340 7.475327 329.231873
2.040000 2.200000 4.080000 -23.117905 -13.665804 721.191711
2.040000 2.200000 4.120000 -6.171640 -33.991913 1193.539307
2.040000 2.200000 4.160000 22.871407 -32.223339 1561.444824
2.040000 2.200000 4.200000 39.139336 -7.751446 1591.972534
2.080000 1.800000 3.800000 -6.249245 4.505659 59.354023
2.080000 1.800000 3.840000 -8.074512 4.903339 89.240494
2.080000 1.800000 3.880000 -10.362143 2.889076 115.720764
2.080000 1.800000 3.920000 -9.782375 -1.060925 96.820435
2.080000 1.800000 3.960000 -5.096786 -3.001091 34.983780
2.080000 1.800000 4.000000 0.320877 0.742836 0.654767
2.080000 1.800000 4.040000 0.735611 9.194431 85.078690
2.080000 1.800000 4.080000 -6.625811 16.432919 313.942169
2.080000 1.800000 4.120000 -18.353306 16.277607 601.804321
2.080000 1.800000 4.160000 -27.182674 7.716433 798.441101
2.080000 1.800000 4.200000 -27.954784 -4.077949 798.099609
2.080000 1.840000 3.800000 -16.691341 -4.955748 303.160339
2.080000 1.840000 3.840000 -32.080780 -12.054140 1174.478638
2.080000 1.840000 3.880000 -38.182087 -37.313236 2850.149414
2.080000 1.840000 3.920000 -18.801254 -65.267166 4613.290039
2.080000 1.840000 3.960000 20.830818 -70.818398 5449.168457
2.080000 1.840000 4.000000 54.431473 -43.387032 4845.219727
2.080000 1.840000 4.040000 56.810135 0.455482 3227.598877
2.080000 1.840000 4.080000 26.982565 29.834270 1618.142578
2.080000 1.840000 4.120000 -10.684299 26.389400 810.554688
2.080000 1.840000 4.160000 -28.556355 -0.744736 816.020020
2.080000 1.840000 4.200000 -19.447136 -25.683359 1037.826050
2.080000 1.880000 3.800000 -15.810535 -23.531563 803.707458
2.080000 1.880000 3.840000 -34.616867 -52.548435 3959.665527
2.080000 1.880000 3.880000 -17.672508 -102.218262 10760.890625
2.080000 1.880000 3.920000 45.240807 -129.464218 18807.714844
2.080000 1.880000 3.960000 119.246132 -98.200081 23862.894531
2.080000 1.880000 4.000000 150.309662 -17.792633 22909.572266
2.080000 1.880000 4.040000 113.862534 59.626408 16519.984375
2.080000 1.880000 4.080000 38.512268 83.340454 8428.826172
2.080000 1.880000 4.120000 -19.386162 47.696800 2650.808105
2.080000 1.880000 4.160000 -25.545254 -6.695082 697.384094
2.080000 1.880000 4.200000 6.286510 -33.574104 1166.740723
2.080000 1.920000 3.800000 1.885454 -37.978111 1445.891846
2.080000 1.920000 3.840000 1.268261 -88.873856 7900.170410
2.080000 1.920000 3.880000 61.196545 -136.910675 22489.550781
2.080000 1.920000 3.920000 160.204956 -121.488541 40425.093750
2.080000 1.920000 3.960000 227.800476 -25.752922 52556.273438
2.080000 1.920000 4.000000 205.583466 97.482933 51767.484375
2.080000 1.920000 4.040000 103.429886 166.581085 38447.000000
2.080000 1.920000 4.080000 -6.173145 142.083649 20225.871094
2.080000 1.920000 4.120000 -51.784641 59.262459 6193.688477
2.080000 1.920000 4.160000 -22.957794 -8.472538 598.844177
2.080000 1.920000 4.200000 30.012129 -17.185755 1196.078125
2.080000 1.960000 3.800000 27.937321 -34.703003 1984.792358
2.080000 1.960000 3.840000 60.568707 -87.503067 11325.354492
2.080000 1.960000 3.880000 153.358658 -97.437996 33013.042969
2.080000 1.960000 3.920000 244.704651 -17.053925 60171.203125
2.080000 1.960000 3.960000 252.155838 124.936447 79191.679688
2.080000 1.960000 4.000000 150.622162 237.469894 79078.984375
2.080000 1.960000 4.040000 2.209297 244.463730 59767.398438
2.080000 1.960000 4.080000 -95.194061 152.177612 32219.933594
2.080000 1.960000 4.120000 -92.265259 40.847992 10181.436523
2.080000 1.960000 4.160000 -24.501461 -9.971291 699.748230
2.080000 1.960000 4.200000 31.094831 11.801657 1106.167603
2.080000 2.000000 3.800000 45.225662 -12.311281 2196.928223
2.080000 2.000000 3.840000 104.134453 -40.498672 12484.126953
2.080000 2.000000 3.880000 191.652740 3.624283 36743.910156
2.080000 2.000000 3.920000 226.722595 126.547630 67417.437500
2.080000 2.000000 3.960000 153.335205 256.617615 89364.289062
2.080000 2.000000 4.000000 0.441206 300.171082 90102.875000
2.080000 2.000000 4.040000 -135.605911 225.197174 69102.726562
2.080000 2.000000 4.080000 -173.012665 90.880585 38192.664062
2.080000 2.000000 4.120000 -112.628899 -6.350189 12725.593750
2.080000 2.000000 4.160000 -27.966459 -16.931103 1068.785156
2.080000 2.000000 4.200000 8.462322 28.340244 874.780334
2.080000 2.040000 3.800000 42.006470 16.001732 2020.598877
2.080000 2.040000 3.840000 101.130676 24.070263 10806.791992
2.080000 2.040000 3.880000 145.761932 101.758408 31601.314453
2.080000 2.040000 3.920000 111.223740 213.554993 57976.453125
2.080000 2.040000 3.960000 -9.636997 277.571411 77138.765625
2.080000 2.040000 4.000000 -149.329941 236.953308 78446.304688
2.080000 2.040000 4.040000 -219.578064 113.763672 61156.699219
2.080000 2.040000 4.080000 -186.639023 -8.540356 34907.062500
2.080000 2.040000 4.120000 -96.174118 -57.720772 12581.148438
2.080000 2.040000 4.160000 -26.071472 -30.395826 1603.627930
2.080000 2.040000 4.200000 -16.390850 17.740860 583.398071
2.080000 2.080000 3.800000 21.700756 33.216377 1574.250610
2.080000 2.080000 3.840000 55.846153 64.661789 7299.939453
2.080000 2.080000 3.880000 50.185326 134.390213 20579.294922
2.080000 2.080000 3.920000 -21.013508 191.997314 37304.535156
2.080000 2.080000 3.960000 -127.732117 182.424438 49594.167969
2.080000 2.080000 4.000000 -203.546463 97.376656 50913.375000
2.080000 2.080000 4.040000 -201.161896 -13.473907 40647.656250
2.080000 2.080000 4.080000 -131.917542 -83.751915 24416.621094
2.080000 2.080000 4.120000 -52.375511 -85.010101 9969.911133
2.080000 2.080000 4.160000 -12.986933 -43.823540 2089.163086
2.080000 2.080000 4.200000 -19.080193 -9.234818 449.335632
2.080000 2.120000 3.800000 -0.951818 32.492512 1056.669312
2.080000 2.120000 3.840000 2.881231 61.078156 3738.842529
2.080000 2.120000 3.880000 -26.765396 93.301620 9421.579102
2.080000 2.120000 3.920000 -84.076614 96.224030 16327.940430
2.080000 2.120000 3.960000 -136.098450 53.860321 21423.720703
2.080000 2.120000 4.000000 -148.375900 -16.356415 22282.941406
2.080000 2.120000 4.040000 -113.234253 -76.186844 18626.431641
2.080000 2.120000 4.080000 -54.895470 -96.790573 12381.927734
2.080000 2.120000 4.120000 -8.019196 -79.047516 6312.817383
2.080000 2.120000 4.160000 9.279358 -47.328880 2326.129395
2.080000 2.120000 4.200000 4.147718 -25.860886 685.988953
2.080000 2.160000 3.800000 -13.486274 21.127184 628.237488
2.080000 2.160000 3.840000 -24.234518 28.448429 1396.625000
2.080000 2.160000 3.880000 -42.584698 25.923527 2485.485596
2.080000 2.160000 3.920000 -58.795631 9.863449 3554.213867
2.080000 2.160000 3.960000 -63.836731 -15.147835 4304.584961
2.080000 2.160000 4.000000 -54.617210 -40.232979 4601.732422
2.080000 2.160000 4.040000 -34.008781 -57.474216 4459.882812
2.080000 2.160000 4.080000 -8.108131 -62.385719 3957.719727
2.080000 2.160000 4.120000 15.868286 -54.115147 3180.251465
2.080000 2.160000 4.160000 30.877377 -35.778473 2233.511475
2.080000 2.160000 4.200000 32.576462 -14.779329 1279.654419
2.080000 2.200000 3.800000 -15.611314 11.330332 372.089539
2.080000 2.200000 3.840000 -20.034081 -1.366697 403.232239
2.080000 2.200000 3.880000 -11.395889 -12.804062 293.810303
2.080000 2.200000 3.920000 1.832256 -11.545959 136.666336
2.080000 2.200000 3.960000 5.095299 -0.820175 26.634758
2.080000 2.200000 4.000000 -4.769951 3.883631 37.835022
2.080000 2.200000 4.040000 -13.966980 -7.492455 251.213394
2.080000 2.200000 4.080000 -6.038940 -26.154591 720.531433
2.080000 2.200000 4.120000 18.774799 -31.672688 1355.652222
2.080000 2.200000 4.160000 41.008629 -13.581861 1866.174561
2.080000 2.200000 4.200000 40.768921 15.810898 1912.089355
2.120000 1.800000 3.800000 -18.887283 -1.191626 358.149445
2.120000 1.800000 3.840000 -16.259710 -6.267839 303.664001
2.120000 1.800000 3.880000 -11.634127 -8.790594 212.627441
2.120000 1.800000 3.920000 -6.840179 -8.211835 114.222290
2.120000 1.800000 3.960000 -3.620178 -5.065956 38.769600
2.120000 1.800000 4.000000 -3.145214 -0.698536 10.380323
2.120000 1.800000 4.040000 -5.725582 3.086487 42.308693
2.120000 1.800000 4.080000 -10.593858 4.425568 131.815475
2.120000 1.800000 4.120000 -15.795703 2.114176 253.973969
2.120000 1.800000 4.160000 -18.731985 -3.498912 363.129639
2.120000 1.800000 4.200000 -17.537968 -10.154644 410.697113
2.120000 1.840000 3.800000 -16.126741 -21.843830 737.224731
2.120000 1.840000 3.840000 -14.455082 -31.281214 1187.463745
2.120000 1.840000 3.880000 -4.132652 -42.555191 1828.023193
2.120000 1.840000 3.920000 16.067516 -45.675171 2344.386230
2.120000 1.840000 3.960000 36.509552 -32.597660 2395.554688
2.120000 1.840000 4.000000 42.993023 -7.042953 1898.003174
2.120000 1.840000 4.040000 29.456991 15.927475 1121.398804
2.120000 1.840000 4.080000 4.723663 21.660723 491.499908
2.120000 1.840000 4.120000 -14.058083 8.399793 268.186218
2.120000 1.840000 4.160000 -15.655743 -11.495975 377.259705
2.120000 1.840000 4.200000 -3.373262 -22.776054 530.127563
2.120000 1.880000 3.800000 4.558119 -35.883682 1308.415161
2.120000 1.880000 3.840000 11.157837 -51.933197 2821.554199
2.120000 1.880000 3.880000 37.977203 -64.775352 5638.114258
2.120000 1.880000 3.920000 76.857330 -52.809433 8695.885742
2.120000 1.880000 3.960000 101.005348 -10.510128 10312.542969
2.120000 1.880000 4.000000 88.137253 40.712212 9425.659180
2.120000 1.880000 4.040000 43.028900 67.916809 6464.179199
2.120000 1.880000 4.080000 -3.985252 55.178200 3060.516113
2.120000 1.880000 4.120000 -22.658684 17.601192 823.217896
2.120000 1.880000 4.160000 -8.242153 -13.072828 238.831924
2.120000 1.880000 4.200000 17.510418 -17.016275 596.168335
2.120000 1.920000 3.800000 32.150223 -29.458042 1901.413086
2.120000 1.920000 3.840000 50.543629 -47.090530 4772.176758
2.120000 1.920000 3.880000 94.033173 -44.945896 10862.371094
2.120000 1.920000 3.920000 134.568634 -1.211586 18110.185547
2.120000 1.920000 3.960000 133.332321 70.154938 22699.222656
2.120000 1.920000 4.000000 78.818497 124.733292 21770.750000
2.120000 1.920000 4.040000 2.498287 125.243874 15692.269531
2.120000 1.920000 4.080000 -46.158218 75.614174 7848.084473
2.120000 1.920000 4.120000 -42.346848 17.440207 2097.416260
2.120000 1.920000 4.160000 -5.057126 -7.974125 89.161194
2.120000 1.920000 4.200000 24.903143 5.405481 649.385742
2.120000 1.960000 3.800000 47.438061 -3.290780 2261.198975
2.120000 1.960000 3.840000 77.756035 -11.972504 6189.341797
2.120000 1.960000 3.880000 122.324722 17.234924 15260.380859
2.120000 1.960000 3.920000 136.847107 88.619362 26580.521484
2.120000 1.960000 3.960000 89.934555 161.977188 34324.832031
2.120000 1.960000 4.000000 -1.308132 183.838959 33798.472656
2.120000 1.960000 4.040000 -80.478081 136.422287 25087.761719
2.120000 1.960000 4.080000 -99.934570 55.609879 13079.376953
2.120000 1.960000 4.120000 -61.502655 -0.947571 3783.474609
2.120000 1.960000 4.160000 -10.452464 -4.481239 129.335510
2.120000 1.960000 4.200000 9.455482 24.722054 700.586060
2.120000 2.000000 3.800000 39.117188 26.005600 2206.445557
2.120000 2.000000 3.840000 72.045364 34.032978 6348.778320
2.120000 2.000000 3.880000 96.262749 85.153717 16517.671875
2.120000 2.000000 3.920000 69.302261 157.441864 29590.744141
2.120000 2.000000 3.960000 -13.883785 196.918594 38969.691406
2.120000 2.000000 4.000000 -107.813477 165.796021 39112.066406
2.120000 2.000000 4.040000 -152.805756 80.040298 29756.048828
2.120000 2.000000 4.080000 -127.150520 -2.505035 16173.530273
2.120000 2.000000 4.120000 -64.168259 -32.897820 5199.832031
2.120000 2.000000 4.160000 -18.373287 -11.208097 463.199127
2.120000 2.000000 4.200000 -15.750120 21.645710 716.603027
2.120000 2.040000 3.800000 13.997040 39.454079 1752.541382
2.120000 2.040000 3.840000 36.639732 61.916969 5176.181152
2.120000 2.040000 3.880000 30.331160 114.077072 13933.557617
2.120000 2.040000 3.920000 -26.668972 157.135376 25402.761719
2.120000 2.040000 3.960000 -111.138046 146.906464 33933.175781
2.120000 2.040000 4.000000 -169.540253 76.879333 34654.328125
2.120000 2.040000 4.040000 -164.171600 -11.791328 27091.349609
2.120000 2.040000 4.080000 -106.247009 -64.992531 15512.456055
2.120000 2.040000 4.120000 -43.691196 -61.668633 5711.940918
2.120000 2.040000 4.160000 -16.854017 -26.951937 1010.464844
2.120000 2.040000 4.200000 -26.193253 -2.413330 691.910645
2.120000 2.080000 3.800000 -9.156865 31.897884 1101.323242
2.120000 2.080000 3.840000 -3.678202 57.318748 3298.968018
2.120000 2.080000 3.880000 -30.994320 89.393692 8951.879883
2.120000 2.080000 3.920000 -87.821930 93.159721 16391.425781
2.120000 2.080000 3.960000 -139.938431 50.149662 22097.751953
2.120000 2.080000 4.000000 -150.189362 -21.258801 23008.781250
2.120000 2.080000 4.040000 -111.277649 -79.394135 18686.144531
2.120000 2.080000 4.080000 -51.608898 -94.359070 11567.112305
2.120000 2.080000 4.120000 -9.200451 -71.037979 5131.042969
2.120000 2.080000 4.160000 0.074188 -39.459435 1557.052490
2.120000 2.080000 4.200000 -9.899250 -24.827732 714.411377
2.120000 2.120000 3.800000 -16.737740 15.275423 513.490479
2.120000 2.120000 3.840000 -24.467274 31.267626 1576.311890
2.120000 2.120000 3.880000 -51.651245 37.437775 4069.437988
2.120000 2.120000 3.920000 -83.213837 18.083206 7251.544922
2.120000 2.120000 3.960000 -95.953644 -23.405190 9754.904297
2.120000 2.120000 4.000000 -78.141594 -65.776344 10432.636719
2.120000 2.120000 4.040000 -39.076817 -86.890121 9076.890625
2.120000 2.120000 4.080000 -0.422569 -80.442253 6471.134766
2.120000 2.120000 4.120000 21.297123 -57.816814 3796.351318
2.120000 2.120000 4.160000 24.808399 -35.710850 1890.721436
2.120000 2.120000 4.200000 19.707809 -22.898495 912.738831
2.120000 2.160000 3.800000 -11.720072 5.691786 169.756500
2.120000 2.160000 3.840000 -21.675781 7.325462 523.501892
2.120000 2.160000 3.880000 -32.663845 -0.989731 1067.906372
2.120000 2.160000 3.920000 -36.632317 -16.976788 1630.137939
2.120000 2.160000 3.960000 -30.476151 -33.751244 2067.942383
2.120000 2.160000 4.000000 -16.458485 -45.474060 2338.771973
2.120000 2.160000 4.040000 1.452614 -49.691139 2471.319336
2.120000 2.160000 4.080000 19.854099 -45.652328 2478.320312
2.120000 2.160000 4.120000 34.840103 -33.117485 2310.600586
2.120000 2.160000 4.160000 41.267433 -14.331282 1908.386719
2.120000 2.160000 4.200000 35.853561 3.960949 1301.166992
2.120000 2.200000 3.800000 -8.248751 7.420877 123.111298
2.120000 2.200000 3.840000 -10.658349 -1.107033 114.825928
2.120000 2.200000 3.880000 -4.551252 -7.151207 71.853661
2.120000 2.200000 3.920000 2.163704 -4.891788 28.611210
2.120000 2.200000 3.960000 1.269577 0.093363 1.620542
2.120000 2.200000 4.000000 -4.447464 -2.424902 25.660086
2.120000 2.200000 4.040000 -3.084106 -13.544849 192.974670
2.120000 2.200000 4.080000 12.049736 -21.136999 591.968872
2.120000 2.200000 4.120000 31.914553 -12.016891 1162.944336
2.120000 2.200000 4.160000 38.590416 12.101460 1635.665527
2.120000 2.200000 4.200000 23.831470 33.412720 1684.348755
2.160000 1.800000 3.800000 -21.755713 -14.960537 697.128723
2.160000 1.800000 3.840000 -12.565320 -19.111898 523.151917
2.160000 1.800000 3.880000 -4.300048 -16.599302 294.027252
2.160000 1.800000 3.920000 -0.906048 -10.912449 119.902466
2.160000 1.800000 3.960000 -1.892473 -6.671204 48.086414
2.160000 1.800000 4.000000 -3.808380 -5.589890 45.750618
2.160000 1.800000 4.040000 -4.203063 -5.877428 52.209900
2.160000 1.800000 4.080000 -3.773699 -5.288281 42.206726
2.160000 1.800000 4.120000 -4.552827 -4.087800 37.438339
2.160000 1.800000 4.160000 -6.634593 -4.495309 64.225632
2.160000 1.800000 4.200000 -7.527613 -7.464086 112.377525
2.160000 1.840000 3.800000 -2.172529 -32.203957 1041.814697
2.160000 1.840000 3.840000 9.164715 -30.328152 1003.788818
2.160000 1.840000 3.880000 17.587879 -23.751873 873.484985
2.160000 1.840000 3.920000 21.810059 -14.712408 692.133606
2.160000 1.840000 3.960000 21.443537 -5.223845 487.113800
2.160000 1.840000 4.000000 16.589237 2.559092 281.751740
2.160000 1.840000 4.040000 8.541098 6.177063 111.106461
2.160000 1.840000 4.080000 0.484060 4.098656 17.033293
2.160000 1.840000 4.120000 -3.587978 -2.445273 18.852947
2.160000 1.840000 4.160000 -1.618863 -9.299412 89.099777
2.160000 1.840000 4.200000 4.511027 -11.985831 164.009521
2.160000 1.880000 3.800000 27.306610 -28.116350 1536.180176
2.160000 1.880000 3.840000 36.378853 -20.420454 1740.415771
2.160000 1.880000 3.880000 43.183548 -9.510527 1955.268921
2.160000 1.880000 3.920000 45.454464 5.365383 2094.895752
2.160000 1.880000 3.960000 39.133965 21.501999 1993.803101
2.160000 1.880000 4.000000 23.486998 31.818798 1564.074951
2.160000 1.880000 4.040000 4.764956 29.947243 919.542114
2.160000 1.880000 4.080000 -6.888786 16.831642 330.759552
2.160000 1.880000 4.120000 -5.572844 1.572965 33.530804
2.160000 1.880000 4.160000 4.995406 -5.534769 55.587746
2.160000 1.880000 4.200000 14.648727 -1.612789 217.186310
2.160000 1.920000 3.800000 45.170155 -1.037306 2041.418945
2.160000 1.920000 3.840000 49.165054 9.400488 2505.571777
2.160000 1.920000 3.880000 51.895096 23.990822 3268.660645
2.160000 1.920000 3.920000 46.751369 43.629704 4089.241455
2.160000 1.920000 3.960000 28.065453 60.328987 4427.256348
2.160000 1.920000 4.000000 0.354326 62.255138 3875.827637
2.160000 1.920000 4.040000 -21.996628 45.543243 2558.038574
2.160000 1.920000 4.080000 -26.271019 20.336679 1103.746948
2.160000 1.920000 4.120000 -13.194303 3.356623 185.356537
2.160000 1.920000 4.160000 3.399858 3.424603 23.286942
2.160000 1.920000 4.200000 9.398457 14.240370 291.119110
2.160000 1.960000 3.800000 36.493618 31.441910 2320.377930
2.160000 1.960000 3.840000 35.642349 40.883659 2941.850586
2.160000 1.960000 3.880000 32.144714 56.624588 4239.626953
2.160000 1.960000 3.920000 16.109711 74.751801 5847.354492
2.160000 1.960000 3.960000 -13.861290 81.396225 6817.480469
2.160000 1.960000 4.000000 -44.436733 66.065201 6339.234375
2.160000 1.960000 4.040000 -57.266445 34.425156 4464.537109
2.160000 1.960000 4.080000 -45.996956 5.861639 2150.078857
2.160000 1.960000 4.120000 -22.928740 -3.223033 536.115051
2.160000 1.960000 4.160000 -7.694936 6.130099 96.790154
2.160000 1.960000 4.200000 -9.098607 18.018486 407.450500
2.160000 2.000000 3.800000 7.085623 46.169682 2181.845459
2.160000 2.000000 3.840000 3.812918 52.694580 2791.257080
2.160000 2.000000 3.880000 -6.001963 65.656151 4346.753418
2.160000 2.000000 3.920000 -30.108311 74.408348 6443.112305
2.160000 2.000000 3.960000 -61.383427 64.379700 7912.670898
2.160000 2.000000 4.000000 -81.003899 33.570198 7688.589844
2.160000 2.000000 4.040000 -75.526138 -2.142205 5708.786621
2.160000 2.000000 4.080000 -50.509987 -21.936468 3032.467529
2.160000 2.000000 4.120000 -25.901628 -18.747650 1022.368774
2.160000 2.000000 4.160000 -17.458073 -4.617954 326.109802
2.160000 2.000000 4.200000 -23.150610 2.636427 542.901489
2.160000 2.040000 3.800000 -20.700346 34.646423 1628.878906
2.160000 2.040000 3.840000 -24.212759 38.813309 2092.730469
2.160000 2.040000 3.880000 -37.668530 45.674187 3505.049316
2.160000 2.040000 3.920000 -61.514523 41.637009 5517.676758
2.160000 2.040000 3.960000 -82.018417 18.503120 7069.386719
2.160000 2.040000 4.000000 -83.093811 -15.631474 7148.924316
2.160000 2.040000 4.040000 -62.227531 -41.745796 5614.977051
2.160000 2.040000 4.080000 -33.682137 -46.811527 3325.805420
2.160000 2.040000 4.120000 -15.371592 -35.045036 1464.440430
2.160000 2.040000 4.160000 -12.875312 -22.137325 655.834839
2.160000 2.040000 4.200000 -16.787024 -19.137774 648.058533
2.160000 2.080000 3.800000 -27.871189 10.376107 884.466797
2.160000 2.080000 3.840000 -31.471043 13.489453 1172.391846
2.160000 2.080000 3.880000 -44.334576 13.414694 2145.508545
2.160000 2.080000 3.920000 -59.723141 0.489847 3567.093506
2.160000 2.080000 3.960000 -64.445564 -24.330067 4745.183105
2.160000 2.080000 4.000000 -51.485973 -48.631477 5015.826172
2.160000 2.080000 4.040000 -27.057581 -59.249584 4242.625977
2.160000 2.080000 4.080000 -4.920703 -53.605606 2897.774414
2.160000 2.080000 4.120000 5.844873 -40.458477 1671.050903
2.160000 2.080000 4.160000 7.139994 -30.260708 966.689941
2.160000 2.080000 4.200000 6.863539 -25.803444 712.925842
2.160000 2.120000 3.800000 -15.724532 -4.476923 267.303741
2.160000 2.120000 3.840000 -20.489048 -2.738169 427.298645
2.160000 2.120000 3.880000 -29.100853 -7.865908 908.732117
2.160000 2.120000 3.920000 -33.519150 -21.446459 1583.484009
2.160000 2.120000 3.960000 -27.697544 -37.515797 2174.588867
2.160000 2.120000 4.000000 -12.764389 -47.751877 2443.171387
2.160000 2.120000 4.040000 4.654821 -48.127953 2337.967285
2.160000 2.120000 4.080000 18.282528 -40.638260 1985.718994
2.160000 2.120000 4.120000 25.931028 -29.782799 1559.433350
2.160000 2.120000 4.160000 28.443817 -18.659306 1157.220459
2.160000 2.120000 4.200000 26.813683 -8.571457 792.443420
2.160000 2.160000 3.800000 -2.996834 -0.502325 9.233344
2.160000 2.160000 3.840000 -8.572574 -2.372565 79.118088
2.160000 2.160000 3.880000 -11.191262 -9.193384 209.762665
2.160000 2.160000 3.920000 -8.535339 -16.811037 355.462982
2.160000 2.160000 3.960000 -2.298149 -21.955044 487.305450
2.160000 2.160000 4.000000 5.355698 -24.399992 624.043091
2.160000 2.160000 4.040000 14.369024 -24.480953 805.785950
2.160000 2.160000 4.080000 24.797714 -20.299456 1026.994507
2.160000 2.160000 4.120000 33.273155 -9.441233 1196.239746
2.160000 2.160000 4.160000 33.869617 6.152472 1185.003906
2.160000 2.160000 4.200000 24.063902 18.869583 935.132507
2.160000 2.200000 3.800000 -5.991299 10.686760 150.102509
2.160000 2.200000 3.840000 -8.955833 3.710811 93.977074
2.160000 2.200000 3.880000 -5.835131 -1.312542 35.771519
2.160000 2.200000 3.920000 -2.400473 -1.588356 8.285144
2.160000 2.200000 3.960000 -2.371504 -1.496669 7.864048
2.160000 2.200000 4.000000 -1.957855 -5.554003 34.680145
2.160000 2.200000 4.040000 5.196927 -10.531067 137.911423
2.160000 2.200000 4.080000 18.090208 -7.397579 381.979797
2.160000 2.200000 4.120000 26.148548 7.663695 742.478821
2.160000 2.200000 4.160000 19.342731 25.997683 1050.020752
2.160000 2.200000 4.200000 0.273359 32.947147 1085.589233
2.200000 1.800000 3.800000 -13.387626 -25.563751 832.733887
2.200000 1.800000 3.840000 -1.787443 -24.142242 586.042786
2.200000 1.800000 3.880000 4.300251 -16.803677 300.855713
2.200000 1.800000 3.920000 3.623997 -10.286327 118.941887
2.200000 1.800000 3.960000 0.788382 -8.709758 76.481422
2.200000 1.800000 4.000000 0.941614 -10.151947 103.948662
2.200000 1.800000 4.040000 4.426240 -9.635439 112.433289
2.200000 1.800000 4.080000 6.961781 -5.035091 73.818535
2.200000 1.800000 4.120000 4.891663 0.514766 24.193348
2.200000 1.800000 4.160000 -0.448989 2.233392 5.189632
2.200000 1.800000 4.200000 -4.052177 -0.871726 17.180042
2.200000 1.840000 3.800000 13.765645 -28.493080 1001.348572
2.200000 1.840000 3.840000 20.754541 -14.723567 647.534424
2.200000 1.840000 3.880000 15.989606 -2.439889 261.620544
2.200000 1.840000 3.920000 6.144313 0.510773 38.013466
2.200000 1.840000 3.960000 0.653624 -4.645022 22.003456
2.200000 1.840000 4.000000 3.010982 -10.067488 110.420319
2.200000 1.840000 4.040000 8.666142 -9.597034 167.205078
2.200000 1.840000 4.080000 10.903065 -4.278443 137.181900
2.200000 1.840000 4.120000 7.936864 0.091463 63.002174
2.200000 1.840000 4.160000 3.871314 -0.127716 15.003384
2.200000 1.840000 4.200000 3.286379 -2.804635 18.666264
2.200000 1.880000 3.800000 35.366325 -7.142211 1301.788208
2.200000 1.880000 3.840000 28.070583 11.704586 924.954956
2.200000 1.880000 3.880000 10.854571 18.011560 442.238037
2.200000 1.880000 3.920000 -2.622445 9.922781 105.338806
2.200000 1.880000 3.960000 -3.656796 -3.061804 22.746799
2.200000 1.880000 4.000000 5.005929 -9.555120 116.359634
2.200000 1.880000 4.040000 13.605396 -6.120757 222.570480
2.200000 1.880000 4.080000 15.207785 1.634987 233.949905
2.200000 1.880000 4.120000 10.987938 6.325743 160.749802
2.200000 1.880000 4.160000 6.767413 5.993176 81.716034
2.200000 1.880000 4.200000 5.949152 4.257757 53.520912
2.200000 1.920000 3.800000 32.503006 25.392563 1701.227661
2.200000 1.920000 3.840000 10.613278 36.075783 1414.103882
2.200000 1.920000 3.880000 -10.720469 27.588120 876.032776
2.200000 1.920000 3.920000 -17.478865 8.155161 372.017365
2.200000 1.920000 3.960000 -8.100093 -6.944365 113.835701
2.200000 1.920000 4.000000 6.928347 -8.346128 117.659851
2.200000 1.920000 4.040000 15.434265 1.186712 239.624817
2.200000 1.920000 4.080000 13.400604 11.709672 316.692627
2.200000 1.920000 4.120000 5.818145 15.841807 284.813660
2.200000 1.920000 4.160000 -0.220168 13.730155 188.565628
2.200000 1.920000 4.200000 -1.969211 10.042619 104.731987
2.200000 1.960000 3.800000 4.865165 44.667824 2018.884277
2.200000 1.960000 3.840000 -20.851366 38.279938 1900.133057
2.200000 1.960000 3.880000 -33.497242 16.098963 1381.241821
2.200000 1.960000 3.920000 -26.387568 -6.175824 734.444519
2.200000 1.960000 3.960000 -7.501072 -14.345243 262.052063
2.200000 1.960000 4.000000 8.236899 -6.278141 107.261566
2.200000 1.960000 4.040000 11.166403 8.526885 197.396332
2.200000 1.960000 4.080000 2.812386 18.334503 344.063507
2.200000 1.960000 4.120000 -8.092649 18.190092 396.370422
2.200000 1.960000 4.160000 -13.962598 11.384504 324.561066
2.200000 1.960000 4.200000 -13.202616 4.313017 192.911179
2.200000 2.000000 3.800000 -27.036339 35.918423 2021.096680
2.200000 2.000000 3.840000 -42.754066 15.502689 2068.243652
2.200000 2.000000 3.880000 -39.521469 -9.441145 1651.081787
2.200000 2.000000 3.920000 -20.827713 -23.348776 978.958984
2.200000 2.000000 3.960000 -0.501037 -19.427368 377.673676
2.200000 2.000000 4.000000 8.330200 -3.817609 83.966377
2.200000 2.000000 4.040000 2.542991 10.547806 117.723015
2.200000 2.000000 4.080000 -10.541187 14.235445 313.764526
2.200000 2.000000 4.120000 -20.378252 7.105245 465.757660
2.200000 2.000000 4.160000 -21.131773 -3.779567 460.836945
2.200000 2.000000 4.200000 -14.304610 -10.677300 318.626617
2.200000 2.040000 3.800000 -39.255898 7.832245 1602.369629
2.200000 2.040000 3.840000 -39.241188 -14.145393 1739.963013
2.200000 2.040000 3.880000 -24.289808 -29.809223 1478.584595
2.200000 2.040000 3.920000 -4.084577 -30.329411 936.556946
2.200000 2.040000 3.960000 8.584148 -17.456913 378.431396
2.200000 2.040000 4.000000 7.150338 -1.776662 54.283859
2.200000 2.040000 4.040000 -4.574547 5.549683 51.725456
2.200000 2.040000 4.080000 -16.236883 0.721904 264.157532
2.200000 2.040000 4.120000 -19.095341 -10.972542 485.028717
2.200000 2.040000 4.160000 -11.925696 -20.215357 550.882874
2.200000 2.040000 4.200000 -0.694121 -20.776239 432.133942
2.200000 2.080000 3.800000 -26.020695 -15.162946 906.991455
2.200000 2.080000 3.840000 -16.591625 -27.658392 1040.268677
2.200000 2.080000 3.880000 -1.246548 -30.539371 934.207092
2.200000 2.080000 3.920000 11.010364 -22.381094 622.141479
2.200000 2.080000 3.960000 13.067719 -9.285023 256.976929
2.200000 2.080000 4.000000 5.092505 -0.724164 26.458015
2.200000 2.080000 4.040000 -5.430140 -2.473302 35.603645
2.200000 2.080000 4.080000 -9.438137 -12.200720 237.935989
2.200000 2.080000 4.120000 -3.386300 -21.424419 470.472748
2.200000 2.080000 4.160000 8.182224 -22.406275 568.989929
2.200000 2.080000 4.200000 16.618469 -14.208237 478.047516
2.200000 2.120000 3.800000 -4.484891 -15.787258 269.351776
2.200000 2.120000 3.840000 2.993065 -18.221279 340.973450
2.200000 2.120000 3.880000 10.520309 -14.967863 334.713837
2.200000 2.120000 3.920000 13.400614 -7.490223 235.679886
2.200000 2.120000 3.960000 9.612854 -1.066690 93.544785
2.200000 2.120000 4.000000 2.572425 -1.020828 7.659459
2.200000 2.120000 4.040000 -0.799817 -7.654224 59.226852
2.200000 2.120000 4.080000 4.002214 -14.971790 240.172226
2.200000 2.120000 4.120000 14.358170 -15.412466 443.701141
2.200000 2.120000 4.160000 22.150438 -6.818521 537.134155
2.200000 2.120000 4.200000 20.876307 5.136268 462.201416
2.200000 2.160000 3.800000 2.583179 0.090196 6.680952
2.200000 2.160000 3.840000 2.878994 -0.841888 8.997383
2.200000 2.160000 3.880000 4.015440 -0.514128 16.388083
2.200000 2.160000 3.920000 3.683950 0.956226 14.485854
2.200000 2.160000 3.960000 1.321772 0.707799 2.248061
2.200000 2.160000 4.000000 0.211967 -3.215016 10.381257
2.200000 2.160000 4.040000 4.427999 -8.011472 83.790848
2.200000 2.160000 4.080000 13.287545 -7.542558 233.449036
2.200000 2.160000 4.120000 20.058128 1.207604 403.786835
2.200000 2.160000 4.160000 17.752924 13.505630 497.568359
2.200000 2.160000 4.200000 6.673882 20.110516 448.973541
2.200000 2.200000 3.800000 -10.527302 10.312909 217.180176
2.200000 2.200000 3.840000 -12.227177 3.314743 160.491364
2.200000 2.200000 3.880000 -9.722260 -1.558764 96.952072
2.200000 2.200000 3.920000 -6.825965 -3.567108 59.318054
2.200000 2.200000 3.960000 -4.613191 -5.347459 49.876846
2.200000 2.200000 4.000000 -0.432328 -7.622754 58.293289
2.200000 2.200000 4.040000 7.053294 -6.620357 93.578087
2.200000 2.200000 4.080000 13.427200 1.454239 182.404510
2.200000 2.200000 4.120000 11.529451 13.838817 324.441101
2.200000 2.200000 4.160000 -0.204445 21.343761 455.597961
2.200000 2.200000 4.200000 -13.773103 16.965794 477.536530
