#kx 	ky 	kz 	real 	imag 	intensity
0.800000 -5.200000 -7.200000 -53.763092 3.811196 2904.995117
0.800000 -5.200000 -7.160000 -40.564846 -27.525906 2403.182129
0.800000 -5.200000 -7.120000 -8.665335 -32.326267 1120.075562
0.800000 -5.200000 -7.080000 10.064195 -8.621513 175.618500
0.800000 -5.200000 -7.040000 -1.109447 17.754337 316.447357
0.800000 -5.200000 -7.000000 -28.512009 20.864338 1248.255249
0.800000 -5.200000 -6.960000 -44.558609 0.140459 1985.489380
0.800000 -5.200000 -6.920000 -36.577995 -22.164463 1829.213135
0.800000 -5.200000 -6.880000 -17.217634 -26.258041 985.931641
0.800000 -5.200000 -6.840000 -7.710499 -14.319437 264.498077
0.800000 -5.200000 -6.800000 -14.575104 -4.572920 233.345245
0.800000 -5.160000 -7.200000 -38.246876 -32.120884 2494.574707
0.800000 -5.160000 -7.160000 -9.468379 -46.205360 2224.585449
0.800000 -5.160000 -7.120000 16.771656 -31.051897 1245.508789
0.800000 -5.160000 -7.080000 17.662165 -3.364546 323.272217
0.800000 -5.160000 -7.040000 -3.895852 9.804247 111.300926
0.800000 -5.160000 -7.000000 -24.285782 -1.914776 593.465576
0.800000 -5.160000 -6.960000 -24.227331 -24.059914 1165.843018
0.800000 -5.160000 -6.920000 -6.809094 -34.622227 1245.062378
0.800000 -5.160000 -6.880000 8.993249 -26.616535 789.318481
0.800000 -5.160000 -6.840000 9.773099 -12.296144 246.708618
0.800000 -5.160000 -6.800000 0.018530 -7.159615 51.260426
0.800000 -5.120000 -7.200000 -1.643042 -42.118942 1776.704834
0.800000 -5.120000 -7.160000 24.200762 -33.531387 1710.030762
0.800000 -5.120000 -7.120000 32.018208 -9.465212 1114.755859
0.800000 -5.120000 -7.080000 18.276939 8.005624 398.136536
0.800000 -5.120000 -7.040000 -0.535696 5.303061 28.409431
0.800000 -5.120000 -7.000000 -5.701450 -10.457332 141.862320
0.800000 -5.120000 -6.960000 5.404896 -20.914782 466.640991
0.800000 -5.120000 -6.920000 19.048595 -16.010910 619.198242
0.800000 -5.120000 -6.880000 21.321255 -2.626697 461.495453
0.800000 -5.120000 -6.840000 12.100669 5.212756 173.599014
0.800000 -5.120000 -6.800000 2.581018 1.900778 10.274613
0.800000 -5.080000 -7.200000 26.389475 -21.528650 1159.887207
0.800000 -5.080000 -7.160000 34.703499 -1.302867 1206.030396
0.800000 -5.080000 -7.120000 25.099350 15.717952 877.031372
0.800000 -5.080000 -7.080000 9.127258 17.240082 380.527283
0.800000 -5.080000 -7.040000 2.330412 6.962997 53.914146
0.800000 -5.080000 -7.000000 8.561596 -0.681701 73.765640
0.800000 -5.080000 -6.960000 17.439405 3.641480 317.393250
0.800000 -5.080000 -6.920000 16.720783 15.034456 505.619476
0.800000 -5.080000 -6.880000 5.448412 20.966751 469.289825
0.800000 -5.080000 -6.840000 -6.134952 15.272243 270.879059
0.800000 -5.080000 -6.800000 -8.551002 3.892706 88.272789
0.800000 -5.040000 -7.200000 27.141193 8.584323 810.334961
0.800000 -5.040000 -7.160000 18.122051 24.083475 908.422546
0.800000 -5.040000 -7.120000 2.900396 26.251507 697.553894
0.800000 -5.040000 -7.080000 -4.858160 17.432482 327.493134
0.800000 -5.040000 -7.040000 -0.864478 10.210253 104.996582
0.800000 -5.040000 -7.000000 5.915401 13.771814 224.654831
0.800000 -5.040000 -6.960000 3.453839 24.137957 594.569946
0.800000 -5.040000 -6.920000 -10.084999 28.654608 922.793762
0.800000 -5.040000 -6.880000 -24.218750 19.656467 972.924561
0.800000 -5.040000 -6.840000 -27.131636 2.510977 742.430664
0.800000 -5.040000 -6.800000 -17.549408 -10.267819 413.409851
0.800000 -5.000000 -7.200000 7.871001 23.667183 622.088196
0.800000 -5.000000 -7.160000 -7.286903 26.715466 766.815063
0.800000 -5.000000 -7.120000 -17.380459 18.053270 628.000916
0.800000 -5.000000 -7.080000 -15.836075 8.105084 316.473663
0.800000 -5.000000 -7.040000 -8.628351 7.470953 130.263580
0.800000 -5.000000 -7.000000 -7.990735 15.647397 308.692871
0.800000 -5.000000 -6.960000 -19.216545 21.150002 816.598145
0.800000 -5.000000 -6.920000 -34.350845 13.335546 1357.817383
0.800000 -5.000000 -6.880000 -39.561470 -6.236084 1603.998657
0.800000 -5.000000 -6.840000 -28.717300 -24.720907 1435.806641
0.800000 -5.000000 -6.800000 -9.155584 -30.159210 993.402649
0.800000 -4.960000 -7.200000 -9.551260 18.298965 426.078705
0.800000 -4.960000 -7.160000 -21.407864 12.916489 625.132324
0.800000 -4.960000 -7.120000 -24.677994 1.437348 611.069336
0.800000 -4.960000 -7.080000 -18.874874 -6.014037 392.429504
0.800000 -4.960000 -7.040000 -12.759800 -4.103555 179.651657
0.800000 -4.960000 -7.000000 -15.346409 1.673194 238.311844
0.800000 -4.960000 -6.960000 -25.869104 0.154739 669.234497
0.800000 -4.960000 -6.920000 -33.353058 -13.744690 1301.343018
0.800000 -4.960000 -6.880000 -27.004532 -32.704842 1798.851440
0.800000 -4.960000 -6.840000 -7.123977 -42.955978 1895.967163
0.800000 -4.960000 -6.800000 14.538669 -36.858788 1569.943115
0.800000 -4.920000 -7.200000 -12.221868 6.903099 197.026825
0.800000 -4.920000 -7.160000 -20.684765 -0.084986 427.866730
0.800000 -4.920000 -7.120000 -21.206108 -11.798441 588.902222
0.800000 -4.920000 -7.080000 -13.529421 -19.412275 559.881653
0.800000 -4.920000 -7.040000 -5.432695 -18.429480 369.159912
0.800000 -4.920000 -7.000000 -4.537354 -13.868872 212.933182
0.800000 -4.920000 -6.960000 -9.537169 -15.123470 319.676941
0.800000 -4.920000 -6.920000 -10.713876 -25.343678 757.089111
0.800000 -4.920000 -6.880000 -0.001884 -36.681690 1345.546387
0.800000 -4.920000 -6.840000 19.658707 -37.144638 1766.188843
0.800000 -4.920000 -6.800000 35.770447 -22.441500 1783.145752
0.800000 -4.880000 -7.200000 -6.855956 4.659079 68.711143
0.800000 -4.880000 -7.160000 -16.540581 -3.807202 288.085602
0.800000 -4.880000 -7.120000 -15.162510 -19.025331 591.864929
0.800000 -4.880000 -7.080000 -1.785374 -28.230289 800.136780
0.800000 -4.880000 -7.040000 12.851398 -24.328213 757.020386
0.800000 -4.880000 -7.000000 17.584675 -13.285655 485.729431
0.800000 -4.880000 -6.960000 12.639200 -7.408436 214.634293
0.800000 -4.880000 -6.920000 9.016272 -11.696561 218.102692
0.800000 -4.880000 -6.880000 15.973009 -18.172756 585.386108
0.800000 -4.880000 -6.840000 30.184299 -14.505060 1121.488647
0.800000 -4.880000 -6.800000 38.432564 2.290716 1482.309448
0.800000 -4.840000 -7.200000 -8.293687 10.723476 183.778183
0.800000 -4.840000 -7.160000 -18.642082 -4.944129 371.971619
0.800000 -4.840000 -7.120000 -9.708651 -24.782917 708.450867
0.800000 -4.840000 -7.080000 13.477173 -29.846104 1072.424072
0.800000 -4.840000 -7.040000 31.931749 -14.854477 1240.292114
0.800000 -4.840000 -7.000000 31.745148 6.730485 1053.053833
0.800000 -4.840000 -6.960000 17.492168 16.873190 590.680481
0.800000 -4.840000 -6.920000 6.219257 11.190378 163.903717
0.800000 -4.840000 -6.880000 8.952149 2.086381 84.493958
0.800000 -4.840000 -6.840000 19.643515 4.253176 403.957184
0.800000 -4.840000 -6.800000 22.716080 18.615675 862.563599
0.800000 -4.800000 -7.200000 -20.578587 11.171612 548.283142
0.800000 -4.800000 -7.160000 -23.135193 -13.715007 723.338501
0.800000 -4.800000 -7.120000 -1.133163 -31.072248 966.768677
0.800000 -4.800000 -7.080000 27.961046 -22.694618 1296.865845
0.800000 -4.800000 -7.040000 39.319054 5.987210 1581.834717
0.800000 -4.800000 -7.000000 24.656315 31.357677 1591.237793
0.800000 -4.800000 -6.960000 -0.841496 34.781818 1210.483032
0.800000 -4.800000 -6.920000 -14.862020 19.529869 602.295410
0.800000 -4.800000 -6.880000 -9.849199 4.956606 121.574669
0.800000 -4.800000 -6.840000 1.835756 5.497498 33.592480
0.800000 -4.800000 -6.800000 3.187277 16.952717 297.553345
0.840000 -5.200000 -7.200000 -42.132904 -33.565006 2901.791260
0.840000 -5.200000 -7.160000 -9.216432 -46.045021 2205.086670
0.840000 -5.200000 -7.120000 17.335617 -25.494953 950.516235
0.840000 -5.200000 -7.080000 12.970160 5.518095 198.674408
0.840000 -5.200000 -7.040000 -14.585113 15.544278 454.350098
0.840000 -5.200000 -7.000000 -35.204716 -3.296242 1250.237305
0.840000 -5.200000 -6.960000 -28.728395 -29.201653 1678.057129
0.840000 -5.200000 -6.920000 -4.616836 -35.684250 1294.680908
0.840000 -5.200000 -6.880000 10.853666 -19.328314 491.385773
0.840000 -5.200000 -6.840000 3.805932 -0.789225 15.107994
0.840000 -5.200000 -6.800000 -14.012581 -0.246864 196.413361
0.840000 -5.160000 -7.200000 -8.138966 -50.525341 2619.052734
0.840000 -5.160000 -7.160000 24.351639 -41.172081 2288.142578
0.840000 -5.160000 -7.120000 35.138546 -11.344324 1363.411133
0.840000 -5.160000 -7.080000 18.721516 11.292061 478.005798
0.840000 -5.160000 -7.040000 -4.746900 9.180859 106.821220
0.840000 -5.160000 -7.000000 -11.864635 -9.179105 225.025543
0.840000 -5.160000 -6.960000 0.523792 -21.082350 444.739838
0.840000 -5.160000 -6.920000 15.129585 -14.590179 441.777710
0.840000 -5.160000 -6.880000 15.190333 0.731972 231.282013
0.840000 -5.160000 -6.840000 2.197414 7.138483 55.786568
0.840000 -5.160000 -6.800000 -8.275495 -0.891768 69.279060
0.840000 -5.120000 -7.200000 26.129650 -35.202217 1921.954590
0.840000 -5.120000 -7.160000 43.490799 -12.128000 2038.537964
0.840000 -5.120000 -7.120000 38.467167 13.901754 1672.981689
0.840000 -5.120000 -7.080000 19.755409 25.271952 1028.947754
0.840000 -5.120000 -7.040000 4.834806 20.555630 445.909271
0.840000 -5.120000 -7.000000 2.001099 12.332282 156.089569
0.840000 -5.120000 -6.960000 4.661846 11.436917 152.535873
0.840000 -5.120000 -6.920000 2.165863 15.939285 258.751770
0.840000 -5.120000 -6.880000 -6.840319 16.106144 306.197815
0.840000 -5.120000 -6.840000 -13.766066 7.701738 248.821335
0.840000 -5.120000 -6.800000 -11.584970 -2.655691 141.264206
0.840000 -5.080000 -7.200000 34.998428 -1.685190 1227.729858
0.840000 -5.080000 -7.160000 35.102711 20.063128 1634.729370
0.840000 -5.080000 -7.120000 23.089462 35.520893 1794.857178
0.840000 -5.080000 -7.080000 7.983600 40.922997 1738.429565
0.840000 -5.080000 -7.040000 -4.476597 40.393940 1651.710327
0.840000 -5.080000 -7.000000 -15.405767 37.988796 1680.486328
0.840000 -5.080000 -6.960000 -27.172218 32.230606 1777.141479
0.840000 -5.080000 -6.920000 -36.894203 19.627617 1746.425537
0.840000 -5.080000 -6.880000 -37.945938 2.133999 1444.448120
0.840000 -5.080000 -6.840000 -28.132088 -11.751828 929.519836
0.840000 -5.080000 -6.800000 -14.262589 -14.798213 422.408569
0.840000 -5.040000 -7.200000 16.695953 21.992435 762.422058
0.840000 -5.040000 -7.160000 8.808856 33.642441 1209.409790
0.840000 -5.040000 -7.120000 -2.177578 41.167618 1699.514526
0.840000 -5.040000 -7.080000 -15.756139 45.833225 2348.940430
0.840000 -5.040000 -7.040000 -33.601589 45.769501 3223.914062
0.840000 -5.040000 -7.000000 -53.671371 35.560596 4145.172363
0.840000 -5.040000 -6.960000 -67.346954 12.659027 4695.863281
0.840000 -5.040000 -6.920000 -65.048187 -16.274620 4496.129883
0.840000 -5.040000 -6.880000 -45.795479 -37.661163 3515.589111
0.840000 -5.040000 -6.840000 -20.419561 -41.664925 2152.924316
0.840000 -5.040000 -6.800000 -3.376756 -31.061531 976.221191
0.840000 -5.000000 -7.200000 -7.375813 20.767227 485.680328
0.840000 -5.000000 -7.160000 -13.779754 24.879990 808.895447
0.840000 -5.000000 -7.120000 -23.092049 29.964214 1431.096924
0.840000 -5.000000 -7.080000 -39.639622 32.173485 2606.432617
0.840000 -5.000000 -7.040000 -61.503181 22.870428 4305.697754
0.840000 -5.000000 -7.000000 -77.695282 -2.670218 6043.686523
0.840000 -5.000000 -6.960000 -75.256500 -37.470627 7067.588867
0.840000 -5.000000 -6.920000 -50.950272 -65.085144 6832.006348
0.840000 -5.000000 -6.880000 -16.090878 -71.664612 5394.732910
0.840000 -5.000000 -6.840000 11.343269 -57.245193 3405.681885
0.840000 -5.000000 -6.800000 20.870880 -35.310822 1682.447754
0.840000 -4.960000 -7.200000 -15.617350 4.631996 265.356995
0.840000 -4.960000 -7.160000 -19.681494 8.150961 453.799377
0.840000 -4.960000 -7.120000 -31.051430 11.142780 1088.352783
0.840000 -4.960000 -7.080000 -48.981117 4.587790 2420.197754
0.840000 -4.960000 -7.040000 -63.421974 -17.376856 4324.302246
0.840000 -4.960000 -7.000000 -61.315830 -49.607513 6220.536133
0.840000 -4.960000 -6.960000 -37.618141 -76.963608 7338.521484
0.840000 -4.960000 -6.920000 -1.112785 -84.716621 7178.144043
0.840000 -4.960000 -6.880000 31.018597 -69.776901 5830.969238
0.840000 -4.960000 -6.840000 45.722332 -42.748924 3918.002441
0.840000 -4.960000 -6.800000 42.788948 -18.957298 2190.273193
0.840000 -4.920000 -7.200000 -6.870862 -5.073217 72.946289
0.840000 -4.920000 -7.160000 -14.019747 -0.905827 197.373825
0.840000 -4.920000 -7.120000 -27.399658 -5.051964 776.263611
0.840000 -4.920000 -7.080000 -37.707741 -22.141855 1912.135376
0.840000 -4.920000 -7.040000 -34.215118 -47.154812 3394.250488
0.840000 -4.920000 -7.000000 -13.444376 -67.612045 4752.140137
0.840000 -4.920000 -6.960000 17.372219 -72.064316 5495.059570
0.840000 -4.920000 -6.920000 44.946453 -57.953636 5378.807617
0.840000 -4.920000 -6.880000 58.762756 -32.724300 4523.941406
0.840000 -4.920000 -6.840000 57.024864 -7.873941 3313.834229
0.840000 -4.920000 -6.800000 45.696663 8.687238 2163.653076
0.840000 -4.880000 -7.200000 1.891700 0.904750 4.397100
0.840000 -4.880000 -7.160000 -10.371128 -0.500169 107.810463
0.840000 -4.880000 -7.120000 -18.594090 -14.618942 559.453613
0.840000 -4.880000 -7.080000 -13.061735 -33.939159 1322.475464
0.840000 -4.880000 -7.040000 6.125381 -46.029438 2156.229492
0.840000 -4.880000 -7.000000 29.544998 -43.402466 2756.680908
0.840000 -4.880000 -6.960000 46.399765 -28.175346 2946.788330
0.840000 -4.880000 -6.920000 51.867069 -8.447437 2761.552002
0.840000 -4.880000 -6.880000 47.983715 8.693960 2378.021973
0.840000 -4.880000 -6.840000 39.157326 20.757572 1964.172974
0.840000 -4.880000 -6.800000 28.079254 28.179817 1582.546631
0.840000 -4.840000 -7.200000 -3.625449 11.490467 145.174713
0.840000 -4.840000 -7.160000 -14.210319 -1.006084 202.945358
0.840000 -4.840000 -7.120000 -8.957995 -19.182482 448.213318
0.840000 -4.840000 -7.080000 10.401379 -27.287315 852.786255
0.840000 -4.840000 -7.040000 30.068031 -18.267307 1237.781006
0.840000 -4.840000 -7.000000 37.292366 0.762973 1391.302734
0.840000 -4.840000 -6.960000 31.079493 16.720692 1245.516357
0.840000 -4.840000 -6.920000 20.395424 22.933376 941.913086
0.840000 -4.840000 -6.880000 13.450458 23.082460 713.714783
0.840000 -4.840000 -6.840000 10.133453 24.172361 686.989929
0.840000 -4.840000 -6.800000 4.810232 27.620255 786.016785
0.840000 -4.800000 -7.200000 -19.008142 9.495982 451.483154
0.840000 -4.800000 -7.160000 -17.666374 -10.274706 417.670349
0.840000 -4.800000 -7.120000 1.311856 -20.386242 417.319824
0.840000 -4.800000 -7.080000 21.681164 -10.008656 570.246094
0.840000 -4.800000 -7.040000 25.838003 12.792642 831.254089
0.840000 -4.800000 -7.000000 11.406173 29.418856 995.569824
0.840000 -4.800000 -6.960000 -7.884873 28.743942 888.385437
0.840000 -4.800000 -6.920000 -16.801678 16.295502 547.839722
0.840000 -4.800000 -6.880000 -12.883093 6.352043 206.322525
0.840000 -4.800000 -6.840000 -6.271660 6.712848 84.396042
0.840000 -4.800000 -6.800000 -7.105864 12.238066 200.263550
0.880000 -5.200000 -7.200000 -7.288206 -50.707413 2624.359619
0.880000 -5.200000 -7.160000 25.333885 -34.504768 1832.384766
0.880000 -5.200000 -7.120000 28.332504 0.615705 803.109863
0.880000 -5.200000 -7.080000 0.865604 19.389275 376.693237
0.880000 -5.200000 -7.040000 -26.854086 4.510899 741.490112
0.880000 -5.200000 -7.000000 -25.896685 -25.902037 1341.553833
0.880000 -5.200000 -6.960000 1.306099 -38.644012 1495.065674
0.880000 -5.200000 -6.920000 25.070545 -20.855551 1063.486206
0.880000 -5.200000 -6.880000 21.100998 7.708907 504.679352
0.880000 -5.200000 -6.840000 -4.425738 17.520004 326.537720
0.880000 -5.200000 -6.800000 -23.633877 0.969420 559.499878
0.880000 -5.160000 -7.200000 25.412460 -42.099983 2418.201660
0.880000 -5.160000 -7.160000 43.866585 -12.870095 2089.916504
0.880000 -5.160000 -7.120000 32.552502 17.322784 1359.744263
0.880000 -5.160000 -7.080000 5.888143 24.507528 635.289185
0.880000 -5.160000 -7.040000 -9.800821 9.551922 187.295319
0.880000 -5.160000 -7.000000 -3.852783 -5.551473 45.662788
0.880000 -5.160000 -6.960000 9.802383 -2.977428 104.951805
0.880000 -5.160000 -6.920000 10.529177 12.412434 264.932068
0.880000 -5.160000 -6.880000 -5.474696 20.718708 459.237152
0.880000 -5.160000 -6.840000 -22.111465 10.611185 601.514160
0.880000 -5.160000 -6.800000 -22.722839 -8.275376 584.809326
0.880000 -5.120000 -7.200000 40.398125 -12.059914 1777.449951
0.880000 -5.120000 -7.160000 42.672428 16.932360 2107.640869
0.880000 -5.120000 -7.120000 25.956755 38.163254 2130.187012
0.880000 -5.120000 -7.080000 3.968334 43.048164 1868.892090
0.880000 -5.120000 -7.040000 -11.431240 37.325821 1523.890137
0.880000 -5.120000 -7.000000 -19.967331 30.739788 1343.628906
0.880000 -5.120000 -6.960000 -28.027185 25.328613 1427.061768
0.880000 -5.120000 -6.920000 -37.170376 15.679249 1627.475708
0.880000 -5.120000 -6.880000 -40.786583 -0.659267 1663.979980
0.880000 -5.120000 -6.840000 -32.875465 -16.711258 1360.062378
0.880000 -5.120000 -6.800000 -17.554308 -22.336441 807.070312
0.880000 -5.080000 -7.200000 28.242367 16.049103 1055.204956
0.880000 -5.080000 -7.160000 22.324417 37.133919 1877.307617
0.880000 -5.080000 -7.120000 5.582619 53.921555 2938.699463
0.880000 -5.080000 -7.080000 -19.267046 61.932301 4206.829102
0.880000 -5.080000 -7.040000 -48.171646 56.977188 5566.907227
0.880000 -5.080000 -7.000000 -73.509918 36.123169 6708.591309
0.880000 -5.080000 -6.960000 -84.593887 2.368946 7161.737793
0.880000 -5.080000 -6.920000 -74.198723 -32.465717 6559.473633
0.880000 -5.080000 -6.880000 -46.390388 -52.956673 4956.477539
0.880000 -5.080000 -6.840000 -16.533943 -51.426163 2918.021484
0.880000 -5.080000 -6.800000 -0.557794 -35.103378 1232.558350
0.880000 -5.040000 -7.200000 3.326385 22.235630 505.488098
0.880000 -5.040000 -7.160000 -2.816257 37.820499 1438.321411
0.880000 -5.040000 -7.120000 -22.549438 54.572189 3486.601074
0.880000 -5.040000 -7.080000 -58.595062 58.684631 6877.267578
0.880000 -5.040000 -7.040000 -98.643539 35.686974 11004.107422
0.880000 -5.040000 -7.000000 -119.206230 -14.145144 14410.209961
0.880000 -5.040000 -6.960000 -103.057121 -69.901741 15507.023438
0.880000 -5.040000 -6.920000 -55.526672 -102.601654 13610.310547
0.880000 -5.040000 -6.880000 -3.136013 -97.402191 9497.021484
0.880000 -5.040000 -6.840000 26.412512 -65.501358 4988.048340
0.880000 -5.040000 -6.800000 25.674225 -34.016953 1816.318848
0.880000 -5.000000 -7.200000 -10.973536 8.316709 189.586121
0.880000 -5.000000 -7.160000 -17.403419 24.547239 905.445923
0.880000 -5.000000 -7.120000 -45.661846 37.818016 3515.206543
0.880000 -5.000000 -7.080000 -89.211334 24.531834 8560.472656
0.880000 -5.000000 -7.040000 -119.816025 -25.219225 14991.888672
0.880000 -5.000000 -7.000000 -108.672485 -92.194473 20309.531250
0.880000 -5.000000 -6.960000 -52.946014 -138.393677 21956.091797
0.880000 -5.000000 -6.920000 18.056034 -136.769577 19031.937500
0.880000 -5.000000 -6.880000 65.007187 -93.519264 12971.787109
0.880000 -5.000000 -6.840000 69.647148 -41.918320 6607.870605
0.880000 -5.000000 -6.800000 46.507416 -13.446284 2343.742188
0.880000 -4.960000 -7.200000 -5.279473 -5.854350 62.146255
0.880000 -4.960000 -7.160000 -17.988094 11.467710 455.079895
0.880000 -4.960000 -7.120000 -53.298500 12.028915 2985.425049
0.880000 -4.960000 -7.080000 -87.975502 -23.787169 8305.518555
0.880000 -4.960000 -7.040000 -87.881485 -86.553658 15214.691406
0.880000 -4.960000 -7.000000 -38.948997 -139.278809 20915.609375
0.880000 -4.960000 -6.960000 36.507347 -146.012573 22652.458984
0.880000 -4.960000 -6.920000 95.477905 -102.198586 19560.582031
0.880000 -4.960000 -6.880000 108.655876 -38.282600 13271.657227
0.880000 -4.960000 -6.840000 82.081566 6.722357 6782.573242
0.880000 -4.960000 -6.800000 47.117432 16.665249 2497.782715
0.880000 -4.920000 -7.200000 8.164804 -3.858756 81.554031
0.880000 -4.920000 -7.160000 -13.556952 7.290752 236.946030
0.880000 -4.920000 -7.120000 -44.981468 -9.907164 2121.484375
0.880000 -4.920000 -7.080000 -54.977905 -56.829147 6252.122070
0.880000 -4.920000 -7.040000 -22.395163 -105.537407 11639.687500
0.880000 -4.920000 -7.000000 41.843918 -119.613823 16058.379883
0.880000 -4.920000 -6.960000 100.605713 -85.170593 17375.539062
0.880000 -4.920000 -6.920000 120.200706 -23.113050 14982.422852
0.880000 -4.920000 -6.880000 96.763748 28.812214 10193.366211
0.880000 -4.920000 -6.840000 55.706665 46.954754 5307.981445
0.880000 -4.920000 -6.800000 26.787361 37.232288 2103.806152
0.880000 -4.880000 -7.200000 10.291373 10.881659 224.322845
0.880000 -4.880000 -7.160000 -14.090709 8.330732 267.949158
0.880000 -4.880000 -7.120000 -29.206282 -20.243092 1262.789673
0.880000 -4.880000 -7.080000 -13.535015 -57.651642 3506.908447
0.880000 -4.880000 -7.040000 31.014082 -74.070435 6448.302734
0.880000 -4.880000 -7.000000 77.988548 -52.594326 8848.376953
0.880000 -4.880000 -6.960000 97.559235 -4.263783 9535.984375
0.880000 -4.880000 -6.920000 80.584381 41.348099 8203.507812
0.880000 -4.880000 -6.880000 43.759682 60.711224 5600.762695
0.880000 -4.880000 -6.840000 12.785112 53.178024 2991.361328
0.880000 -4.880000 -6.800000 0.736166 36.224434 1312.751587
0.880000 -4.840000 -7.200000 -3.989689 20.311506 428.474884
0.880000 -4.840000 -7.160000 -19.637941 5.097153 411.629700
0.880000 -4.840000 -7.120000 -15.261812 -20.329481 646.210693
0.880000 -4.840000 -7.080000 10.883488 -34.523804 1310.343384
0.880000 -4.840000 -7.040000 41.585327 -23.273258 2270.983887
0.880000 -4.840000 -7.000000 55.086216 7.744583 3094.469727
0.880000 -4.840000 -6.960000 43.248894 38.213055 3330.704346
0.880000 -4.840000 -6.920000 16.793432 50.648651 2847.305176
0.880000 -4.840000 -6.880000 -5.928730 43.468906 1924.695557
0.880000 -4.840000 -6.840000 -14.666433 28.708675 1039.292358
0.880000 -4.840000 -6.800000 -12.965738 18.799900 521.546631
0.880000 -4.800000 -7.200000 -20.873322 11.969873 578.973389
0.880000 -4.800000 -7.160000 -21.295420 -5.489791 483.632721
0.880000 -4.800000 -7.120000 -6.445786 -16.071323 299.835602
0.880000 -4.800000 -7.080000 11.298344 -9.919273 226.044556
0.880000 -4.800000 -7.040000 17.084858 8.036873 356.483704
0.880000 -4.800000 -7.000000 6.975036 23.208546 587.287720
0.880000 -4.800000 -6.960000 -9.656315 24.924713 714.485718
0.880000 -4.800000 -6.920000 -19.968491 14.977240 623.058350
0.880000 -4.800000 -6.880000 -19.158091 3.760595 381.174530
0.880000 -4.800000 -6.840000 -12.652311 -0.551414 160.385040
0.880000 -4.800000 -6.800000 -8.624581 1.470383 76.545425
0.920000 -5.200000 -7.200000 26.767838 -37.300667 2107.856934
0.920000 -5.200000 -7.160000 37.791924 -2.315417 1433.590698
0.920000 -5.200000 -7.120000 13.796392 25.019258 816.303772
0.920000 -5.200000 -7.080000 -20.655437 17.907394 747.321899
0.920000 -5.200000 -7.040000 -30.066088 -14.788032 1122.655518
0.920000 -5.200000 -7.000000 -5.361156 -37.629906 1444.751709
0.920000 -5.200000 -6.960000 26.695089 -25.956200 1386.352051
0.920000 -5.200000 -6.920000 32.046566 8.448765 1098.364014
0.920000 -5.200000 -6.880000 5.019379 30.583235 960.528381
0.920000 -5.200000 -6.840000 -26.942451 19.392395 1101.960693
0.920000 -5.200000 -6.800000 -33.412094 -11.340391 1244.972534
0.920000 -5.160000 -7.200000 41.022324 -14.386803 1889.811157
0.920000 -5.160000 -7.160000 36.418846 18.461990 1667.177490
0.920000 -5.160000 -7.120000 9.556126 33.940914 1243.305176
0.920000 -5.160000 -7.080000 -14.389046 23.511141 759.818359
0.920000 -5.160000 -7.040000 -17.011219 4.249332 307.438385
0.920000 -5.160000 -7.000000 -4.843498 -1.267452 25.065910
0.920000 -5.160000 -6.960000 0.181234 10.330997 106.762352
0.920000 -5.160000 -6.920000 -13.500845 20.943459 620.901245
0.920000 -5.160000 -6.880000 -34.108093 12.703259 1324.734863
0.920000 -5.160000 -6.840000 -40.225075 -11.253385 1744.695312
0.920000 -5.160000 -6.800000 -25.151430 -30.168823 1542.752319
0.920000 -5.120000 -7.200000 34.851006 11.037707 1336.423462
0.920000 -5.120000 -7.160000 23.445677 35.709610 1824.875977
0.920000 -5.120000 -7.120000 -0.188478 47.640106 2269.615479
0.920000 -5.120000 -7.080000 -23.956841 44.952766 2594.681396
0.920000 -5.120000 -7.040000 -41.493351 33.802017 2864.274414
0.920000 -5.120000 -7.000000 -53.572277 18.938210 3228.644531
0.920000 -5.120000 -6.960000 -60.974758 -0.037437 3717.922607
0.920000 -5.120000 -6.920000 -59.639679 -23.106224 4090.789062
0.920000 -5.120000 -6.880000 -45.306377 -43.646271 3957.664551
0.920000 -5.120000 -6.840000 -21.914007 -51.479622 3130.375000
0.920000 -5.120000 -6.800000 -2.045561 -43.305710 1879.568848
0.920000 -5.080000 -7.200000 14.830300 21.894030 699.286377
0.920000 -5.080000 -7.160000 3.723401 42.547722 1824.172363
0.920000 -5.080000 -7.120000 -23.006054 58.042969 3898.264893
0.920000 -5.080000 -7.080000 -61.899933 55.980453 6965.413086
0.920000 -5.080000 -7.040000 -98.784439 27.638229 10522.237305
0.920000 -5.080000 -7.000000 -113.917801 -22.462502 13481.830078
0.920000 -5.080000 -6.960000 -95.161797 -74.431900 14595.875000
0.920000 -5.080000 -6.920000 -49.258678 -103.714317 13183.076172
0.920000 -5.080000 -6.880000 0.122650 -98.345505 9671.852539
0.920000 -5.080000 -6.840000 28.547956 -68.352539 5487.055664
0.920000 -5.080000 -6.800000 28.645924 -37.891609 2256.363037
0.920000 -5.040000 -7.200000 -1.216894 14.522192 212.374893
0.920000 -5.040000 -7.160000 -14.151144 37.707973 1622.146118
0.920000 -5.040000 -7.120000 -54.070282 51.587845 5584.901367
0.920000 -5.040000 -7.080000 -108.015343 29.655642 12546.771484
0.920000 -5.040000 -7.040000 -140.676361 -34.766159 20998.523438
0.920000 -5.040000 -7.000000 -120.878189 -114.410545 27701.308594
0.920000 -5.040000 -6.960000 -50.505089 -163.955353 29432.121094
0.920000 -5.040000 -6.920000 32.414230 -155.181976 25132.126953
0.920000 -5.040000 -6.880000 82.187035 -100.107681 16776.255859
0.920000 -5.040000 -6.840000 81.012497 -40.228611 8181.366211
0.920000 -5.040000 -6.800000 49.660561 -11.437496 2596.987793
0.920000 -5.000000 -7.200000 -1.254342 1.878628 5.102616
0.920000 -5.000000 -7.160000 -23.783581 26.694431 1278.251343
0.920000 -5.000000 -7.120000 -76.648911 24.418371 6471.312500
0.920000 -5.000000 -7.080000 -124.718536 -30.115509 16461.656250
0.920000 -5.000000 -7.040000 -120.322861 -119.857994 28843.529297
0.920000 -5.000000 -7.000000 -47.217865 -190.425201 38491.285156
0.920000 -5.000000 -6.960000 58.679810 -192.675110 40567.019531
0.920000 -5.000000 -6.920000 134.929565 -125.076515 33850.125000
0.920000 -5.000000 -6.880000 143.034546 -35.462723 21716.486328
0.920000 -5.000000 -6.840000 97.383926 20.108639 9887.986328
0.920000 -5.000000 -6.800000 46.887638 22.694595 2713.495361
0.920000 -4.960000 -7.200000 9.619103 0.255186 92.592270
0.920000 -4.960000 -7.160000 -25.612585 17.174448 950.966187
0.920000 -4.960000 -7.120000 -76.753609 -10.836250 6008.540527
0.920000 -4.960000 -7.080000 -93.518738 -87.221558 16353.353516
0.920000 -4.960000 -7.040000 -40.502884 -166.548950 29379.037109
0.920000 -4.960000 -7.000000 64.278961 -188.027252 39486.031250
0.920000 -4.960000 -6.960000 157.846222 -128.770966 41497.390625
0.920000 -4.960000 -6.920000 183.297867 -25.955952 34271.820312
0.920000 -4.960000 -6.880000 136.476776 54.406090 21585.933594
0.920000 -4.960000 -6.840000 64.899269 72.821556 9514.894531
0.920000 -4.960000 -6.800000 22.102514 43.984493 2423.156738
0.920000 -4.920000 -7.200000 15.115570 12.838361 393.303955
0.920000 -4.920000 -7.160000 -25.408895 12.378216 798.832214
0.920000 -4.920000 -7.120000 -56.472282 -35.087002 4420.216309
0.920000 -4.920000 -7.080000 -34.344452 -105.296738 12266.944336
0.920000 -4.920000 -7.040000 45.575516 -142.427750 22362.791016
0.920000 -4.920000 -7.000000 136.741165 -107.602692 30276.484375
0.920000 -4.920000 -6.960000 177.798798 -16.237198 31876.058594
0.920000 -4.920000 -6.920000 144.666565 72.945213 26249.417969
0.920000 -4.920000 -6.880000 69.244804 107.720963 16398.648438
0.920000 -4.920000 -6.840000 8.083838 83.899094 7104.406738
0.920000 -4.920000 -6.800000 -7.219225 40.993454 1732.580444
0.920000 -4.880000 -7.200000 4.911683 26.911663 748.362244
0.920000 -4.880000 -7.160000 -27.734833 9.034746 850.847595
0.920000 -4.880000 -7.120000 -31.680527 -39.403240 2556.270996
0.920000 -4.880000 -7.080000 12.703388 -80.297462 6609.058594
0.920000 -4.880000 -7.040000 82.554634 -72.584442 12083.769531
0.920000 -4.880000 -7.000000 128.141235 -11.260166 16546.966797
0.920000 -4.880000 -6.960000 115.514389 65.135559 17586.214844
0.920000 -4.880000 -6.920000 55.848846 106.942078 14555.702148
0.920000 -4.880000 -6.880000 -6.172020 95.085342 9079.316406
0.920000 -4.880000 -6.840000 -32.570679 53.057655 3875.963867
0.920000 -4.880000 -6.800000 -21.857647 20.426413 894.995117
0.920000 -4.840000 -7.200000 -14.752117 27.371590 966.828857
0.920000 -4.840000 -7.160000 -30.994806 2.193299 965.488586
0.920000 -4.840000 -7.120000 -16.816589 -30.859144 1235.084473
0.920000 -4.840000 -7.080000 23.799177 -40.810547 2231.901611
0.920000 -4.840000 -7.040000 60.977493 -12.948547 3885.919434
0.920000 -4.840000 -7.000000 64.584274 35.824692 5454.537109
0.920000 -4.840000 -6.960000 31.122299 70.897423 5995.041992
0.920000 -4.840000 -6.920000 -13.815041 70.011406 5092.452637
0.920000 -4.840000 -6.880000 -39.201576 40.876701 3207.668213
0.920000 -4.840000 -6.840000 -34.864494 10.814383 1332.483887
0.920000 -4.840000 -6.800000 -16.105463 0.567068 259.707489
0.920000 -4.800000 -7.200000 -27.691872 12.293942 917.980835
0.920000 -4.800000 -7.160000 -29.550747 -8.092571 938.736328
0.920000 -4.800000 -7.120000 -13.244265 -22.554295 684.106750
0.920000 -4.800000 -7.080000 8.674849 -17.995377 399.086578
0.920000 -4.800000 -7.040000 18.098089 2.195503 332.361053
0.920000 -4.800000 -7.000000 7.901379 21.178375 510.955383
0.920000 -4.800000 -6.960000 -12.128197 24.136112 729.645081
0.920000 -4.800000 -6.920000 -25.118874 11.054447 753.158630
0.920000 -4.800000 -6.880000 -22.475880 -4.936001 529.529236
0.920000 -4.800000 -6.840000 -10.046177 -10.772449 216.971344
0.920000 -4.800000 -6.800000 -0.537680 -4.695522 22.337029
0.960000 -5.200000 -7.200000 37.511921 -6.276205 1446.534912
0.960000 -5.200000 -7.160000 21.541828 24.316902 1055.362061
0.960000 -5.200000 -7.120000 -13.718828 26.798420 906.361572
0.960000 -5.200000 -7.080000 -33.650082 -2.276260 1137.509399
0.960000 -5.200000 -7.040000 -17.962719 -33.510773 1445.631226
0.960000 -5.200000 -7.000000 17.171013 -34.336479 1473.837402
0.960000 -5.200000 -6.960000 35.073250 -3.086384 1239.658569
0.960000 -5.200000 -6.920000 16.412788 28.954056 1107.716919
0.960000 -5.200000 -6.880000 -21.048960 29.899551 1337.041870
0.960000 -5.200000 -6.840000 -41.508671 -0.251436 1723.032959
0.960000 -5.200000 -6.800000 -28.216583 -31.165209 1767.445801
0.960000 -5.160000 -7.200000 32.150681 11.447451 1164.710449
0.960000 -5.160000 -7.160000 11.310127 30.998989 1088.856323
0.960000 -5.160000 -7.120000 -15.482972 27.107294 974.527832
0.960000 -5.160000 -7.080000 -26.540154 7.232334 756.686401
0.960000 -5.160000 -7.040000 -18.518257 -6.988228 391.761169
0.960000 -5.160000 -7.000000 -8.534058 -3.721115 86.676834
0.960000 -5.160000 -6.960000 -13.799705 6.617828 234.227493
0.960000 -5.160000 -6.920000 -31.646126 4.096962 1018.262390
0.960000 -5.160000 -6.880000 -42.264038 -17.267832 2084.427002
0.960000 -5.160000 -6.840000 -31.023375 -41.707481 2701.963867
0.960000 -5.160000 -6.800000 -5.389840 -48.397530 2371.371094
0.960000 -5.120000 -7.200000 18.514019 20.215578 751.438477
0.960000 -5.120000 -7.160000 1.019242 35.318344 1248.424194
0.960000 -5.120000 -7.120000 -23.651363 37.474503 1963.725342
0.960000 -5.120000 -7.080000 -46.354244 26.172838 2833.733398
0.960000 -5.120000 -7.040000 -61.427620 5.407402 3802.592529
0.960000 -5.120000 -7.000000 -66.279793 -20.663628 4819.996094
0.960000 -5.120000 -6.960000 -58.723026 -47.734947 5727.019043
0.960000 -5.120000 -6.920000 -37.918053 -68.878624 6182.043457
0.960000 -5.120000 -6.880000 -8.714371 -75.713295 5808.443359
0.960000 -5.120000 -6.840000 17.338837 -65.008064 4526.683594
0.960000 -5.120000 -6.800000 28.802320 -44.077633 2772.411377
0.960000 -5.080000 -7.200000 6.625506 17.793552 360.507843
0.960000 -5.080000 -7.160000 -11.136793 37.460815 1527.340942
0.960000 -5.080000 -7.120000 -48.746349 43.196033 4242.104004
0.960000 -5.080000 -7.080000 -91.569717 18.235434 8717.543945
0.960000 -5.080000 -7.040000 -112.898697 -37.307705 14137.981445
0.960000 -5.080000 -7.000000 -92.695435 -100.470154 18686.695312
0.960000 -5.080000 -6.960000 -35.201031 -138.345520 20378.595703
0.960000 -5.080000 -6.920000 30.930580 -131.574585 18268.572266
0.960000 -5.080000 -6.880000 72.375626 -89.123764 13181.276367
0.960000 -5.080000 -6.840000 75.129776 -40.936218 7320.257324
0.960000 -5.080000 -6.800000 52.575901 -14.395496 2971.455566
0.960000 -5.040000 -7.200000 3.972809 11.165330 140.447800
0.960000 -5.040000 -7.160000 -24.844416 34.597557 1814.235962
0.960000 -5.040000 -7.120000 -80.171616 26.165504 7112.121582
0.960000 -5.040000 -7.080000 -124.687538 -33.950161 16699.595703
0.960000 -5.040000 -7.040000 -113.937920 -124.139999 28392.589844
0.960000 -5.040000 -7.000000 -36.957367 -190.249420 37560.691406
0.960000 -5.040000 -6.960000 67.882645 -187.333572 39701.921875
0.960000 -5.040000 -6.920000 140.099030 -117.735046 33489.281250
0.960000 -5.040000 -6.880000 144.904755 -29.621002 21874.792969
0.960000 -5.040000 -6.840000 98.454292 23.405537 10241.067383
0.960000 -5.040000 -6.800000 48.613205 24.439846 2960.549805
0.960000 -5.000000 -7.200000 8.649538 10.322195 181.362213
0.960000 -5.000000 -7.160000 -36.115738 25.442186 1951.651367
0.960000 -5.000000 -7.120000 -94.174606 -12.995070 9037.728516
0.960000 -5.000000 -7.080000 -108.097527 -104.212860 22545.394531
0.960000 -5.000000 -7.040000 -41.123535 -193.404282 39096.359375
0.960000 -5.000000 -7.000000 81.644722 -212.174850 51684.027344
0.960000 -5.000000 -6.960000 186.228638 -138.428009 53843.421875
0.960000 -5.000000 -6.920000 209.360153 -18.626507 44178.617188
0.960000 -5.000000 -6.880000 150.202988 70.607193 27546.312500
0.960000 -5.000000 -6.840000 66.254066 86.117081 11805.752930
0.960000 -5.000000 -6.800000 19.296511 48.006668 2676.995361
0.960000 -4.960000 -7.200000 11.069094 18.754848 474.269196
0.960000 -4.960000 -7.160000 -41.185989 13.118927 1868.391968
0.960000 -4.960000 -7.120000 -77.911438 -52.177902 8792.725586
0.960000 -4.960000 -7.080000 -43.947121 -143.799530 22609.654297
0.960000 -4.960000 -7.040000 64.181915 -188.756165 39748.210938
0.960000 -4.960000 -7.000000 183.498566 -137.877823 52682.015625
0.960000 -4.960000 -6.960000 233.189392 -14.280477 54581.226562
0.960000 -4.960000 -6.920000 183.603943 102.363098 44188.609375
0.960000 -4.960000 -6.880000 80.194092 143.010941 26883.220703
0.960000 -4.960000 -6.840000 0.237358 104.649094 10951.489258
0.960000 -4.960000 -6.800000 -14.608177 43.281265 2086.666748
0.960000 -4.920000 -7.200000 3.150204 29.847233 900.781067
0.960000 -4.920000 -7.160000 -40.589695 2.475543 1653.651611
0.960000 -4.920000 -7.120000 -43.128700 -68.208672 6512.507812
0.960000 -4.920000 -7.080000 25.127052 -127.285240 16832.900391
0.960000 -4.920000 -7.040000 131.038177 -113.286743 30004.890625
0.960000 -4.920000 -7.000000 199.475174 -17.836891 40108.500000
0.960000 -4.920000 -6.960000 177.771606 100.259201 41654.652344
0.960000 -4.920000 -6.920000 82.910873 163.435730 33585.453125
0.960000 -4.920000 -6.880000 -14.472408 141.246277 20159.960938
0.960000 -4.920000 -6.840000 -53.245838 71.380157 7930.246094
0.960000 -4.920000 -6.800000 -30.912411 18.565044 1300.238037
0.960000 -4.880000 -7.200000 -13.654243 32.931122 1270.897095
0.960000 -4.880000 -7.160000 -38.191517 -4.773664 1481.379761
0.960000 -4.880000 -7.120000 -14.593058 -58.416855 3625.486328
0.960000 -4.880000 -7.080000 55.735703 -75.488884 8805.040039
0.960000 -4.880000 -7.040000 123.402657 -25.858856 15896.896484
0.960000 -4.880000 -7.000000 132.116302 64.824539 21656.937500
0.960000 -4.880000 -6.960000 70.360687 133.629013 22807.339844
0.960000 -4.880000 -6.920000 -17.086273 134.945068 18502.113281
0.960000 -4.880000 -6.880000 -69.415985 78.908417 11045.117188
0.960000 -4.880000 -6.840000 -62.399132 17.615191 4203.946289
0.960000 -4.880000 -6.800000 -23.366299 -4.838894 569.398804
0.960000 -4.840000 -7.200000 -29.429871 23.342640 1410.996094
0.960000 -4.840000 -7.160000 -36.351822 -10.918922 1440.677856
0.960000 -4.840000 -7.120000 -6.281042 -40.583961 1686.509521
0.960000 -4.840000 -7.080000 42.201546 -32.556950 2840.925293
0.960000 -4.840000 -7.040000 68.396278 15.357567 4913.905762
0.960000 -4.840000 -7.000000 46.924660 68.844902 6941.543945
0.960000 -4.840000 -6.960000 -7.673393 86.964630 7621.727539
0.960000 -4.840000 -6.920000 -53.853004 58.887924 6367.933594
0.960000 -4.840000 -6.880000 -60.746838 11.837093 3830.294922
0.960000 -4.840000 -6.840000 -33.682419 -16.221970 1397.657715
0.960000 -4.840000 -6.800000 -4.335699 -10.895817 137.517120
0.960000 -4.800000 -7.200000 -34.891331 6.647984 1261.600586
0.960000 -4.800000 -7.160000 -33.461349 -18.166140 1449.670532
0.960000 -4.800000 -7.120000 -10.849660 -32.801147 1193.630371
0.960000 -4.800000 -7.080000 15.141350 -23.150036 765.184570
0.960000 -4.800000 -7.040000 22.665085 3.075695 523.165955
0.960000 -4.800000 -7.000000 6.543839 23.319746 586.632385
0.960000 -4.800000 -6.960000 -17.285324 21.496525 760.883057
0.960000 -4.800000 -6.920000 -27.589684 2.379135 766.850891
0.960000 -4.800000 -6.880000 -17.683231 -14.557178 524.608154
0.960000 -4.800000 -6.840000 0.095881 -14.547779 211.647064
0.960000 -4.800000 -6.800000 8.148316 -0.435471 66.584694
1.000000 -5.200000 -7.200000 22.257145 17.396999 798.036072
1.000000 -5.200000 -7.160000 -5.743785 25.718204 694.417114
1.000000 -5.200000 -7.120000 -29.361736 5.382420 891.082031
1.000000 -5.200000 -7.080000 -24.474281 -26.426846 1297.368652
1.000000 -5.200000 -7.040000 5.815121 -38.775230 1537.334106
1.000000 -5.200000 -7.000000 32.128143 -18.459324 1372.964355
1.000000 -5.200000 -6.960000 27.739727 15.267979 1002.603638
1.000000 -5.200000 -6.920000 -4.047890 29.301615 874.970093
1.000000 -5.200000 -6.880000 -33.037773 9.971866 1190.932617
1.000000 -5.200000 -6.840000 -32.796814 -23.691481 1636.917236
1.000000 -5.200000 -6.800000 -6.744507 -40.326763 1671.736206
1.000000 -5.160000 -7.200000 11.529263 18.683689 482.004150
1.000000 -5.160000 -7.160000 -8.952867 20.404520 496.498260
1.000000 -5.160000 -7.120000 -23.018370 6.059120 566.558289
1.000000 -5.160000 -7.080000 -20.999477 -10.865438 559.035828
1.000000 -5.160000 -7.040000 -10.324087 -16.053120 364.289429
1.000000 -5.160000 -7.000000 -6.636539 -10.159897 147.267151
1.000000 -5.160000 -6.960000 -15.535667 -7.731171 301.127960
1.000000 -5.160000 -6.920000 -25.496319 -20.047653 1051.970703
1.000000 -5.160000 -6.880000 -20.476158 -41.004448 2100.637695
1.000000 -5.160000 -6.840000 1.441036 -52.364979 2744.167725
1.000000 -5.160000 -6.800000 24.346748 -43.236927 2462.196045
1.000000 -5.120000 -7.200000 6.582153 15.174515 273.590637
1.000000 -5.120000 -7.160000 -9.602232 22.825823 613.221069
1.000000 -5.120000 -7.120000 -31.380283 18.079769 1311.600220
1.000000 -5.120000 -7.080000 -49.130638 -0.949821 2414.721680
1.000000 -5.120000 -7.040000 -54.253296 -29.480476 3812.518555
1.000000 -5.120000 -7.000000 -42.776077 -58.429329 5243.779297
1.000000 -5.120000 -6.960000 -16.827316 -77.820297 6339.157227
1.000000 -5.120000 -6.920000 15.562035 -80.443092 6713.268066
1.000000 -5.120000 -6.880000 42.868935 -65.523468 6131.070312
1.000000 -5.120000 -6.840000 55.315758 -40.457802 4696.666992
1.000000 -5.120000 -6.800000 50.923103 -17.798416 2909.946045
1.000000 -5.080000 -7.200000 7.395397 13.893976 247.734467
1.000000 -5.080000 -7.160000 -18.181833 29.165850 1181.225830
1.000000 -5.080000 -7.120000 -59.184998 17.558811 3811.175781
1.000000 -5.080000 -7.080000 -87.343842 -29.951530 8526.041016
1.000000 -5.080000 -7.040000 -74.497108 -94.419281 14464.820312
1.000000 -5.080000 -7.000000 -17.141945 -138.718826 19536.757812
1.000000 -5.080000 -6.960000 57.037361 -134.911667 21454.417969
1.000000 -5.080000 -6.920000 108.362488 -86.234444 19178.808594
1.000000 -5.080000 -6.880000 114.504295 -24.310009 13702.209961
1.000000 -5.080000 -6.840000 85.091988 16.018787 7497.248047
1.000000 -5.080000 -6.800000 50.053009 22.105053 2993.937012
1.000000 -5.040000 -7.200000 8.513477 18.332302 408.552612
1.000000 -5.040000 -7.160000 -35.045151 28.022236 2013.408325
1.000000 -5.040000 -7.120000 -84.818817 -11.486111 7326.162598
1.000000 -5.040000 -7.080000 -91.317780 -93.709892 17120.480469
1.000000 -5.040000 -7.040000 -27.560055 -168.573273 29176.505859
1.000000 -5.040000 -7.000000 80.329681 -179.481400 38666.429688
1.000000 -5.040000 -6.960000 168.346268 -111.898239 40861.683594
1.000000 -5.040000 -6.920000 185.211624 -7.968643 34366.847656
1.000000 -5.040000 -6.880000 132.959503 67.870071 22284.574219
1.000000 -5.040000 -6.840000 60.794952 80.941536 10247.558594
1.000000 -5.040000 -6.800000 19.909445 48.836460 2781.385742
1.000000 -5.000000 -7.200000 4.370917 25.984972 694.323669
1.000000 -5.000000 -7.160000 -49.564953 13.991564 2652.448486
1.000000 -5.000000 -7.120000 -81.738953 -56.636299 9888.926758
1.000000 -5.000000 -7.080000 -40.544739 -147.850693 23503.703125
1.000000 -5.000000 -7.040000 71.797653 -186.976379 40115.070312
1.000000 -5.000000 -7.000000 189.487366 -129.453476 52663.664062
1.000000 -5.000000 -6.960000 233.689270 -2.978605 54619.546875
1.000000 -5.000000 -6.920000 179.102264 111.863876 44591.148438
1.000000 -5.000000 -6.880000 73.941330 148.613327 27553.242188
1.000000 -5.000000 -6.840000 -4.957138 107.259552 11529.184570
1.000000 -5.000000 -6.800000 -18.002739 44.743790 2326.105225
1.000000 -4.960000 -7.200000 -6.149878 31.130653 1006.938538
1.000000 -4.960000 -7.160000 -51.777767 -5.949510 2716.333984
1.000000 -4.960000 -7.120000 -46.968735 -87.147163 9800.689453
1.000000 -4.960000 -7.080000 36.592812 -149.108871 23572.488281
1.000000 -4.960000 -7.040000 157.389221 -125.428268 40503.617188
1.000000 -4.960000 -7.000000 230.225311 -11.464993 53135.140625
1.000000 -4.960000 -6.960000 198.795013 123.162598 54688.484375
1.000000 -4.960000 -6.920000 86.379898 191.049194 43961.281250
1.000000 -4.960000 -6.880000 -24.890713 160.627319 26420.681641
1.000000 -4.960000 -6.840000 -66.382683 77.630280 10433.121094
1.000000 -4.960000 -6.800000 -37.467842 16.747337 1684.312500
1.000000 -4.920000 -7.200000 -19.461182 29.603058 1255.078613
1.000000 -4.920000 -7.160000 -42.832115 -20.012880 2235.105469
1.000000 -4.920000 -7.120000 -5.329386 -84.194672 7117.145020
1.000000 -4.920000 -7.080000 87.585976 -97.877029 17251.216797
1.000000 -4.920000 -7.040000 171.550690 -26.253567 30118.888672
1.000000 -4.920000 -7.000000 175.971756 94.497940 39895.917969
1.000000 -4.920000 -6.960000 89.207314 182.202408 41155.664062
1.000000 -4.920000 -6.920000 -28.056435 179.172226 32889.851562
1.000000 -4.920000 -6.880000 -95.899872 101.145477 19427.191406
1.000000 -4.920000 -6.840000 -83.748459 18.219679 7345.760742
1.000000 -4.920000 -6.800000 -29.310532 -11.190912 984.343750
1.000000 -4.880000 -7.200000 -30.575665 21.368633 1391.489746
1.000000 -4.880000 -7.160000 -32.811466 -23.899202 1647.764160
1.000000 -4.880000 -7.120000 15.160315 -58.628281 3667.110596
1.000000 -4.880000 -7.080000 85.032280 -37.176384 8612.572266
1.000000 -4.880000 -7.040000 117.375946 41.088184 15465.351562
1.000000 -4.880000 -7.000000 76.258942 123.384018 21039.042969
1.000000 -4.880000 -6.960000 -14.110786 147.875885 22066.392578
1.000000 -4.880000 -6.920000 -88.750526 99.216644 17720.597656
1.000000 -4.880000 -6.880000 -99.558350 20.998768 10352.813477
1.000000 -4.880000 -6.840000 -55.284615 -26.321686 3749.219727
1.000000 -4.880000 -6.800000 -6.635729 -19.440632 421.971069
1.000000 -4.840000 -7.200000 -36.557102 9.422619 1425.207520
1.000000 -4.840000 -7.160000 -29.124985 -23.984804 1423.535522
1.000000 -4.840000 -7.120000 9.912659 -37.885502 1533.572021
1.000000 -4.840000 -7.080000 49.196877 -9.937920 2519.094971
1.000000 -4.840000 -7.040000 50.587765 43.631416 4462.822266
1.000000 -4.840000 -7.000000 6.945511 79.816513 6418.916016
1.000000 -4.840000 -6.960000 -48.814243 68.449333 7068.141602
1.000000 -4.840000 -6.920000 -73.570732 20.433022 5830.161133
1.000000 -4.840000 -6.880000 -53.304470 -23.492867 3393.281250
1.000000 -4.840000 -6.840000 -13.232632 -31.432053 1163.076416
1.000000 -4.840000 -6.800000 9.401865 -7.625298 146.540222
1.000000 -4.800000 -7.200000 -37.297997 -3.060266 1400.505737
1.000000 -4.800000 -7.160000 -29.029991 -28.621471 1661.928955
1.000000 -4.800000 -7.120000 -1.469653 -37.457253 1405.205688
1.000000 -4.800000 -7.080000 22.408070 -20.239449 911.756836
1.000000 -4.800000 -7.040000 22.488708 8.137435 571.959839
1.000000 -4.800000 -7.000000 0.966141 22.997890 529.836365
1.000000 -4.800000 -6.960000 -20.548767 13.753120 611.400146
1.000000 -4.800000 -6.920000 -22.780380 -6.994781 567.872681
1.000000 -4.800000 -6.880000 -6.891369 -17.467861 352.617126
1.000000 -4.800000 -6.840000 8.741634 -8.495743 148.593811
1.000000 -4.800000 -6.800000 8.176522 9.067255 149.070618
1.040000 -5.200000 -7.200000 -1.130697 18.159023 331.028595
1.040000 -5.200000 -7.160000 -18.970411 5.834511 393.917999
1.040000 -5.200000 -7.120000 -19.422100 -18.412483 716.237488
1.040000 -5.200000 -7.080000 1.577595 -33.742851 1141.068726
1.040000 -5.200000 -7.040000 27.066715 -24.648775 1340.169189
1.040000 -5.200000 -7.000000 33.678902 2.202934 1139.121338
1.040000 -5.200000 -6.960000 14.594841 22.576195 722.693970
1.040000 -5.200000 -6.920000 -12.802872 17.693394 476.969727
1.040000 -5.200000 -6.880000 -23.489784 -7.318150 605.325256
1.040000 -5.200000 -6.840000 -9.217930 -28.766151 912.461670
1.040000 -5.200000 -6.800000 14.186892 -28.241507 998.850586
1.040000 -5.160000 -7.200000 -1.440660 8.394564 72.544197
1.040000 -5.160000 -7.160000 -9.386009 2.345919 93.600502
1.040000 -5.160000 -7.120000 -10.518564 -8.178993 177.536118
1.040000 -5.160000 -7.080000 -4.429928 -15.136326 248.732605
1.040000 -5.160000 -7.040000 1.625050 -14.716736 219.223114
1.040000 -5.160000 -7.000000 1.182701 -12.221828 150.771881
1.040000 -5.160000 -6.960000 -3.086021 -16.074921 267.926605
1.040000 -5.160000 -6.920000 -1.451836 -27.137083 738.529114
1.040000 -5.160000 -6.880000 11.661552 -35.862740 1422.127930
1.040000 -5.160000 -6.840000 29.685804 -31.712021 1886.899292
1.040000 -5.160000 -6.800000 39.048515 -15.232776 1756.823975
1.040000 -5.120000 -7.200000 6.558320 7.317871 96.562790
1.040000 -5.120000 -7.160000 -6.454073 13.306791 218.725754
1.040000 -5.120000 -7.120000 -24.746433 5.176437 639.181519
1.040000 -5.120000 -7.080000 -34.774250 -18.197670 1540.403564
1.040000 -5.120000 -7.040000 -26.324503 -46.717949 2875.546143
1.040000 -5.120000 -7.000000 0.018417 -65.619598 4305.932129
1.040000 -5.120000 -6.960000 33.229294 -65.079567 5339.536133
1.040000 -5.120000 -6.920000 58.981415 -45.872005 5583.048340
1.040000 -5.120000 -6.880000 67.988083 -17.942497 4944.312500
1.040000 -5.120000 -6.840000 60.326874 6.045990 3675.885742
1.040000 -5.120000 -6.800000 44.044907 17.717010 2253.846191
1.040000 -5.080000 -7.200000 10.449978 17.432884 413.107483
1.040000 -5.080000 -7.160000 -20.664539 23.647701 986.236938
1.040000 -5.080000 -7.120000 -53.194038 -4.672195 2851.435059
1.040000 -5.080000 -7.080000 -54.585373 -59.292061 6495.111328
1.040000 -5.080000 -7.040000 -10.579296 -105.972466 11342.084961
1.040000 -5.080000 -7.000000 59.284374 -110.224274 15664.027344
1.040000 -5.080000 -6.960000 114.653145 -65.624054 17451.859375
1.040000 -5.080000 -6.920000 125.389389 0.658417 15722.932617
1.040000 -5.080000 -6.880000 93.618248 49.944626 11258.841797
1.040000 -5.080000 -6.840000 48.324352 61.656570 6136.775391
1.040000 -5.080000 -6.800000 19.534006 44.940186 2401.197754
1.040000 -5.040000 -7.200000 2.195389 29.391253 868.665405
1.040000 -5.040000 -7.160000 -42.972168 16.802988 2128.947510
1.040000 -5.040000 -7.120000 -66.086197 -42.077007 6137.859863
1.040000 -5.040000 -7.080000 -29.448853 -112.893745 13612.233398
1.040000 -5.040000 -7.040000 60.223999 -139.130829 22984.316406
1.040000 -5.040000 -7.000000 149.662399 -90.280327 30549.371094
1.040000 -5.040000 -6.960000 180.105225 8.705830 32513.683594
1.040000 -5.040000 -6.920000 135.639740 95.897751 27594.517578
1.040000 -5.040000 -6.880000 54.486160 122.950867 18085.658203
1.040000 -5.040000 -6.840000 -6.198887 91.501801 8411.004883
1.040000 -5.040000 -6.800000 -17.834770 43.953110 2249.954834
1.040000 -5.000000 -7.200000 -14.274123 32.011673 1228.497803
1.040000 -5.000000 -7.160000 -54.080376 -7.006033 2973.771484
1.040000 -5.000000 -7.120000 -43.925751 -81.477783 8568.100586
1.040000 -5.000000 -7.080000 35.622238 -132.655060 18866.308594
1.040000 -5.000000 -7.040000 142.878128 -105.007401 31440.714844
1.040000 -5.000000 -7.000000 202.580673 0.080213 41038.937500
1.040000 -5.000000 -6.960000 169.186111 118.464142 42657.691406
1.040000 -5.000000 -6.920000 67.136627 174.818863 35068.960938
1.040000 -5.000000 -6.880000 -30.725708 144.809082 21913.738281
1.040000 -5.000000 -6.840000 -66.123260 70.329948 9318.587891
1.040000 -5.000000 -6.800000 -40.191345 16.150841 1876.193848
1.040000 -4.960000 -7.200000 -28.097763 23.164198 1326.064453
1.040000 -4.960000 -7.160000 -44.820473 -30.767071 2955.487305
1.040000 -4.960000 -7.120000 0.639879 -91.941307 8453.613281
1.040000 -4.960000 -7.080000 96.357971 -97.337845 18759.515625
1.040000 -4.960000 -7.040000 176.069702 -18.300240 31335.437500
1.040000 -4.960000 -7.000000 172.796677 104.249924 40726.738281
1.040000 -4.960000 -6.960000 80.224709 188.260757 41878.117188
1.040000 -4.960000 -6.920000 -38.341454 179.801392 33798.609375
1.040000 -4.960000 -6.880000 -104.212524 98.111954 20486.205078
1.040000 -4.960000 -6.840000 -89.542503 14.061981 8215.599609
1.040000 -4.960000 -6.800000 -33.506683 -15.282610 1356.256104
1.040000 -4.920000 -7.200000 -32.801353 10.333798 1182.716187
1.040000 -4.920000 -7.160000 -25.319168 -38.626244 2133.046875
1.040000 -4.920000 -7.120000 34.412891 -68.321320 5852.049805
1.040000 -4.920000 -7.080000 110.466019 -33.252796 13308.489258
1.040000 -4.920000 -7.040000 137.875977 60.841984 22711.531250
1.040000 -4.920000 -7.000000 81.831253 152.137711 29842.236328
1.040000 -4.920000 -6.960000 -25.578861 173.388489 30717.845703
1.040000 -4.920000 -6.920000 -109.968536 111.695251 24568.908203
1.040000 -4.920000 -6.880000 -119.136185 19.248278 14563.926758
1.040000 -4.920000 -6.840000 -65.718994 -35.354343 5568.916016
1.040000 -4.920000 -6.800000 -8.488779 -27.114677 807.265137
1.040000 -4.880000 -7.200000 -31.549641 1.310841 997.098145
1.040000 -4.880000 -7.160000 -13.362345 -31.963966 1200.247437
1.040000 -4.880000 -7.120000 36.556229 -35.762775 2615.333984
1.040000 -4.880000 -7.080000 77.470726 10.976410 6122.194824
1.040000 -4.880000 -7.040000 65.381989 82.219742 11034.890625
1.040000 -4.880000 -7.000000 -2.303780 122.690918 15058.369141
1.040000 -4.880000 -6.960000 -79.099640 97.709084 15803.818359
1.040000 -4.880000 -6.920000 -109.402657 26.356720 12663.618164
1.040000 -4.880000 -6.880000 -78.027382 -35.745659 7366.024414
1.040000 -4.880000 -6.840000 -20.967951 -47.285740 2675.596191
1.040000 -4.880000 -6.800000 11.704912 -15.636686 381.510925
1.040000 -4.840000 -7.200000 -31.377918 -4.046944 1000.951477
1.040000 -4.840000 -7.160000 -15.208021 -26.318399 923.942017
1.040000 -4.840000 -7.120000 17.863140 -23.199574 857.312012
1.040000 -4.840000 -7.080000 36.096001 10.879198 1421.278198
1.040000 -4.840000 -7.040000 16.972343 49.492493 2737.567383
1.040000 -4.840000 -7.000000 -28.156578 57.783375 4131.711426
1.040000 -4.840000 -6.960000 -62.644409 26.536484 4628.506836
1.040000 -4.840000 -6.920000 -58.921307 -18.152969 3801.250732
1.040000 -4.840000 -6.880000 -24.111919 -39.798241 2165.284668
1.040000 -4.840000 -6.840000 8.593277 -25.709982 734.847595
1.040000 -4.840000 -6.800000 12.952583 3.719030 181.600601
1.040000 -4.800000 -7.200000 -33.690258 -12.084757 1281.074829
1.040000 -4.800000 -7.160000 -19.835987 -33.311523 1503.124023
1.040000 -4.800000 -7.120000 6.789635 -34.618809 1244.561035
1.040000 -4.800000 -7.080000 23.548229 -14.292997 758.808899
1.040000 -4.800000 -7.040000 17.436302 9.355110 391.542725
1.040000 -4.800000 -7.000000 -2.741302 16.414619 276.954468
1.040000 -4.800000 -6.960000 -16.357281 4.612000 288.831177
1.040000 -4.800000 -6.920000 -12.062836 -10.132881 248.187286
1.040000 -4.800000 -6.880000 2.029930 -11.373409 133.475052
1.040000 -4.800000 -6.840000 8.639046 1.285700 76.286133
1.040000 -4.800000 -6.800000 -0.065174 13.430072 180.371078
1.080000 -5.200000 -7.200000 -11.524738 1.829050 136.165024
1.080000 -5.200000 -7.160000 -8.715992 -13.175615 249.565338
1.080000 -5.200000 -7.120000 5.737139 -22.215961 526.463684
1.080000 -5.200000 -7.080000 23.393036 -16.952126 834.608704
1.080000 -5.200000 -7.040000 31.147442 0.661221 970.600342
1.080000 -5.200000 -7.000000 22.380674 17.965612 823.657837
1.080000 -5.200000 -6.960000 3.873932 21.667076 484.469543
1.080000 -5.200000 -6.920000 -9.302410 9.790567 182.390045
1.080000 -5.200000 -6.880000 -7.248484 -6.259182 91.717880
1.080000 -5.200000 -6.840000 5.826529 -12.348789 186.441040
1.080000 -5.200000 -6.800000 16.138798 -4.913052 284.598877
1.080000 -5.160000 -7.200000 1.904790 -3.991571 19.560867
1.080000 -5.160000 -7.160000 4.812567 -3.570307 35.907890
1.080000 -5.160000 -7.120000 5.896229 -2.959633 43.524940
1.080000 -5.160000 -7.080000 6.181188 -3.104805 47.846893
1.080000 -5.160000 -7.040000 6.346529 -4.171478 57.679665
1.080000 -5.160000 -7.000000 7.169365 -6.475435 93.331055
1.080000 -5.160000 -6.960000 10.294342 -9.601044 198.153519
1.080000 -5.160000 -6.920000 16.884912 -11.009506 406.309509
1.080000 -5.160000 -6.880000 24.973589 -7.189602 675.370483
1.080000 -5.160000 -6.840000 29.324024 2.435827 865.831604
1.080000 -5.160000 -6.800000 25.662184 13.041437 828.626770
1.080000 -5.120000 -7.200000 12.918495 7.562602 224.080460
1.080000 -5.120000 -7.160000 -0.432749 15.191976 230.983398
1.080000 -5.120000 -7.120000 -16.733335 5.261547 307.688385
1.080000 -5.120000 -7.080000 -19.082378 -18.307713 699.309509
1.080000 -5.120000 -7.040000 -0.591930 -38.998428 1521.227783
1.080000 -5.120000 -7.000000 29.643066 -41.167648 2573.486572
1.080000 -5.120000 -6.960000 54.047756 -22.224907 3415.106445
1.080000 -5.120000 -6.920000 60.062218 6.569645 3650.630127
1.080000 -5.120000 -6.880000 48.012684 29.793762 3192.885986
1.080000 -5.120000 -6.840000 28.231569 38.675064 2292.782227
1.080000 -5.120000 -6.800000 12.082903 34.656513 1347.070435
1.080000 -5.080000 -7.200000 6.892900 25.591515 702.437683
1.080000 -5.080000 -7.160000 -24.000469 20.662922 1002.978882
1.080000 -5.080000 -7.120000 -40.458588 -15.067589 1863.929565
1.080000 -5.080000 -7.080000 -19.129978 -58.035133 3734.032715
1.080000 -5.080000 -7.040000 34.037682 -73.156548 6510.444336
1.080000 -5.080000 -7.000000 85.914459 -43.533134 9276.427734
1.080000 -5.080000 -6.960000 102.512848 14.555374 10720.743164
1.080000 -5.080000 -6.920000 76.014198 65.048683 10009.489258
1.080000 -5.080000 -6.880000 28.740108 81.205017 7420.248535
1.080000 -5.080000 -6.840000 -7.695932 64.224701 4184.039551
1.080000 -5.080000 -6.800000 -17.509892 36.791473 1660.208862
1.080000 -5.040000 -7.200000 -13.805113 31.867769 1206.135864
1.080000 -5.040000 -7.160000 -45.149567 1.988842 2042.438843
1.080000 -5.040000 -7.120000 -37.480915 -52.667480 4178.682617
1.080000 -5.040000 -7.080000 19.837811 -87.994629 8136.593262
1.080000 -5.040000 -7.040000 94.246582 -66.500008 13304.668945
1.080000 -5.040000 -7.000000 133.142639 7.557360 17784.076172
1.080000 -5.040000 -6.960000 107.529800 88.263306 19353.070312
1.080000 -5.040000 -6.920000 36.384605 125.101822 16974.304688
1.080000 -5.040000 -6.880000 -30.666761 103.431473 11638.519531
1.080000 -5.040000 -6.840000 -55.450237 52.061981 5785.178711
1.080000 -5.040000 -6.800000 -39.058628 13.630260 1711.360352
1.080000 -5.000000 -7.200000 -32.336864 19.563343 1428.397217
1.080000 -5.000000 -7.160000 -43.741695 -27.765253 2684.245117
1.080000 -5.000000 -7.120000 -3.417654 -76.135742 5808.331543
1.080000 -5.000000 -7.080000 73.805115 -76.418518 11286.984375
1.080000 -5.000000 -7.040000 133.827576 -10.637753 18022.982422
1.080000 -5.000000 -7.000000 126.768677 85.490417 23378.910156
1.080000 -5.000000 -6.960000 51.615784 148.166931 24617.628906
1.080000 -5.000000 -6.920000 -40.845238 138.316467 20799.779297
1.080000 -5.000000 -6.880000 -90.916061 73.003342 13595.218750
1.080000 -5.000000 -6.840000 -78.812721 6.832901 6258.133301
1.080000 -5.000000 -6.800000 -34.850945 -17.314377 1514.375977
1.080000 -4.960000 -7.200000 -35.027222 -0.360317 1227.036133
1.080000 -4.960000 -7.160000 -21.202000 -44.553154 2434.508301
1.080000 -4.960000 -7.120000 36.174419 -65.053749 5540.579102
1.080000 -4.960000 -7.080000 101.241196 -27.083700 10983.305664
1.080000 -4.960000 -7.040000 118.883514 58.430798 17547.449219
1.080000 -4.960000 -7.000000 63.925209 135.821869 22534.011719
1.080000 -4.960000 -6.960000 -31.934193 149.326996 23318.343750
1.080000 -4.960000 -6.920000 -104.139893 91.519302 19220.898438
1.080000 -4.960000 -6.880000 -109.757629 9.239435 12132.104492
1.080000 -4.960000 -6.840000 -61.451935 -38.852005 5285.818359
1.080000 -4.960000 -6.800000 -10.092493 -32.140556 1134.873779
1.080000 -4.920000 -7.200000 -24.936775 -11.695857 758.635864
1.080000 -4.920000 -7.160000 1.165511 -38.095081 1452.593628
1.080000 -4.920000 -7.120000 50.498165 -30.991480 3510.536621
1.080000 -4.920000 -7.080000 82.873016 22.289890 7364.776367
1.080000 -4.920000 -7.040000 60.975792 91.773987 12140.511719
1.080000 -4.920000 -7.000000 -11.488659 125.080727 15777.177734
1.080000 -4.920000 -6.960000 -87.001297 93.353287 16284.061523
1.080000 -4.920000 -6.920000 -113.386177 19.021444 13218.240234
1.080000 -4.920000 -6.880000 -78.996346 -43.123871 8100.090820
1.080000 -4.920000 -6.840000 -20.514898 -54.241432 3362.994141
1.080000 -4.920000 -6.800000 13.362627 -22.716705 694.608521
1.080000 -4.880000 -7.200000 -16.878790 -10.449961 394.095215
1.080000 -4.880000 -7.160000 4.871090 -21.909414 503.749939
1.080000 -4.880000 -7.120000 34.096531 -5.814529 1196.382080
1.080000 -4.880000 -7.080000 40.130302 35.897102 2899.042969
1.080000 -4.880000 -7.040000 6.479053 72.480286 5295.369629
1.080000 -4.880000 -7.000000 -48.426910 70.277191 7284.049805
1.080000 -4.880000 -6.960000 -83.936234 25.604473 7700.880371
1.080000 -4.880000 -6.920000 -73.411453 -29.068851 6234.239746
1.080000 -4.880000 -6.880000 -28.787556 -53.679352 3710.196289
1.080000 -4.880000 -6.840000 11.375179 -36.480949 1460.254272
1.080000 -4.880000 -6.800000 18.320822 -2.003660 339.667145
1.080000 -4.840000 -7.200000 -19.830070 -8.070034 458.357147
1.080000 -4.840000 -7.160000 -6.415658 -17.887199 361.112579
1.080000 -4.840000 -7.120000 11.224665 -9.246334 211.487793
1.080000 -4.840000 -7.080000 13.031410 13.433369 350.273071
1.080000 -4.840000 -7.040000 -7.318382 28.942062 891.201660
1.080000 -4.840000 -7.000000 -33.672478 20.165977 1540.502441
1.080000 -4.840000 -6.960000 -42.076759 -7.547890 1827.424316
1.080000 -4.840000 -6.920000 -24.542608 -30.464012 1530.395630
1.080000 -4.840000 -6.880000 2.828846 -29.487591 877.520386
1.080000 -4.840000 -6.840000 15.977919 -8.490324 327.379486
1.080000 -4.840000 -6.800000 6.461865 10.833499 159.120407
1.080000 -4.800000 -7.200000 -26.401577 -17.152706 991.258606
1.080000 -4.800000 -7.160000 -11.637777 -32.125450 1167.482422
1.080000 -4.800000 -7.120000 9.691278 -29.779970 980.767517
1.080000 -4.800000 -7.080000 20.770140 -12.686033 592.334167
1.080000 -4.800000 -7.040000 15.200859 4.177666 248.519012
1.080000 -4.800000 -7.000000 1.876468 8.528328 76.253510
1.080000 -4.800000 -6.960000 -5.507980 1.918228 34.017445
1.080000 -4.800000 -6.920000 -2.541298 -4.108040 23.334187
1.080000 -4.800000 -6.880000 3.034142 -1.544451 11.591343
1.080000 -4.800000 -6.840000 1.576030 5.962248 38.032272
1.080000 -4.800000 -6.800000 -7.291484 8.536200 126.032440
1.120000 -5.200000 -7.200000 -3.209000 -12.444348 165.159485
1.120000 -5.200000 -7.160000 11.708755 -12.976346 305.480499
1.120000 -5.200000 -7.120000 22.151253 -3.258817 501.297882
1.120000 -5.200000 -7.080000 23.044939 10.109031 633.261719
1.120000 -5.200000 -7.040000 15.558902 19.780342 633.341370
1.120000 -5.200000 -7.000000 5.072376 21.997822 509.633179
1.120000 -5.200000 -6.960000 -2.787682 17.840071 326.039307
1.120000 -5.200000 -6.920000 -5.296625 11.512463 160.591034
1.120000 -5.200000 -6.880000 -3.589239 7.271841 65.762314
1.120000 -5.200000 -6.840000 -1.230790 6.758158 47.187538
1.120000 -5.200000 -6.800000 -1.380121 8.184769 68.895172
1.120000 -5.160000 -7.200000 13.521093 -4.605271 204.028488
1.120000 -5.160000 -7.160000 15.362670 7.627993 294.197906
1.120000 -5.160000 -7.120000 7.871160 14.497297 272.126801
1.120000 -5.160000 -7.080000 -0.006767 11.976284 143.431427
1.120000 -5.160000 -7.040000 -0.956911 4.913352 25.056702
1.120000 -5.160000 -7.000000 4.810678 1.098979 24.350382
1.120000 -5.160000 -6.960000 11.391987 4.097790 146.569244
1.120000 -5.160000 -6.920000 13.327467 11.358250 306.631226
1.120000 -5.160000 -6.880000 9.635201 17.845942 411.314728
1.120000 -5.160000 -6.840000 2.986618 20.314594 421.602631
1.120000 -5.160000 -6.800000 -3.308313 18.444262 351.135742
1.120000 -5.120000 -7.200000 14.508251 16.096035 469.571686
1.120000 -5.120000 -7.160000 -3.069559 23.330229 553.721741
1.120000 -5.120000 -7.120000 -18.328836 10.880329 454.327820
1.120000 -5.120000 -7.080000 -15.257214 -10.387508 340.682892
1.120000 -5.120000 -7.040000 5.863991 -21.086678 479.034363
1.120000 -5.120000 -7.000000 29.010513 -10.658430 955.211975
1.120000 -5.120000 -6.960000 36.840805 14.081921 1555.545410
1.120000 -5.120000 -6.920000 24.927557 36.092583 1924.057617
1.120000 -5.120000 -6.880000 3.330494 42.811554 1843.921265
1.120000 -5.120000 -6.840000 -13.816565 34.563927 1385.562500
1.120000 -5.120000 -6.800000 -19.449144 20.896900 814.949707
1.120000 -5.080000 -7.200000 -4.626301 29.217312 875.053955
1.120000 -5.080000 -7.160000 -29.500172 15.735886 1117.878174
1.120000 -5.080000 -7.120000 -31.594707 -16.461039 1269.191284
1.120000 -5.080000 -7.080000 -3.025677 -39.915051 1602.365967
1.120000 -5.080000 -7.040000 37.351479 -31.515347 2388.350098
1.120000 -5.080000 -7.000000 59.062683 6.801296 3534.658203
1.120000 -5.080000 -6.960000 45.659607 49.354786 4520.694336
1.120000 -5.080000 -6.920000 7.556746 68.449898 4742.493164
1.120000 -5.080000 -6.880000 -28.595268 56.249641 3981.711670
1.120000 -5.080000 -6.840000 -42.612446 27.793270 2588.286377
1.120000 -5.080000 -6.800000 -34.553532 5.044645 1219.395020
1.120000 -5.040000 -7.200000 -27.763512 20.473621 1189.981689
1.120000 -5.040000 -7.160000 -39.584606 -12.150721 1714.581055
1.120000 -5.040000 -7.120000 -15.881282 -45.985806 2366.909424
1.120000 -5.040000 -7.080000 32.252911 -48.641556 3406.251221
1.120000 -5.040000 -7.040000 69.651962 -9.562956 4942.846191
1.120000 -5.040000 -7.000000 65.608994 48.108681 6618.985352
1.120000 -5.040000 -6.960000 20.281303 85.197639 7669.968750
1.120000 -5.040000 -6.920000 -35.316742 78.516998 7412.191406
1.120000 -5.040000 -6.880000 -65.617920 38.419407 5781.762207
1.120000 -5.040000 -6.840000 -58.670292 -2.972664 3451.039795
1.120000 -5.040000 -6.800000 -31.480036 -20.162441 1397.516724
1.120000 -5.000000 -7.200000 -34.352612 -3.044114 1189.368530
1.120000 -5.000000 -7.160000 -23.233841 -37.061661 1913.377930
1.120000 -5.000000 -7.120000 18.268488 -51.499371 2985.922607
1.120000 -5.000000 -7.080000 62.902950 -24.711668 4567.447754
1.120000 -5.000000 -7.040000 73.799957 33.120888 6543.426758
1.120000 -5.000000 -7.000000 36.158844 83.880341 8343.374023
1.120000 -5.000000 -6.960000 -27.672371 91.514839 9140.725586
1.120000 -5.000000 -6.920000 -75.240128 52.107903 8376.310547
1.120000 -5.000000 -6.880000 -78.732590 -3.583098 6211.659180
1.120000 -5.000000 -6.840000 -45.965118 -37.326241 3506.040283
1.120000 -5.000000 -6.800000 -9.476095 -34.740639 1296.708374
1.120000 -4.960000 -7.200000 -20.699848 -20.175037 835.515869
1.120000 -4.960000 -7.160000 4.320564 -38.366909 1490.686890
1.120000 -4.960000 -7.120000 42.211319 -28.302769 2582.842041
1.120000 -4.960000 -7.080000 63.125214 14.138432 4184.687500
1.120000 -4.960000 -7.040000 43.351231 64.540237 6044.771484
1.120000 -4.960000 -7.000000 -11.206026 86.152084 7547.756836
1.120000 -4.960000 -6.960000 -65.715248 60.616554 7992.860352
1.120000 -4.960000 -6.920000 -83.781715 5.144306 7045.839844
1.120000 -4.960000 -6.880000 -57.630325 -41.216320 5020.039551
1.120000 -4.960000 -6.840000 -13.163536 -50.516144 2725.159668
1.120000 -4.960000 -6.800000 14.612678 -27.650909 978.103149
1.120000 -4.920000 -7.200000 -3.311217 -18.122639 339.394196
1.120000 -4.920000 -7.160000 17.791142 -19.203434 685.296631
1.120000 -4.920000 -7.120000 37.113106 1.194735 1378.809937
1.120000 -4.920000 -7.080000 34.250816 36.068108 2474.026855
1.120000 -4.920000 -7.040000 1.925423 61.238396 3753.848389
1.120000 -4.920000 -7.000000 -42.727890 54.015953 4743.395508
1.120000 -4.920000 -6.960000 -68.889465 14.769880 4963.907715
1.120000 -4.920000 -6.920000 -57.799362 -30.318897 4260.001953
1.120000 -4.920000 -6.880000 -19.738819 -50.428265 2932.630859
1.120000 -4.920000 -6.840000 14.957067 -36.418606 1550.028687
1.120000 -4.920000 -6.800000 23.027313 -7.181947 581.837524
1.120000 -4.880000 -7.200000 -0.391834 -5.716425 32.831047
1.120000 -4.880000 -7.160000 8.131611 -3.006750 75.163635
1.120000 -4.880000 -7.120000 12.922575 9.620785 259.552460
1.120000 -4.880000 -7.080000 4.050606 25.538624 668.628723
1.120000 -4.880000 -7.040000 -18.079323 30.130646 1234.717773
1.120000 -4.880000 -7.000000 -38.932953 14.376675 1722.463501
1.120000 -4.880000 -6.960000 -40.989742 -13.899307 1873.349609
1.120000 -4.880000 -6.920000 -20.555946 -34.378807 1604.449219
1.120000 -4.880000 -6.880000 7.098394 -32.043549 1077.176270
1.120000 -4.880000 -6.840000 20.981344 -11.282285 567.506714
1.120000 -4.880000 -6.800000 13.668064 8.447197 258.171112
1.120000 -4.840000 -7.200000 -11.579761 -2.864768 142.297745
1.120000 -4.840000 -7.160000 -8.066681 -8.315011 134.210754
1.120000 -4.840000 -7.120000 -1.862370 -7.580666 60.934914
1.120000 -4.840000 -7.080000 -0.288742 -1.856684 3.530646
1.120000 -4.840000 -7.040000 -5.360030 1.404591 30.702799
1.120000 -4.840000 -7.000000 -10.787192 -2.983288 125.263527
1.120000 -4.840000 -6.960000 -8.718884 -11.297771 203.658539
1.120000 -4.840000 -6.920000 0.984056 -14.260029 204.316788
1.120000 -4.840000 -6.880000 9.658699 -7.253624 145.905518
1.120000 -4.840000 -6.840000 8.855265 4.020039 94.576424
1.120000 -4.840000 -6.800000 -0.350819 9.249746 85.680885
1.120000 -4.800000 -7.200000 -18.260639 -17.530207 640.759094
1.120000 -4.800000 -7.160000 -6.602078 -28.481733 854.796570
1.120000 -4.800000 -7.120000 10.222584 -27.623878 867.579895
1.120000 -4.800000 -7.080000 21.390560 -15.462687 696.650757
1.120000 -4.800000 -7.040000 21.211601 -0.552036 450.236786
1.120000 -4.800000 -7.000000 12.909199 8.441887 237.912872
1.120000 -4.800000 -6.960000 4.047577 9.551517 107.614365
1.120000 -4.800000 -6.920000 -0.843771 6.894548 48.246746
1.120000 -4.800000 -6.880000 -2.747177 4.707026 29.703072
1.120000 -4.800000 -6.840000 -4.399877 3.327620 30.431965
1.120000 -4.800000 -6.800000 -5.984076 0.976831 36.763359
1.160000 -5.200000 -7.200000 11.464405 -11.424713 261.956665
1.160000 -5.200000 -7.160000 21.153753 4.213993 465.239044
1.160000 -5.200000 -7.120000 15.540777 19.974546 640.498291
1.160000 -5.200000 -7.080000 2.287370 25.050753 632.772278
1.160000 -5.200000 -7.040000 -7.172102 20.187510 458.974609
1.160000 -5.200000 -7.000000 -8.657548 14.065321 272.786377
1.160000 -5.200000 -6.960000 -7.113700 13.001875 219.653473
1.160000 -5.200000 -6.920000 -9.111047 15.202583 314.129730
1.160000 -5.200000 -6.880000 -15.254570 14.564462 444.825439
1.160000 -5.200000 -6.840000 -20.389317 8.377934 485.914032
1.160000 -5.200000 -6.800000 -20.050215 0.030287 402.012024
1.160000 -5.160000 -7.200000 18.770004 6.242676 391.284058
1.160000 -5.160000 -7.160000 9.811045 23.189234 633.997131
1.160000 -5.160000 -7.120000 -7.380720 25.398022 699.534546
1.160000 -5.160000 -7.080000 -17.208599 14.192720 497.569214
1.160000 -5.160000 -7.040000 -13.319188 2.582465 184.069901
1.160000 -5.160000 -7.000000 -3.135754 1.619571 12.455960
1.160000 -5.160000 -6.960000 1.146554 10.374084 108.936211
1.160000 -5.160000 -6.920000 -5.249920 18.683855 376.648071
1.160000 -5.160000 -6.880000 -16.457504 18.142279 599.991699
1.160000 -5.160000 -6.840000 -23.309446 9.429167 632.239441
1.160000 -5.160000 -6.800000 -22.167402 -0.360354 491.523590
1.160000 -5.120000 -7.200000 6.382088 23.607912 598.064575
1.160000 -5.120000 -7.160000 -14.991043 25.787821 889.743103
1.160000 -5.120000 -7.120000 -28.044487 9.720476 880.980896
1.160000 -5.120000 -7.080000 -21.718491 -9.070128 553.960083
1.160000 -5.120000 -7.040000 -3.014214 -13.335104 186.910477
1.160000 -5.120000 -7.000000 10.342896 0.221099 107.024368
1.160000 -5.120000 -6.960000 6.460695 19.062183 405.107391
1.160000 -5.120000 -6.920000 -10.979172 27.308830 866.314453
1.160000 -5.120000 -6.880000 -27.945457 19.597733 1165.019775
1.160000 -5.120000 -6.840000 -33.348186 3.539201 1124.627563
1.160000 -5.120000 -6.800000 -27.092953 -9.253805 819.661011
1.160000 -5.080000 -7.200000 -16.599590 22.690903 790.423462
1.160000 -5.080000 -7.160000 -33.278160 6.154963 1145.319458
1.160000 -5.080000 -7.120000 -28.907331 -17.680685 1148.240479
1.160000 -5.080000 -7.080000 -6.106745 -27.966873 819.438354
1.160000 -5.080000 -7.040000 16.194872 -14.930603 485.196777
1.160000 -5.080000 -7.000000 19.131233 11.483062 497.864807
1.160000 -5.080000 -6.960000 -0.045292 30.465769 928.165161
1.160000 -5.080000 -6.920000 -26.604551 28.127687 1498.968994
1.160000 -5.080000 -6.880000 -41.828423 7.947661 1812.782227
1.160000 -5.080000 -6.840000 -38.107765 -14.409611 1659.838623
1.160000 -5.080000 -6.800000 -22.595409 -25.287930 1150.031860
1.160000 -5.040000 -7.200000 -29.011208 2.465288 847.727783
1.160000 -5.040000 -7.160000 -28.335356 -20.807972 1235.864136
1.160000 -5.040000 -7.120000 -7.721124 -35.419765 1314.175537
1.160000 -5.040000 -7.080000 18.335709 -27.531528 1094.183228
1.160000 -5.040000 -7.040000 29.122982 -0.656900 848.579590
1.160000 -5.040000 -7.000000 14.697041 25.949465 889.377686
1.160000 -5.040000 -6.960000 -15.508488 32.491272 1296.195923
1.160000 -5.040000 -6.920000 -40.233437 14.484622 1828.533691
1.160000 -5.040000 -6.880000 -43.554520 -14.398190 2104.304199
1.160000 -5.040000 -6.840000 -26.609901 -34.427544 1893.342529
1.160000 -5.040000 -6.800000 -4.457282 -35.580837 1285.863281
1.160000 -5.000000 -7.200000 -19.202114 -18.641994 716.245117
1.160000 -5.000000 -7.160000 -4.309863 -32.072124 1047.196167
1.160000 -5.000000 -7.120000 18.016611 -29.228159 1178.883545
1.160000 -5.000000 -7.080000 31.993946 -8.585142 1097.317261
1.160000 -5.000000 -7.040000 25.375854 17.681530 956.570557
1.160000 -5.000000 -7.000000 -0.039532 31.138548 969.610779
1.160000 -5.000000 -6.960000 -28.022097 21.059418 1228.737061
1.160000 -5.000000 -6.920000 -39.540257 -6.423267 1604.690186
1.160000 -5.000000 -6.880000 -27.622818 -32.552032 1822.654785
1.160000 -5.000000 -6.840000 -2.581463 -40.758949 1667.955933
1.160000 -5.000000 -6.800000 17.124657 -29.432674 1159.536255
1.160000 -4.960000 -7.200000 2.268846 -21.330360 460.131958
1.160000 -4.960000 -7.160000 16.427515 -19.251236 640.473328
1.160000 -4.960000 -7.120000 26.332586 -6.519819 735.913147
1.160000 -4.960000 -7.080000 24.464598 11.547751 731.867065
1.160000 -4.960000 -7.040000 8.907035 24.434998 676.404358
1.160000 -4.960000 -7.000000 -13.017662 22.251694 664.597412
1.160000 -4.960000 -6.960000 -27.500435 3.842561 771.039185
1.160000 -4.960000 -6.920000 -23.919205 -20.035191 973.537231
1.160000 -4.960000 -6.880000 -4.125619 -33.503456 1139.502319
1.160000 -4.960000 -6.840000 17.839481 -28.170033 1111.797852
1.160000 -4.960000 -6.800000 27.047085 -10.343996 838.543030
1.160000 -4.920000 -7.200000 13.517002 -5.786201 216.189468
1.160000 -4.920000 -7.160000 15.418741 2.297506 243.016113
1.160000 -4.920000 -7.120000 12.242418 9.773684 245.401688
1.160000 -4.920000 -7.080000 5.083253 14.490379 235.810562
1.160000 -4.920000 -7.040000 -4.670774 14.124841 221.327255
1.160000 -4.920000 -7.000000 -13.203186 6.519924 216.833542
1.160000 -4.920000 -6.960000 -14.392545 -6.623078 251.010498
1.160000 -4.920000 -6.920000 -4.883739 -17.839205 342.088135
1.160000 -4.920000 -6.880000 10.705181 -18.587168 460.083740
1.160000 -4.920000 -6.840000 21.672916 -7.477323 525.625671
1.160000 -4.920000 -6.800000 20.413897 6.994011 465.643372
1.160000 -4.880000 -7.200000 4.819351 8.596345 97.123291
1.160000 -4.880000 -7.160000 -2.660435 9.047460 88.934433
1.160000 -4.880000 -7.120000 -6.665452 3.849063 59.243534
1.160000 -4.880000 -7.080000 -5.232582 -1.220608 28.869799
1.160000 -4.880000 -7.040000 -1.959623 -2.808697 11.728901
1.160000 -4.880000 -7.000000 -0.130417 -2.678427 7.190979
1.160000 -4.880000 -6.960000 1.270952 -3.479544 13.722547
1.160000 -4.880000 -6.920000 4.818491 -4.136816 40.331100
1.160000 -4.880000 -6.880000 9.579858 -1.238348 93.307182
1.160000 -4.880000 -6.840000 11.065266 5.507091 152.768143
1.160000 -4.880000 -6.800000 6.780626 11.397829 175.887405
1.160000 -4.840000 -7.200000 -10.699431 4.583992 135.490814
1.160000 -4.840000 -7.160000 -14.645138 -5.743436 247.467117
1.160000 -4.840000 -7.120000 -7.801972 -16.342545 327.949524
1.160000 -4.840000 -7.080000 5.534656 -17.831491 348.594513
1.160000 -4.840000 -7.040000 15.302773 -8.966277 314.568970
1.160000 -4.840000 -7.000000 15.448126 2.891352 247.004501
1.160000 -4.840000 -6.960000 8.617994 9.637424 167.149750
1.160000 -4.840000 -6.920000 1.822265 9.544557 94.419212
1.160000 -4.840000 -6.880000 -0.905035 6.707059 45.803726
1.160000 -4.840000 -6.840000 -0.812069 5.203825 27.739250
1.160000 -4.840000 -6.800000 -0.768131 5.428085 30.054134
1.160000 -4.800000 -7.200000 -11.446777 -13.367228 309.711487
1.160000 -4.800000 -7.160000 -3.670322 -24.129379 595.698181
1.160000 -4.800000 -7.120000 12.606491 -26.520367 862.253418
1.160000 -4.800000 -7.080000 27.624460 -15.496619 1003.255981
1.160000 -4.800000 -7.040000 30.940327 3.646431 970.600281
1.160000 -4.800000 -7.000000 20.519791 19.218643 790.418030
1.160000 -4.800000 -6.960000 4.186621 22.804831 537.588074
1.160000 -4.800000 -6.920000 -7.470334 15.410003 293.274078
1.160000 -4.800000 -6.880000 -9.416351 5.049433 114.164444
1.160000 -4.800000 -6.840000 -4.473917 -0.650925 20.439636
1.160000 -4.800000 -6.800000 0.862246 0.344018 0.861816
1.200000 -5.200000 -7.200000 16.609774 0.805379 276.533203
1.200000 -5.200000 -7.160000 11.752307 20.046160 539.965210
1.200000 -5.200000 -7.120000 -5.845779 26.635509 743.623535
1.200000 -5.200000 -7.080000 -19.665504 17.529190 694.004517
1.200000 -5.200000 -7.040000 -19.901320 4.586119 417.095032
1.200000 -5.200000 -7.000000 -12.044794 0.734461 145.616486
1.200000 -5.200000 -6.960000 -8.997261 6.605170 124.578979
1.200000 -5.200000 -6.920000 -16.406971 11.419165 399.585999
1.200000 -5.200000 -6.880000 -27.145111 5.844202 771.011780
1.200000 -5.200000 -6.840000 -29.968025 -7.881036 960.193237
1.200000 -5.200000 -6.800000 -21.782249 -19.099625 839.262085
1.200000 -5.160000 -7.200000 11.599946 16.370930 402.566101
1.200000 -5.160000 -7.160000 -6.871499 26.902094 770.940125
1.200000 -5.160000 -7.120000 -25.424267 18.400604 984.975586
1.200000 -5.160000 -7.080000 -29.056683 0.433897 844.479126
1.200000 -5.160000 -7.040000 -18.330002 -10.290569 441.884766
1.200000 -5.160000 -7.000000 -7.024652 -6.507580 91.694336
1.200000 -5.160000 -6.960000 -7.270489 3.848642 67.672050
1.200000 -5.160000 -6.920000 -17.986637 7.318179 377.074860
1.200000 -5.160000 -6.880000 -27.675793 -1.238638 767.483765
1.200000 -5.160000 -6.840000 -27.011736 -14.847051 950.068726
1.200000 -5.160000 -6.800000 -17.313423 -23.029831 830.127686
1.200000 -5.120000 -7.200000 -5.647315 21.608124 498.803162
1.200000 -5.120000 -7.160000 -26.120293 16.627796 958.753296
1.200000 -5.120000 -7.120000 -34.584064 -2.276328 1201.239136
1.200000 -5.120000 -7.080000 -25.556087 -19.162016 1020.296448
1.200000 -5.120000 -7.040000 -9.064388 -21.289185 535.392517
1.200000 -5.120000 -7.000000 -0.447731 -10.231797 104.890137
1.200000 -5.120000 -6.960000 -6.105878 0.986110 38.254158
1.200000 -5.120000 -6.920000 -18.878281 0.855808 357.121887
1.200000 -5.120000 -6.880000 -26.236315 -10.678436 802.373230
1.200000 -5.120000 -6.840000 -21.987715 -24.021221 1060.478638
1.200000 -5.120000 -6.800000 -10.264228 -29.902866 999.535767
1.200000 -5.080000 -7.200000 -20.294823 9.532440 502.747253
1.200000 -5.080000 -7.160000 -30.727901 -5.511862 974.584534
1.200000 -5.080000 -7.120000 -26.316669 -23.545530 1246.958984
1.200000 -5.080000 -7.080000 -10.551189 -31.717369 1117.319092
1.200000 -5.080000 -7.040000 4.170871 -25.313492 658.169067
1.200000 -5.080000 -7.000000 6.984376 -11.523602 181.574905
1.200000 -5.080000 -6.960000 -2.509153 -2.993405 15.256323
1.200000 -5.080000 -6.920000 -14.592342 -7.051601 262.661530
1.200000 -5.080000 -6.880000 -18.202005 -20.157207 737.625977
1.200000 -5.080000 -6.840000 -9.992781 -31.867771 1115.410522
1.200000 -5.080000 -6.800000 3.985076 -33.948566 1168.385986
1.200000 -5.040000 -7.200000 -17.852917 -9.742707 413.646973
1.200000 -5.040000 -7.160000 -16.242353 -22.382523 764.791382
1.200000 -5.040000 -7.120000 -6.168137 -31.349171 1020.816406
1.200000 -5.040000 -7.080000 7.487073 -31.136793 1025.556152
1.200000 -5.040000 -7.040000 16.553530 -21.639286 742.278076
1.200000 -5.040000 -7.000000 15.222621 -9.608084 324.043457
1.200000 -5.040000 -6.960000 5.316259 -4.379587 47.443398
1.200000 -5.040000 -6.920000 -4.178463 -10.338900 124.352402
1.200000 -5.040000 -6.880000 -4.097553 -22.611622 528.075378
1.200000 -5.040000 -6.840000 6.921506 -30.675154 988.872253
1.200000 -5.040000 -6.800000 20.961725 -27.319544 1185.751465
1.200000 -5.000000 -7.200000 0.018506 -17.713470 313.767365
1.200000 -5.000000 -7.160000 4.627659 -20.205338 429.670898
1.200000 -5.000000 -7.120000 10.349463 -21.767221 580.923279
1.200000 -5.000000 -7.080000 17.851316 -20.122171 723.571289
1.200000 -5.000000 -7.040000 23.522703 -13.012323 722.638123
1.200000 -5.000000 -7.000000 22.170933 -3.532710 504.030304
1.200000 -5.000000 -6.960000 13.935570 0.759877 194.777512
1.200000 -5.000000 -6.920000 6.477243 -4.452531 61.779716
1.200000 -5.000000 -6.880000 8.263483 -14.251629 271.394073
1.200000 -5.000000 -6.840000 19.331738 -18.060856 699.910583
1.200000 -5.000000 -6.800000 30.070938 -10.241791 1009.155579
1.200000 -4.960000 -7.200000 15.907506 -6.505100 295.365082
1.200000 -4.960000 -7.160000 12.904912 -2.708616 173.873367
1.200000 -4.960000 -7.120000 11.029505 -5.861398 156.005966
1.200000 -4.960000 -7.080000 16.266256 -9.238436 349.939789
1.200000 -4.960000 -7.040000 24.057499 -5.061146 604.378418
1.200000 -4.960000 -7.000000 25.168125 4.984461 658.279358
1.200000 -4.960000 -6.960000 17.583294 11.245743 435.638947
1.200000 -4.960000 -6.920000 9.684130 7.765827 154.090439
1.200000 -4.960000 -6.880000 10.654213 -0.097175 113.521698
1.200000 -4.960000 -6.840000 19.427841 -1.487031 379.652283
1.200000 -4.960000 -6.800000 25.491673 7.293839 703.025452
1.200000 -4.920000 -7.200000 14.306289 12.286369 355.624756
1.200000 -4.920000 -7.160000 2.142041 11.611284 139.410248
1.200000 -4.920000 -7.120000 -1.008676 -0.046237 1.019566
1.200000 -4.920000 -7.080000 9.472544 -7.943271 152.824646
1.200000 -4.920000 -7.040000 22.469994 -1.900492 508.512482
1.200000 -4.920000 -7.000000 24.387411 12.608074 753.709351
1.200000 -4.920000 -6.960000 14.244394 21.525547 666.251953
1.200000 -4.920000 -6.920000 3.643141 18.245722 346.178833
1.200000 -4.920000 -6.880000 2.772253 9.989363 107.472755
1.200000 -4.920000 -6.840000 9.336916 8.146655 153.545990
1.200000 -4.920000 -6.800000 12.694788 14.875967 382.452026
1.200000 -4.880000 -7.200000 -1.822191 19.483227 382.916504
1.200000 -4.880000 -7.160000 -14.519588 8.048856 275.602539
1.200000 -4.880000 -7.120000 -9.732638 -9.727637 189.351181
1.200000 -4.880000 -7.080000 9.320243 -14.913416 309.276917
1.200000 -4.880000 -7.040000 24.661680 -1.416678 610.205444
1.200000 -4.880000 -7.000000 22.667416 18.389618 851.989746
1.200000 -4.880000 -6.960000 7.239270 27.529459 810.278137
1.200000 -4.880000 -6.920000 -6.198963 21.556004 503.088440
1.200000 -4.880000 -6.880000 -7.582065 10.760787 173.282242
1.200000 -4.880000 -6.840000 -0.948411 7.110361 51.456711
1.200000 -4.880000 -6.800000 2.888843 11.879045 149.457138
1.200000 -4.840000 -7.200000 -14.053633 8.982229 278.185028
1.200000 -4.840000 -7.160000 -17.757448 -8.586402 389.053253
1.200000 -4.840000 -7.120000 -2.528101 -22.959740 533.540955
1.200000 -4.840000 -7.080000 20.271252 -18.343121 747.393677
1.200000 -4.840000 -7.040000 31.005888 3.425557 973.099548
1.200000 -4.840000 -7.000000 21.129414 24.858265 1064.385498
1.200000 -4.840000 -6.960000 0.551100 30.173843 910.764526
1.200000 -4.840000 -6.920000 -13.458661 19.456980 559.709595
1.200000 -4.840000 -6.880000 -12.869600 5.987725 201.479462
1.200000 -4.840000 -6.840000 -4.067012 1.726664 19.521952
1.200000 -4.840000 -6.800000 1.375723 7.028531 51.292862
1.200000 -4.800000 -7.200000 -8.620259 -5.292830 102.322914
1.200000 -4.800000 -7.160000 -2.926900 -18.459154 349.307098
1.200000 -4.800000 -7.120000 15.556785 -22.222996 735.875122
1.200000 -4.800000 -7.080000 32.977356 -8.005780 1151.598511
1.200000 -4.800000 -7.040000 33.938263 16.443199 1422.184448
1.200000 -4.800000 -7.000000 16.533852 33.603924 1402.592041
1.200000 -4.800000 -6.960000 -5.884889 32.315731 1078.938477
1.200000 -4.800000 -6.920000 -17.372046 17.202127 597.701172
1.200000 -4.800000 -6.880000 -13.292034 2.924797 185.232605
1.200000 -4.800000 -6.840000 -2.433104 0.257554 5.986328
1.200000 -4.800000 -6.800000 2.903670 7.808846 69.409370
