#kx 	ky 	kz 	real 	imag 	intensity
0.800000 2.800000 4.800000 -5.672808 -0.091546 32.189129
0.800000 2.800000 4.840000 -9.929823 -0.062979 98.605354
0.800000 2.800000 4.880000 -14.183441 -5.750880 234.242615
0.800000 2.800000 4.920000 -12.652151 -15.792864 409.491486
0.800000 2.800000 4.960000 -2.554710 -23.896610 577.574524
0.800000 2.800000 5.000000 12.469958 -23.185667 693.075012
0.800000 2.800000 5.040000 24.087322 -12.088539 726.331909
0.800000 2.800000 5.080000 25.588078 3.618331 667.842041
0.800000 2.800000 5.120000 17.400724 15.145662 532.176270
0.800000 2.800000 5.160000 6.404978 17.856190 359.867249
0.800000 2.800000 5.200000 -0.510423 14.467762 209.576660
0.800000 2.840000 4.800000 -8.042545 -5.580652 95.826210
0.800000 2.840000 4.840000 -10.074034 -5.982487 137.276306
0.800000 2.840000 4.880000 -11.856853 -10.635445 253.697662
0.800000 2.840000 4.920000 -8.373911 -17.906912 390.779877
0.800000 2.840000 4.960000 1.801361 -21.549961 467.645721
0.800000 2.840000 5.000000 13.398546 -16.197458 441.878723
0.800000 2.840000 5.040000 18.128683 -3.433243 340.436310
0.800000 2.840000 5.080000 12.435450 8.420851 225.551147
0.800000 2.840000 5.120000 1.464242 11.640757 137.651215
0.800000 2.840000 5.160000 -5.644282 6.505602 74.180779
0.800000 2.840000 5.200000 -4.802993 0.771188 23.663471
0.800000 2.880000 4.800000 -3.908085 -14.077290 213.443207
0.800000 2.880000 4.840000 -3.896797 -12.881681 181.122742
0.800000 2.880000 4.880000 -4.550664 -14.999605 245.696701
0.800000 2.880000 4.920000 -1.431859 -18.976048 362.140625
0.800000 2.880000 4.960000 5.900518 -19.557003 417.292480
0.800000 2.880000 5.000000 12.298072 -13.733078 339.839996
0.800000 2.880000 5.040000 12.200558 -5.033111 174.185822
0.800000 2.880000 5.080000 6.173906 -0.473300 38.341133
0.800000 2.880000 5.120000 1.004877 -2.858425 9.180372
0.800000 2.880000 5.160000 2.339909 -7.118999 56.155327
0.800000 2.880000 5.200000 7.784837 -5.687688 92.953476
0.800000 2.920000 4.800000 8.375834 -17.503960 376.543213
0.800000 2.920000 4.840000 8.240149 -13.212435 242.468475
0.800000 2.920000 4.880000 6.226267 -12.838850 203.602478
0.800000 2.920000 4.920000 6.857751 -15.152195 276.617767
0.800000 2.920000 4.960000 10.693424 -15.926588 368.005524
0.800000 2.920000 5.000000 14.312021 -13.313187 382.074890
0.800000 2.920000 5.040000 15.135511 -9.783426 324.799133
0.800000 2.920000 5.080000 14.890751 -8.250008 289.797089
0.800000 2.920000 5.120000 16.976517 -7.404085 343.022583
0.800000 2.920000 5.160000 20.737198 -2.720788 437.434052
0.800000 2.920000 5.200000 20.236244 7.089312 459.763916
0.800000 2.960000 4.800000 21.609320 -9.302173 553.493103
0.800000 2.960000 4.840000 18.272400 -2.843791 341.967743
0.800000 2.960000 4.880000 13.120389 -2.241153 177.167374
0.800000 2.960000 4.920000 11.231892 -5.774004 159.494507
0.800000 2.960000 4.960000 13.848926 -9.163191 275.756805
0.800000 2.960000 5.000000 18.963688 -9.665728 453.047760
0.800000 2.960000 5.040000 24.414467 -6.935565 644.168213
0.800000 2.960000 5.080000 29.037195 -0.993766 844.146240
0.800000 2.960000 5.120000 30.937492 8.615625 1031.357422
0.800000 2.960000 5.160000 26.521507 20.474232 1122.584473
0.800000 2.960000 5.200000 13.542453 28.982998 1023.412170
0.800000 3.000000 4.800000 25.276016 7.832383 700.223206
0.800000 3.000000 4.840000 17.358570 13.091519 472.707825
0.800000 3.000000 4.880000 9.789640 10.822180 212.956635
0.800000 3.000000 4.920000 7.782104 4.213908 78.318161
0.800000 3.000000 4.960000 12.476842 -1.265880 157.274033
0.800000 3.000000 5.000000 21.205847 -1.183195 451.087891
0.800000 3.000000 5.040000 29.245445 6.216048 893.935364
0.800000 3.000000 5.080000 31.469015 19.492275 1370.247681
0.800000 3.000000 5.120000 24.141636 33.811462 1726.033569
0.800000 3.000000 5.160000 7.491842 41.875614 1809.694702
0.800000 3.000000 5.200000 -12.405569 37.440514 1555.690308
0.800000 3.040000 4.800000 15.430735 23.146992 773.890747
0.800000 3.040000 4.840000 4.753026 23.771320 587.666931
0.800000 3.040000 4.880000 -2.204452 17.139828 298.633301
0.800000 3.040000 4.920000 -1.287966 8.269484 70.043221
0.800000 3.040000 4.960000 6.937598 3.796454 62.543327
0.800000 3.040000 5.000000 17.167057 8.354876 364.511810
0.800000 3.040000 5.040000 21.723999 21.566254 937.035400
0.800000 3.040000 5.080000 14.811131 37.150528 1599.531372
0.800000 3.040000 5.120000 -3.180690 45.574326 2087.135742
0.800000 3.040000 5.160000 -24.391415 39.766342 2176.302979
0.800000 3.040000 5.200000 -37.312347 20.590063 1816.161987
0.800000 3.080000 4.800000 -1.394583 27.326996 748.709595
0.800000 3.080000 4.840000 -11.059040 22.453959 626.482666
0.800000 3.080000 4.880000 -14.301605 12.812334 368.691833
0.800000 3.080000 4.920000 -9.191930 4.624750 105.879883
0.800000 3.080000 4.960000 0.823947 4.254694 18.781309
0.800000 3.080000 5.000000 7.865111 13.754632 251.049866
0.800000 3.080000 5.040000 4.254746 28.047222 804.749512
0.800000 3.080000 5.080000 -11.402397 36.904747 1491.974976
0.800000 3.080000 5.120000 -31.574795 31.753670 2005.263184
0.800000 3.080000 5.160000 -43.897133 12.718979 2088.730713
0.800000 3.080000 5.200000 -39.945812 -10.189219 1699.488159
0.800000 3.120000 4.800000 -14.569172 20.510660 632.947998
0.800000 3.120000 4.840000 -20.381165 12.208715 564.444580
0.800000 3.120000 4.880000 -18.948145 2.568120 365.627441
0.800000 3.120000 4.920000 -11.090404 -2.156346 127.646873
0.800000 3.120000 4.960000 -2.906425 2.090100 12.815826
0.800000 3.120000 5.000000 -2.444424 12.836998 170.763718
0.800000 3.120000 5.040000 -13.192333 21.176712 622.490784
0.800000 3.120000 5.080000 -29.693359 17.907539 1202.375610
0.800000 3.120000 5.120000 -40.307503 1.528889 1627.032349
0.800000 3.120000 5.160000 -36.078545 -19.106256 1666.710449
0.800000 3.120000 5.200000 -18.495211 -30.926542 1298.523804
0.800000 3.160000 4.800000 -19.208876 10.623756 481.845093
0.800000 3.160000 4.840000 -20.950943 1.662040 441.704407
0.800000 3.160000 4.880000 -16.201269 -5.689660 294.853333
0.800000 3.160000 4.920000 -8.413144 -6.325368 110.791275
0.800000 3.160000 4.960000 -4.735611 0.022559 22.426521
0.800000 3.160000 5.000000 -10.098696 6.844087 148.825180
0.800000 3.160000 5.040000 -21.619530 5.420727 496.788330
0.800000 3.160000 5.080000 -29.515177 -7.136526 922.075623
0.800000 3.160000 5.120000 -25.065117 -23.884850 1198.746094
0.800000 3.160000 5.160000 -8.885689 -32.921272 1162.765625
0.800000 3.160000 5.200000 8.566387 -27.488731 829.013367
0.800000 3.200000 4.800000 -19.161039 4.303659 385.666901
0.800000 3.200000 4.840000 -18.126726 -4.188670 346.123138
0.800000 3.200000 4.880000 -11.915098 -8.931657 221.744049
0.800000 3.200000 4.920000 -6.112488 -6.992836 86.262268
0.800000 3.200000 4.960000 -6.697728 -2.084868 49.206230
0.800000 3.200000 5.000000 -13.396073 -2.007762 183.485901
0.800000 3.200000 5.040000 -18.542259 -10.846329 461.458221
0.800000 3.200000 5.080000 -13.865458 -23.633606 750.798218
0.800000 3.200000 5.120000 0.843754 -29.752304 885.911499
0.800000 3.200000 5.160000 16.114300 -22.737719 776.674500
0.800000 3.200000 5.200000 20.687128 -7.078791 478.066559
0.840000 2.800000 4.800000 -11.554404 1.093026 134.698959
0.840000 2.800000 4.840000 -12.326783 -4.448771 171.741150
0.840000 2.800000 4.880000 -9.404529 -10.319637 194.940063
0.840000 2.800000 4.920000 -3.242288 -14.306269 215.181763
0.840000 2.800000 4.960000 4.928743 -14.967716 248.325043
0.840000 2.800000 5.000000 13.427988 -11.264789 307.206329
0.840000 2.800000 5.040000 19.662437 -2.872929 394.865173
0.840000 2.800000 5.080000 20.558624 8.561340 495.953583
0.840000 2.800000 5.120000 14.611813 18.990383 574.139709
0.840000 2.800000 5.160000 3.826489 23.927319 587.158630
0.840000 2.800000 5.200000 -6.946022 21.614336 515.426758
0.840000 2.840000 4.800000 -8.885830 -10.136391 181.704376
0.840000 2.840000 4.840000 -1.042619 -12.752524 163.713928
0.840000 2.840000 4.880000 6.687402 -8.716471 120.698204
0.840000 2.840000 4.920000 9.120616 -0.748973 83.746597
0.840000 2.840000 4.960000 5.724743 5.548779 63.561630
0.840000 2.840000 5.000000 0.554214 6.997852 49.277092
0.840000 2.840000 5.040000 -2.160741 5.182093 31.522884
0.840000 2.840000 5.080000 -1.827703 3.906826 18.603790
0.840000 2.840000 5.120000 -1.096649 5.079487 27.003826
0.840000 2.840000 5.160000 -2.462515 7.360092 60.234936
0.840000 2.840000 5.200000 -5.884104 8.203732 101.923904
0.840000 2.880000 4.800000 4.154069 -16.608303 293.092010
0.840000 2.880000 4.840000 16.670410 -8.493692 350.045410
0.840000 2.880000 4.880000 18.799717 8.639569 428.071503
0.840000 2.880000 4.920000 6.080702 22.582912 546.962891
0.840000 2.880000 4.960000 -13.554581 22.014874 668.381348
0.840000 2.880000 5.000000 -25.868948 6.788351 715.284180
0.840000 2.880000 5.040000 -22.374186 -11.684584 637.133667
0.840000 2.880000 5.080000 -7.100792 -20.200314 458.473907
0.840000 2.880000 5.120000 7.661362 -14.377687 265.414368
0.840000 2.880000 5.160000 11.886249 -0.867142 142.034836
0.840000 2.880000 5.200000 4.906585 9.516026 114.629318
0.840000 2.920000 4.800000 19.943344 -9.460435 487.236816
0.840000 2.920000 4.840000 26.547890 11.402798 834.814270
0.840000 2.920000 4.880000 12.353188 33.796768 1294.822754
0.840000 2.920000 4.920000 -17.690617 38.338242 1782.778687
0.840000 2.920000 4.960000 -43.129692 17.056026 2151.078369
0.840000 2.920000 5.000000 -44.231331 -17.563431 2264.884766
0.840000 2.920000 5.040000 -19.085907 -41.511398 2087.468018
0.840000 2.920000 5.080000 14.310459 -38.724304 1704.361084
0.840000 2.920000 5.120000 32.891708 -13.622385 1267.433838
0.840000 2.920000 5.160000 26.683647 13.896929 905.141663
0.840000 2.920000 5.200000 4.647779 25.346470 664.045410
0.840000 2.960000 4.800000 25.129282 9.580487 723.266602
0.840000 2.960000 4.840000 16.474033 35.021145 1497.874390
0.840000 2.960000 4.880000 -14.444333 47.486389 2463.595947
0.840000 2.960000 4.920000 -49.341145 30.130116 3342.372559
0.840000 2.960000 4.960000 -60.970314 -11.565565 3851.141357
0.840000 2.960000 5.000000 -36.471039 -50.387733 3869.060303
0.840000 2.960000 5.040000 9.521315 -58.354061 3495.852051
0.840000 2.960000 5.080000 45.306396 -30.014717 2953.552979
0.840000 2.960000 5.120000 47.514565 12.993761 2426.471680
0.840000 2.960000 5.160000 19.026669 40.132690 1972.646973
0.840000 2.960000 5.200000 -15.737625 36.184727 1557.007324
0.840000 3.000000 4.800000 13.046373 27.298220 915.400635
0.840000 3.000000 4.840000 -10.198948 43.829140 2025.012085
0.840000 3.000000 4.880000 -45.170143 35.872971 3327.211914
0.840000 3.000000 4.920000 -66.019791 -0.985984 4359.584961
0.840000 3.000000 4.960000 -51.332912 -46.037560 4754.524414
0.840000 3.000000 5.000000 -5.210142 -66.835556 4494.137207
0.840000 3.000000 5.040000 42.217354 -45.988861 3897.280273
0.840000 3.000000 5.080000 57.823479 2.647472 3350.563721
0.840000 3.000000 5.120000 32.504551 44.236649 3013.426758
0.840000 3.000000 5.160000 -12.023695 51.114780 2757.290039
0.840000 3.000000 5.200000 -42.300068 23.948982 2362.849609
0.840000 3.040000 4.800000 -8.811356 30.057941 981.119873
0.840000 3.040000 4.840000 -35.290192 29.589478 2120.934814
0.840000 3.040000 4.880000 -57.784752 4.776048 3361.888184
0.840000 3.040000 4.920000 -54.587299 -34.763248 4188.256836
0.840000 3.040000 4.960000 -19.648266 -62.286469 4265.658691
0.840000 3.040000 5.000000 27.315487 -54.484253 3714.669678
0.840000 3.040000 5.040000 53.449890 -13.076944 3027.897461
0.840000 3.040000 5.080000 39.398338 33.508480 2675.047363
0.840000 3.040000 5.120000 -3.690398 52.139637 2732.160889
0.840000 3.040000 5.160000 -42.969601 31.929417 2865.874268
0.840000 3.040000 5.200000 -51.045990 -7.966547 2669.158936
0.840000 3.080000 4.800000 -24.835846 16.375509 884.976562
0.840000 3.080000 4.840000 -41.455963 2.794829 1726.407959
0.840000 3.080000 4.880000 -44.296707 -23.987946 2537.619629
0.840000 3.080000 4.920000 -24.090244 -48.404240 2923.310303
0.840000 3.080000 4.960000 11.201026 -50.644855 2690.364258
0.840000 3.080000 5.000000 38.266804 -24.282333 2053.979980
0.840000 3.080000 5.040000 36.067001 14.658521 1515.700806
0.840000 3.080000 5.080000 4.676476 38.117744 1474.831787
0.840000 3.080000 5.120000 -32.700157 28.764229 1896.681152
0.840000 3.080000 5.160000 -48.135555 -5.070119 2342.737793
0.840000 3.080000 5.200000 -31.957932 -36.394569 2345.874023
0.840000 3.120000 4.800000 -25.510963 -1.952839 654.622864
0.840000 3.120000 4.840000 -27.808926 -16.776115 1054.774414
0.840000 3.120000 4.880000 -18.012886 -31.895641 1341.795898
0.840000 3.120000 4.920000 2.003033 -36.457336 1333.149414
0.840000 3.120000 4.960000 20.611496 -24.001751 1000.917847
0.840000 3.120000 5.000000 23.637691 -0.514860 559.005554
0.840000 3.120000 5.040000 6.736004 17.387657 347.704376
0.840000 3.120000 5.080000 -18.555288 15.098207 572.254639
0.840000 3.120000 5.120000 -32.607449 -6.800129 1109.487427
0.840000 3.120000 5.160000 -23.925112 -31.642258 1573.643433
0.840000 3.120000 5.200000 0.683910 -40.162460 1613.490967
0.840000 3.160000 4.800000 -15.477072 -11.569848 373.401123
0.840000 3.160000 4.840000 -9.655444 -18.435795 433.106140
0.840000 3.160000 4.880000 -0.580439 -19.969784 399.129181
0.840000 3.160000 4.920000 6.944495 -14.701862 264.370789
0.840000 3.160000 4.960000 7.704945 -5.569883 90.389778
0.840000 3.160000 5.000000 0.331839 0.551115 0.413845
0.840000 3.160000 5.040000 -10.017675 -2.496414 106.585899
0.840000 3.160000 5.080000 -14.321002 -14.355815 411.180511
0.840000 3.160000 5.120000 -6.911399 -26.843975 768.366455
0.840000 3.160000 5.160000 8.772030 -29.760815 962.654602
0.840000 3.160000 5.200000 21.878233 -19.612648 863.313049
0.840000 3.200000 4.800000 -7.376600 -10.184824 158.144867
0.840000 3.200000 4.840000 -2.591843 -9.376514 94.636673
0.840000 3.200000 4.880000 -1.605110 -5.901226 37.400848
0.840000 3.200000 4.920000 -5.108352 -4.265146 44.286728
0.840000 3.200000 4.960000 -9.719403 -7.978607 158.124969
0.840000 3.200000 5.000000 -10.119823 -16.487885 374.261169
0.840000 3.200000 5.040000 -3.080837 -24.848618 626.945374
0.840000 3.200000 5.080000 9.510971 -26.824469 810.010681
0.840000 3.200000 5.120000 21.158791 -19.565475 830.502258
0.840000 3.200000 5.160000 25.013638 -6.311396 665.515808
0.840000 3.200000 5.200000 18.933916 5.294191 386.521637
0.880000 2.800000 4.800000 -16.888166 -6.018125 321.428009
0.880000 2.800000 4.840000 -9.624090 -12.530642 249.640106
0.880000 2.800000 4.880000 -0.848029 -12.201254 149.589737
0.880000 2.800000 4.920000 3.904827 -7.748339 75.284424
0.880000 2.800000 4.960000 4.885067 -4.625707 45.261040
0.880000 2.800000 5.000000 6.879673 -4.082226 63.994469
0.880000 2.800000 5.040000 12.302321 -1.579941 153.843323
0.880000 2.800000 5.080000 16.878531 7.237415 337.264984
0.880000 2.800000 5.120000 13.584633 19.864756 579.150757
0.880000 2.800000 5.160000 0.858850 27.653133 765.433411
0.880000 2.800000 5.200000 -14.103924 23.913048 770.754517
0.880000 2.840000 4.800000 -3.964439 -16.716137 295.145996
0.880000 2.840000 4.840000 14.097797 -9.666378 292.186768
0.880000 2.840000 4.880000 19.466011 11.655487 514.776001
0.880000 2.840000 4.920000 4.436592 29.934753 915.772827
0.880000 2.840000 4.960000 -19.744549 28.785837 1218.471680
0.880000 2.840000 5.000000 -32.786556 9.109531 1157.941772
0.880000 2.840000 5.040000 -24.747145 -11.451176 743.550537
0.880000 2.840000 5.080000 -5.155540 -15.623616 270.676971
0.880000 2.840000 5.120000 7.168104 -2.616552 58.228065
0.880000 2.840000 5.160000 2.577009 12.751616 169.244675
0.880000 2.840000 5.200000 -11.517688 15.898579 385.421936
0.880000 2.880000 4.800000 14.949529 -12.575310 381.626831
0.880000 2.880000 4.840000 29.246613 16.727642 1135.178345
0.880000 2.880000 4.880000 10.471210 52.608833 2877.335693
0.880000 2.880000 4.920000 -35.894573 61.771114 5104.090820
0.880000 2.880000 4.960000 -76.379539 29.393059 6697.786133
0.880000 2.880000 5.000000 -78.359894 -24.123901 6722.235352
0.880000 2.880000 5.040000 -40.095352 -59.630775 5163.466797
0.880000 2.880000 5.080000 7.640755 -53.740116 2946.381104
0.880000 2.880000 5.120000 29.772121 -18.047525 1212.092407
0.880000 2.880000 5.160000 17.054497 14.482869 500.609375
0.880000 2.880000 5.200000 -10.203171 20.661896 531.018616
0.880000 2.920000 4.800000 24.038193 7.259041 630.528381
0.880000 2.920000 4.840000 15.495844 51.127663 2854.158936
0.880000 2.920000 4.880000 -36.042534 76.744225 7188.740234
0.880000 2.920000 4.920000 -99.285797 49.293961 12287.564453
0.880000 2.920000 4.960000 -123.203323 -24.053604 15757.634766
0.880000 2.920000 5.000000 -82.951202 -94.330696 15779.181641
0.880000 2.920000 5.040000 -4.789673 -111.436569 12441.050781
0.880000 2.920000 5.080000 55.483913 -67.555252 7642.176758
0.880000 2.920000 5.120000 60.512810 -2.078201 3666.118896
0.880000 2.920000 5.160000 20.353760 35.367462 1665.132935
0.880000 2.920000 5.200000 -22.814421 26.972935 1248.036987
0.880000 2.960000 4.800000 12.517557 28.558077 972.253052
0.880000 2.960000 4.840000 -25.318485 64.478081 4798.448730
0.880000 2.960000 4.880000 -93.158142 54.826500 11684.384766
0.880000 2.960000 4.920000 -138.326111 -14.994285 19358.941406
0.880000 2.960000 4.960000 -114.339554 -105.804825 24268.195312
0.880000 2.960000 5.000000 -26.644455 -152.472015 23957.642578
0.880000 2.960000 5.040000 66.620270 -119.918526 18818.712891
0.880000 2.960000 5.080000 102.630951 -34.571190 11728.279297
0.880000 2.960000 5.120000 66.326744 39.136803 5930.926270
0.880000 2.960000 5.160000 -1.250630 54.459694 2967.422119
0.880000 2.960000 5.200000 -43.749496 17.727081 2228.267822
0.880000 3.000000 4.800000 -13.449055 32.869572 1261.285767
0.880000 3.000000 4.840000 -65.799080 40.369873 5959.245605
0.880000 3.000000 4.880000 -117.769333 -7.176373 13921.116211
0.880000 3.000000 4.920000 -116.796616 -93.388161 22362.796875
0.880000 3.000000 4.960000 -44.333855 -159.292816 27339.691406
0.880000 3.000000 5.000000 59.422203 -151.274628 26415.011719
0.880000 3.000000 5.040000 124.341019 -70.133957 20379.460938
0.880000 3.000000 5.080000 109.006699 26.552685 12587.504883
0.880000 3.000000 5.120000 34.894615 72.791168 6516.188477
0.880000 3.000000 5.160000 -35.366615 48.456356 3598.815918
0.880000 3.000000 5.200000 -53.420395 -10.015077 2954.040283
0.880000 3.040000 4.800000 -34.116127 14.547937 1375.552612
0.880000 3.040000 4.840000 -75.116135 -7.371967 5696.779297
0.880000 3.040000 4.880000 -88.789352 -68.523529 12579.023438
0.880000 3.040000 4.920000 -44.927891 -132.057098 19457.593750
0.880000 3.040000 4.960000 42.076691 -145.847778 23042.021484
0.880000 3.040000 5.000000 116.846436 -89.032211 21579.824219
0.880000 3.040000 5.040000 126.880836 4.512537 16119.110352
0.880000 3.040000 5.080000 67.941383 71.193596 9684.560547
0.880000 3.040000 5.120000 -11.977244 70.329773 5089.731445
0.880000 3.040000 5.160000 -54.343136 16.145523 3213.854492
0.880000 3.040000 5.200000 -38.374714 -39.267971 3014.592285
0.880000 3.080000 4.800000 -33.337379 -12.963254 1279.426758
0.880000 3.080000 4.840000 -46.817314 -44.853935 4203.736328
0.880000 3.080000 4.880000 -27.611465 -87.816826 8474.187500
0.880000 3.080000 4.920000 27.044594 -107.919258 12377.976562
0.880000 3.080000 4.960000 87.345879 -79.573097 13961.180664
0.880000 3.080000 5.000000 110.780128 -12.339691 12424.504883
0.880000 3.080000 5.040000 78.165154 51.335114 8745.084961
0.880000 3.080000 5.080000 12.582386 69.269150 4956.531738
0.880000 3.080000 5.120000 -38.385391 34.713409 2678.458984
0.880000 3.080000 5.160000 -42.129303 -18.961628 2134.421387
0.880000 3.080000 5.200000 -6.343287 -48.321632 2375.217529
0.880000 3.120000 4.800000 -13.286001 -28.889462 1011.118835
0.880000 3.120000 4.840000 -4.866713 -47.825417 2310.955322
0.880000 3.120000 4.880000 20.466772 -59.013554 3901.488281
0.880000 3.120000 4.920000 52.622337 -48.074608 5080.278320
0.880000 3.120000 4.960000 70.696350 -13.874092 5190.464355
0.880000 3.120000 5.000000 58.943966 25.694893 4134.618652
0.880000 3.120000 5.040000 22.139965 44.981865 2513.546143
0.880000 3.120000 5.080000 -15.226799 31.381172 1216.633301
0.880000 3.120000 5.120000 -27.720526 -2.992807 777.384460
0.880000 3.120000 5.160000 -9.899904 -30.651989 1037.552490
0.880000 3.120000 5.200000 19.714636 -31.634212 1389.390259
0.880000 3.160000 4.800000 8.019862 -24.085033 644.406982
0.880000 3.160000 4.840000 18.662991 -22.487247 853.983521
0.880000 3.160000 4.880000 26.566084 -14.500727 916.027893
0.880000 3.160000 4.920000 28.236450 -3.100971 806.913147
0.880000 3.160000 4.960000 22.530045 7.061024 557.460938
0.880000 3.160000 5.000000 11.631092 11.109644 258.706482
0.880000 3.160000 5.040000 1.137512 6.531188 43.950352
0.880000 3.160000 5.080000 -2.429930 -4.115955 22.845646
0.880000 3.160000 5.120000 3.638732 -13.502613 195.560928
0.880000 3.160000 5.160000 15.046293 -14.240092 429.171173
0.880000 3.160000 5.200000 22.722107 -5.082880 542.129822
0.880000 3.200000 4.800000 14.243104 -8.546014 275.900360
0.880000 3.200000 4.840000 12.555229 2.759945 165.251068
0.880000 3.200000 4.880000 1.322584 7.039856 51.308800
0.880000 3.200000 4.920000 -9.051048 -1.020992 82.963905
0.880000 3.200000 4.960000 -8.339275 -15.485973 309.358887
0.880000 3.200000 5.000000 4.218769 -24.614964 623.694458
0.880000 3.200000 5.040000 19.671978 -21.271709 839.472351
0.880000 3.200000 5.080000 27.606510 -8.396521 832.620972
0.880000 3.200000 5.120000 24.541758 4.764034 624.993896
0.880000 3.200000 5.160000 15.104721 10.923603 347.477722
0.880000 3.200000 5.200000 6.421490 9.422810 130.024872
0.920000 2.800000 4.800000 -13.363871 -16.561050 452.861450
0.920000 2.800000 4.840000 0.459793 -16.731518 280.155090
0.920000 2.800000 4.880000 8.200058 -7.107737 117.760872
0.920000 2.800000 4.920000 5.206459 1.935497 30.853365
0.920000 2.800000 4.960000 -1.283638 1.716747 4.594948
0.920000 2.800000 5.000000 -0.281248 -4.769821 22.830294
0.920000 2.800000 5.040000 10.050228 -5.791534 134.548950
0.920000 2.800000 5.080000 19.169579 5.810543 401.235168
0.920000 2.800000 5.120000 14.923489 23.440060 772.146912
0.920000 2.800000 5.160000 -2.900819 32.244453 1048.119629
0.920000 2.800000 5.200000 -21.014915 24.072495 1021.111694
0.920000 2.840000 4.800000 6.727633 -17.149529 339.367371
0.920000 2.840000 4.840000 22.964216 7.430532 582.568054
0.920000 2.840000 4.880000 9.498619 39.551743 1654.564087
0.920000 2.840000 4.920000 -28.820847 48.455956 3178.620850
0.920000 2.840000 4.960000 -61.240887 21.304207 4204.315430
0.920000 2.840000 5.000000 -59.293251 -21.899300 3995.269043
0.920000 2.840000 5.040000 -24.552597 -45.793514 2699.875977
0.920000 2.840000 5.080000 12.592957 -32.847240 1237.523682
0.920000 2.840000 5.120000 22.135534 1.139843 491.281128
0.920000 2.840000 5.160000 1.915625 24.199692 589.294678
0.920000 2.840000 5.200000 -23.660618 19.490479 939.703613
0.920000 2.880000 4.800000 20.430996 0.587026 417.770203
0.920000 2.880000 4.840000 14.499084 48.920391 2603.427979
0.920000 2.880000 4.880000 -40.173538 78.629929 7796.578613
0.920000 2.880000 4.920000 -108.638336 49.850292 14287.339844
0.920000 2.880000 4.960000 -133.635468 -29.065742 18703.253906
0.920000 2.880000 5.000000 -88.722298 -102.874374 18454.783203
0.920000 2.880000 5.040000 -5.309196 -117.238747 13773.111328
0.920000 2.880000 5.080000 54.568916 -67.319099 7509.627930
0.920000 2.880000 5.120000 53.574303 0.296558 2870.293701
0.920000 2.880000 5.160000 8.580412 32.711800 1143.685303
0.920000 2.880000 5.200000 -31.933529 17.069407 1311.114868
0.920000 2.920000 4.800000 12.999300 24.375179 763.131165
0.920000 2.920000 4.840000 -31.950600 72.133286 6224.051758
0.920000 2.920000 4.880000 -117.843353 62.244091 17761.382812
0.920000 2.920000 4.920000 -175.880951 -25.517582 31585.255859
0.920000 2.920000 4.960000 -145.578049 -140.312378 40880.531250
0.920000 2.920000 5.000000 -34.962170 -198.278946 40536.890625
0.920000 2.920000 5.040000 80.566681 -156.450562 30967.767578
0.920000 2.920000 5.080000 122.783195 -51.340469 17711.556641
0.920000 2.920000 5.120000 77.205605 35.376621 7212.210938
0.920000 2.920000 5.160000 -1.222455 49.630241 2464.655273
0.920000 2.920000 5.200000 -44.586624 5.842823 2022.105591
0.920000 2.960000 4.800000 -13.487438 32.941708 1267.067139
0.920000 2.960000 4.840000 -87.386230 48.115791 9951.482422
0.920000 2.960000 4.880000 -164.039291 -18.042654 27234.425781
0.920000 2.960000 4.920000 -164.342987 -142.574081 47335.984375
0.920000 2.960000 4.960000 -60.376228 -238.500610 60527.832031
0.920000 2.960000 5.000000 88.680061 -227.813049 59762.937500
0.920000 2.960000 5.040000 181.568359 -113.313896 45807.109375
0.920000 2.960000 5.080000 161.475281 21.340309 26529.673828
0.920000 2.960000 5.120000 62.147366 84.708633 11037.847656
0.920000 2.960000 5.160000 -28.586119 53.714600 3702.424561
0.920000 2.960000 5.200000 -49.105251 -17.613464 2721.559814
0.920000 3.000000 4.800000 -38.671368 15.052418 1722.050049
0.920000 3.000000 4.840000 -107.773949 -15.075081 11842.481445
0.920000 3.000000 4.880000 -134.209854 -114.214287 31057.187500
0.920000 3.000000 4.920000 -64.305786 -220.497375 52754.328125
0.920000 3.000000 4.960000 78.743477 -245.511383 66476.375000
0.920000 3.000000 5.000000 202.834442 -154.437546 64992.765625
0.920000 3.000000 5.040000 222.455048 -3.498377 49498.488281
0.920000 3.000000 5.080000 132.577789 104.861694 28572.845703
0.920000 3.000000 5.120000 10.613985 108.536736 11892.878906
0.920000 3.000000 5.160000 -54.149433 32.945290 4017.553223
0.920000 3.000000 5.200000 -34.927517 -42.137638 2995.511963
0.920000 3.040000 4.800000 -40.455688 -18.292480 1971.277588
0.920000 3.040000 4.840000 -73.246864 -74.500572 10915.438477
0.920000 3.040000 4.880000 -42.408615 -158.881958 27041.966797
0.920000 3.040000 4.920000 61.208519 -202.095062 44588.898438
0.920000 3.040000 4.960000 179.488541 -151.136078 55058.250000
0.920000 3.040000 5.000000 228.936661 -23.426220 52960.785156
0.920000 3.040000 5.040000 172.441864 99.996277 39735.453125
0.920000 3.040000 5.080000 53.348026 140.474625 22579.132812
0.920000 3.040000 5.120000 -41.728668 86.666374 9252.341797
0.920000 3.040000 5.160000 -56.514603 -1.555890 3196.321289
0.920000 3.040000 5.200000 -6.452907 -50.844994 2626.853271
0.920000 3.080000 4.800000 -15.181198 -41.804543 1978.088501
0.920000 3.080000 4.840000 -7.869066 -88.198608 7840.916992
0.920000 3.080000 4.880000 47.505226 -123.971649 17625.716797
0.920000 3.080000 4.920000 128.534592 -105.563171 27664.722656
0.920000 3.080000 4.960000 180.062195 -24.765396 33035.718750
0.920000 3.080000 5.000000 158.839752 75.286888 30898.181641
0.920000 3.080000 5.040000 73.671387 130.789139 22533.271484
0.920000 3.080000 5.080000 -18.377888 109.714836 12375.092773
0.920000 3.080000 5.120000 -58.592022 37.965969 4874.439941
0.920000 3.080000 5.160000 -33.768669 -25.000410 1765.343506
0.920000 3.080000 5.200000 18.529945 -37.519672 1751.084717
0.920000 3.120000 4.800000 18.239399 -37.980446 1775.189941
0.920000 3.120000 4.840000 40.686749 -51.748180 4333.285645
0.920000 3.120000 4.880000 77.047646 -44.629173 7928.103027
0.920000 3.120000 4.920000 105.304222 -7.376663 11143.394531
0.920000 3.120000 4.960000 101.038795 46.482716 12369.480469
0.920000 3.120000 5.000000 58.956245 86.142982 10896.452148
0.920000 3.120000 5.040000 1.293205 86.384567 7463.965820
0.920000 3.120000 5.080000 -37.201637 48.848709 3770.158203
0.920000 3.120000 5.120000 -36.325111 1.813171 1322.801270
0.920000 3.120000 5.160000 -5.864439 -22.567438 543.680908
0.920000 3.120000 5.200000 24.398121 -13.651699 781.637207
0.920000 3.160000 4.800000 35.122467 -12.567835 1391.538086
0.920000 3.160000 4.840000 42.976532 -0.417814 1847.156860
0.920000 3.160000 4.880000 42.175064 14.706985 1995.031494
0.920000 3.160000 4.920000 33.425426 26.911007 1841.461426
0.920000 3.160000 4.960000 20.168892 32.845360 1485.601807
0.920000 3.160000 5.000000 6.234138 31.507444 1031.583496
0.920000 3.160000 5.040000 -4.579411 23.459045 571.297791
0.920000 3.160000 5.080000 -8.637135 11.397518 204.503510
0.920000 3.160000 5.120000 -4.458813 0.654404 20.309254
0.920000 3.160000 5.160000 4.767267 -3.096205 32.313320
0.920000 3.160000 5.200000 11.894506 1.591270 144.011398
0.920000 3.200000 4.800000 27.068115 11.581886 866.822937
0.920000 3.200000 4.840000 11.221039 24.650946 733.580811
0.920000 3.200000 4.880000 -9.795380 18.228401 428.224060
0.920000 3.200000 4.920000 -16.413925 -3.559807 282.089142
0.920000 3.200000 4.960000 -1.901497 -21.463749 464.308197
0.920000 3.200000 5.000000 20.858166 -19.634018 820.557739
0.920000 3.200000 5.040000 32.001743 -0.610809 1024.484619
0.920000 3.200000 5.080000 23.555281 18.141720 883.973267
0.920000 3.200000 5.120000 5.553282 21.698875 501.680115
0.920000 3.200000 5.160000 -5.601524 10.896513 150.111069
0.920000 3.200000 5.200000 -3.230937 -1.245022 11.989034
0.960000 2.800000 4.800000 -1.655239 -20.257433 413.103394
0.960000 2.800000 4.840000 11.257587 -10.874964 244.998108
0.960000 2.800000 4.880000 10.833794 3.950033 132.973846
0.960000 2.800000 4.920000 -0.629402 9.682858 94.153877
0.960000 2.800000 4.960000 -8.724497 1.511520 78.401535
0.960000 2.800000 5.000000 -2.171339 -9.516190 95.272575
0.960000 2.800000 5.040000 14.151085 -7.532169 256.986786
0.960000 2.800000 5.080000 23.021706 10.841566 647.538452
0.960000 2.800000 5.120000 12.455509 31.551121 1150.612915
0.960000 2.800000 5.160000 -11.258567 36.493420 1458.525024
0.960000 2.800000 5.200000 -29.067738 21.666914 1314.388550
0.960000 2.840000 4.800000 14.286804 -7.437340 259.426788
0.960000 2.840000 4.840000 13.521271 28.182646 977.086304
0.960000 2.840000 4.880000 -23.361050 51.368523 3184.463867
0.960000 2.840000 4.920000 -70.431404 32.603294 6023.557617
0.960000 2.840000 4.960000 -85.728081 -21.056625 7792.685059
0.960000 2.840000 5.000000 -51.691040 -68.258499 7331.186523
0.960000 2.840000 5.040000 5.875000 -70.722733 5036.220703
0.960000 2.840000 5.080000 40.829784 -29.158108 2517.266602
0.960000 2.840000 5.120000 29.409773 18.385681 1202.968018
0.960000 2.840000 5.160000 -9.947079 33.625656 1229.629028
0.960000 2.840000 5.200000 -38.120880 12.684906 1614.108398
0.960000 2.880000 4.800000 12.278011 15.256760 383.518250
0.960000 2.880000 4.840000 -26.227867 59.900928 4276.022461
0.960000 2.880000 4.880000 -102.937645 52.601837 13363.112305
0.960000 2.880000 4.920000 -154.477448 -25.269196 24501.812500
0.960000 2.880000 4.960000 -125.955017 -126.430000 31849.210938
0.960000 2.880000 5.000000 -26.568680 -174.380356 31114.402344
0.960000 2.880000 5.040000 73.412849 -132.417953 22923.960938
0.960000 2.880000 5.080000 104.259171 -37.381462 12267.348633
0.960000 2.880000 5.120000 57.450115 35.327812 4548.569824
0.960000 2.880000 5.160000 -12.905590 40.208870 1783.307373
0.960000 2.880000 5.200000 -45.780750 -3.561237 2108.559570
0.960000 2.920000 4.800000 -10.403007 27.524082 865.797607
0.960000 2.920000 4.840000 -87.435707 45.732613 9736.474609
0.960000 2.920000 4.880000 -168.604996 -22.831673 28948.929688
0.960000 2.920000 4.920000 -168.728195 -153.538010 52043.125000
0.960000 2.920000 4.960000 -58.697258 -252.971695 67440.046875
0.960000 2.920000 5.000000 96.914452 -239.028107 66526.851562
0.960000 2.920000 5.040000 190.590302 -117.524040 50136.562500
0.960000 2.920000 5.080000 165.355179 20.876213 27778.152344
0.960000 2.920000 5.120000 61.176750 81.456306 10377.724609
0.960000 2.920000 5.160000 -28.452379 45.336288 2864.916992
0.960000 2.920000 5.200000 -43.346230 -26.400246 2575.868652
0.960000 2.960000 4.800000 -36.808876 14.191975 1556.305420
0.960000 2.960000 4.840000 -121.171364 -19.306805 15055.251953
0.960000 2.960000 4.880000 -154.630966 -138.444778 43077.695312
0.960000 2.960000 4.920000 -70.509918 -266.889191 76201.492188
0.960000 2.960000 4.960000 102.057220 -296.192017 98145.390625
0.960000 2.960000 5.000000 250.021698 -185.451691 96903.171875
0.960000 2.960000 5.040000 271.192383 -5.144119 73571.765625
0.960000 2.960000 5.080000 163.224609 121.181801 41327.304688
0.960000 2.960000 5.120000 21.473715 122.963509 15581.144531
0.960000 2.960000 5.160000 -49.926300 35.548737 3756.348145
0.960000 2.960000 5.200000 -25.634636 -45.679207 2743.724365
0.960000 3.000000 4.800000 -42.838371 -18.963287 2194.732422
0.960000 3.000000 4.840000 -92.469101 -94.537529 17487.878906
0.960000 3.000000 4.880000 -52.698635 -212.865387 48088.816406
0.960000 3.000000 4.920000 90.574837 -274.510040 83559.562500
0.960000 3.000000 4.960000 254.716644 -204.304001 106620.695312
0.960000 3.000000 5.000000 322.574951 -28.009529 104839.132812
0.960000 3.000000 5.040000 244.653870 140.543915 79608.109375
0.960000 3.000000 5.080000 83.634796 194.669891 44891.148438
0.960000 3.000000 5.120000 -42.092442 123.225670 16956.339844
0.960000 3.000000 5.160000 -60.851723 10.058420 3804.104004
0.960000 3.000000 5.200000 1.036081 -49.372849 2438.751709
0.960000 3.040000 4.800000 -18.732399 -47.358654 2593.744873
0.960000 3.040000 4.840000 -14.894016 -124.971359 15839.672852
0.960000 3.040000 4.880000 72.746552 -189.456772 41185.929688
0.960000 3.040000 4.920000 207.287216 -163.682022 69759.796875
0.960000 3.040000 4.960000 294.358887 -32.462311 87700.960938
0.960000 3.040000 5.000000 261.193665 131.272049 85454.484375
0.960000 3.040000 5.040000 123.929489 221.809540 64557.992188
0.960000 3.040000 5.080000 -22.933891 189.208832 36325.945312
0.960000 3.040000 5.120000 -86.788773 78.365250 13673.403320
0.960000 3.040000 5.160000 -51.394043 -16.476543 2912.824219
0.960000 3.040000 5.200000 21.768661 -35.203537 1713.163696
0.960000 3.080000 4.800000 20.531967 -47.880276 2714.082520
0.960000 3.080000 4.840000 57.867210 -89.098343 11287.128906
0.960000 3.080000 4.880000 137.198822 -87.744766 26522.662109
0.960000 3.080000 4.920000 206.593765 -14.602425 42894.214844
0.960000 3.080000 4.960000 205.196625 101.920410 52493.425781
0.960000 3.080000 5.000000 118.323425 190.458740 50274.964844
0.960000 3.080000 5.040000 -3.984894 193.773712 37564.128906
0.960000 3.080000 5.080000 -85.566963 116.947113 20998.332031
0.960000 3.080000 5.120000 -85.944458 21.682022 7856.559570
0.960000 3.080000 5.160000 -28.985222 -27.473179 1594.918701
0.960000 3.080000 5.200000 25.383923 -14.314066 849.235962
0.960000 3.120000 4.800000 47.055264 -19.262222 2585.230957
0.960000 3.120000 4.840000 77.663315 -17.676167 6344.037109
0.960000 3.120000 4.880000 108.323090 14.074768 11931.990234
0.960000 3.120000 4.920000 111.018150 70.238274 17258.445312
0.960000 3.120000 4.960000 70.954407 121.581940 19816.695312
0.960000 3.120000 5.000000 2.764893 135.164795 18277.166016
0.960000 3.120000 5.040000 -56.867462 100.741989 13382.856445
0.960000 3.120000 5.080000 -76.198753 40.416138 7439.714355
0.960000 3.120000 5.120000 -52.346638 -8.111031 2805.959229
0.960000 3.120000 5.160000 -11.437990 -20.558334 553.472717
0.960000 3.120000 5.200000 14.432992 -2.342089 213.796646
0.960000 3.160000 4.800000 43.906261 16.753849 2208.451172
0.960000 3.160000 4.840000 42.052711 34.681625 2971.245605
0.960000 3.160000 4.880000 29.188925 48.851994 3238.510742
0.960000 3.160000 4.920000 11.305008 53.871052 3029.893555
0.960000 3.160000 4.960000 -5.469322 50.401764 2570.251465
0.960000 3.160000 5.000000 -18.551254 41.335861 2052.802490
0.960000 3.160000 5.040000 -27.111765 28.217857 1531.295288
0.960000 3.160000 5.080000 -29.128113 12.325912 1000.375061
0.960000 3.160000 5.120000 -22.506485 -2.256443 511.633392
0.960000 3.160000 5.160000 -9.331765 -9.291134 173.407013
0.960000 3.160000 5.200000 2.896738 -5.837706 42.469898
0.960000 3.200000 4.800000 18.969660 34.933537 1580.199951
0.960000 3.200000 4.840000 -8.327358 37.534157 1478.157715
0.960000 3.200000 4.880000 -27.329857 15.106667 975.132446
0.960000 3.200000 4.920000 -19.491096 -13.608764 565.101318
0.960000 3.200000 4.960000 8.125603 -22.466778 570.781494
0.960000 3.200000 5.000000 29.159588 -4.269905 868.513672
0.960000 3.200000 5.040000 24.215435 22.014023 1071.004395
0.960000 3.200000 5.080000 -0.195213 30.660183 940.084900
0.960000 3.200000 5.120000 -19.418062 14.756954 594.828857
0.960000 3.200000 5.160000 -16.147614 -8.485287 332.745514
0.960000 3.200000 5.200000 3.344912 -16.972002 299.237305
1.000000 2.800000 4.800000 8.258852 -12.521339 224.992569
1.000000 2.800000 4.840000 13.088856 1.916298 174.990341
1.000000 2.800000 4.880000 3.673111 13.486694 195.382675
1.000000 2.800000 4.920000 -10.169079 10.627113 216.345703
1.000000 2.800000 4.960000 -12.723286 -3.314842 172.870178
1.000000 2.800000 5.000000 0.862137 -12.011711 145.024490
1.000000 2.800000 5.040000 17.960571 -2.536883 329.017914
1.000000 2.800000 5.080000 20.101723 20.397764 820.148071
1.000000 2.800000 5.120000 1.622738 37.756191 1428.163330
1.000000 2.800000 5.160000 -23.920052 34.435162 1757.949219
1.000000 2.800000 5.200000 -36.604214 13.982811 1535.387451
1.000000 2.840000 4.800000 9.727751 5.404060 123.833008
1.000000 2.840000 4.840000 -11.663620 34.435814 1321.865356
1.000000 2.840000 4.880000 -57.395500 32.149399 4327.827148
1.000000 2.840000 4.920000 -87.939850 -13.194183 7907.503418
1.000000 2.840000 4.960000 -69.519585 -71.644745 9965.941406
1.000000 2.840000 5.000000 -9.414932 -95.620445 9231.910156
1.000000 2.840000 5.040000 47.077148 -64.254295 6344.872070
1.000000 2.840000 5.080000 57.255932 -3.862480 3293.160400
1.000000 2.840000 5.120000 19.583755 36.586136 1722.068726
1.000000 2.840000 5.160000 -27.690147 30.612608 1703.875977
1.000000 2.840000 5.200000 -45.034416 -4.734507 2050.514160
1.000000 2.880000 4.800000 -7.033367 17.715992 363.324646
1.000000 2.880000 4.840000 -65.577225 32.977173 5387.866211
1.000000 2.880000 4.880000 -127.907402 -18.992012 16721.000000
1.000000 2.880000 4.920000 -127.268997 -118.836784 30319.578125
1.000000 2.880000 4.960000 -41.633011 -193.119446 39028.429688
1.000000 2.880000 5.000000 77.065262 -178.440277 37779.984375
1.000000 2.880000 5.040000 144.434784 -81.810837 27554.419922
1.000000 2.880000 5.080000 118.235962 23.563766 14534.994141
1.000000 2.880000 5.120000 33.618694 64.132935 5243.250000
1.000000 2.880000 5.160000 -34.101379 29.013174 2004.668335
1.000000 2.880000 5.200000 -39.833115 -29.636808 2465.017334
1.000000 2.920000 4.800000 -30.138329 9.116451 991.428528
1.000000 2.920000 4.840000 -106.384445 -20.189323 11725.258789
1.000000 2.920000 4.880000 -136.539566 -127.944878 35012.945312
1.000000 2.920000 4.920000 -59.285332 -243.697021 62902.988281
1.000000 2.920000 4.960000 97.610886 -267.888306 81292.023438
1.000000 2.920000 5.000000 229.542908 -164.628540 79792.500000
1.000000 2.920000 5.040000 244.068665 -0.917725 59570.355469
1.000000 2.920000 5.080000 142.465973 109.635468 32316.488281
1.000000 2.920000 5.120000 14.770752 105.475258 11343.205078
1.000000 2.920000 5.160000 -44.836277 23.462381 2560.775146
1.000000 2.920000 5.200000 -17.969219 -47.442032 2573.639160
1.000000 2.960000 4.800000 -38.083923 -19.087524 1814.718872
1.000000 2.960000 4.840000 -90.927307 -96.840874 17645.929688
1.000000 2.960000 4.880000 -49.768726 -220.512390 51102.640625
1.000000 2.960000 4.920000 100.379364 -284.269440 90885.132812
1.000000 2.960000 4.960000 271.197449 -209.102631 117271.968750
1.000000 2.960000 5.000000 339.195312 -24.154509 115636.898438
1.000000 2.960000 5.040000 254.801239 149.391464 87241.484375
1.000000 2.960000 5.080000 87.117943 201.269363 48098.890625
1.000000 2.960000 5.120000 -39.452175 124.278564 17001.634766
1.000000 2.960000 5.160000 -54.087173 9.205808 3010.169189
1.000000 2.960000 5.200000 10.320311 -46.408421 2260.250244
1.000000 3.000000 4.800000 -18.471870 -46.872581 2538.248779
1.000000 3.000000 4.840000 -17.316299 -140.818405 20129.675781
1.000000 3.000000 4.880000 87.269455 -220.663086 56308.156250
1.000000 3.000000 4.920000 250.042328 -190.423187 98782.156250
1.000000 3.000000 4.960000 354.583038 -31.860117 126744.203125
1.000000 3.000000 5.000000 312.873413 164.476212 124942.195312
1.000000 3.000000 5.040000 147.327911 270.209839 94718.875000
1.000000 3.000000 5.080000 -25.873055 228.280594 52781.445312
1.000000 3.000000 5.120000 -97.519577 96.929443 18905.386719
1.000000 3.000000 5.160000 -53.785378 -10.587650 3004.965332
1.000000 3.000000 5.200000 28.323782 -27.883902 1579.748535
1.000000 3.040000 4.800000 19.145927 -50.964737 2963.970703
1.000000 3.040000 4.840000 67.595039 -115.930565 18008.984375
1.000000 3.040000 4.880000 182.359695 -120.479858 47770.453125
1.000000 3.040000 4.920000 285.691162 -18.179047 81949.914062
1.000000 3.040000 4.960000 285.865234 149.174835 103972.062500
1.000000 3.040000 5.000000 161.699387 275.502045 102048.062500
1.000000 3.040000 5.040000 -11.643173 278.172974 77515.765625
1.000000 3.040000 5.080000 -123.793663 168.235504 43628.054688
1.000000 3.040000 5.120000 -120.834244 36.910229 15963.279297
1.000000 3.040000 5.160000 -42.177010 -26.632305 2488.179688
1.000000 3.040000 5.200000 27.025082 -6.570030 773.520325
1.000000 3.080000 4.800000 49.415039 -24.950394 3064.368408
1.000000 3.080000 4.840000 105.954041 -39.050694 12751.215820
1.000000 3.080000 4.880000 174.617477 9.305141 30577.849609
1.000000 3.080000 4.920000 192.291901 114.978523 50196.234375
1.000000 3.080000 4.960000 122.581558 217.307404 62248.746094
1.000000 3.080000 5.000000 -5.629456 245.855408 60476.574219
1.000000 3.080000 5.040000 -116.314087 180.178726 45993.339844
1.000000 3.080000 5.080000 -147.358917 67.801453 26311.687500
1.000000 3.080000 5.120000 -98.943916 -16.613228 10065.897461
1.000000 3.080000 5.160000 -26.206902 -32.334400 1732.315186
1.000000 3.080000 5.200000 13.186985 1.802475 177.145493
1.000000 3.120000 4.800000 51.842655 14.541216 2899.107910
1.000000 3.120000 4.840000 77.746651 34.051746 7204.062988
1.000000 3.120000 4.880000 85.453949 80.511589 13784.494141
1.000000 3.120000 4.920000 53.991997 131.629425 20241.441406
1.000000 3.120000 4.960000 -11.779663 153.417480 23675.683594
1.000000 3.120000 5.000000 -80.260941 126.534332 22452.755859
1.000000 3.120000 5.040000 -114.995499 63.071518 17201.980469
1.000000 3.120000 5.080000 -101.631271 -1.525856 10331.243164
1.000000 3.120000 5.120000 -57.208084 -34.889973 4490.075195
1.000000 3.120000 5.160000 -14.603966 -30.069016 1117.421509
1.000000 3.120000 5.200000 3.151114 -5.898027 44.716244
1.000000 3.160000 4.800000 27.499908 41.758804 2500.042725
1.000000 3.160000 4.840000 15.008602 57.073997 3482.699219
1.000000 3.160000 4.880000 -5.819939 62.100014 3890.283203
1.000000 3.160000 4.920000 -25.377266 55.328785 3705.280029
1.000000 3.160000 4.960000 -38.302917 42.080273 3237.862793
1.000000 3.160000 5.000000 -45.366341 26.981369 2786.099121
1.000000 3.160000 5.040000 -47.988926 10.285751 2408.733643
1.000000 3.160000 5.080000 -43.807064 -8.131310 1985.177002
1.000000 3.160000 5.120000 -29.784611 -23.472511 1438.081787
1.000000 3.160000 5.160000 -9.037500 -27.754173 851.970520
1.000000 3.160000 5.200000 8.035484 -18.100780 392.207245
1.000000 3.200000 4.800000 -3.385687 43.171329 1875.226562
1.000000 3.200000 4.840000 -30.490232 29.957134 1827.084229
1.000000 3.200000 4.880000 -35.569962 -1.994129 1269.198730
1.000000 3.200000 4.920000 -12.034798 -24.173874 729.212524
1.000000 3.200000 4.960000 17.774826 -16.277107 580.888672
1.000000 3.200000 5.000000 24.734480 12.005402 755.924194
1.000000 3.200000 5.040000 3.063248 30.384399 932.595215
1.000000 3.200000 5.080000 -23.653786 19.189949 927.755737
1.000000 3.200000 5.120000 -27.111942 -10.559021 846.550354
1.000000 3.200000 5.160000 -3.376499 -29.286383 869.092957
1.000000 3.200000 5.200000 24.162811 -19.767368 974.590271
1.040000 2.800000 4.800000 6.979874 -0.041397 48.720348
1.040000 2.800000 4.840000 3.440361 10.974829 132.282959
1.040000 2.800000 4.880000 -8.541344 13.858795 265.020752
1.040000 2.800000 4.920000 -17.152718 4.376053 313.365570
1.040000 2.800000 4.960000 -12.123222 -8.437622 218.165985
1.040000 2.800000 5.000000 3.564087 -10.063343 113.973587
1.040000 2.800000 5.040000 14.842903 4.713142 242.525482
1.040000 2.800000 5.080000 8.634686 25.163219 707.745422
1.040000 2.800000 5.120000 -12.904781 33.813938 1309.915771
1.040000 2.800000 5.160000 -33.671684 22.873993 1657.001953
1.040000 2.800000 5.200000 -38.517292 1.518920 1485.888916
1.040000 2.840000 4.800000 -5.146563 8.618080 100.758415
1.040000 2.840000 4.840000 -34.319633 17.456200 1482.556152
1.040000 2.840000 4.880000 -66.165649 -8.100159 4443.505859
1.040000 2.840000 4.920000 -65.652451 -58.370903 7717.406250
1.040000 2.840000 4.960000 -21.240631 -94.680199 9415.503906
1.040000 2.840000 5.000000 38.980568 -83.729401 8530.096680
1.040000 2.840000 5.040000 69.706596 -30.457581 5786.673828
1.040000 2.840000 5.080000 49.278732 24.346771 3021.158691
1.040000 2.840000 5.120000 -1.040140 40.631332 1651.987061
1.040000 2.840000 5.160000 -38.230606 14.182974 1662.735962
1.040000 2.840000 5.200000 -37.493118 -23.526320 1959.221680
1.040000 2.880000 4.800000 -22.511972 1.561239 509.226379
1.040000 2.880000 4.840000 -71.553558 -17.691448 5432.898926
1.040000 2.880000 4.880000 -90.397873 -88.550842 16013.027344
1.040000 2.880000 4.920000 -38.027107 -164.118408 28380.912109
1.040000 2.880000 4.960000 66.535713 -177.722076 36012.136719
1.040000 2.880000 5.000000 152.376678 -106.048615 34464.960938
1.040000 2.880000 5.040000 157.544983 4.217049 24838.205078
1.040000 2.880000 5.080000 84.774910 75.358337 12865.664062
1.040000 2.880000 5.120000 -2.619461 66.702545 4456.091309
1.040000 2.880000 5.160000 -39.927643 6.052660 1630.851318
1.040000 2.880000 5.200000 -16.478813 -43.550320 2168.181641
1.040000 2.920000 4.800000 -28.241726 -21.088278 1242.310547
1.040000 2.920000 4.840000 -67.953781 -81.336945 11233.415039
1.040000 2.920000 4.880000 -34.180641 -177.287430 32599.148438
1.040000 2.920000 4.920000 84.807617 -225.269485 57938.671875
1.040000 2.920000 4.960000 218.442841 -163.208435 74354.265625
1.040000 2.920000 5.000000 268.773560 -15.672806 72484.867188
1.040000 2.920000 5.040000 198.053787 119.830566 53584.664062
1.040000 2.920000 5.080000 63.713158 156.297684 28488.333984
1.040000 2.920000 5.120000 -34.117340 90.795090 9407.741211
1.040000 2.920000 5.160000 -40.819141 -1.533814 1668.554810
1.040000 2.920000 5.200000 13.805636 -42.750298 2018.183472
1.040000 2.960000 4.800000 -11.657593 -43.830540 2057.015625
1.040000 2.960000 4.840000 -10.125057 -127.702858 16410.537109
1.040000 2.960000 4.880000 85.291595 -198.881927 46828.675781
1.040000 2.960000 4.920000 233.002533 -169.363678 82974.234375
1.040000 2.960000 4.960000 325.973511 -23.308111 106801.992188
1.040000 2.960000 5.000000 284.546997 154.877090 104953.906250
1.040000 2.960000 5.040000 131.743073 247.579407 78651.796875
1.040000 2.960000 5.080000 -24.233910 205.116455 42660.042969
1.040000 2.960000 5.120000 -84.706421 84.280426 14278.368164
1.040000 2.960000 5.160000 -41.089870 -10.332138 1795.130493
1.040000 2.960000 5.200000 32.866215 -21.145376 1527.315063
1.040000 3.000000 4.800000 20.509403 -47.320328 2659.849121
1.040000 3.000000 4.840000 69.829048 -116.055603 18345.000000
1.040000 3.000000 4.880000 190.448181 -121.560440 51047.449219
1.040000 3.000000 4.920000 299.129883 -13.534985 89661.882812
1.040000 3.000000 4.960000 297.797729 162.773697 115178.765625
1.040000 3.000000 5.000000 165.332489 293.622040 113548.734375
1.040000 3.000000 5.040000 -16.172823 292.606049 85879.859375
1.040000 3.000000 5.080000 -129.652039 174.997086 47433.632812
1.040000 3.000000 5.120000 -121.719955 39.748016 16395.652344
1.040000 3.000000 5.160000 -38.686089 -21.026558 1938.729492
1.040000 3.000000 5.200000 28.833292 3.667788 844.811340
1.040000 3.040000 4.800000 47.680077 -24.882912 2892.548828
1.040000 3.040000 4.840000 117.540428 -48.411469 16159.421875
1.040000 3.040000 4.880000 207.086792 8.336012 42954.425781
1.040000 3.040000 4.920000 232.845306 140.898361 74069.281250
1.040000 3.040000 4.960000 146.281006 270.221588 94417.835938
1.040000 3.040000 5.000000 -14.420876 304.745605 93077.843750
1.040000 3.040000 5.040000 -150.223038 220.079742 71002.054688
1.040000 3.040000 5.080000 -183.438263 80.315773 40100.222656
1.040000 3.040000 5.120000 -119.370041 -19.194763 14617.645508
1.040000 3.040000 5.160000 -31.542042 -31.849304 2009.278564
1.040000 3.040000 5.200000 9.904984 11.932323 240.489044
1.040000 3.080000 4.800000 51.592503 11.083086 2784.621094
1.040000 3.080000 4.840000 102.001404 29.781185 11291.205078
1.040000 3.080000 4.880000 129.162506 103.117477 27316.167969
1.040000 3.080000 4.920000 87.232590 193.960800 45230.316406
1.040000 3.080000 4.960000 -19.935951 237.032074 56581.644531
1.040000 3.080000 5.000000 -134.107300 193.854889 55564.484375
1.040000 3.080000 5.040000 -187.647430 87.769562 42915.054688
1.040000 3.080000 5.080000 -158.004242 -14.602879 25178.583984
1.040000 3.080000 5.120000 -82.058121 -58.166496 10116.876953
1.040000 3.080000 5.160000 -19.628889 -39.785744 1968.198730
1.040000 3.080000 5.200000 -3.087608 -0.092272 9.541840
1.040000 3.120000 4.800000 30.745035 38.940624 2461.629395
1.040000 3.120000 4.840000 40.950066 67.947861 6293.819336
1.040000 3.120000 4.880000 22.153984 108.485329 12259.865234
1.040000 3.120000 4.920000 -29.593163 131.706284 18222.300781
1.040000 3.120000 4.960000 -92.324898 114.440826 21620.589844
1.040000 3.120000 5.000000 -132.374191 58.750015 20974.490234
1.040000 3.120000 5.040000 -129.005630 -8.154716 16708.953125
1.040000 3.120000 5.080000 -88.798248 -53.632217 10761.543945
1.040000 3.120000 5.120000 -38.643448 -62.147293 5355.602051
1.040000 3.120000 5.160000 -4.807084 -42.609734 1838.697388
1.040000 3.120000 5.200000 3.835835 -17.018835 304.354370
1.040000 3.160000 4.800000 0.313938 45.004646 2025.516724
1.040000 3.160000 4.840000 -17.423004 51.727432 2979.288330
1.040000 3.160000 4.880000 -37.385555 45.298454 3449.629639
1.040000 3.160000 4.920000 -50.019489 29.456856 3369.655518
1.040000 3.160000 4.960000 -53.747032 12.108749 3035.365234
1.040000 3.160000 5.000000 -52.605080 -3.505966 2779.586182
1.040000 3.160000 5.040000 -48.021603 -19.449173 2684.344482
1.040000 3.160000 5.080000 -36.085323 -35.672512 2574.678711
1.040000 3.160000 5.120000 -14.341488 -45.152092 2244.389648
1.040000 3.160000 5.160000 10.525885 -39.423351 1664.994873
1.040000 3.160000 5.200000 25.069098 -19.260426 999.423645
1.040000 3.200000 4.800000 -21.603640 32.622307 1530.932129
1.040000 3.200000 4.840000 -37.504742 9.347273 1493.977051
1.040000 3.200000 4.880000 -26.486988 -18.775597 1054.083618
1.040000 3.200000 4.920000 2.793419 -24.939606 629.787109
1.040000 3.200000 4.960000 21.626827 -3.987968 483.623566
1.040000 3.200000 5.000000 11.491222 20.603653 556.558716
1.040000 3.200000 5.040000 -15.350449 20.960293 674.970154
1.040000 3.200000 5.080000 -28.048428 -5.198713 813.740906
1.040000 3.200000 5.120000 -9.833330 -31.392223 1082.166016
1.040000 3.200000 5.160000 23.876732 -30.016415 1471.083496
1.040000 3.200000 5.200000 41.461937 -1.295711 1720.770996
1.080000 2.800000 4.800000 -4.541061 5.341486 49.152710
1.080000 2.800000 4.840000 -9.693163 8.230305 161.695312
1.080000 2.800000 4.880000 -16.533087 4.703140 295.462494
1.080000 2.800000 4.920000 -17.577408 -4.409096 328.405396
1.080000 2.800000 4.960000 -9.428940 -11.121986 212.603485
1.080000 2.800000 5.000000 2.145348 -7.461443 60.275646
1.080000 2.800000 5.040000 6.248734 5.926971 74.175659
1.080000 2.800000 5.080000 -3.053229 18.801071 362.802490
1.080000 2.800000 5.120000 -20.325775 19.900963 809.185425
1.080000 2.800000 5.160000 -32.882668 7.260961 1133.991333
1.080000 2.800000 5.200000 -31.915586 -9.821540 1115.067383
1.080000 2.840000 4.800000 -17.389137 -3.326399 313.447021
1.080000 2.840000 4.840000 -35.901974 -11.858110 1429.566406
1.080000 2.840000 4.880000 -42.579330 -41.088326 3501.250000
1.080000 2.840000 4.920000 -19.819313 -72.234901 5610.686035
1.080000 2.840000 4.960000 24.960930 -76.912331 6538.554688
1.080000 2.840000 5.000000 61.223225 -44.517742 5730.112305
1.080000 2.840000 5.040000 61.233227 4.641037 3771.047363
1.080000 2.840000 5.080000 25.742302 35.306885 1909.242310
1.080000 2.840000 5.120000 -16.147102 28.078634 1049.138672
1.080000 2.840000 5.160000 -33.273682 -4.516314 1127.535034
1.080000 2.840000 5.200000 -19.308300 -31.811844 1384.803833
1.080000 2.880000 4.800000 -18.870174 -23.261652 897.187927
1.080000 2.880000 4.840000 -37.038975 -55.978115 4505.435059
1.080000 2.880000 4.880000 -15.899624 -107.213455 11747.522461
1.080000 2.880000 4.920000 51.356586 -131.437988 19913.445312
1.080000 2.880000 4.960000 125.687256 -94.190399 24669.117188
1.080000 2.880000 5.000000 152.038589 -9.390396 23203.912109
1.080000 2.880000 5.040000 109.067230 67.306778 16425.863281
1.080000 2.880000 5.080000 30.128292 85.763306 8263.058594
1.080000 2.880000 5.120000 -26.176167 44.440132 2660.116943
1.080000 2.880000 5.160000 -27.489857 -12.038596 900.619995
1.080000 2.880000 5.200000 8.349865 -36.710838 1417.405884
1.080000 2.920000 4.800000 -1.745699 -40.623795 1653.340210
1.080000 2.920000 4.840000 2.798019 -93.148026 8684.383789
1.080000 2.920000 4.880000 67.570847 -136.560989 23214.722656
1.080000 2.920000 4.920000 165.281158 -113.192352 40130.371094
1.080000 2.920000 4.960000 224.891357 -13.062309 50746.746094
1.080000 2.920000 5.000000 193.679443 106.717865 48900.429688
1.080000 2.920000 5.040000 88.275795 166.903152 35649.277344
1.080000 2.920000 5.080000 -17.131836 134.807816 18466.646484
1.080000 2.920000 5.120000 -55.523853 50.561455 5639.358887
1.080000 2.920000 5.160000 -22.361132 -13.414850 679.978394
1.080000 2.920000 5.200000 30.064075 -18.078629 1230.685425
1.080000 2.960000 4.800000 26.331400 -39.969624 2290.913574
1.080000 2.960000 4.840000 65.253540 -88.826118 12148.103516
1.080000 2.960000 4.880000 157.421082 -89.344666 32763.865234
1.080000 2.960000 4.920000 238.855255 -3.090704 57061.382812
1.080000 2.960000 4.960000 234.102402 134.152664 72800.875000
1.080000 2.960000 5.000000 128.131378 233.651733 71010.781250
1.080000 2.960000 5.040000 -13.506868 229.144608 52689.683594
1.080000 2.960000 5.080000 -99.197517 134.860107 28027.394531
1.080000 2.960000 5.120000 -89.141373 29.992502 8845.734375
1.080000 2.960000 5.160000 -22.496452 -13.884052 698.857300
1.080000 2.960000 5.200000 28.397148 8.937991 886.285706
1.080000 3.000000 4.800000 47.377182 -17.902447 2565.094971
1.080000 3.000000 4.840000 108.436325 -37.209923 13143.014648
1.080000 3.000000 4.880000 187.147552 14.798828 35243.210938
1.080000 3.000000 4.920000 208.070038 134.319000 61334.734375
1.080000 3.000000 4.960000 127.732979 249.341339 78486.812500
1.080000 3.000000 5.000000 -17.788761 277.163269 77135.914062
1.080000 3.000000 5.040000 -137.738220 197.749359 58076.625000
1.080000 3.000000 5.080000 -163.151764 71.825211 31777.359375
1.080000 3.000000 5.120000 -102.454834 -13.814774 10687.840820
1.080000 3.000000 5.160000 -24.950619 -20.150043 1028.557617
1.080000 3.000000 5.200000 7.148027 20.838814 485.350464
1.080000 3.040000 4.800000 47.450890 13.218252 2426.309082
1.080000 3.040000 4.840000 101.615906 30.298180 11243.771484
1.080000 3.040000 4.880000 132.852432 107.927467 29298.107422
1.080000 3.040000 4.920000 88.928925 206.166275 50412.882812
1.080000 3.040000 4.960000 -26.532413 252.259552 64338.851562
1.080000 3.040000 5.000000 -148.344070 203.885468 63575.250000
1.080000 3.040000 5.040000 -201.926880 88.848824 48668.578125
1.080000 3.040000 5.080000 -165.351166 -17.845421 27659.466797
1.080000 3.040000 5.120000 -83.140877 -57.710228 10242.875977
1.080000 3.040000 5.160000 -21.560486 -32.749527 1537.385986
1.080000 3.040000 5.200000 -11.285206 8.467911 199.061386
1.080000 3.080000 4.800000 27.661539 35.343647 2014.334106
1.080000 3.080000 4.840000 51.578674 70.390373 7615.164062
1.080000 3.080000 4.880000 35.431171 130.870621 18382.486328
1.080000 3.080000 4.920000 -33.937340 171.564606 30586.156250
1.080000 3.080000 4.960000 -124.549942 151.742188 38538.378906
1.080000 3.080000 5.000000 -181.614716 72.539963 38245.953125
1.080000 3.080000 5.040000 -172.029053 -21.359909 30050.240234
1.080000 3.080000 5.080000 -110.169014 -77.898178 18205.337891
1.080000 3.080000 5.120000 -42.382847 -77.968567 7875.403320
1.080000 3.080000 5.160000 -6.940887 -44.087410 1991.875610
1.080000 3.080000 5.200000 -7.326269 -13.593884 238.467896
1.080000 3.120000 4.800000 1.753414 39.073074 1529.779541
1.080000 3.120000 4.840000 -4.514420 63.602005 4065.594971
1.080000 3.120000 4.880000 -36.050823 82.369949 8084.470703
1.080000 3.120000 4.920000 -81.625053 74.274384 12179.333984
1.080000 3.120000 4.960000 -116.160217 34.507820 14683.986328
1.080000 3.120000 5.000000 -119.164268 -20.503235 14620.505859
1.080000 3.120000 5.040000 -89.295738 -64.884262 12183.696289
1.080000 3.120000 5.080000 -43.673790 -81.137032 8490.617188
1.080000 3.120000 5.120000 -4.407291 -69.641396 4869.348145
1.080000 3.120000 5.160000 15.473689 -44.332382 2204.795166
1.080000 3.120000 5.200000 16.603613 -20.933952 713.910278
1.080000 3.160000 4.800000 -16.617163 29.008051 1117.597168
1.080000 3.160000 4.840000 -32.257633 27.060484 1772.824707
1.080000 3.160000 4.880000 -44.080162 14.067280 2140.948975
1.080000 3.160000 4.920000 -46.332870 -2.592606 2153.456543
1.080000 3.160000 4.960000 -41.927250 -16.204819 2020.490479
1.080000 3.160000 5.000000 -35.674820 -27.145931 2009.594360
1.080000 3.160000 5.040000 -26.570107 -38.711533 2204.553223
1.080000 3.160000 5.080000 -9.599991 -48.495258 2443.949951
1.080000 3.160000 5.120000 14.636169 -47.465370 2467.178955
1.080000 3.160000 5.160000 35.101341 -29.858213 2123.616943
1.080000 3.160000 5.200000 38.383018 -2.926359 1481.819702
1.080000 3.200000 4.800000 -24.225239 16.265253 851.420654
1.080000 3.200000 4.840000 -26.857544 -5.920504 756.380005
1.080000 3.200000 4.880000 -8.396999 -20.775826 502.144531
1.080000 3.200000 4.920000 13.408394 -12.678185 340.521362
1.080000 3.200000 4.960000 15.825493 9.057812 332.490173
1.080000 3.200000 5.000000 -2.973274 19.026953 370.865295
1.080000 3.200000 5.040000 -20.196384 3.754341 421.989014
1.080000 3.200000 5.080000 -12.585922 -21.907246 638.332825
1.080000 3.200000 5.120000 17.323570 -29.276337 1157.209961
1.080000 3.200000 5.160000 42.065506 -6.585901 1812.880981
1.080000 3.200000 5.200000 37.474300 27.344316 2152.034912
1.120000 2.800000 4.800000 -15.642430 -1.742566 247.722153
1.120000 2.800000 4.840000 -15.236379 -3.858028 247.031616
1.120000 2.800000 4.880000 -15.007614 -6.599539 268.782410
1.120000 2.800000 4.920000 -12.873768 -10.298012 271.782959
1.120000 2.800000 4.960000 -7.477364 -12.292114 207.007034
1.120000 2.800000 5.000000 -1.171059 -9.238579 86.722717
1.120000 2.800000 5.040000 0.851991 -1.387886 2.652117
1.120000 2.800000 5.080000 -4.671376 5.949509 57.218407
1.120000 2.800000 5.120000 -14.926015 6.237692 261.694702
1.120000 2.800000 5.160000 -22.282734 -2.176882 501.259033
1.120000 2.800000 5.200000 -20.635735 -13.731337 614.383118
1.120000 2.840000 4.800000 -14.786572 -21.862574 696.614868
1.120000 2.840000 4.840000 -15.079422 -31.522127 1221.033447
1.120000 2.840000 4.880000 -5.844307 -45.067856 2065.267578
1.120000 2.840000 4.920000 15.926910 -50.927364 2847.262939
1.120000 2.840000 4.960000 40.146965 -38.324242 3080.526367
1.120000 2.840000 5.000000 49.741295 -9.755539 2569.367188
1.120000 2.840000 5.040000 35.817390 17.810913 1600.114136
1.120000 2.840000 5.080000 7.265526 26.072445 732.560242
1.120000 2.840000 5.120000 -15.520138 11.291491 368.372437
1.120000 2.840000 5.160000 -17.816679 -12.435112 472.066040
1.120000 2.840000 5.200000 -2.580718 -25.932491 679.154175
1.120000 2.880000 4.800000 4.225037 -37.082844 1392.988281
1.120000 2.880000 4.840000 11.960335 -54.920609 3159.322754
1.120000 2.880000 4.880000 41.347088 -68.004456 6334.187500
1.120000 2.880000 4.920000 82.451111 -54.001007 9714.294922
1.120000 2.880000 4.960000 106.734604 -8.379257 11462.487305
1.120000 2.880000 5.000000 91.586205 45.412449 10450.324219
1.120000 2.880000 5.040000 43.167450 72.880928 7175.058594
1.120000 2.880000 5.080000 -6.117058 58.177540 3422.044678
1.120000 2.880000 5.120000 -24.798990 18.037487 940.340881
1.120000 2.880000 5.160000 -8.624527 -13.884251 267.154877
1.120000 2.880000 5.200000 18.896946 -16.996048 645.960205
1.120000 2.920000 4.800000 31.703568 -32.828865 2082.850586
1.120000 2.920000 4.840000 54.509697 -50.234249 5494.787109
1.120000 2.920000 4.880000 100.579628 -43.691856 12025.240234
1.120000 2.920000 4.920000 138.974396 5.212910 19341.056641
1.120000 2.920000 4.960000 132.248047 78.242638 23611.457031
1.120000 2.920000 5.000000 73.158287 129.871078 22218.630859
1.120000 2.920000 5.040000 -3.760044 125.667801 15806.534180
1.120000 2.920000 5.080000 -49.743279 73.343262 7853.627930
1.120000 2.920000 5.120000 -43.205330 15.712748 2113.591064
1.120000 2.920000 5.160000 -5.437936 -7.813501 90.621948
1.120000 2.920000 5.200000 23.251089 6.322010 580.580933
1.120000 2.960000 4.800000 48.794067 -8.288751 2449.564453
1.120000 2.960000 4.840000 83.641342 -12.395472 7149.521973
1.120000 2.960000 4.880000 126.270294 23.961712 16518.351562
1.120000 2.960000 4.920000 133.017303 97.987480 27295.148438
1.120000 2.960000 4.960000 79.060989 166.437164 33951.968750
1.120000 2.960000 5.000000 -12.551867 179.957016 32542.076172
1.120000 2.960000 5.040000 -85.937866 127.761833 23708.402344
1.120000 2.960000 5.080000 -99.438667 48.627750 12252.707031
1.120000 2.960000 5.120000 -59.904724 -3.345247 3599.766602
1.120000 2.960000 5.160000 -11.839540 -4.970747 164.883041
1.120000 2.960000 5.200000 5.912975 21.899990 514.572815
1.120000 3.000000 4.800000 43.286377 21.336105 2328.939941
1.120000 3.000000 4.840000 76.800003 36.910919 7260.656250
1.120000 3.000000 4.880000 93.573669 92.668976 17343.570312
1.120000 3.000000 4.920000 57.685867 160.579590 29113.464844
1.120000 3.000000 4.960000 -27.166462 189.517563 36654.921875
1.120000 3.000000 5.000000 -113.649811 150.778931 35650.562500
1.120000 3.000000 5.040000 -148.949249 66.341866 26587.121094
1.120000 3.000000 5.080000 -119.624695 -8.884974 14389.009766
1.120000 3.000000 5.120000 -60.246178 -34.145012 4795.483398
1.120000 3.000000 5.160000 -19.009117 -13.997438 557.274780
1.120000 3.000000 5.200000 -15.521559 14.206245 442.736206
1.120000 3.040000 4.800000 20.221600 37.483788 1813.947388
1.120000 3.040000 4.840000 38.101765 66.071411 5817.175781
1.120000 3.040000 4.880000 22.872139 116.245728 14036.204102
1.120000 3.040000 4.920000 -37.483391 149.210007 23668.630859
1.120000 3.040000 4.960000 -114.956360 129.615417 30015.121094
1.120000 3.040000 5.000000 -161.504700 59.569973 29632.349609
1.120000 3.040000 5.040000 -149.539490 -20.360558 22776.611328
1.120000 3.040000 5.080000 -94.488602 -64.916687 13142.271484
1.120000 3.040000 5.120000 -38.692390 -60.536564 5161.776367
1.120000 3.040000 5.160000 -13.781279 -30.752602 1135.646240
1.120000 3.040000 5.200000 -18.050039 -8.926188 405.480774
1.120000 3.080000 4.800000 -3.399112 33.998657 1167.462646
1.120000 3.080000 4.840000 -5.290714 60.084297 3638.114502
1.120000 3.080000 4.880000 -37.030716 84.392975 8493.448242
1.120000 3.080000 4.920000 -88.652748 78.896072 14083.900391
1.120000 3.080000 4.960000 -129.041290 34.646385 17852.025391
1.120000 3.080000 5.000000 -131.055298 -28.083431 17964.169922
1.120000 3.080000 5.040000 -93.881699 -75.416817 14501.469727
1.120000 3.080000 5.080000 -42.243099 -86.610931 9285.932617
1.120000 3.080000 5.120000 -4.765285 -67.437576 4570.534668
1.120000 3.080000 5.160000 7.377358 -40.216293 1671.775635
1.120000 3.080000 5.200000 3.202103 -22.849329 532.345337
1.120000 3.120000 4.800000 -14.663365 20.589312 638.934021
1.120000 3.120000 4.840000 -27.379704 31.333271 1731.422119
1.120000 3.120000 4.880000 -51.443802 29.274763 3503.476562
1.120000 3.120000 4.920000 -72.810486 7.903839 5363.837402
1.120000 3.120000 4.960000 -77.202721 -25.839043 6627.916504
1.120000 3.120000 5.000000 -60.422997 -56.926163 6891.526367
1.120000 3.120000 5.040000 -29.922024 -72.737976 6186.140625
1.120000 3.120000 5.080000 1.643929 -69.716812 4863.136719
1.120000 3.120000 5.120000 24.007641 -52.689072 3352.504883
1.120000 3.120000 5.160000 32.758163 -30.174881 1983.620728
1.120000 3.120000 5.200000 28.894493 -10.387121 942.783997
1.120000 3.160000 4.800000 -15.337704 10.974331 355.681091
1.120000 3.160000 4.840000 -24.321426 4.927673 615.813782
1.120000 3.160000 4.880000 -26.873051 -6.513226 764.582947
1.120000 3.160000 4.920000 -22.771685 -16.293262 784.020020
1.120000 3.160000 4.960000 -17.051102 -22.317108 788.793396
1.120000 3.160000 5.000000 -11.624496 -28.249588 933.168152
1.120000 3.160000 5.040000 -2.029846 -35.722870 1280.243652
1.120000 3.160000 5.080000 15.599205 -38.509293 1726.300781
1.120000 3.160000 5.120000 35.663635 -27.712051 2039.852661
1.120000 3.160000 5.160000 44.619652 -3.513910 2003.260864
1.120000 3.160000 5.200000 33.813416 20.584301 1567.060547
1.120000 3.200000 4.800000 -16.673454 8.478518 349.889343
1.120000 3.200000 4.840000 -12.397889 -5.388079 182.739044
1.120000 3.200000 4.880000 2.111015 -7.799606 65.290245
1.120000 3.200000 4.920000 10.005184 4.086096 116.799896
1.120000 3.200000 4.960000 1.515545 15.312322 236.764069
1.120000 3.200000 5.000000 -13.016029 9.964525 268.708801
1.120000 3.200000 5.040000 -13.358521 -8.967316 258.862823
1.120000 3.200000 5.080000 7.163393 -20.298756 463.353699
1.120000 3.200000 5.120000 31.455250 -7.069656 1039.412842
1.120000 3.200000 5.160000 34.830910 23.278839 1755.096680
1.120000 3.200000 5.200000 11.407305 44.294029 2092.087646
1.160000 2.800000 4.800000 -16.365755 -15.154333 497.491760
1.160000 2.800000 4.840000 -9.590944 -15.004793 317.130035
1.160000 2.800000 4.880000 -7.176680 -12.257685 201.755569
1.160000 2.800000 4.920000 -7.645891 -12.004553 202.568939
1.160000 2.800000 4.960000 -6.033140 -14.625267 250.297211
1.160000 2.800000 5.000000 -0.313198 -15.389891 236.946838
1.160000 2.800000 5.040000 5.388959 -10.259176 134.291565
1.160000 2.800000 5.080000 4.863104 -1.556392 26.072134
1.160000 2.800000 5.120000 -2.868322 3.305373 19.152765
1.160000 2.800000 5.160000 -11.284658 -0.667608 127.789215
1.160000 2.800000 5.200000 -12.258449 -10.211995 254.554413
1.160000 2.840000 4.800000 1.859285 -31.688360 1007.609131
1.160000 2.840000 4.840000 10.727442 -28.428679 923.267761
1.160000 2.840000 4.880000 16.376728 -23.824341 835.796509
1.160000 2.840000 4.920000 21.084984 -18.912607 802.263245
1.160000 2.840000 4.960000 25.235182 -11.583708 770.996704
1.160000 2.840000 5.000000 25.455051 -0.977438 648.915039
1.160000 2.840000 5.040000 18.340282 8.924600 416.014435
1.160000 2.840000 5.080000 5.837976 11.580092 168.180511
1.160000 2.840000 5.120000 -4.362287 4.451984 38.849709
1.160000 2.840000 5.160000 -5.065310 -7.104295 76.128365
1.160000 2.840000 5.200000 3.391800 -13.676836 198.560150
1.160000 2.880000 4.800000 29.934687 -28.154633 1688.768799
1.160000 2.880000 4.840000 39.047924 -20.610588 1949.536621
1.160000 2.880000 4.880000 46.459038 -10.186825 2262.213623
1.160000 2.880000 4.920000 50.300514 4.783714 2553.025879
1.160000 2.880000 4.960000 45.700584 22.653893 2601.742188
1.160000 2.880000 5.000000 30.221794 36.212894 2224.730469
1.160000 2.880000 5.040000 9.097811 37.316620 1475.300293
1.160000 2.880000 5.080000 -6.560664 24.802780 658.220215
1.160000 2.880000 5.120000 -8.385886 7.323528 123.957153
1.160000 2.880000 5.160000 1.726358 -2.991579 11.929853
1.160000 2.880000 5.200000 13.075572 -0.745434 171.526260
1.160000 2.920000 4.800000 47.372723 -2.567941 2250.769043
1.160000 2.920000 4.840000 54.055275 9.192606 3006.476562
1.160000 2.920000 4.880000 57.712463 26.947639 4056.903809
1.160000 2.920000 4.920000 51.075035 49.530628 5061.942383
1.160000 2.920000 4.960000 29.681499 67.440826 5429.256348
1.160000 2.920000 5.000000 -0.375233 68.996384 4760.641602
1.160000 2.920000 5.040000 -24.225340 51.391205 3227.922852
1.160000 2.920000 5.080000 -29.643764 25.294098 1518.544189
1.160000 2.920000 5.120000 -17.680521 7.091198 362.885925
1.160000 2.920000 5.160000 -1.656260 5.295580 30.786364
1.160000 2.920000 5.200000 4.970135 14.193772 226.165405
1.160000 2.960000 4.800000 39.759132 28.523729 2394.391602
1.160000 2.960000 4.840000 41.638885 42.518211 3541.595215
1.160000 2.960000 4.880000 35.926632 63.460152 5317.914062
1.160000 2.960000 4.920000 14.528849 83.077583 7112.972168
1.160000 2.960000 4.960000 -19.519131 86.917862 7935.711426
1.160000 2.960000 5.000000 -50.448509 67.788635 7140.350586
1.160000 2.960000 5.040000 -61.543831 34.610523 4985.531250
1.160000 2.960000 5.080000 -49.641701 6.604251 2507.914551
1.160000 2.960000 5.120000 -27.890202 -2.588836 784.565430
1.160000 2.960000 5.160000 -13.631399 4.383910 205.033722
1.160000 2.960000 5.200000 -13.266492 13.312357 353.218628
1.160000 3.000000 4.800000 12.492018 43.241741 2025.898682
1.160000 3.000000 4.840000 8.977606 56.169025 3235.556885
1.160000 3.000000 4.880000 -6.537453 72.447922 5291.439453
1.160000 3.000000 4.920000 -36.425056 78.415848 7475.830078
1.160000 3.000000 4.960000 -68.608383 62.675514 8635.330078
1.160000 3.000000 5.000000 -84.756493 28.690884 8006.830078
1.160000 3.000000 5.040000 -76.148033 -5.897361 5833.301758
1.160000 3.000000 5.080000 -51.533283 -23.592455 3212.283203
1.160000 3.000000 5.120000 -29.003391 -21.270353 1293.624634
1.160000 3.000000 5.160000 -20.001129 -10.561341 511.587097
1.160000 3.000000 5.200000 -21.254097 -4.906801 475.813324
1.160000 3.040000 4.800000 -13.509219 33.797005 1324.736572
1.160000 3.040000 4.840000 -20.755211 42.742016 2257.658691
1.160000 3.040000 4.880000 -40.063652 48.624237 3969.412598
1.160000 3.040000 4.920000 -65.815781 39.232407 5870.898438
1.160000 3.040000 4.960000 -82.889099 12.142532 7018.043457
1.160000 3.040000 5.000000 -79.558006 -21.038912 6772.112305
1.160000 3.040000 5.040000 -57.953182 -43.692604 5267.615234
1.160000 3.040000 5.080000 -31.869396 -47.740746 3294.837158
1.160000 3.040000 5.120000 -14.489873 -38.636108 1702.705322
1.160000 3.040000 5.160000 -8.493452 -27.949535 853.315247
1.160000 3.040000 5.200000 -7.385116 -22.133356 544.425354
1.160000 3.080000 4.800000 -21.119003 13.029165 615.771423
1.160000 3.080000 4.840000 -29.206219 16.753202 1133.673096
1.160000 3.080000 4.880000 -44.098854 12.991955 2113.500000
1.160000 3.080000 4.920000 -56.767673 -3.104132 3232.204590
1.160000 3.080000 4.960000 -57.410210 -26.678123 4007.654297
1.160000 3.080000 5.000000 -43.786713 -46.899071 4116.799316
1.160000 3.080000 5.040000 -22.410488 -55.532242 3586.059814
1.160000 3.080000 5.080000 -2.513920 -52.066544 2717.244873
1.160000 3.080000 5.120000 10.538624 -41.633083 1844.376221
1.160000 3.080000 5.160000 16.544802 -29.484682 1143.076904
1.160000 3.080000 5.200000 17.260389 -18.139675 626.968872
1.160000 3.120000 4.800000 -12.556724 0.855050 158.402420
1.160000 3.120000 4.840000 -18.741419 -0.234306 351.295685
1.160000 3.120000 4.880000 -24.612228 -7.460121 661.415161
1.160000 3.120000 4.920000 -25.434055 -18.748425 998.394592
1.160000 3.120000 4.960000 -19.960363 -29.848429 1289.344849
1.160000 3.120000 5.000000 -9.625908 -37.740082 1516.971802
1.160000 3.120000 5.040000 3.902168 -40.892841 1687.451416
1.160000 3.120000 5.080000 18.863310 -37.552517 1766.015991
1.160000 3.120000 5.120000 31.387733 -26.183966 1670.789795
1.160000 3.120000 5.160000 35.655556 -8.744941 1347.792603
1.160000 3.120000 5.200000 28.312176 7.586049 859.127441
1.160000 3.160000 4.800000 -5.278590 4.035101 44.145554
1.160000 3.160000 4.840000 -7.385754 -0.558346 54.861107
1.160000 3.160000 4.880000 -5.459227 -4.602465 50.985840
1.160000 3.160000 4.920000 -3.192974 -5.803650 43.877438
1.160000 3.160000 4.960000 -3.231754 -7.499198 66.682205
1.160000 3.160000 5.000000 -1.895140 -13.378554 182.577271
1.160000 3.160000 5.040000 7.090376 -20.071796 453.150452
1.160000 3.160000 5.080000 23.180841 -18.042309 862.876343
1.160000 3.160000 5.120000 35.550900 -1.949682 1267.667725
1.160000 3.160000 5.160000 32.014847 20.612747 1449.835815
1.160000 3.160000 5.200000 12.311336 33.455753 1270.856445
1.160000 3.200000 4.800000 -12.240111 10.049212 250.807007
1.160000 3.200000 4.840000 -8.436935 4.073785 87.777603
1.160000 3.200000 4.880000 -3.223359 6.284922 49.890285
1.160000 3.200000 4.920000 -5.774094 11.868234 174.195129
1.160000 3.200000 4.960000 -14.361053 9.736542 301.040100
1.160000 3.200000 5.000000 -16.503330 -2.709526 279.701416
1.160000 3.200000 5.040000 -3.653177 -13.408112 193.123154
1.160000 3.200000 5.080000 16.086735 -7.352198 312.837860
1.160000 3.200000 5.120000 23.433235 15.436768 787.410278
1.160000 3.200000 5.160000 7.917148 36.489380 1394.156128
1.160000 3.200000 5.200000 -19.013916 36.149734 1668.332275
1.200000 2.800000 4.800000 -6.789210 -23.771721 611.188110
1.200000 2.800000 4.840000 0.738833 -17.491709 306.505737
1.200000 2.800000 4.880000 -0.437054 -11.411981 130.424316
1.200000 2.800000 4.920000 -4.278730 -12.596597 176.981781
1.200000 2.800000 4.960000 -1.942451 -18.529575 347.118286
1.200000 2.800000 5.000000 7.949536 -19.816610 455.893188
1.200000 2.800000 5.040000 16.987850 -10.798132 405.186707
1.200000 2.800000 5.080000 15.595459 3.317704 254.225494
1.200000 2.800000 5.120000 3.647425 10.966382 133.565247
1.200000 2.800000 5.160000 -8.535775 6.011146 108.993332
1.200000 2.800000 5.200000 -10.288812 -5.679581 138.117294
1.200000 2.840000 4.800000 19.153099 -25.423338 1013.187378
1.200000 2.840000 4.840000 21.903339 -9.916945 578.102051
1.200000 2.840000 4.880000 13.252178 -1.097388 176.824478
1.200000 2.840000 4.920000 4.806355 -4.017454 39.240978
1.200000 2.840000 4.960000 5.987240 -11.317408 163.930756
1.200000 2.840000 5.000000 14.594994 -11.815099 352.610413
1.200000 2.840000 5.040000 19.938595 -2.679187 404.725616
1.200000 2.840000 5.080000 14.871410 7.825213 282.392822
1.200000 2.840000 5.120000 3.595756 9.656437 106.176231
1.200000 2.840000 5.160000 -3.095668 1.996902 13.570780
1.200000 2.840000 5.200000 0.414188 -6.052148 36.800045
1.200000 2.880000 4.800000 38.923248 -4.101667 1531.843018
1.200000 2.880000 4.840000 29.762314 14.712931 1102.265625
1.200000 2.880000 4.880000 12.206331 18.961298 508.525330
1.200000 2.880000 4.920000 1.332510 9.458527 91.239304
1.200000 2.880000 4.960000 3.937817 -1.421144 17.526049
1.200000 2.880000 5.000000 13.389229 -2.504122 185.542084
1.200000 2.880000 5.040000 17.823694 5.868701 352.125732
1.200000 2.880000 5.080000 12.470423 13.972232 350.734711
1.200000 2.880000 5.120000 3.315056 13.898997 204.171722
1.200000 2.880000 5.160000 -0.704093 7.416764 55.504131
1.200000 2.880000 5.200000 2.461324 2.662096 13.144873
1.200000 2.920000 4.800000 34.928440 26.916737 1944.506592
1.200000 2.920000 4.840000 13.784060 38.603676 1680.244019
1.200000 2.920000 4.880000 -7.150046 31.489826 1042.732300
1.200000 2.920000 4.920000 -13.926630 13.873547 386.426331
1.200000 2.920000 4.960000 -5.496743 1.092197 31.407076
1.200000 2.920000 5.000000 6.905135 1.835889 51.051376
1.200000 2.920000 5.040000 11.174022 11.812189 264.386597
1.200000 2.920000 5.080000 4.896183 19.854259 418.164246
1.200000 2.920000 5.120000 -4.578367 19.146553 387.551941
1.200000 2.920000 5.160000 -8.975454 12.280380 231.366516
1.200000 2.920000 5.200000 -6.825667 6.505309 88.908783
1.200000 2.960000 4.800000 7.992083 44.245354 2021.524780
1.200000 2.960000 4.840000 -16.563358 41.512482 1997.630981
1.200000 2.960000 4.880000 -31.062742 22.922720 1490.345093
1.200000 2.960000 4.920000 -27.501207 2.165261 761.004761
1.200000 2.960000 4.960000 -11.933956 -6.561268 185.469559
1.200000 2.960000 5.000000 1.372638 -0.002694 1.884142
1.200000 2.960000 5.040000 2.318888 12.787653 168.901306
1.200000 2.960000 5.080000 -7.511631 19.522373 437.547668
1.200000 2.960000 5.120000 -18.141018 15.225800 560.921509
1.200000 2.960000 5.160000 -20.960260 4.847677 462.832489
1.200000 2.960000 5.200000 -15.405665 -2.886296 245.665237
1.200000 3.000000 4.800000 -21.531349 34.956192 1685.534302
1.200000 3.000000 4.840000 -38.085472 19.804234 1842.710815
1.200000 3.000000 4.880000 -39.365742 -2.280931 1554.864258
1.200000 3.000000 4.920000 -25.445543 -17.205910 943.518982
1.200000 3.000000 4.960000 -7.624869 -16.387365 326.684387
1.200000 3.000000 5.000000 0.688878 -3.651145 13.805415
1.200000 3.000000 5.040000 -5.122695 8.399256 96.789505
1.200000 3.000000 5.080000 -17.808336 9.268002 403.032684
1.200000 3.000000 5.120000 -25.355453 -1.039229 643.979065
1.200000 3.000000 5.160000 -21.419163 -13.212551 633.352051
1.200000 3.000000 5.200000 -9.828835 -17.469707 401.796661
1.200000 3.040000 4.800000 -31.534592 8.921068 1074.015991
1.200000 3.040000 4.840000 -34.629032 -8.750898 1275.748169
1.200000 3.040000 4.880000 -24.612726 -23.893562 1176.688721
1.200000 3.040000 4.920000 -7.744519 -27.002396 789.106995
1.200000 3.040000 4.960000 4.057466 -17.256264 314.241669
1.200000 3.040000 5.000000 2.912828 -3.973843 24.275995
1.200000 3.040000 5.040000 -8.125870 1.010723 67.051323
1.200000 3.040000 5.080000 -17.684797 -6.419220 353.958435
1.200000 3.040000 5.120000 -16.186514 -19.202782 630.750061
1.200000 3.040000 5.160000 -4.232896 -25.706610 678.747192
1.200000 3.040000 5.200000 8.407207 -20.154478 476.884094
1.200000 3.080000 4.800000 -18.687515 -10.315935 455.641754
1.200000 3.080000 4.840000 -12.544008 -20.966404 596.942261
1.200000 3.080000 4.880000 -0.226415 -24.444345 597.577271
1.200000 3.080000 4.920000 10.243490 -17.831078 422.876404
1.200000 3.080000 4.960000 11.140587 -6.509652 166.488251
1.200000 3.080000 5.000000 2.591890 -0.549614 7.019971
1.200000 3.080000 5.040000 -6.467775 -5.623751 73.458694
1.200000 3.080000 5.080000 -6.092192 -17.063765 328.286865
1.200000 3.080000 5.120000 5.108294 -23.619759 583.987671
1.200000 3.080000 5.160000 18.144318 -17.937229 650.960449
1.200000 3.080000 5.200000 21.871727 -3.683799 491.942810
1.200000 3.120000 4.800000 -1.076235 -8.397336 71.673531
1.200000 3.120000 4.840000 5.366175 -10.388659 136.720078
1.200000 3.120000 4.880000 11.731901 -6.237764 176.547211
1.200000 3.120000 4.920000 11.983566 1.814292 146.897522
1.200000 3.120000 4.960000 4.792892 6.289157 62.525307
1.200000 3.120000 5.000000 -3.216994 1.507581 12.621854
1.200000 3.120000 5.040000 -2.754635 -9.361281 95.221603
1.200000 3.120000 5.080000 8.458046 -15.693951 317.838623
1.200000 3.120000 5.120000 21.825548 -9.341518 563.618530
1.200000 3.120000 5.160000 25.119925 6.482170 673.029175
1.200000 3.120000 5.200000 14.389608 19.189083 575.281738
1.200000 3.160000 4.800000 0.573140 5.865242 34.729549
1.200000 3.160000 4.840000 2.514656 6.661830 50.703480
1.200000 3.160000 4.880000 1.995064 10.619658 116.757401
1.200000 3.160000 4.920000 -3.917216 12.958760 183.274048
1.200000 3.160000 4.960000 -11.161044 7.829903 185.876282
1.200000 3.160000 5.000000 -10.977049 -3.569454 133.236603
1.200000 3.160000 5.040000 0.493772 -11.328295 128.574066
1.200000 3.160000 5.080000 15.609833 -5.713257 276.308197
1.200000 3.160000 5.120000 20.514833 11.643856 556.437744
1.200000 3.160000 5.160000 8.722499 26.941376 801.919678
1.200000 3.160000 5.200000 -10.975563 26.583607 827.151123
1.200000 3.200000 4.800000 -15.375225 10.091385 338.233612
1.200000 3.200000 4.840000 -14.740915 8.020288 281.619629
1.200000 3.200000 4.880000 -16.702038 8.107901 344.696106
1.200000 3.200000 4.920000 -21.705118 4.328404 489.847229
1.200000 3.200000 4.960000 -22.642792 -6.008778 548.801453
1.200000 3.200000 5.000000 -12.800928 -15.861411 415.448120
1.200000 3.200000 5.040000 3.868075 -13.811865 205.729614
1.200000 3.200000 5.080000 13.241470 2.769611 183.007278
1.200000 3.200000 5.120000 4.456595 21.598698 486.364990
1.200000 3.200000 5.160000 -17.159389 25.395227 939.362244
1.200000 3.200000 5.200000 -32.851288 9.397070 1167.512085
