#kx 	ky 	kz 	real 	imag 	intensity
0.800000 2.800000 4.983333 -99.558823 -34.168964 11079.476562
0.800000 2.800000 4.991667 19.574989 -29.870846 1275.447632
0.800000 2.800000 5.000000 -61.695034 35.813637 5088.894043
0.800000 2.800000 5.008333 -55.839790 -79.543839 9445.304688
0.800000 2.800000 5.016667 34.655090 -12.013732 1345.305054
0.800000 2.900000 4.983333 -15.832413 -93.431229 8980.059570
0.800000 2.900000 4.991667 45.456886 11.770767 2204.879639
0.800000 2.900000 5.000000 -82.751244 -62.354794 10735.888672
0.800000 2.900000 5.008333 87.124435 -90.113007 15711.021484
0.800000 2.900000 5.016667 26.678135 6.188334 750.018372
0.800000 3.000000 4.983333 55.192406 -33.144478 4144.757812
0.800000 3.000000 4.991667 33.845627 -3.282593 1156.301880
0.800000 3.000000 5.000000 86.949661 -32.054287 8587.720703
0.800000 3.000000 5.008333 73.462601 58.722717 8845.111328
0.800000 3.000000 5.016667 60.734375 79.108643 9946.841797
0.800000 3.100000 4.983333 3.296841 23.750858 574.972412
0.800000 3.100000 4.991667 69.167938 59.250092 8294.777344
0.800000 3.100000 5.000000 -72.821472 118.941765 19450.109375
0.800000 3.100000 5.008333 -31.134520 -7.839718 1030.819458
0.800000 3.100000 5.016667 -102.546158 96.609444 19849.099609
0.800000 3.200000 4.983333 2.815025 -25.775873 672.320007
0.800000 3.200000 4.991667 -34.148495 77.271286 7136.971191
0.800000 3.200000 5.000000 -96.501259 -133.077759 27022.183594
0.800000 3.200000 5.008333 104.761581 -25.433119 11621.833008
0.800000 3.200000 5.016667 -46.157612 -55.391731 5198.769043
0.900000 2.800000 4.983333 -72.491394 -37.316383 6647.514648
0.900000 2.800000 4.991667 -40.692551 -115.436905 14981.562500
0.900000 2.800000 5.000000 38.302532 -30.911274 2422.590820
0.900000 2.800000 5.008333 -29.532156 -70.402786 5828.700684
0.900000 2.800000 5.016667 82.412903 -15.353521 7027.617188
0.900000 2.900000 4.983333 442.917114 -447.755341 396660.406250
0.900000 2.900000 4.991667 -405.921051 1035.181641 1236372.875000
0.900000 2.900000 5.000000 -1218.532959 -776.817871 2088268.625000
0.900000 2.900000 5.008333 150.053894 -761.959900 603099.062500
0.900000 2.900000 5.016667 142.827057 -622.180542 407508.187500
0.900000 3.000000 4.983333 785.007324 548.916931 917546.312500
0.900000 3.000000 4.991667 -1700.435791 -409.176208 3058907.250000
0.900000 3.000000 5.000000 891.247437 -2043.625732 4970728.000000
0.900000 3.000000 5.008333 1164.642212 -27.434753 1357144.125000
0.900000 3.000000 5.016667 1068.901123 85.119156 1149794.875000
0.900000 3.100000 4.983333 -212.710190 609.363831 416569.906250
0.900000 3.100000 4.991667 22.861847 -1025.937622 1053070.625000
0.900000 3.100000 5.000000 1308.609375 299.563324 1802196.750000
0.900000 3.100000 5.008333 182.696991 735.551208 574413.750000
0.900000 3.100000 5.016667 -10.168549 712.447693 507685.125000
0.900000 3.200000 4.983333 -68.889603 120.093781 19168.292969
0.900000 3.200000 4.991667 -151.940338 -91.750473 31504.015625
0.900000 3.200000 5.000000 97.229919 -78.378143 15596.791016
0.900000 3.200000 5.008333 -45.872574 81.085869 8679.210938
0.900000 3.200000 5.016667 -38.128551 -89.018364 9378.055664
1.000000 2.800000 4.983333 -81.535110 -127.540886 22914.652344
1.000000 2.800000 4.991667 162.696777 -129.271255 43181.296875
1.000000 2.800000 5.000000 21.476536 68.230179 5116.599121
1.000000 2.800000 5.008333 35.321739 -120.168785 15688.162109
1.000000 2.800000 5.016667 107.306183 67.362854 16052.371094
1.000000 2.900000 4.983333 778.885437 492.261871 848984.250000
1.000000 2.900000 4.991667 -1645.511230 -385.222382 2856103.500000
1.000000 2.900000 5.000000 824.661987 -2113.791992 5148184.000000
1.000000 2.900000 5.008333 1305.835571 -69.742493 1710070.500000
1.000000 2.900000 5.016667 1048.665527 106.601791 1111063.375000
1.000000 3.000000 4.983333 -637.057739 1309.948853 2121808.500000
1.000000 3.000000 4.991667 259.719788 -2726.046875 7498786.000000
1.000000 3.000000 5.000000 3443.203857 811.689636 12514493.000000
1.000000 3.000000 5.008333 432.042053 1861.813843 3653011.000000
1.000000 3.000000 5.016667 180.908386 1713.944458 2970333.250000
1.000000 3.100000 4.983333 -976.794495 -195.171097 992219.250000
1.000000 3.100000 4.991667 1670.919434 -156.275024 2816393.750000
1.000000 3.100000 5.000000 -181.135132 2212.852295 4929525.500000
1.000000 3.100000 5.008333 -1135.243408 457.272522 1497875.750000
1.000000 3.100000 5.016667 -1126.319580 256.401611 1334337.500000
1.000000 3.200000 4.983333 -173.299545 -99.795898 39991.953125
1.000000 3.200000 4.991667 79.441956 -150.612900 28995.269531
1.000000 3.200000 5.000000 15.279006 -0.807587 234.100220
1.000000 3.200000 5.008333 -6.152157 -104.675507 10994.810547
1.000000 3.200000 5.016667 89.090202 -87.994141 15680.033203
1.100000 2.800000 4.983333 83.584373 -90.364380 15152.068359
1.100000 2.800000 4.991667 68.935226 85.226578 12015.634766
1.100000 2.800000 5.000000 -28.982170 2.039303 844.124939
1.100000 2.800000 5.008333 76.527794 -14.891668 6078.265137
1.100000 2.800000 5.016667 27.584723 100.910034 10943.751953
1.100000 2.900000 4.983333 -230.894699 552.568848 358644.718750
1.100000 2.900000 4.991667 98.109039 -1096.804321 1212605.125000
1.100000 2.900000 5.000000 1450.812866 309.269287 2200505.500000
1.100000 2.900000 5.008333 215.205231 854.269104 776089.000000
1.100000 2.900000 5.016667 12.028757 717.271545 514623.156250
1.100000 3.000000 4.983333 -893.681030 -317.852356 899695.937500
1.100000 3.000000 4.991667 1749.793213 -66.447449 3066191.500000
1.100000 3.000000 5.000000 -172.903656 2264.802734 5159227.000000
1.100000 3.000000 5.008333 -1176.464600 486.506714 1620757.750000
1.100000 3.000000 5.016667 -1065.992676 268.830444 1208610.125000
1.100000 3.100000 4.983333 93.149681 -650.909912 432360.593750
1.100000 3.100000 4.991667 215.893951 1047.273804 1143392.625000
1.100000 3.100000 5.000000 -1416.489380 52.538918 2009202.500000
1.100000 3.100000 5.008333 -374.413055 -711.769897 646801.500000
1.100000 3.100000 5.016667 -252.206238 -665.186829 506081.531250
1.100000 3.200000 4.983333 89.050064 -71.618324 13059.098633
1.100000 3.200000 4.991667 71.229721 19.717148 5462.439453
1.100000 3.200000 5.000000 89.721039 -20.446484 8467.923828
1.100000 3.200000 5.008333 107.065735 61.866234 15290.501953
1.100000 3.200000 5.016667 54.966778 80.723793 9537.677734
1.200000 2.800000 4.983333 -19.559797 23.188869 920.309326
1.200000 2.800000 4.991667 -12.966070 -99.276321 10023.907227
1.200000 2.800000 5.000000 49.922401 -6.053303 2528.888672
1.200000 2.800000 5.008333 40.302563 -18.608366 1970.567749
1.200000 2.800000 5.016667 -4.877761 75.195099 5678.095215
1.200000 2.900000 4.983333 -23.961597 -51.264812 3202.239258
1.200000 2.900000 4.991667 105.189636 16.754230 11345.563477
1.200000 2.900000 5.000000 -4.112481 76.838791 5921.112305
1.200000 2.900000 5.008333 -18.602272 39.208633 1883.361450
1.200000 2.900000 5.016667 -44.043388 0.211372 1939.864746
1.200000 3.000000 4.983333 99.701843 -35.088787 11171.680664
1.200000 3.000000 4.991667 -45.628616 41.219448 3781.013672
1.200000 3.000000 5.000000 -15.242535 -41.676338 1969.251953
1.200000 3.000000 5.008333 -0.339543 -40.049919 1604.111206
1.200000 3.000000 5.016667 29.715405 5.739974 915.952576
1.200000 3.100000 4.983333 69.084724 99.848885 14742.499023
1.200000 3.100000 4.991667 14.524208 -61.458706 3988.125244
1.200000 3.100000 5.000000 115.330566 27.722843 14069.695312
1.200000 3.100000 5.008333 63.158554 58.827251 7449.648438
1.200000 3.100000 5.016667 -8.803976 78.650002 6263.332520
1.200000 3.200000 4.983333 -47.654720 100.416962 12354.539062
1.200000 3.200000 4.991667 19.889008 1.608078 398.158539
1.200000 3.200000 5.000000 14.604702 127.238472 16402.925781
1.200000 3.200000 5.008333 -85.299240 77.500923 13282.353516
1.200000 3.200000 5.016667 -90.297600 12.250654 8303.735352
