#kx 	ky 	kz 	real 	imag 	intensity
3.800000 5.800000 5.800000 -4.383407 -16.568523 293.730225
3.800000 5.800000 5.840000 -2.846245 -7.537032 64.907967
3.800000 5.800000 5.880000 -9.650061 -5.327356 121.504395
3.800000 5.800000 5.920000 -13.486497 -13.599732 366.838318
3.800000 5.800000 5.960000 -5.611052 -23.922523 603.770996
3.800000 5.800000 6.000000 10.765079 -24.187216 700.908386
3.800000 5.800000 6.040000 23.314922 -10.907588 662.561096
3.800000 5.800000 6.080000 22.625839 7.347655 565.916626
3.800000 5.800000 6.120000 10.766458 18.665922 464.333252
3.800000 5.800000 6.160000 -2.236069 18.944237 363.884094
3.800000 5.800000 6.200000 -9.259223 13.724582 274.097351
3.800000 5.840000 5.800000 2.934239 -18.058969 334.736145
3.800000 5.840000 5.840000 -1.646334 -9.184281 87.061432
3.800000 5.840000 5.880000 -9.475240 -12.195060 238.499649
3.800000 5.840000 5.920000 -7.713501 -22.690311 574.348328
3.800000 5.840000 5.960000 5.465679 -27.326694 776.621887
3.800000 5.840000 6.000000 18.996552 -18.324879 696.670166
3.800000 5.840000 6.040000 20.833662 -1.722438 437.008270
3.800000 5.840000 6.080000 10.466507 9.368618 197.318771
3.800000 5.840000 6.120000 -1.471334 8.653657 77.050606
3.800000 5.840000 6.160000 -5.518493 2.224768 35.403355
3.800000 5.840000 6.200000 -3.368368 0.018328 11.346241
3.800000 5.880000 5.800000 10.532177 -17.573032 419.738220
3.800000 5.880000 5.840000 2.835441 -12.926928 175.145172
3.800000 5.880000 5.880000 -1.235380 -19.490662 381.412048
3.800000 5.880000 5.920000 5.902419 -26.732815 749.481934
3.800000 5.880000 5.960000 18.187515 -23.833988 898.844727
3.800000 5.880000 6.000000 23.644083 -11.696248 695.844849
3.800000 5.880000 6.040000 18.167143 -1.178218 331.433258
3.800000 5.880000 6.080000 9.603659 -0.153257 92.253754
3.800000 5.880000 6.120000 7.794765 -4.621246 82.114288
3.800000 5.880000 6.160000 12.465273 -4.178356 172.841690
3.800000 5.880000 6.200000 13.380254 4.522813 199.487030
3.800000 5.920000 5.800000 19.451454 -13.462687 559.603027
3.800000 5.920000 5.840000 12.597114 -12.490668 314.704071
3.800000 5.920000 5.880000 12.816750 -17.999619 488.255341
3.800000 5.920000 5.920000 20.537743 -19.545933 803.842346
3.800000 5.920000 5.960000 27.307182 -13.238689 920.945068
3.800000 5.920000 6.000000 27.171036 -5.005499 763.320190
3.800000 5.920000 6.040000 23.652416 -1.762113 562.541809
3.800000 5.920000 6.080000 24.170084 -1.911274 587.845886
3.800000 5.920000 6.120000 29.049252 2.770996 851.537415
3.800000 5.920000 6.160000 29.113171 15.709951 1094.379272
3.800000 5.920000 6.200000 16.022724 28.320988 1058.806030
3.800000 5.960000 5.800000 26.764275 -2.664921 723.428223
3.800000 5.960000 5.840000 21.337109 -2.480189 461.423553
3.800000 5.960000 5.880000 22.097452 -4.861650 511.933044
3.800000 5.960000 5.920000 26.166782 -3.734532 698.647217
3.800000 5.960000 5.960000 28.717936 0.290717 824.804382
3.800000 5.960000 6.000000 29.916832 3.726944 908.906982
3.800000 5.960000 6.040000 33.190994 7.440634 1157.005127
3.800000 5.960000 6.080000 37.549286 16.737963 1690.108276
3.800000 5.960000 6.120000 34.958717 33.147480 2320.867188
3.800000 5.960000 6.160000 18.182924 48.055603 2639.959717
3.800000 5.960000 6.200000 -8.626756 47.850571 2364.097900
3.800000 6.000000 5.800000 26.059868 13.587457 863.735657
3.800000 6.000000 5.840000 19.641457 13.662609 572.453674
3.800000 6.000000 5.880000 17.753613 11.574191 449.152649
3.800000 6.000000 5.920000 19.100487 10.318356 471.297058
3.800000 6.000000 5.960000 22.936859 10.797616 642.687988
3.800000 6.000000 6.000000 29.109524 15.356734 1083.193604
3.800000 6.000000 6.040000 33.908009 27.538092 1908.099609
3.800000 6.000000 6.080000 29.202354 46.323555 2998.649414
3.800000 6.000000 6.120000 9.163509 61.944439 3921.083496
3.800000 6.000000 6.160000 -21.023237 60.969810 4159.294434
3.800000 6.000000 6.200000 -45.098595 38.363190 3505.617676
3.800000 6.040000 5.800000 13.624479 27.761713 956.339111
3.800000 6.040000 5.840000 4.967795 24.806614 640.047119
3.800000 6.040000 5.880000 2.102532 18.604189 350.536499
3.800000 6.040000 5.920000 5.936691 13.640700 221.313004
3.800000 6.040000 5.960000 14.633656 15.200617 445.202637
3.800000 6.040000 6.000000 21.699190 27.136616 1207.250732
3.800000 6.040000 6.040000 17.485466 46.758041 2492.055908
3.800000 6.040000 6.080000 -3.492059 62.624443 3934.015381
3.800000 6.040000 6.120000 -34.952919 60.752155 4912.531250
3.800000 6.040000 6.160000 -59.892754 36.391747 4911.500977
3.800000 6.040000 6.200000 -62.341087 0.615374 3886.789795
3.800000 6.080000 5.800000 -6.447473 31.088818 1008.084473
3.800000 6.080000 5.840000 -14.449800 21.895441 688.207031
3.800000 6.080000 5.880000 -12.858478 10.999116 286.320984
3.800000 6.080000 5.920000 -2.619044 6.736783 52.243641
3.800000 6.080000 5.960000 8.243599 15.206455 299.193207
3.800000 6.080000 6.000000 7.861855 33.984924 1216.783813
3.800000 6.080000 6.040000 -10.574893 50.460869 2658.127686
3.800000 6.080000 6.080000 -40.793236 49.325493 4097.092285
3.800000 6.080000 6.120000 -65.069702 25.182751 4868.236816
3.800000 6.080000 6.160000 -66.747879 -10.768130 4571.231934
3.800000 6.080000 6.200000 -43.956696 -37.639702 3348.938232
3.800000 6.120000 5.800000 -24.261314 21.052139 1031.803955
3.800000 6.120000 5.840000 -26.348360 6.290262 733.803467
3.800000 6.120000 5.880000 -16.432800 -4.461463 289.941589
3.800000 6.120000 5.920000 -1.672319 -1.826126 6.131389
3.800000 6.120000 5.960000 4.307184 14.393650 225.728989
3.800000 6.120000 6.000000 -8.132391 31.997913 1090.002197
3.800000 6.120000 6.040000 -34.650906 34.114868 2364.509521
3.800000 6.120000 6.080000 -57.627785 13.283239 3497.406006
3.800000 6.120000 6.120000 -59.233147 -20.385826 3924.147461
3.800000 6.120000 6.160000 -36.474045 -45.747059 3423.149414
3.800000 6.120000 6.200000 -4.473619 -47.367592 2263.701904
3.800000 6.160000 5.800000 -31.812164 3.517804 1024.388794
3.800000 6.160000 5.840000 -24.882542 -11.886836 760.437744
3.800000 6.160000 5.880000 -8.325489 -16.146282 330.016174
3.800000 6.160000 5.920000 4.461792 -4.499331 40.151562
3.800000 6.160000 5.960000 0.500015 13.817192 191.164810
3.800000 6.160000 6.000000 -20.051788 21.253603 853.789856
3.800000 6.160000 6.040000 -41.511642 7.024630 1772.561890
3.800000 6.160000 6.080000 -44.856583 -21.854206 2489.719238
3.800000 6.160000 6.120000 -24.526340 -44.955406 2622.529785
3.800000 6.160000 6.160000 5.824173 -45.522312 2106.201904
3.800000 6.160000 6.200000 24.669987 -24.907772 1229.005371
3.800000 6.200000 5.800000 -28.671307 -12.666170 982.475708
3.800000 6.200000 5.840000 -14.259140 -23.246246 743.710999
3.800000 6.200000 5.880000 3.105784 -18.386745 347.718323
3.800000 6.200000 5.920000 8.398052 -1.590357 73.056519
3.800000 6.200000 5.960000 -4.006657 11.323114 144.266220
3.800000 6.200000 6.000000 -23.072611 6.124222 569.851501
3.800000 6.200000 6.040000 -29.807924 -15.498472 1128.714966
3.800000 6.200000 6.080000 -14.879654 -35.906765 1510.699829
3.800000 6.200000 6.120000 11.742477 -37.056976 1511.105225
3.800000 6.200000 6.160000 29.145779 -17.288403 1148.365234
3.800000 6.200000 6.200000 24.335480 6.865109 639.345276
3.840000 5.800000 5.800000 0.263051 -6.572053 43.261074
3.840000 5.800000 5.840000 -3.551447 -2.146504 17.220257
3.840000 5.800000 5.880000 -9.169475 -5.798704 117.704231
3.840000 5.800000 5.920000 -7.762964 -15.269523 293.421936
3.840000 5.800000 5.960000 3.385456 -21.413086 469.981567
3.840000 5.800000 6.000000 17.815109 -16.708586 596.554932
3.840000 5.800000 6.040000 25.572191 -2.216219 658.848572
3.840000 5.800000 6.080000 21.797249 13.697237 662.734375
3.840000 5.800000 6.120000 9.829463 22.898048 620.938965
3.840000 5.800000 6.160000 -3.274685 23.299835 553.605896
3.840000 5.800000 6.200000 -12.994104 17.854456 487.628357
3.840000 5.840000 5.800000 5.287004 -7.871352 89.910591
3.840000 5.840000 5.840000 2.148142 -4.862614 28.259525
3.840000 5.840000 5.880000 0.611337 -7.020966 49.667690
3.840000 5.840000 5.920000 4.084513 -9.356916 104.235130
3.840000 5.840000 5.960000 9.694528 -6.961680 142.448853
3.840000 5.840000 6.000000 12.040346 -0.258793 145.036911
3.840000 5.840000 6.040000 9.195483 6.059202 121.270844
3.840000 5.840000 6.080000 4.139666 8.592489 90.967705
3.840000 5.840000 6.120000 0.428755 8.529790 72.941147
3.840000 5.840000 6.160000 -2.241792 8.867288 83.654427
3.840000 5.840000 6.200000 -6.867194 9.318581 133.994293
3.840000 5.880000 5.800000 12.733858 -6.450708 203.762772
3.840000 5.880000 5.840000 11.591920 -1.588026 136.894424
3.840000 5.880000 5.880000 9.984159 2.337568 105.147667
3.840000 5.880000 5.920000 6.565073 5.994055 79.028877
3.840000 5.880000 5.960000 0.642370 6.804184 46.709560
3.840000 5.880000 6.000000 -4.304277 2.221296 23.460957
3.840000 5.880000 6.040000 -2.945654 -5.239304 36.127186
3.840000 5.880000 6.080000 5.387726 -8.242764 96.970741
3.840000 5.880000 6.120000 13.656492 -1.610352 189.093018
3.840000 5.880000 6.160000 12.544781 10.878675 275.717102
3.840000 5.880000 6.200000 0.110022 18.078587 326.847412
3.840000 5.920000 5.800000 19.921549 1.595116 399.412506
3.840000 5.920000 5.840000 16.927254 11.031817 408.232910
3.840000 5.920000 5.880000 7.966358 18.652714 411.386597
3.840000 5.920000 5.920000 -5.934939 18.416985 374.408844
3.840000 5.920000 5.960000 -16.550728 6.423722 315.190796
3.840000 5.920000 6.000000 -13.531248 -11.545963 316.403931
3.840000 5.920000 6.040000 4.650116 -21.236366 472.606812
3.840000 5.920000 6.080000 25.631393 -11.773403 795.581360
3.840000 5.920000 6.120000 31.677889 12.583757 1161.839600
3.840000 5.920000 6.160000 15.577128 33.594219 1371.218506
3.840000 5.920000 6.200000 -11.351903 34.099083 1291.613159
3.840000 5.960000 5.800000 19.885714 15.712761 642.332458
3.840000 5.960000 5.840000 9.577223 26.587618 798.624634
3.840000 5.960000 5.880000 -8.499819 28.811142 902.328857
3.840000 5.960000 5.920000 -25.198311 15.422699 872.814575
3.840000 5.960000 5.960000 -25.914543 -9.132666 754.969116
3.840000 5.960000 6.000000 -4.603464 -27.113317 756.323853
3.840000 5.960000 6.040000 26.074320 -20.769083 1111.224976
3.840000 5.960000 6.080000 41.765827 9.982756 1844.039673
3.840000 5.960000 6.120000 27.035637 43.802242 2649.562012
3.840000 5.960000 6.160000 -9.350632 54.467812 3054.176758
3.840000 5.960000 6.200000 -40.418629 33.665741 2767.047607
3.840000 6.000000 5.800000 8.187851 28.138857 858.836182
3.840000 6.000000 5.840000 -9.634382 32.596401 1155.346680
3.840000 6.000000 5.880000 -29.068676 22.052647 1331.307129
3.840000 6.000000 5.920000 -35.313972 -2.894945 1255.457397
3.840000 6.000000 5.960000 -17.839584 -26.476837 1019.273682
3.840000 6.000000 6.000000 15.403058 -27.337139 984.573364
3.840000 6.000000 6.040000 39.194469 1.446688 1538.299316
3.840000 6.000000 6.080000 31.009575 41.713604 2701.618652
3.840000 6.000000 6.120000 -7.488275 62.493088 3961.460205
3.840000 6.000000 6.160000 -49.142883 46.341274 4562.536621
3.840000 6.000000 6.200000 -63.601357 5.226542 4072.449219
3.840000 6.040000 5.800000 -10.911643 29.392284 982.970337
3.840000 6.040000 5.840000 -28.911213 22.050121 1322.066040
3.840000 6.040000 5.880000 -38.210785 1.107677 1461.291016
3.840000 6.040000 5.920000 -27.395910 -22.803036 1270.514404
3.840000 6.040000 5.960000 1.363432 -30.206989 914.321167
3.840000 6.040000 6.000000 27.829098 -9.512016 864.937134
3.840000 6.040000 6.040000 27.723747 28.343460 1571.957886
3.840000 6.040000 6.080000 -4.885512 54.584938 3003.383545
3.840000 6.040000 6.120000 -48.785362 46.020802 4497.925781
3.840000 6.040000 6.160000 -71.551758 6.374900 5160.292969
3.840000 6.040000 6.200000 -57.072273 -35.651962 4528.306641
3.840000 6.080000 5.800000 -26.511192 17.046009 993.409790
3.840000 6.080000 5.840000 -35.320808 0.764204 1248.143433
3.840000 6.080000 5.880000 -29.424480 -19.522585 1246.931396
3.840000 6.080000 5.920000 -8.033137 -29.486832 934.004578
3.840000 6.080000 5.960000 15.430779 -17.576897 547.056274
3.840000 6.080000 6.000000 20.591400 11.665914 560.099304
3.840000 6.080000 6.040000 -2.131282 36.515877 1337.951660
3.840000 6.080000 6.080000 -39.635197 34.316086 2748.542480
3.840000 6.080000 6.120000 -64.079124 2.104748 4110.564453
3.840000 6.080000 6.160000 -55.927513 -38.549629 4613.960449
3.840000 6.080000 6.200000 -21.226204 -58.896030 3919.294189
3.840000 6.120000 5.800000 -30.136253 -1.622175 910.825256
3.840000 6.120000 5.840000 -26.278336 -17.714134 1004.341431
3.840000 6.120000 5.880000 -10.814214 -26.940117 842.717102
3.840000 6.120000 5.920000 7.430222 -20.655846 481.872162
3.840000 6.120000 5.960000 13.840953 -0.689264 192.047058
3.840000 6.120000 6.000000 -0.160587 18.255444 333.287018
3.840000 6.120000 6.040000 -27.116421 18.547756 1079.319580
3.840000 6.120000 6.080000 -46.650551 -4.764417 2198.973633
3.840000 6.120000 6.120000 -41.601326 -37.325275 3123.846436
3.840000 6.120000 6.160000 -13.417562 -55.928879 3308.070557
3.840000 6.120000 6.200000 18.108807 -47.945114 2626.662842
3.840000 6.160000 5.800000 -22.631285 -16.251497 776.286255
3.840000 6.160000 5.840000 -10.734158 -24.482035 714.592163
3.840000 6.160000 5.880000 3.713378 -21.073593 457.885498
3.840000 6.160000 5.920000 9.843361 -7.393736 151.559082
3.840000 6.160000 5.960000 1.398868 5.886514 36.607872
3.840000 6.160000 6.000000 -16.295229 6.068994 302.367157
3.840000 6.160000 6.040000 -28.593006 -10.431570 926.377686
3.840000 6.160000 6.080000 -23.056759 -33.219147 1635.125854
3.840000 6.160000 6.120000 -0.734230 -45.243919 2047.551270
3.840000 6.160000 6.160000 23.550718 -36.972816 1921.625488
3.840000 6.160000 6.200000 33.259651 -14.822628 1325.914673
3.840000 6.200000 5.800000 -11.804693 -22.490280 645.163513
3.840000 6.200000 5.840000 0.798690 -22.104343 489.239899
3.840000 6.200000 5.880000 8.088340 -12.418736 219.646240
3.840000 6.200000 5.920000 3.991202 -1.783839 19.111773
3.840000 6.200000 5.960000 -7.662644 -0.754785 59.285820
3.840000 6.200000 6.000000 -15.108907 -12.248387 378.302063
3.840000 6.200000 6.040000 -8.722834 -27.572952 836.355530
3.840000 6.200000 6.080000 9.647131 -33.116737 1189.785400
3.840000 6.200000 6.120000 27.203814 -22.382215 1241.010986
3.840000 6.200000 6.160000 30.955475 -2.318240 963.615662
3.840000 6.200000 6.200000 19.117424 12.336315 517.660583
3.880000 5.800000 5.800000 -4.841059 1.438645 25.505548
3.880000 5.800000 5.840000 -7.774528 -1.044447 61.534149
3.880000 5.800000 5.880000 -7.693222 -7.332716 112.954391
3.880000 5.800000 5.920000 -1.522739 -13.506622 184.747589
3.880000 5.800000 5.960000 9.322231 -14.220953 289.139496
3.880000 5.800000 6.000000 19.491817 -6.969208 428.500793
3.880000 5.800000 6.040000 23.412182 5.958031 583.628357
3.880000 5.800000 6.080000 18.793837 19.132477 719.259949
3.880000 5.800000 6.120000 7.390396 27.289265 799.321960
3.880000 5.800000 6.160000 -6.527727 27.519335 799.924988
3.880000 5.800000 6.200000 -17.985029 19.703598 711.693054
3.880000 5.840000 5.800000 0.845017 -1.562326 3.154918
3.880000 5.840000 5.840000 3.528656 1.800606 15.693594
3.880000 5.840000 5.880000 2.984365 7.074278 58.951843
3.880000 5.840000 5.920000 -1.841732 10.431525 112.208694
3.880000 5.840000 5.960000 -7.591463 8.423563 128.586731
3.880000 5.840000 6.000000 -8.819614 2.324753 83.190071
3.880000 5.840000 6.040000 -3.568130 -1.810448 16.009275
3.880000 5.840000 6.080000 3.491838 1.415548 14.196712
3.880000 5.840000 6.120000 4.494753 10.711199 134.932587
3.880000 5.840000 6.160000 -3.992528 17.917643 336.982208
3.880000 5.840000 6.200000 -16.482758 14.956224 495.369934
3.880000 5.880000 5.800000 8.972012 2.435599 86.429138
3.880000 5.880000 5.840000 8.991035 17.190292 376.344879
3.880000 5.880000 5.880000 -5.523720 30.054779 933.801208
3.880000 5.880000 5.920000 -28.750870 27.058071 1558.751709
3.880000 5.880000 5.960000 -43.338272 4.906548 1902.280029
3.880000 5.880000 6.000000 -35.295345 -22.410551 1747.994141
3.880000 5.880000 6.040000 -8.460396 -33.852867 1217.594849
3.880000 5.880000 6.080000 16.748222 -20.187302 688.030151
3.880000 5.880000 6.120000 20.782511 6.758198 477.585999
3.880000 5.880000 6.160000 2.472570 24.203074 591.902344
3.880000 5.880000 6.200000 -20.207487 18.844898 763.472717
3.880000 5.920000 5.800000 11.070050 14.308163 327.269531
3.880000 5.920000 5.840000 -2.872309 35.088509 1239.453613
3.880000 5.920000 5.880000 -35.586212 39.218353 2804.457764
3.880000 5.920000 5.920000 -65.572227 12.645254 4459.619141
3.880000 5.920000 5.960000 -65.399750 -33.015182 5367.129883
3.880000 5.920000 6.000000 -28.244696 -65.291824 5060.785156
3.880000 5.920000 6.040000 21.654505 -58.096924 3844.169922
3.880000 5.920000 6.080000 47.659401 -16.283413 2536.567871
3.880000 5.920000 6.120000 32.516159 27.185625 1796.358887
3.880000 5.920000 6.160000 -6.891253 40.020897 1649.161621
3.880000 5.920000 6.200000 -35.963547 18.233139 1625.824097
3.880000 5.960000 5.800000 0.899388 25.645889 658.520508
3.880000 5.960000 5.840000 -29.109785 37.867020 2281.290771
3.880000 5.960000 5.880000 -67.085144 18.760803 4852.384277
3.880000 5.960000 5.920000 -80.187881 -31.172918 7401.847168
3.880000 5.960000 5.960000 -47.465870 -80.111511 8670.863281
3.880000 5.960000 6.000000 15.497435 -88.596054 8089.431152
3.880000 5.960000 6.040000 64.520889 -45.654198 6247.250977
3.880000 5.960000 6.080000 63.687218 18.086823 4383.194824
3.880000 5.960000 6.120000 17.141928 55.384972 3361.340820
3.880000 5.960000 6.160000 -35.055134 43.069195 3083.817871
3.880000 5.960000 6.200000 -53.238270 0.053599 2834.316406
3.880000 6.000000 5.800000 -17.184383 25.105000 925.564026
3.880000 6.000000 5.840000 -51.372169 17.507053 2945.596680
3.880000 6.000000 5.880000 -73.494270 -22.451780 5905.490234
3.880000 6.000000 5.920000 -55.133041 -74.661789 8614.035156
3.880000 6.000000 5.960000 3.255056 -98.592552 9731.086914
3.880000 6.000000 6.000000 64.424530 -68.465477 8838.041016
3.880000 6.000000 6.040000 82.465332 -0.661407 6800.968262
3.880000 6.000000 6.080000 43.283546 56.104897 5021.225098
3.880000 6.000000 6.120000 -21.468502 61.720512 4270.318359
3.880000 6.000000 6.160000 -61.888260 18.828384 4184.665039
3.880000 6.000000 6.200000 -53.040665 -32.113323 3844.577637
3.880000 6.040000 5.800000 -30.132183 9.832811 1004.632690
3.880000 6.040000 5.840000 -51.579422 -14.456363 2869.423096
3.880000 6.040000 5.880000 -46.944275 -56.127216 5354.029297
3.880000 6.040000 5.920000 -5.826310 -85.683701 7375.642578
3.880000 6.040000 5.960000 50.510361 -73.234680 7914.615234
3.880000 6.040000 6.000000 80.817932 -18.597458 6877.403320
3.880000 6.040000 6.040000 58.727306 42.139790 5224.658203
3.880000 6.040000 6.080000 -1.372595 64.443245 4154.815430
3.880000 6.040000 6.120000 -54.289780 33.761604 4087.226074
3.880000 6.040000 6.160000 -62.561905 -21.947084 4395.666504
3.880000 6.040000 6.200000 -27.631266 -57.969925 4123.999023
3.880000 6.080000 5.800000 -27.899776 -10.446740 887.531921
3.880000 6.080000 5.840000 -29.164173 -36.059029 2150.802490
3.880000 6.080000 5.880000 -6.562530 -59.695732 3606.647217
3.880000 6.080000 5.920000 32.634453 -59.049629 4551.866211
3.880000 6.080000 5.960000 61.962566 -25.494967 4489.353027
3.880000 6.080000 6.000000 55.710861 22.494642 3609.708984
3.880000 6.080000 6.040000 13.512701 50.250683 2707.724121
3.880000 6.080000 6.080000 -35.235466 35.760448 2520.347656
3.880000 6.080000 6.120000 -54.540268 -9.852722 3071.717041
3.880000 6.080000 6.160000 -32.499084 -51.001991 3657.393555
3.880000 6.080000 6.200000 9.375022 -58.427177 3501.626221
3.880000 6.120000 5.800000 -13.120969 -22.051010 658.406860
3.880000 6.120000 5.840000 -1.771214 -34.932335 1223.405273
3.880000 6.120000 5.880000 19.195000 -36.447754 1696.886719
3.880000 6.120000 5.920000 37.506844 -20.031685 1808.031738
3.880000 6.120000 5.960000 37.810848 7.614391 1487.639282
3.880000 6.120000 6.000000 15.394152 27.697485 1004.130615
3.880000 6.120000 6.040000 -16.244026 23.363304 809.712402
3.880000 6.120000 6.080000 -33.818359 -4.674377 1165.531250
3.880000 6.120000 6.120000 -23.423792 -36.410759 1874.417480
3.880000 6.120000 6.160000 6.887239 -48.470402 2396.813965
3.880000 6.120000 6.200000 33.761211 -33.848564 2285.544678
3.880000 6.160000 5.800000 1.797574 -20.245520 413.112335
3.880000 6.160000 5.840000 11.876976 -18.914749 498.830292
3.880000 6.160000 5.880000 18.673460 -10.400587 456.870331
3.880000 6.160000 5.920000 17.206825 1.047684 297.172485
3.880000 6.160000 5.960000 7.032724 7.986979 113.251038
3.880000 6.160000 6.000000 -5.880756 4.337364 53.396019
3.880000 6.160000 6.040000 -11.974347 -9.255768 229.054230
3.880000 6.160000 6.080000 -5.069118 -24.225897 612.590088
3.880000 6.160000 6.120000 11.804571 -29.628378 1017.188660
3.880000 6.160000 6.160000 27.692211 -20.903843 1203.829224
3.880000 6.160000 6.200000 32.160271 -4.085627 1050.975342
3.880000 6.200000 5.800000 7.483126 -12.873692 221.729111
3.880000 6.200000 5.840000 9.424985 -6.388334 129.641144
3.880000 6.200000 5.880000 5.246080 -1.685824 30.363365
3.880000 6.200000 5.920000 -0.951342 -3.241026 11.409300
3.880000 6.200000 5.960000 -3.063438 -10.337721 116.253128
3.880000 6.200000 6.000000 2.063894 -17.623100 314.833344
3.880000 6.200000 6.040000 12.194214 -19.256107 519.496521
3.880000 6.200000 6.080000 21.419163 -13.250435 634.354553
3.880000 6.200000 6.120000 24.500139 -2.765919 607.907166
3.880000 6.200000 6.160000 20.456852 6.348368 458.784546
3.880000 6.200000 6.200000 12.927234 9.761801 262.406128
3.920000 5.800000 5.800000 -13.538742 1.918303 186.977417
3.920000 5.800000 5.840000 -10.875156 -3.615849 131.343384
3.920000 5.800000 5.880000 -5.633041 -7.457553 87.346252
3.920000 5.800000 5.920000 1.419540 -8.653246 76.893761
3.920000 5.800000 5.960000 9.250694 -6.231285 124.404266
3.920000 5.800000 6.000000 15.959908 0.641502 255.130173
3.920000 5.800000 6.040000 18.561687 11.570972 478.423645
3.920000 5.800000 6.080000 14.150415 23.650105 759.561707
3.920000 5.800000 6.120000 2.366425 31.609138 1004.737610
3.920000 5.800000 6.160000 -12.709279 30.477932 1090.430176
3.920000 5.800000 6.200000 -23.602030 19.494051 937.073853
3.920000 5.840000 5.800000 -5.245770 -0.271229 27.591667
3.920000 5.840000 5.840000 -1.374496 9.658010 95.166412
3.920000 5.840000 5.880000 -10.080978 19.423655 478.904480
3.920000 5.840000 5.920000 -25.571157 16.674732 931.930786
3.920000 5.840000 5.960000 -33.005276 0.188904 1089.383911
3.920000 5.840000 6.000000 -23.012295 -16.958778 817.165894
3.920000 5.840000 6.040000 -2.188568 -18.972532 364.746796
3.920000 5.840000 6.080000 11.809231 -2.866585 147.675232
3.920000 5.840000 6.120000 6.632232 17.702360 357.360046
3.920000 5.840000 6.160000 -12.791760 24.764751 776.922058
3.920000 5.840000 6.200000 -28.701195 12.839580 988.613403
3.920000 5.880000 5.800000 0.530310 7.561465 57.456985
3.920000 5.880000 5.840000 -11.385868 30.285709 1046.862183
3.920000 5.880000 5.880000 -45.257317 34.479950 3237.091553
3.920000 5.880000 5.920000 -75.072113 5.059425 5661.419922
3.920000 5.880000 5.960000 -71.244751 -42.530743 6884.678711
3.920000 5.880000 6.000000 -30.083427 -72.478142 6158.093750
3.920000 5.880000 6.040000 19.542934 -60.583111 4052.239502
3.920000 5.880000 6.080000 40.826759 -17.212446 1963.092529
3.920000 5.880000 6.120000 21.883341 21.849201 956.268188
3.920000 5.880000 6.160000 -14.967462 28.069340 1011.912720
3.920000 5.880000 6.200000 -35.814919 4.579782 1303.682739
3.920000 5.920000 5.800000 -5.579237 18.266104 364.778442
3.920000 5.920000 5.840000 -41.543617 35.193016 2964.420410
3.920000 5.920000 5.880000 -88.631714 10.506226 7965.961426
3.920000 5.920000 5.920000 -102.576981 -53.191456 13351.368164
3.920000 5.920000 5.960000 -58.742012 -112.960541 16210.708008
3.920000 5.920000 6.000000 19.544739 -120.701286 14950.797852
3.920000 5.920000 6.040000 77.184181 -67.683807 10538.496094
3.920000 5.920000 6.080000 75.064354 5.605724 5666.081543
3.920000 5.920000 6.120000 23.882805 45.230343 2616.172363
3.920000 5.920000 6.160000 -28.355873 30.868252 1756.904541
3.920000 5.920000 6.200000 -41.699417 -10.670277 1852.696289
3.920000 5.960000 5.800000 -21.573856 18.447483 805.740906
3.920000 5.960000 5.840000 -69.635025 10.069986 4950.441406
3.920000 5.960000 5.880000 -100.719193 -47.273705 12379.158203
3.920000 5.960000 5.920000 -72.487274 -122.059311 20152.880859
3.920000 5.960000 5.960000 12.070137 -155.173294 24224.439453
3.920000 5.960000 6.000000 98.555794 -112.767479 22429.748047
3.920000 5.960000 6.040000 125.275101 -20.768730 16125.190430
3.920000 5.960000 6.080000 77.462730 54.955853 9020.620117
3.920000 5.960000 6.120000 -0.659494 65.635910 4308.507812
3.920000 5.960000 6.160000 -47.458344 19.545269 2634.312012
3.920000 5.960000 6.200000 -37.961346 -31.984818 2464.092285
3.920000 6.000000 5.800000 -33.285233 2.507933 1114.196411
3.920000 6.000000 5.840000 -69.027374 -32.876526 5845.644531
3.920000 6.000000 5.880000 -62.596230 -99.809891 13880.302734
3.920000 6.000000 5.920000 4.138049 -148.291260 22007.419922
3.920000 6.000000 5.960000 96.118095 -129.678284 26055.144531
3.920000 6.000000 6.000000 148.175201 -44.626892 23947.449219
3.920000 6.000000 6.040000 121.030884 50.988625 17248.314453
3.920000 6.000000 6.080000 37.311111 91.896484 9837.083008
3.920000 6.000000 6.120000 -38.205452 59.035580 4944.856445
3.920000 6.000000 6.160000 -55.644718 -7.668427 3155.139404
3.920000 6.000000 6.200000 -19.817501 -49.762901 2869.079834
3.920000 6.040000 5.800000 -27.458548 -19.417587 1131.014526
3.920000 6.040000 5.840000 -34.928810 -62.673386 5147.975098
3.920000 6.040000 5.880000 2.961182 -107.680847 11603.933594
3.920000 6.040000 5.920000 75.348923 -110.301468 17843.875000
3.920000 6.040000 5.960000 134.042236 -51.970718 20668.275391
3.920000 6.040000 6.000000 131.756470 36.333942 18679.923828
3.920000 6.040000 6.040000 65.505157 95.059891 13327.308594
3.920000 6.040000 6.080000 -17.578865 85.976379 7700.954590
3.920000 6.040000 6.120000 -59.865971 24.557590 4187.009766
3.920000 6.040000 6.160000 -41.626415 -35.964012 3026.168457
3.920000 6.040000 6.200000 6.969104 -52.785835 2834.912842
3.920000 6.080000 5.800000 -5.867174 -29.693985 916.156433
3.920000 6.080000 5.840000 8.841412 -57.473621 3381.387695
3.920000 6.080000 5.880000 50.091049 -67.424049 7055.115723
3.920000 6.080000 5.920000 94.171219 -38.594425 10357.748047
3.920000 6.080000 5.960000 105.514862 21.014164 11574.980469
3.920000 6.080000 6.000000 67.816483 74.421722 10137.667969
3.920000 6.080000 6.040000 2.288139 84.032166 7066.640137
3.920000 6.080000 6.080000 -46.969334 44.146370 4155.020508
3.920000 6.080000 6.120000 -49.261299 -13.354361 2605.014404
3.920000 6.080000 6.160000 -12.031202 -46.539253 2310.651855
3.920000 6.080000 6.200000 28.797760 -38.528999 2313.794678
3.920000 6.120000 5.800000 15.066704 -20.339743 640.710693
3.920000 6.120000 5.840000 31.090071 -25.060854 1594.638916
3.920000 6.120000 5.880000 51.055653 -14.147978 2806.844971
3.920000 6.120000 5.920000 59.598839 13.172592 3725.538574
3.920000 6.120000 5.960000 44.620647 43.159935 3853.782227
3.920000 6.120000 6.000000 9.821449 55.185616 3141.913086
3.920000 6.120000 6.040000 -24.464184 38.348244 2069.083984
3.920000 6.120000 6.080000 -35.805801 2.453732 1288.076172
3.920000 6.120000 6.120000 -18.047113 -28.215012 1121.785156
3.920000 6.120000 6.160000 13.424396 -34.276802 1355.113525
3.920000 6.120000 6.200000 34.998661 -16.475704 1496.355103
3.920000 6.160000 5.800000 20.046448 -1.328988 403.626282
3.920000 6.160000 5.840000 21.957893 5.228800 509.489441
3.920000 6.160000 5.880000 19.280373 12.289663 522.768555
3.920000 6.160000 5.920000 12.676712 17.110313 453.461853
3.920000 6.160000 5.960000 3.693459 17.692547 326.667847
3.920000 6.160000 6.000000 -4.977722 12.528111 181.731262
3.920000 6.160000 6.040000 -9.135618 2.014141 87.516281
3.920000 6.160000 6.080000 -5.081087 -9.751202 120.903374
3.920000 6.160000 6.120000 6.640678 -16.064793 302.176178
3.920000 6.160000 6.160000 19.882202 -12.353745 547.916992
3.920000 6.160000 6.200000 26.643532 -0.542994 710.172668
3.920000 6.200000 5.800000 10.125164 9.477308 192.338318
3.920000 6.200000 5.840000 0.233057 11.250957 126.638359
3.920000 6.200000 5.880000 -7.785419 3.295649 71.474052
3.920000 6.200000 5.920000 -6.040897 -8.523622 109.144562
3.920000 6.200000 5.960000 4.397957 -14.342402 225.046509
3.920000 6.200000 6.000000 14.728079 -10.091604 318.756775
3.920000 6.200000 6.040000 17.390759 -0.964331 303.368408
3.920000 6.200000 6.080000 13.105991 4.622408 193.133667
3.920000 6.200000 6.120000 8.941925 3.693430 93.599449
3.920000 6.200000 6.160000 10.154821 0.875496 103.886894
3.920000 6.200000 6.200000 14.852942 2.492865 226.824265
3.960000 5.800000 5.800000 -19.328279 -3.452564 385.502594
3.960000 5.800000 5.840000 -12.011612 -6.884409 191.673920
3.960000 5.800000 5.880000 -5.639111 -6.676819 76.379478
3.960000 5.800000 5.920000 -0.430717 -5.157196 26.782188
3.960000 5.800000 5.960000 5.110404 -2.407959 31.914501
3.960000 5.800000 6.000000 10.741550 3.766930 129.570663
3.960000 5.800000 6.040000 12.925968 14.508070 377.564758
3.960000 5.800000 6.080000 7.442551 26.632214 764.666321
3.960000 5.800000 6.120000 -5.875729 33.411480 1150.851196
3.960000 5.800000 6.160000 -21.023979 29.653965 1321.365356
3.960000 5.800000 6.200000 -29.254526 16.840206 1139.419800
3.960000 5.840000 5.800000 -11.091180 -2.221424 127.948990
3.960000 5.840000 5.840000 -14.143654 11.792921 339.115906
3.960000 5.840000 5.880000 -32.302811 14.987457 1268.095459
3.960000 5.840000 5.920000 -47.720943 -2.666115 2284.396484
3.960000 5.840000 5.960000 -41.436878 -29.820076 2606.251953
3.960000 5.840000 6.000000 -13.341972 -42.814312 2011.073486
3.960000 5.840000 6.040000 15.568863 -28.261469 1041.100098
3.960000 5.840000 6.080000 21.999428 3.204315 494.242462
3.960000 5.840000 6.120000 2.062940 26.170418 689.146484
3.960000 5.840000 6.160000 -25.443594 23.846695 1216.041260
3.960000 5.840000 6.200000 -37.221851 2.761590 1393.092529
3.960000 5.880000 5.800000 -11.373808 5.766501 162.616058
3.960000 5.880000 5.840000 -40.144802 21.369331 2068.253418
3.960000 5.880000 5.880000 -79.127716 -0.110287 6261.207520
3.960000 5.880000 5.920000 -87.930481 -54.906338 10746.475586
3.960000 5.880000 5.960000 -46.598427 -103.307755 12843.905273
3.960000 5.880000 6.000000 21.117653 -104.242157 11312.382812
3.960000 5.880000 6.040000 66.187485 -54.290352 7328.225586
3.960000 5.880000 6.080000 58.053867 7.842300 3431.753174
3.960000 5.880000 6.120000 11.199198 36.444214 1453.602661
3.960000 5.880000 6.160000 -30.823507 19.096569 1314.767578
3.960000 5.880000 6.200000 -36.857155 -16.490364 1630.381958
3.960000 5.920000 5.800000 -22.504498 7.657326 565.087036
3.960000 5.920000 5.840000 -71.368462 0.006512 5093.457520
3.960000 5.920000 5.880000 -101.758507 -59.980888 13952.500977
3.960000 5.920000 5.920000 -68.928024 -136.410873 23358.998047
3.960000 5.920000 5.960000 20.725414 -166.455322 28136.917969
3.960000 5.920000 6.000000 107.857506 -118.167038 25596.691406
3.960000 5.920000 6.040000 130.508774 -23.059677 17564.289062
3.960000 5.920000 6.080000 79.103676 50.268253 8784.289062
3.960000 5.920000 6.120000 2.758440 56.741707 3227.230225
3.960000 5.920000 6.160000 -38.122169 10.969220 1573.623535
3.960000 5.920000 6.200000 -25.179382 -33.813301 1777.340576
3.960000 5.960000 5.800000 -32.654636 -5.465139 1096.193115
3.960000 5.960000 5.840000 -75.494080 -46.826698 7892.095703
3.960000 5.960000 5.880000 -65.963470 -127.077377 20499.839844
3.960000 5.960000 5.920000 16.611139 -182.952362 33747.496094
3.960000 5.960000 5.960000 126.591011 -156.797699 40610.800781
3.960000 5.960000 6.000000 185.609772 -53.732239 37338.140625
3.960000 5.960000 6.040000 151.407715 57.231689 26199.763672
3.960000 5.960000 6.080000 55.656624 102.167221 13535.800781
3.960000 5.960000 6.120000 -26.139912 65.306442 4948.226562
3.960000 5.960000 6.160000 -42.551498 -3.687562 1824.228149
3.960000 5.960000 6.200000 -5.927073 -41.714127 1775.198608
3.960000 6.000000 5.800000 -26.532915 -26.596985 1411.395264
3.960000 6.000000 5.840000 -38.393532 -85.571106 8796.477539
3.960000 6.000000 5.880000 14.708921 -147.709106 22034.332031
3.960000 6.000000 5.920000 115.674713 -149.538559 35742.421875
3.960000 6.000000 5.960000 195.605240 -67.336868 42795.664062
3.960000 6.000000 6.000000 191.324036 53.176224 39432.597656
3.960000 6.000000 6.040000 103.151619 131.549988 27945.656250
3.960000 6.000000 6.080000 -3.811535 121.311745 14731.066406
3.960000 6.000000 6.120000 -57.107338 47.489807 5516.529785
3.960000 6.000000 6.160000 -37.675304 -21.589630 1885.540771
3.960000 6.000000 6.200000 12.775411 -37.995262 1606.851074
3.960000 6.040000 5.800000 -2.329092 -36.989677 1373.660889
3.960000 6.040000 5.840000 18.208757 -83.675964 7333.225586
3.960000 6.040000 5.880000 85.616524 -101.836922 17700.947266
3.960000 6.040000 5.920000 158.741165 -55.010048 28224.863281
3.960000 6.040000 5.960000 178.088333 42.258507 33501.238281
3.960000 6.040000 6.000000 119.048004 128.920990 30793.048828
3.960000 6.040000 6.040000 17.550571 147.054657 21933.095703
3.960000 6.040000 6.080000 -58.633450 91.307289 11774.902344
3.960000 6.040000 6.120000 -67.042099 11.302177 4622.382324
3.960000 6.040000 6.160000 -22.438980 -34.290134 1679.321167
3.960000 6.040000 6.200000 24.314802 -26.946693 1317.333862
3.960000 6.080000 5.800000 23.484894 -24.299366 1141.999390
3.960000 6.080000 5.840000 53.685711 -40.998451 4563.028320
3.960000 6.080000 5.880000 98.658890 -23.513748 10286.472656
3.960000 6.080000 5.920000 121.789337 32.979507 15920.291016
3.960000 6.080000 5.960000 94.613968 98.257233 18606.285156
3.960000 6.080000 6.000000 24.964752 127.966522 16998.669922
3.960000 6.080000 6.040000 -45.299168 100.585083 12169.374023
3.960000 6.080000 6.080000 -73.403412 36.450897 6716.729004
3.960000 6.080000 6.120000 -50.036026 -19.535713 2885.248047
3.960000 6.080000 6.160000 -3.623532 -35.461197 1270.626465
3.960000 6.080000 6.200000 27.686165 -15.400676 1003.704590
3.960000 6.120000 5.800000 30.583452 3.603565 948.333191
3.960000 6.120000 5.840000 45.234222 8.699062 2121.808594
3.960000 6.120000 5.880000 54.801102 29.739239 3887.583008
3.960000 6.120000 5.920000 45.353397 58.738426 5507.133301
3.960000 6.120000 5.960000 13.917992 77.407516 6185.634277
3.960000 6.120000 6.000000 -25.893494 70.128525 5588.482910
3.960000 6.120000 6.040000 -51.728931 37.323196 4068.903320
3.960000 6.120000 6.080000 -48.958813 -2.974720 2405.814209
3.960000 6.120000 6.120000 -21.985376 -27.958151 1265.015015
3.960000 6.120000 6.160000 9.594345 -26.895996 815.446045
3.960000 6.120000 6.200000 26.687189 -7.586189 769.756348
3.960000 6.160000 5.800000 14.772894 24.680893 827.384888
3.960000 6.160000 5.840000 8.135815 28.924755 902.832947
3.960000 6.160000 5.880000 -0.247425 28.673717 822.243286
3.960000 6.160000 5.920000 -6.897911 25.026184 673.891052
3.960000 6.160000 5.960000 -11.788155 20.402414 555.219116
3.960000 6.160000 6.000000 -16.472296 14.399696 478.687775
3.960000 6.160000 6.040000 -19.569027 4.605831 404.160492
3.960000 6.160000 6.080000 -16.267885 -8.306185 333.636810
3.960000 6.160000 6.120000 -3.681826 -17.957218 336.017517
3.960000 6.160000 6.160000 13.747158 -16.637499 465.790710
3.960000 6.160000 6.200000 25.740025 -3.060410 671.914978
3.960000 6.200000 5.800000 -7.227914 23.854256 621.268250
3.960000 6.200000 5.840000 -20.691525 13.578087 612.503662
3.960000 6.200000 5.880000 -21.475155 -5.626418 492.838867
3.960000 6.200000 5.920000 -6.700439 -18.567560 389.650208
3.960000 6.200000 5.960000 11.324156 -14.771126 346.422668
3.960000 6.200000 6.000000 17.174145 0.177505 294.982727
3.960000 6.200000 6.040000 8.267565 10.189756 172.183777
3.960000 6.200000 6.080000 -2.593592 5.567304 37.721588
3.960000 6.200000 6.120000 -1.051526 -6.801356 47.364155
3.960000 6.200000 6.160000 13.312284 -10.890422 295.818207
3.960000 6.200000 6.200000 26.255114 1.313121 691.055298
4.000000 5.800000 5.800000 -20.817837 -9.874781 530.893616
4.000000 5.800000 5.840000 -12.920155 -10.225224 271.485596
4.000000 5.800000 5.880000 -7.686693 -8.465214 130.745087
4.000000 5.800000 5.920000 -3.252964 -6.733658 55.923923
4.000000 5.800000 5.960000 2.248459 -3.541443 17.597385
4.000000 5.800000 6.000000 7.255432 3.886871 67.749069
4.000000 5.800000 6.040000 7.303535 15.388295 290.141235
4.000000 5.800000 6.080000 -0.744312 26.201715 687.083923
4.000000 5.800000 6.120000 -14.815674 29.953157 1116.695801
4.000000 5.800000 6.160000 -28.043425 23.903580 1357.814697
4.000000 5.800000 6.200000 -33.612152 11.752853 1267.906250
4.000000 5.840000 5.800000 -16.886585 -7.626682 343.323059
4.000000 5.840000 5.840000 -27.837984 0.912979 775.786926
4.000000 5.840000 5.880000 -44.876282 -9.635170 2106.717041
4.000000 5.840000 5.920000 -45.582066 -36.715435 3425.747803
4.000000 5.840000 5.960000 -20.250191 -57.848061 3756.468506
4.000000 5.840000 6.000000 16.041397 -51.494335 2908.992920
4.000000 5.840000 6.040000 35.679462 -18.579369 1618.217041
4.000000 5.840000 6.080000 23.709013 16.953041 849.522949
4.000000 5.840000 6.120000 -8.581085 29.517315 944.906860
4.000000 5.840000 6.160000 -34.752342 14.370045 1414.223511
4.000000 5.840000 6.200000 -37.569088 -10.284766 1517.212769
4.000000 5.880000 5.800000 -21.335155 -6.463094 496.960449
4.000000 5.880000 5.840000 -54.663902 -11.643387 3123.710693
4.000000 5.880000 5.880000 -73.829453 -55.482620 8529.109375
4.000000 5.880000 5.920000 -45.605125 -109.417664 14052.052734
4.000000 5.880000 5.960000 22.727936 -126.069603 16410.103516
4.000000 5.880000 6.000000 84.710228 -84.149681 14256.992188
4.000000 5.880000 6.040000 95.177208 -10.936859 9178.316406
4.000000 5.880000 6.080000 50.955963 40.985699 4276.337891
4.000000 5.880000 6.120000 -7.841503 40.446556 1697.413086
4.000000 5.880000 6.160000 -36.223831 2.433319 1318.086914
4.000000 5.880000 6.200000 -23.736313 -31.348930 1546.167969
4.000000 5.920000 5.800000 -27.232517 -15.767452 990.222534
4.000000 5.920000 5.840000 -63.426239 -52.106266 6737.950684
4.000000 5.920000 5.880000 -51.560677 -122.687347 17710.689453
4.000000 5.920000 5.920000 25.332088 -168.595551 29066.173828
4.000000 5.920000 5.960000 123.025757 -139.223953 34518.644531
4.000000 5.920000 6.000000 170.664856 -43.362701 31006.816406
4.000000 5.920000 6.040000 134.179321 54.127831 20933.912109
4.000000 5.920000 6.080000 46.856705 88.862473 10092.089844
4.000000 5.920000 6.120000 -22.697189 52.082993 3227.800537
4.000000 5.920000 6.160000 -32.636345 -8.107377 1130.860596
4.000000 5.920000 6.200000 0.692219 -37.077545 1375.223511
4.000000 5.960000 5.800000 -21.134518 -32.776413 1520.961060
4.000000 5.960000 5.840000 -32.258617 -93.365776 9757.786133
4.000000 5.960000 5.880000 25.571409 -156.066528 25010.658203
4.000000 5.960000 5.920000 131.627747 -153.352448 40842.835938
4.000000 5.960000 5.960000 211.541687 -63.478752 48779.437500
4.000000 5.960000 6.000000 201.585709 61.672520 44440.296875
4.000000 5.960000 6.040000 107.579742 138.272385 30692.652344
4.000000 5.960000 6.080000 0.213303 123.329453 15210.200195
4.000000 5.960000 6.120000 -48.730457 48.521275 4728.971680
4.000000 5.960000 6.160000 -26.634089 -15.484859 949.155579
4.000000 5.960000 6.200000 19.617823 -25.693722 1045.026367
4.000000 6.000000 5.800000 1.574892 -41.880413 1756.449219
4.000000 6.000000 5.840000 26.514231 -98.445709 10394.562500
4.000000 6.000000 5.880000 109.567062 -118.860580 26132.779297
4.000000 6.000000 5.920000 197.393311 -58.805737 42422.230469
4.000000 6.000000 5.960000 217.007385 60.229195 50719.761719
4.000000 6.000000 6.000000 142.691498 161.834946 46551.414062
4.000000 6.000000 6.040000 22.556913 179.262344 32643.802734
4.000000 6.000000 6.080000 -62.598713 112.640388 16606.457031
4.000000 6.000000 6.120000 -68.806412 24.323013 5325.931152
4.000000 6.000000 6.160000 -20.332285 -20.683641 841.214844
4.000000 6.000000 6.200000 23.268347 -9.402708 629.826904
4.000000 6.040000 5.800000 28.085363 -29.186520 1640.640625
4.000000 6.040000 5.840000 72.259895 -56.159000 8375.326172
4.000000 6.040000 5.880000 139.845703 -30.766647 20503.406250
4.000000 6.040000 5.920000 173.592316 53.175152 32961.890625
4.000000 6.040000 5.960000 132.310760 147.725388 39328.929688
4.000000 6.040000 6.000000 31.885704 187.815338 36291.300781
4.000000 6.040000 6.040000 -64.565399 147.269104 25856.880859
4.000000 6.040000 6.080000 -99.695724 60.706997 13624.576172
4.000000 6.040000 6.120000 -68.108086 -9.041172 4720.454102
4.000000 6.040000 6.160000 -13.440671 -25.273399 819.396362
4.000000 6.040000 6.200000 16.707626 -1.909872 282.792389
4.000000 6.080000 5.800000 37.544792 1.600192 1412.172119
4.000000 6.080000 5.840000 71.391907 5.115128 5122.968750
4.000000 6.080000 5.880000 97.666473 46.316177 11683.928711
4.000000 6.080000 5.920000 82.829597 107.029938 18316.148438
4.000000 6.080000 5.960000 21.658607 145.678162 21691.222656
4.000000 6.080000 6.000000 -53.802101 131.391266 20158.330078
4.000000 6.080000 6.040000 -98.600838 70.942581 14754.974609
4.000000 6.080000 6.080000 -90.955856 3.262474 8283.611328
4.000000 6.080000 6.120000 -47.333641 -33.077316 3334.582520
4.000000 6.080000 6.160000 -4.334514 -28.967596 857.909668
4.000000 6.080000 6.200000 13.271130 -5.257426 203.763397
4.000000 6.120000 5.800000 20.889702 29.513994 1307.455566
4.000000 6.120000 5.840000 28.362410 41.340416 2513.456299
4.000000 6.120000 5.880000 22.389994 62.848633 4451.262695
4.000000 6.120000 5.920000 -2.774467 79.289215 6294.477539
4.000000 6.120000 5.960000 -38.626747 75.558052 7201.044922
4.000000 6.120000 6.000000 -67.030128 47.972927 6794.439941
4.000000 6.120000 6.040000 -72.582451 7.927502 5331.057617
4.000000 6.120000 6.080000 -53.180161 -25.529844 3479.902344
4.000000 6.120000 6.120000 -20.782825 -38.314941 1899.960693
4.000000 6.120000 6.160000 7.481186 -29.422363 921.643616
4.000000 6.120000 6.200000 20.365211 -9.235472 500.035797
4.000000 6.160000 5.800000 -8.888114 34.680805 1281.756836
4.000000 6.160000 5.840000 -18.844547 32.172024 1390.156006
4.000000 6.160000 5.880000 -26.385334 23.432758 1245.280029
4.000000 6.160000 5.920000 -27.844097 13.256727 951.034546
4.000000 6.160000 5.960000 -26.124298 6.253052 721.579590
4.000000 6.160000 6.000000 -25.895182 0.812073 671.219910
4.000000 6.160000 6.040000 -26.077229 -8.311550 749.103699
4.000000 6.160000 6.080000 -19.610363 -21.445927 844.494141
4.000000 6.160000 6.120000 -2.134878 -30.145264 913.294617
4.000000 6.160000 6.160000 19.980331 -24.167381 983.276001
4.000000 6.160000 6.200000 32.447540 -3.008788 1061.895752
4.000000 6.200000 5.800000 -27.882172 17.211239 1073.642212
4.000000 6.200000 5.840000 -34.558094 -2.716424 1201.640747
4.000000 6.200000 5.880000 -22.543484 -23.794346 1074.379517
4.000000 6.200000 5.920000 1.724401 -28.315563 804.744690
4.000000 6.200000 5.960000 18.431332 -13.081604 510.842346
4.000000 6.200000 6.000000 14.716246 5.605637 247.991043
4.000000 6.200000 6.040000 -1.062580 8.392439 71.562103
4.000000 6.200000 6.080000 -7.612082 -6.284790 97.442368
4.000000 6.200000 6.120000 6.413597 -19.782280 432.472809
4.000000 6.200000 6.160000 29.300232 -12.748549 1021.029053
4.000000 6.200000 6.200000 37.486301 13.710892 1593.211304
4.040000 5.800000 5.800000 -20.555281 -15.252884 655.170044
4.040000 5.800000 5.840000 -13.562233 -15.507244 424.408783
4.040000 5.800000 5.880000 -7.600033 -14.284569 261.809387
4.040000 5.800000 5.920000 -1.618244 -11.376801 132.050308
4.040000 5.800000 5.960000 3.673538 -5.325855 41.859619
4.040000 5.800000 6.000000 5.659195 4.028316 48.253822
4.040000 5.800000 6.040000 1.907120 14.244576 206.545029
4.040000 5.800000 6.080000 -7.595883 21.300228 511.397156
4.040000 5.800000 6.120000 -19.898336 21.967810 878.528442
4.040000 5.800000 6.160000 -30.490263 15.795385 1179.150391
4.040000 5.800000 6.200000 -35.707912 5.427845 1304.516602
4.040000 5.840000 5.800000 -20.300621 -18.348015 748.764893
4.040000 5.840000 5.840000 -29.867580 -21.037123 1334.632935
4.040000 5.840000 5.880000 -32.953094 -39.025711 2608.912598
4.040000 5.840000 5.920000 -15.653587 -58.783859 3700.576660
4.040000 5.840000 5.960000 16.826561 -59.484131 3821.494873
4.040000 5.840000 6.000000 42.342533 -33.654236 2925.497559
4.040000 5.840000 6.040000 41.151855 3.874626 1708.487915
4.040000 5.840000 6.080000 13.899302 27.942677 973.983765
4.040000 5.840000 6.120000 -19.032261 24.625204 968.627686
4.040000 5.840000 6.160000 -35.790363 1.894756 1284.540161
4.040000 5.840000 6.200000 -30.992893 -19.848511 1354.522827
4.040000 5.880000 5.800000 -20.093700 -26.755934 1119.636841
4.040000 5.880000 5.840000 -37.908085 -49.137875 3851.553711
4.040000 5.880000 5.880000 -25.261898 -90.862045 8894.074219
4.040000 5.880000 5.920000 26.710381 -114.048363 13720.473633
4.040000 5.880000 5.960000 87.791161 -88.243202 15494.150391
4.040000 5.880000 6.000000 112.853836 -22.238976 13230.560547
4.040000 5.880000 6.040000 82.733002 40.417637 8478.334961
4.040000 5.880000 6.080000 21.898676 59.120483 3974.783447
4.040000 5.880000 6.120000 -24.290926 30.733139 1534.574951
4.040000 5.880000 6.160000 -29.824448 -11.755941 1027.699829
4.040000 5.880000 6.200000 -6.790976 -32.840317 1124.603760
4.040000 5.920000 5.800000 -11.218809 -39.031193 1649.295654
4.040000 5.920000 5.840000 -15.446400 -83.553993 7219.861328
4.040000 5.920000 5.880000 32.841583 -127.270393 17276.322266
4.040000 5.920000 5.920000 115.179901 -118.372002 27278.339844
4.040000 5.920000 5.960000 172.692368 -43.091015 31679.490234
4.040000 5.920000 6.000000 158.055252 54.994713 28005.880859
4.040000 5.920000 6.040000 80.048569 110.536247 18626.035156
4.040000 5.920000 6.080000 -3.677380 93.490776 8754.048828
4.040000 5.920000 6.120000 -38.519463 32.484436 2538.987549
4.040000 5.920000 6.160000 -18.419760 -16.477043 610.780518
4.040000 5.920000 6.200000 17.586489 -22.471752 814.264221
4.040000 5.960000 5.800000 9.828327 -44.095791 2041.034790
4.040000 5.960000 5.840000 34.889545 -92.155014 9709.827148
4.040000 5.960000 5.880000 111.199554 -105.562157 23508.710938
4.040000 5.960000 5.920000 188.098221 -45.630928 37463.125000
4.040000 5.960000 5.960000 199.726196 64.441238 44043.226562
4.040000 5.960000 6.000000 126.793571 153.316010 39582.406250
4.040000 5.960000 6.040000 17.327847 163.064133 26890.166016
4.040000 5.960000 6.080000 -55.241669 99.271164 12906.405273
4.040000 5.960000 6.120000 -55.787952 21.622849 3579.843262
4.040000 5.960000 6.160000 -11.584220 -13.436354 314.729736
4.040000 5.960000 6.200000 22.808249 -0.046114 520.218323
4.040000 6.000000 5.800000 33.518497 -30.840233 2074.609619
4.040000 6.000000 5.840000 81.165962 -57.395493 9882.156250
4.040000 6.000000 5.880000 152.428513 -26.949255 23960.712891
4.040000 6.000000 5.920000 184.616745 64.869896 38291.445312
4.040000 6.000000 5.960000 135.860672 163.764618 45276.972656
4.040000 6.000000 6.000000 27.840008 200.861786 41120.523438
4.040000 6.000000 6.040000 -69.930305 153.484314 28447.683594
4.040000 6.000000 6.080000 -100.193588 63.744781 14102.152344
4.040000 6.000000 6.120000 -64.377625 -2.092865 4148.858398
4.040000 6.000000 6.160000 -12.429159 -11.947348 297.223114
4.040000 6.000000 6.200000 9.289774 12.282011 237.147690
4.040000 6.040000 5.800000 42.504410 -1.151746 1807.951416
4.040000 6.040000 5.840000 87.939308 3.016169 7742.418945
4.040000 6.040000 5.880000 122.884178 58.076569 18473.410156
4.040000 6.040000 5.920000 102.024033 137.738831 29380.890625
4.040000 6.040000 5.960000 21.336430 185.300888 34791.660156
4.040000 6.040000 6.000000 -73.244247 162.902130 31901.824219
4.040000 6.040000 6.040000 -123.692970 85.426636 22597.660156
4.040000 6.040000 6.080000 -108.500946 6.481092 11814.459961
4.040000 6.040000 6.120000 -56.145653 -28.905993 3987.890625
4.040000 6.040000 6.160000 -13.575697 -18.762205 536.319885
4.040000 6.040000 6.200000 -3.623674 4.488849 33.280777
4.040000 6.080000 5.800000 27.119743 27.812233 1509.000732
4.040000 6.080000 5.840000 48.960613 48.131729 4713.804688
4.040000 6.080000 5.880000 44.767921 91.923264 10454.053711
4.040000 6.080000 5.920000 0.517807 127.248138 16192.357422
4.040000 6.080000 5.960000 -64.425568 122.051216 19047.152344
4.040000 6.080000 6.000000 -111.412712 72.657921 17691.964844
4.040000 6.080000 6.040000 -114.112625 7.358952 13075.845703
4.040000 6.080000 6.080000 -78.370117 -37.552353 7552.054688
4.040000 6.080000 6.120000 -33.342731 -46.080513 3235.151367
4.040000 6.080000 6.160000 -5.052542 -29.815472 914.490540
4.040000 6.080000 6.200000 1.800747 -11.160770 127.805489
4.040000 6.120000 5.800000 -3.797124 36.827713 1370.698486
4.040000 6.120000 5.840000 -5.745764 49.052475 2439.159180
4.040000 6.120000 5.880000 -23.251190 59.935253 4132.852539
4.040000 6.120000 5.920000 -50.478127 55.714611 5652.159180
4.040000 6.120000 5.960000 -72.694138 32.420345 6335.516113
4.040000 6.120000 6.000000 -77.426346 -1.469238 5996.997559
4.040000 6.120000 6.040000 -62.415009 -31.826609 4908.566406
4.040000 6.120000 6.080000 -35.095306 -48.005974 3536.253906
4.040000 6.120000 6.120000 -6.478633 -47.228813 2272.533447
4.040000 6.120000 6.160000 14.489168 -33.292477 1318.325073
4.040000 6.120000 6.200000 23.103453 -13.234218 708.914062
4.040000 6.160000 5.800000 -28.870224 21.797432 1308.617920
4.040000 6.160000 5.840000 -36.556038 13.728616 1524.818726
4.040000 6.160000 5.880000 -38.346661 -0.056875 1470.469604
4.040000 6.160000 5.920000 -31.753963 -11.841568 1148.536987
4.040000 6.160000 5.960000 -22.838734 -16.501591 793.910217
4.040000 6.160000 6.000000 -18.114893 -17.893524 648.327515
4.040000 6.160000 6.040000 -15.461376 -23.381218 785.735474
4.040000 6.160000 6.080000 -5.974304 -32.733810 1107.194580
4.040000 6.160000 6.120000 14.049919 -35.341904 1446.450439
4.040000 6.160000 6.160000 34.922707 -21.022099 1661.524048
4.040000 6.160000 6.200000 40.222008 6.605152 1661.437988
4.040000 6.200000 5.800000 -32.722748 -2.128489 1075.308716
4.040000 6.200000 5.840000 -29.008335 -22.756468 1359.340332
4.040000 6.200000 5.880000 -7.822920 -36.311653 1379.734253
4.040000 6.200000 5.920000 17.158760 -29.060015 1138.907471
4.040000 6.200000 5.960000 25.896090 -7.009724 719.743713
4.040000 6.200000 6.000000 14.014137 8.379854 266.617981
4.040000 6.200000 6.040000 -0.988834 2.899871 9.387045
4.040000 6.200000 6.080000 2.055006 -13.942296 198.610672
4.040000 6.200000 6.120000 24.117939 -18.006073 905.893677
4.040000 6.200000 6.160000 42.977383 3.227711 1857.473511
4.040000 6.200000 6.200000 35.774025 35.318394 2527.169922
4.080000 5.800000 5.800000 -19.956924 -21.180586 846.896057
4.080000 5.800000 5.840000 -10.956702 -23.021498 650.038696
4.080000 5.800000 5.880000 -1.692005 -20.244720 412.711578
4.080000 5.800000 5.920000 4.915726 -12.928126 191.300812
4.080000 5.800000 5.960000 6.610874 -3.497404 55.935493
4.080000 5.800000 6.000000 3.586227 4.906906 36.938755
4.080000 5.800000 6.040000 -2.336898 10.713478 120.239700
4.080000 5.800000 6.080000 -9.922942 13.944172 292.904724
4.080000 5.800000 6.120000 -19.108856 14.178916 566.190063
4.080000 5.800000 6.160000 -28.986027 9.599717 932.344360
4.080000 5.800000 6.200000 -36.054047 -0.963920 1300.823486
4.080000 5.840000 5.800000 -15.975279 -32.824013 1332.625244
4.080000 5.840000 5.840000 -13.573681 -40.689411 1839.873047
4.080000 5.840000 5.880000 -1.356476 -50.674644 2569.759766
4.080000 5.840000 5.920000 20.928291 -50.721378 3010.651611
4.080000 5.840000 5.960000 41.484692 -33.093201 2816.139648
4.080000 5.840000 6.000000 45.536240 -3.541580 2086.091797
4.080000 5.840000 6.040000 28.307533 21.641724 1269.680664
4.080000 5.840000 6.080000 -0.278065 28.254879 798.415527
4.080000 5.840000 6.120000 -23.438622 15.025296 775.128479
4.080000 5.840000 6.160000 -30.421492 -6.799540 971.700928
4.080000 5.840000 6.200000 -22.965044 -23.687777 1088.504028
4.080000 5.880000 5.800000 -2.380305 -43.901268 1932.987183
4.080000 5.880000 5.840000 3.681200 -63.464478 4041.291260
4.080000 5.880000 5.880000 34.111984 -78.505402 7326.725586
4.080000 5.880000 5.920000 77.156174 -64.620941 10128.941406
4.080000 5.880000 5.960000 102.386055 -18.080795 10809.819336
4.080000 5.880000 6.000000 87.522888 36.220341 8972.168945
4.080000 5.880000 6.040000 39.921219 64.189285 5713.967773
4.080000 5.880000 6.080000 -8.696354 51.490562 2726.904541
4.080000 5.880000 6.120000 -29.334366 14.398415 1067.819336
4.080000 5.880000 6.160000 -18.646336 -16.905499 633.481689
4.080000 5.880000 6.200000 3.191792 -25.166252 643.527832
4.080000 5.920000 5.800000 20.268562 -44.806488 2418.436035
4.080000 5.920000 5.840000 41.806213 -68.931656 6499.333008
4.080000 5.920000 5.880000 91.960541 -68.538406 13154.253906
4.080000 5.920000 5.920000 137.259857 -21.938892 19321.582031
4.080000 5.920000 5.960000 137.068665 52.723274 21567.562500
4.080000 5.920000 6.000000 82.571045 108.485565 18587.095703
4.080000 5.920000 6.040000 7.825882 109.840103 12126.092773
4.080000 5.920000 6.080000 -39.156029 63.568375 5574.132812
4.080000 5.920000 6.120000 -37.364212 10.337408 1502.946411
4.080000 5.920000 6.160000 -6.515457 -13.395378 221.887344
4.080000 5.920000 6.200000 17.361568 -5.114297 327.580109
4.080000 5.960000 5.800000 41.777672 -28.481670 2556.579590
4.080000 5.960000 5.840000 79.194733 -41.354584 7982.007324
4.080000 5.960000 5.880000 130.354218 -10.891575 17110.849609
4.080000 5.960000 5.920000 147.961609 63.175865 25883.828125
4.080000 5.960000 5.960000 103.191132 137.330078 29507.960938
4.080000 5.960000 6.000000 16.639254 160.089630 25905.554688
4.080000 5.960000 6.040000 -56.823280 118.177856 17194.890625
4.080000 5.960000 6.080000 -75.591866 47.637886 7983.498535
4.080000 5.960000 6.120000 -45.041153 -0.419554 2028.881470
4.080000 5.960000 6.160000 -5.971006 -4.670459 57.466103
4.080000 5.960000 6.200000 7.513064 14.402992 263.892303
4.080000 6.000000 5.800000 47.876129 0.904441 2292.941895
4.080000 6.000000 5.840000 87.071228 9.513057 7671.896973
4.080000 6.000000 5.880000 114.080780 62.653824 16939.925781
4.080000 6.000000 5.920000 89.216690 134.290100 25993.447266
4.080000 6.000000 5.960000 12.366929 172.618149 29949.966797
4.080000 6.000000 6.000000 -71.831390 146.485382 26617.714844
4.080000 6.000000 6.040000 -111.733757 74.304939 18005.656250
4.080000 6.000000 6.080000 -92.911537 6.879341 8679.878906
4.080000 6.000000 6.120000 -46.179451 -18.164576 2462.493652
4.080000 6.000000 6.160000 -14.185679 -5.289151 229.208618
4.080000 6.000000 6.200000 -12.253244 12.469848 305.639099
4.080000 6.040000 5.800000 31.994551 27.891937 1801.611328
4.080000 6.040000 5.840000 55.557327 52.214989 5813.021484
4.080000 6.040000 5.880000 48.916264 102.165512 12830.592773
4.080000 6.040000 5.920000 -2.790554 140.286453 19688.076172
4.080000 6.040000 5.960000 -74.907173 130.921783 22751.597656
4.080000 6.040000 6.000000 -122.493652 73.744743 20442.982422
4.080000 6.040000 6.040000 -119.199951 4.717598 14230.883789
4.080000 6.040000 6.080000 -77.988556 -35.994186 7377.796387
4.080000 6.040000 6.120000 -35.138107 -37.055054 2607.763672
4.080000 6.040000 6.160000 -15.925150 -18.933603 612.091736
4.080000 6.040000 6.200000 -16.551311 -7.890467 336.205383
4.080000 6.080000 5.800000 2.564247 36.574959 1344.302979
4.080000 6.080000 5.840000 4.827309 59.064529 3511.921631
4.080000 6.080000 5.880000 -20.442711 82.698608 7256.964355
4.080000 6.080000 5.920000 -65.051758 81.048523 10800.593750
4.080000 6.080000 5.960000 -101.258049 45.651543 12337.255859
4.080000 6.080000 6.000000 -105.759308 -5.793999 11218.601562
4.080000 6.080000 6.040000 -78.732002 -45.135792 8235.967773
4.080000 6.080000 6.080000 -40.664795 -56.985687 4900.994141
4.080000 6.080000 6.120000 -12.554155 -47.393852 2403.784180
4.080000 6.080000 6.160000 -0.195631 -32.569107 1060.785034
4.080000 6.080000 6.200000 3.894470 -22.185223 507.351013
4.080000 6.120000 5.800000 -22.324369 23.598888 1055.285034
4.080000 6.120000 5.840000 -31.015102 29.931839 1857.851562
4.080000 6.120000 5.880000 -48.671799 25.607079 3024.666504
4.080000 6.120000 5.920000 -62.269508 6.383968 3918.246826
4.080000 6.120000 5.960000 -61.390144 -19.612305 4153.392090
4.080000 6.120000 6.000000 -46.349449 -40.391945 3779.780762
4.080000 6.120000 6.040000 -25.044327 -49.938789 3121.100830
4.080000 6.120000 6.080000 -4.429653 -49.606930 2480.469238
4.080000 6.120000 6.120000 13.157862 -42.342937 1966.053589
4.080000 6.120000 6.160000 26.438726 -28.765425 1526.455811
4.080000 6.120000 6.200000 31.483028 -9.965117 1090.484619
4.080000 6.160000 5.800000 -29.319706 1.062627 860.774292
4.080000 6.160000 5.840000 -32.865433 -8.759291 1156.861938
4.080000 6.160000 5.880000 -27.754251 -22.566689 1279.553955
4.080000 6.160000 5.920000 -14.038980 -30.184990 1108.226562
4.080000 6.160000 5.960000 -1.181950 -27.642456 765.502380
4.080000 6.160000 6.000000 3.720650 -22.098160 502.171906
4.080000 6.160000 6.040000 5.119598 -22.478725 531.503357
4.080000 6.160000 6.080000 13.469641 -26.977402 909.211426
4.080000 6.160000 6.120000 30.720650 -23.404072 1491.508789
4.080000 6.160000 6.160000 44.366119 -3.692554 1981.987549
4.080000 6.160000 6.200000 39.044586 23.563538 2079.719971
4.080000 6.200000 5.800000 -20.371784 -14.145700 615.110413
4.080000 6.200000 5.840000 -10.856142 -28.717480 942.549500
4.080000 6.200000 5.880000 11.214350 -32.165009 1160.349365
4.080000 6.200000 5.920000 29.611784 -16.805084 1159.268555
4.080000 6.200000 5.960000 29.053091 5.370325 872.922485
4.080000 6.200000 6.000000 13.542637 14.304221 388.013763
4.080000 6.200000 6.040000 3.555565 4.539289 33.247189
4.080000 6.200000 6.080000 13.363681 -7.176201 230.085831
4.080000 6.200000 6.120000 33.458542 0.316202 1119.573975
4.080000 6.200000 6.160000 39.025902 27.866976 2299.589355
4.080000 6.200000 6.200000 16.922169 52.230087 3014.341797
4.120000 5.800000 5.800000 -16.983889 -28.912544 1124.387695
4.120000 5.800000 5.840000 -3.029325 -29.139812 858.305481
4.120000 5.800000 5.880000 7.874838 -20.589752 485.950958
4.120000 5.800000 5.920000 10.518024 -8.357559 180.477631
4.120000 5.800000 5.960000 6.025421 0.655899 36.735901
4.120000 5.800000 6.000000 0.082863 4.108208 16.884237
4.120000 5.800000 6.040000 -3.664881 5.453617 43.173290
4.120000 5.800000 6.080000 -7.442501 8.361710 125.309013
4.120000 5.800000 6.120000 -15.662005 10.854877 363.126770
4.120000 5.800000 6.160000 -27.633862 6.481641 805.641968
4.120000 5.800000 6.200000 -35.464737 -7.929465 1320.624023
4.120000 5.840000 5.800000 -1.241497 -43.714722 1912.518188
4.120000 5.840000 5.840000 13.221281 -43.519272 2068.729248
4.120000 5.840000 5.880000 27.761087 -35.768982 2050.098145
4.120000 5.840000 5.920000 37.336056 -20.442751 1811.887207
4.120000 5.840000 5.960000 37.467754 -1.396164 1405.781860
4.120000 5.840000 6.000000 27.103518 15.005314 959.760071
4.120000 5.840000 6.040000 9.545374 22.907394 615.862915
4.120000 5.840000 6.080000 -8.950502 19.659515 466.608032
4.120000 5.840000 6.120000 -21.798145 6.874406 522.416626
4.120000 5.840000 6.160000 -24.687210 -10.277441 715.084106
4.120000 5.840000 6.200000 -17.241167 -25.133518 928.951538
4.120000 5.880000 5.800000 25.219156 -44.752441 2638.786865
4.120000 5.880000 5.840000 42.599522 -43.146873 3676.372070
4.120000 5.880000 5.880000 62.710968 -29.399014 4796.967773
4.120000 5.880000 5.920000 73.703903 -1.180237 5433.658203
4.120000 5.880000 5.960000 64.479446 31.773800 5167.173340
4.120000 5.880000 6.000000 35.583839 52.702248 4043.736328
4.120000 5.880000 6.040000 1.014587 50.497665 2551.043457
4.120000 5.880000 6.080000 -21.573677 28.588177 1282.707397
4.120000 5.880000 6.120000 -23.752018 1.884148 567.708374
4.120000 5.880000 6.160000 -10.937458 -15.188418 350.316040
4.120000 5.880000 6.200000 4.526812 -18.519594 363.467407
4.120000 5.920000 5.800000 48.562729 -25.623562 3014.905518
4.120000 5.920000 5.840000 68.783157 -18.428549 5070.733887
4.120000 5.920000 5.880000 87.671951 8.077022 7751.609375
4.120000 5.920000 5.920000 85.708801 49.593468 9805.510742
4.120000 5.920000 5.960000 53.942795 84.471977 10045.339844
4.120000 5.920000 6.000000 5.629589 90.462074 8215.079102
4.120000 5.920000 6.040000 -32.367146 64.375694 5191.862305
4.120000 5.920000 6.080000 -41.307095 25.347198 2348.756592
4.120000 5.920000 6.120000 -24.911882 -1.768971 623.731140
4.120000 5.920000 6.160000 -3.083812 -6.696012 54.346466
4.120000 5.920000 6.200000 7.623413 1.335252 59.899326
4.120000 5.960000 5.800000 53.362686 6.285264 2887.080811
4.120000 5.960000 5.840000 71.383461 22.198002 5588.350098
4.120000 5.960000 5.880000 77.109543 59.158360 9445.593750
4.120000 5.960000 5.920000 51.880554 99.949287 12681.452148
4.120000 5.960000 5.960000 0.150150 116.030609 13463.125000
4.120000 5.960000 6.000000 -50.196762 93.378609 11239.279297
4.120000 5.960000 6.040000 -70.644791 46.525909 7155.346680
4.120000 5.960000 6.080000 -56.214863 6.225506 3198.867676
4.120000 5.960000 6.120000 -27.437725 -7.296726 806.070923
4.120000 5.960000 6.160000 -9.179018 0.757490 84.828163
4.120000 5.960000 6.200000 -8.382556 10.038235 171.033401
4.120000 6.000000 5.800000 35.176285 33.187675 2338.792725
4.120000 6.000000 5.840000 43.965805 55.172832 4977.033691
4.120000 6.000000 5.880000 30.206554 89.703461 8959.146484
4.120000 6.000000 5.920000 -12.542166 110.738281 12420.272461
4.120000 6.000000 5.960000 -64.070648 96.484329 13414.273438
4.120000 6.000000 6.000000 -93.261902 51.285515 11327.986328
4.120000 6.000000 6.040000 -85.493828 3.130387 7318.994141
4.120000 6.000000 6.080000 -54.477730 -21.161709 3415.640869
4.120000 6.000000 6.120000 -27.287979 -18.184856 1075.322754
4.120000 6.000000 6.160000 -18.821026 -6.223169 392.958862
4.120000 6.000000 6.200000 -21.519630 -3.472335 475.151581
4.120000 6.040000 5.800000 5.224845 40.012768 1628.320557
4.120000 6.040000 5.840000 1.945323 59.853493 3586.224854
4.120000 6.040000 5.880000 -24.490025 77.618919 6624.458008
4.120000 6.040000 5.920000 -64.761581 71.140572 9255.042969
4.120000 6.040000 5.960000 -93.406906 35.920601 10015.140625
4.120000 6.040000 6.000000 -91.818375 -9.042831 8512.386719
4.120000 6.040000 6.040000 -64.771408 -38.216717 5655.853027
4.120000 6.040000 6.080000 -34.159431 -41.795597 2913.738770
4.120000 6.040000 6.120000 -17.607933 -31.061401 1274.849976
4.120000 6.040000 6.160000 -14.379224 -23.292007 749.279724
4.120000 6.040000 6.200000 -11.644300 -23.767181 700.468628
4.120000 6.080000 5.800000 -18.051777 26.128712 1008.576233
4.120000 6.080000 5.840000 -28.726229 35.782471 2105.581543
4.120000 6.080000 5.880000 -51.796246 32.852440 3762.133789
4.120000 6.080000 5.920000 -70.655792 9.945118 5091.146484
4.120000 6.080000 5.960000 -69.805359 -22.476507 5377.981445
4.120000 6.080000 6.000000 -49.394691 -46.045708 4560.042969
4.120000 6.080000 6.040000 -23.576551 -51.365982 3194.317871
4.120000 6.080000 6.080000 -5.800852 -44.165497 1984.240967
4.120000 6.080000 6.120000 2.441532 -35.934181 1297.226440
4.120000 6.080000 6.160000 8.416380 -31.033197 1033.894775
4.120000 6.080000 6.200000 16.348162 -24.677353 876.234131
4.120000 6.120000 5.800000 -23.637539 4.978645 583.520142
4.120000 6.120000 5.840000 -32.612514 2.620281 1070.441895
4.120000 6.120000 5.880000 -39.328850 -11.273781 1673.856567
4.120000 6.120000 5.920000 -33.796417 -29.499210 2012.401367
4.120000 6.120000 5.960000 -17.585541 -40.195908 1924.962158
4.120000 6.120000 6.000000 -0.955690 -39.368252 1550.772583
4.120000 6.120000 6.040000 9.079233 -33.282742 1190.173340
4.120000 6.120000 6.080000 15.189050 -28.946291 1068.594971
4.120000 6.120000 6.120000 23.497810 -25.144100 1184.372803
4.120000 6.120000 6.160000 33.233475 -15.150287 1333.995117
4.120000 6.120000 6.200000 35.762981 2.361417 1284.567139
4.120000 6.160000 5.800000 -15.659206 -8.236044 313.043152
4.120000 6.160000 5.840000 -16.027037 -17.489235 562.739258
4.120000 6.160000 5.880000 -5.772501 -27.302280 778.736267
4.120000 6.160000 5.920000 10.455067 -26.709785 822.721069
4.120000 6.160000 5.960000 20.425915 -15.627603 661.439941
4.120000 6.160000 6.000000 19.193468 -5.279747 396.264954
4.120000 6.160000 6.040000 15.287500 -4.388196 252.963928
4.120000 6.160000 6.080000 20.058285 -7.810280 463.335266
4.120000 6.160000 6.120000 32.448067 -2.138524 1057.450317
4.120000 6.160000 6.160000 38.008934 17.232121 1741.625000
4.120000 6.160000 6.200000 24.981245 37.707970 2045.953613
4.120000 6.200000 5.800000 -7.359200 -9.358353 141.736603
4.120000 6.200000 5.840000 1.680172 -18.194027 333.845581
4.120000 6.200000 5.880000 18.992237 -15.340233 596.027832
4.120000 6.200000 5.920000 28.792669 1.882689 832.562317
4.120000 6.200000 5.960000 21.525894 19.402145 839.807373
4.120000 6.200000 6.000000 6.284197 21.987305 522.932678
4.120000 6.200000 6.040000 1.257624 11.654058 137.398697
4.120000 6.200000 6.080000 12.175045 6.515119 190.678497
4.120000 6.200000 6.120000 23.953032 19.851254 967.820007
4.120000 6.200000 6.160000 16.793491 42.885193 2121.161133
4.120000 6.200000 6.200000 -10.245781 52.162521 2825.904785
4.160000 5.800000 5.800000 -9.126889 -36.087852 1385.633301
4.160000 5.800000 5.840000 7.576973 -29.544109 930.264893
4.160000 5.800000 5.880000 14.363537 -14.656069 421.111542
4.160000 5.800000 5.920000 9.730137 -2.236273 99.676476
4.160000 5.800000 5.960000 1.513887 1.310583 4.009482
4.160000 5.800000 6.000000 -1.977858 -0.383978 4.059360
4.160000 5.800000 6.040000 -1.056471 0.889527 1.907389
4.160000 5.800000 6.080000 -3.645061 7.258845 65.977303
4.160000 5.800000 6.120000 -14.892701 11.006263 342.930359
4.160000 5.800000 6.160000 -28.915363 2.751008 843.666260
4.160000 5.800000 6.200000 -32.653503 -16.818092 1349.099609
4.160000 5.840000 5.800000 18.613152 -43.132408 2206.854004
4.160000 5.840000 5.840000 33.309212 -27.602978 1871.427979
4.160000 5.840000 5.880000 34.900074 -8.053577 1282.875244
4.160000 5.840000 5.920000 26.193436 5.720108 718.815674
4.160000 5.840000 5.960000 15.280547 10.855084 351.327972
4.160000 5.840000 6.000000 7.176708 11.517838 184.165741
4.160000 5.840000 6.040000 0.279236 11.910407 141.935776
4.160000 5.840000 6.080000 -8.892563 10.546370 190.303589
4.160000 5.840000 6.120000 -18.669376 2.480022 354.696136
4.160000 5.840000 6.160000 -21.614094 -12.976794 635.566223
4.160000 5.840000 6.200000 -11.854395 -28.200535 935.796814
4.160000 5.880000 5.800000 46.624702 -26.307148 2865.928711
4.160000 5.880000 5.840000 53.322861 -4.172647 2860.738281
4.160000 5.880000 5.880000 46.634853 16.902012 2460.487549
4.160000 5.880000 5.920000 31.399124 29.632694 1864.001465
4.160000 5.880000 5.960000 14.677522 32.677719 1283.263062
4.160000 5.880000 6.000000 0.817682 28.884537 834.985046
4.160000 5.880000 6.040000 -9.269100 21.074951 530.069763
4.160000 5.880000 6.080000 -15.283957 10.234620 338.346802
4.160000 5.880000 6.120000 -15.482645 -2.569817 246.316254
4.160000 5.880000 6.160000 -8.230201 -13.793793 258.004944
4.160000 5.880000 6.200000 4.746963 -18.269491 356.307983
4.160000 5.920000 5.800000 55.172150 7.690334 3103.107422
4.160000 5.920000 5.840000 50.887123 30.239506 3503.927002
4.160000 5.920000 5.880000 35.130249 47.559807 3496.069824
4.160000 5.920000 5.920000 13.243640 54.025444 3094.142578
4.160000 5.920000 5.960000 -7.386222 48.672077 2423.527344
4.160000 5.920000 6.000000 -20.828526 35.095692 1665.535034
4.160000 5.920000 6.040000 -24.900248 19.145298 986.564819
4.160000 5.920000 6.080000 -21.225277 5.955250 485.977386
4.160000 5.920000 6.120000 -13.431007 -1.937816 184.147079
4.160000 5.920000 6.160000 -4.890528 -4.619772 45.259560
4.160000 5.920000 6.200000 2.499574 -3.374515 17.635218
4.160000 5.960000 5.800000 37.082546 38.062225 2823.848145
4.160000 5.960000 5.840000 23.804106 54.316700 3516.939453
4.160000 5.960000 5.880000 2.076000 62.462948 3905.929688
4.160000 5.960000 5.920000 -21.643814 57.651367 3792.134766
4.160000 5.960000 5.960000 -38.361374 40.997574 3152.395996
4.160000 5.960000 6.000000 -42.305962 20.077999 2192.920410
4.160000 5.960000 6.040000 -35.110821 4.131730 1249.840942
4.160000 5.960000 6.080000 -24.225292 -2.430532 592.772278
4.160000 5.960000 6.120000 -16.583118 -2.396535 280.743195
4.160000 5.960000 6.160000 -13.285540 -1.708285 179.423813
4.160000 5.960000 6.200000 -10.369809 -3.074099 116.983025
4.160000 6.000000 5.800000 4.681675 46.156956 2152.382568
4.160000 6.000000 5.840000 -11.838296 52.613747 2908.351562
4.160000 6.000000 5.880000 -33.026691 49.137436 3505.250000
4.160000 6.000000 5.920000 -50.162544 32.955353 3602.335938
4.160000 6.000000 5.960000 -54.457172 9.974398 3065.072266
4.160000 6.000000 6.000000 -45.098618 -8.549902 2106.986084
4.160000 6.000000 6.040000 -30.533474 -15.256404 1165.050903
4.160000 6.000000 6.080000 -20.939182 -12.729084 600.478943
4.160000 6.000000 6.120000 -19.041538 -9.986607 462.312500
4.160000 6.000000 6.160000 -18.703356 -12.770320 512.896606
4.160000 6.000000 6.200000 -12.721186 -17.755829 477.098022
4.160000 6.040000 5.800000 -20.211819 30.704933 1351.310547
4.160000 6.040000 5.840000 -34.029808 28.478451 1969.050049
4.160000 6.040000 5.880000 -47.770275 15.852404 2533.297852
4.160000 6.040000 5.920000 -51.587509 -5.022779 2686.499268
4.160000 6.040000 5.960000 -41.529930 -23.532700 2278.522949
4.160000 6.040000 6.000000 -24.609024 -30.079048 1510.353271
4.160000 6.040000 6.040000 -12.553942 -25.406277 803.080322
4.160000 6.040000 6.080000 -10.347246 -19.439663 484.966003
4.160000 6.040000 6.120000 -11.869576 -20.508612 561.489990
4.160000 6.040000 6.160000 -7.470933 -26.486404 757.344421
4.160000 6.040000 6.200000 4.697303 -27.529507 779.938354
4.160000 6.080000 5.800000 -24.662994 7.736933 668.123413
4.160000 6.080000 5.840000 -32.735748 0.709381 1072.132446
4.160000 6.080000 5.880000 -35.393112 -14.686633 1468.369507
4.160000 6.080000 5.920000 -25.946049 -30.222202 1586.578979
4.160000 6.080000 5.960000 -8.768509 -35.258614 1320.056519
4.160000 6.080000 6.000000 4.349509 -28.330946 821.560730
4.160000 6.080000 6.040000 6.555810 -18.959372 402.436401
4.160000 6.080000 6.080000 3.073939 -17.151964 303.638977
4.160000 6.080000 6.120000 4.827354 -22.284954 519.922546
4.160000 6.080000 6.160000 15.546054 -24.010782 818.197449
4.160000 6.080000 6.200000 26.941658 -14.352812 931.856201
4.160000 6.120000 5.800000 -14.329518 -4.814322 228.512802
4.160000 6.120000 5.840000 -16.729891 -13.172440 453.402405
4.160000 6.120000 5.880000 -9.598785 -24.541298 694.411987
4.160000 6.120000 5.920000 5.929080 -27.751888 805.321289
4.160000 6.120000 5.960000 18.654190 -18.821789 702.238525
4.160000 6.120000 6.000000 19.825096 -6.251778 432.119141
4.160000 6.120000 6.040000 13.315941 -1.614185 179.919876
4.160000 6.120000 6.080000 11.161119 -6.110142 161.904419
4.160000 6.120000 6.120000 19.219027 -9.041710 451.123474
4.160000 6.120000 6.160000 29.652245 -0.440052 879.449280
4.160000 6.120000 6.200000 29.391891 16.501238 1136.174194
4.160000 6.160000 5.800000 -5.580348 -3.078546 40.617725
4.160000 6.160000 5.840000 -3.269757 -11.210114 136.357956
4.160000 6.160000 5.880000 8.925121 -14.647071 294.194458
4.160000 6.160000 5.920000 21.062288 -5.781841 477.049683
4.160000 6.160000 5.960000 21.725986 9.083925 554.536194
4.160000 6.160000 6.000000 11.971581 16.606356 419.089813
4.160000 6.160000 6.040000 4.588554 12.287993 172.049606
4.160000 6.160000 6.080000 8.881404 6.292794 118.478592
4.160000 6.160000 6.120000 18.824165 11.559905 487.980621
4.160000 6.160000 6.160000 19.311108 27.616714 1135.601807
4.160000 6.160000 6.200000 4.077983 39.547489 1580.633789
4.160000 6.200000 5.800000 -8.327648 1.498540 71.595345
4.160000 6.200000 5.840000 -1.266847 -5.554524 32.457642
4.160000 6.200000 5.880000 10.920216 -0.915390 120.089043
4.160000 6.200000 5.920000 13.969419 13.798758 385.550415
4.160000 6.200000 5.960000 3.641982 24.567122 616.807495
4.160000 6.200000 6.000000 -8.711296 21.776430 550.099609
4.160000 6.200000 6.040000 -9.630516 12.244831 242.682724
4.160000 6.200000 6.080000 -0.345576 11.411408 130.339676
4.160000 6.200000 6.120000 3.665327 24.227587 600.410583
4.160000 6.200000 6.160000 -9.007978 37.539337 1490.345459
4.160000 6.200000 6.200000 -30.568834 34.230545 2106.183838
4.200000 5.800000 5.800000 2.464235 -38.550102 1492.182861
4.200000 5.800000 5.840000 15.317561 -24.508598 835.299072
4.200000 5.800000 5.880000 14.056514 -8.746400 274.085083
4.200000 5.800000 5.920000 4.924673 -2.166333 28.945404
4.200000 5.800000 5.960000 -0.615069 -4.518075 20.791307
4.200000 5.800000 6.000000 1.551731 -6.154831 40.289810
4.200000 5.800000 6.040000 4.101117 -0.051415 16.821806
4.200000 5.800000 6.080000 -2.629456 9.082927 89.413597
4.200000 5.800000 6.120000 -18.069479 9.116768 409.621521
4.200000 5.800000 6.160000 -29.547823 -5.745977 906.090088
4.200000 5.800000 6.200000 -24.190809 -26.482754 1286.531494
4.200000 5.840000 5.800000 33.084206 -30.783276 2042.174805
4.200000 5.840000 5.840000 35.519619 -6.313449 1301.502930
4.200000 5.840000 5.880000 21.421654 9.290822 545.206604
4.200000 5.840000 5.920000 5.557895 8.797690 108.289551
4.200000 5.840000 5.960000 0.204807 0.504010 0.295972
4.200000 5.840000 6.000000 3.612470 -2.522610 19.413502
4.200000 5.840000 6.040000 4.129876 2.801850 24.906240
4.200000 5.840000 6.080000 -5.031326 6.784284 71.340752
4.200000 5.840000 6.120000 -16.905371 -1.087367 286.973938
4.200000 5.840000 6.160000 -17.646294 -18.749735 662.944214
4.200000 5.840000 6.200000 -1.925687 -31.618309 1003.425720
4.200000 5.880000 5.800000 49.297981 -0.380403 2430.435791
4.200000 5.880000 5.840000 34.681404 24.035305 1780.495605
4.200000 5.880000 5.880000 10.036198 28.874802 934.479431
4.200000 5.880000 5.920000 -5.620565 16.413681 300.999695
4.200000 5.880000 5.960000 -5.041869 2.461740 31.480610
4.200000 5.880000 6.000000 2.609027 -0.553532 7.113420
4.200000 5.880000 6.040000 3.871569 4.842407 38.437950
4.200000 5.880000 6.080000 -3.907810 6.324201 55.266491
4.200000 5.880000 6.120000 -10.453621 -3.017710 118.384766
4.200000 5.880000 6.160000 -4.909092 -16.249660 288.150635
4.200000 5.880000 6.200000 11.313017 -19.714863 516.660156
4.200000 5.920000 5.800000 37.608994 33.304382 2523.618164
4.200000 5.920000 5.840000 9.828565 44.840740 2107.292725
4.200000 5.920000 5.880000 -15.062575 33.121624 1323.923218
4.200000 5.920000 5.920000 -21.228436 10.845240 568.265686
4.200000 5.920000 5.960000 -10.497657 -3.255953 120.802025
4.200000 5.920000 6.000000 1.858416 -1.710026 6.377898
4.200000 5.920000 6.040000 3.361513 6.952273 59.633873
4.200000 5.920000 6.080000 -4.327890 9.331929 105.815536
4.200000 5.920000 6.120000 -9.450595 1.532189 91.661346
4.200000 5.920000 6.160000 -3.887661 -7.853054 76.784363
4.200000 5.920000 6.200000 8.290687 -7.893276 131.039276
4.200000 5.960000 5.800000 5.758751 47.286812 2269.205811
4.200000 5.960000 5.840000 -22.629089 40.302528 2136.369629
4.200000 5.960000 5.880000 -36.149490 15.934151 1560.682861
4.200000 5.960000 5.920000 -27.829048 -7.329951 828.184082
4.200000 5.960000 5.960000 -8.399191 -13.883728 263.304321
4.200000 5.960000 6.000000 4.432734 -3.896452 34.831467
4.200000 5.960000 6.040000 1.996073 8.904389 83.272453
4.200000 5.960000 6.080000 -9.205735 11.276383 211.902374
4.200000 5.960000 6.120000 -15.769445 2.240009 253.693054
4.200000 5.960000 6.160000 -10.818781 -7.930901 179.945206
4.200000 5.960000 6.200000 0.508154 -8.940014 80.182076
4.200000 6.000000 5.800000 -23.224463 34.428398 1724.690186
4.200000 6.000000 5.840000 -40.091457 14.538830 1818.702515
4.200000 6.000000 5.880000 -37.423401 -11.472227 1532.123047
4.200000 6.000000 5.920000 -17.633055 -25.976919 985.724976
4.200000 6.000000 5.960000 3.496475 -20.536438 433.970642
4.200000 6.000000 6.000000 10.242271 -2.954196 113.631393
4.200000 6.000000 6.040000 0.165461 10.049005 101.009865
4.200000 6.000000 6.080000 -14.839083 7.685637 279.267395
4.200000 6.000000 6.120000 -20.086651 -6.205817 441.985718
4.200000 6.000000 6.160000 -11.143286 -18.009319 448.508392
4.200000 6.000000 6.200000 3.430071 -17.286587 310.591461
4.200000 6.040000 5.800000 -31.045517 9.010042 1045.005005
4.200000 6.040000 5.840000 -33.185246 -12.039365 1246.206787
4.200000 6.040000 5.880000 -18.840939 -29.610674 1231.772949
4.200000 6.040000 5.920000 3.788891 -31.038216 977.726562
4.200000 6.040000 5.960000 18.595764 -15.505077 586.209900
4.200000 6.040000 6.000000 15.208992 3.864916 246.251007
4.200000 6.040000 6.040000 -1.440999 10.873370 120.306656
4.200000 6.040000 6.080000 -15.263228 0.565656 233.286102
4.200000 6.040000 6.120000 -13.487286 -16.537567 455.398010
4.200000 6.040000 6.160000 2.062403 -24.436022 601.372620
4.200000 6.040000 6.200000 17.445608 -16.238714 568.045044
4.200000 6.080000 5.800000 -19.546097 -7.309034 435.471863
4.200000 6.080000 5.840000 -13.059660 -21.230721 621.298218
4.200000 6.080000 5.880000 3.980128 -27.531248 773.811035
4.200000 6.080000 5.920000 21.420828 -18.667194 807.316040
4.200000 6.080000 5.960000 25.830538 0.428965 667.400696
4.200000 6.080000 6.000000 13.695560 14.640754 401.920013
4.200000 6.080000 6.040000 -3.688567 12.247596 163.609131
4.200000 6.080000 6.080000 -9.972961 -3.442866 111.313293
4.200000 6.080000 6.120000 0.713635 -16.710245 279.741577
4.200000 6.080000 6.160000 18.144318 -14.439971 537.729004
4.200000 6.080000 6.200000 26.173958 1.504821 687.340515
4.200000 6.120000 5.800000 -6.712103 -5.758824 78.216385
4.200000 6.120000 5.840000 0.437321 -12.825774 164.691742
4.200000 6.120000 5.880000 14.051678 -11.755608 335.643951
4.200000 6.120000 5.920000 23.318615 1.207327 545.215454
4.200000 6.120000 5.960000 18.661312 17.274672 646.658813
4.200000 6.120000 6.000000 3.298499 22.604019 521.821777
4.200000 6.120000 6.040000 -8.345003 12.863945 235.120148
4.200000 6.120000 6.080000 -5.021306 -1.189952 26.629501
4.200000 6.120000 6.120000 9.348202 -4.264797 105.577370
4.200000 6.120000 6.160000 19.477501 7.634275 437.655212
4.200000 6.120000 6.200000 14.650177 23.187019 752.265564
4.200000 6.160000 5.800000 -7.518130 2.846304 64.623734
4.200000 6.160000 5.840000 -1.980020 -2.596294 10.661222
4.200000 6.160000 5.880000 7.918353 1.023954 63.748798
4.200000 6.160000 5.920000 10.594870 13.388474 291.502472
4.200000 6.160000 5.960000 1.246871 23.113680 535.796875
4.200000 6.160000 6.000000 -11.465294 20.479885 550.878662
4.200000 6.160000 6.040000 -14.553396 9.177261 296.023468
4.200000 6.160000 6.080000 -5.620185 2.853216 39.727318
4.200000 6.160000 6.120000 3.848379 9.743312 109.742149
4.200000 6.160000 6.160000 1.268394 22.942501 527.967163
4.200000 6.160000 6.200000 -12.557538 27.963882 939.670471
4.200000 6.200000 5.800000 -18.949173 1.205713 360.524902
4.200000 6.200000 5.840000 -11.313159 -5.038312 153.372147
4.200000 6.200000 5.880000 -2.782459 0.043007 7.743927
4.200000 6.200000 5.920000 -4.107215 10.355459 124.104752
4.200000 6.200000 5.960000 -13.928747 13.828050 385.224945
4.200000 6.200000 6.000000 -20.712925 7.143274 480.051636
4.200000 6.200000 6.040000 -17.100945 -0.231796 292.496033
4.200000 6.200000 6.080000 -9.317150 2.189102 91.601456
4.200000 6.200000 6.120000 -9.855221 12.427825 251.576202
4.200000 6.200000 6.160000 -21.824465 17.541763 784.020752
4.200000 6.200000 6.200000 -33.949669 9.069632 1234.838257
