#kx 	ky 	kz 	real 	imag 	intensity
6.800000 0.800000 -7.200000 -23.388210 1.391298 548.944092
6.800000 0.800000 -7.160000 -11.322745 -17.085255 420.110474
6.800000 0.800000 -7.120000 9.368269 -13.926136 281.701721
6.800000 0.800000 -7.080000 13.881480 6.209225 231.249969
6.800000 0.800000 -7.040000 -4.384640 18.543808 363.097870
6.800000 0.800000 -7.000000 -25.595984 5.972710 690.827637
6.800000 0.800000 -6.960000 -25.075695 -21.094625 1073.773682
6.800000 0.800000 -6.920000 -0.954319 -35.440331 1256.927734
6.800000 0.800000 -6.880000 23.156944 -22.870327 1059.295898
6.800000 0.800000 -6.840000 23.850924 2.025614 572.969666
6.800000 0.800000 -6.800000 3.599826 11.950108 155.763809
6.800000 0.840000 -7.200000 -15.967244 -19.471916 634.108398
6.800000 0.840000 -7.160000 4.501395 -28.378035 825.575439
6.800000 0.840000 -7.120000 22.181414 -16.792002 773.986450
6.800000 0.840000 -7.080000 21.150036 1.853071 450.757874
6.800000 0.840000 -7.040000 6.044054 7.686470 95.612411
6.800000 0.840000 -7.000000 -3.807399 -3.845539 29.284460
6.800000 0.840000 -6.960000 3.746862 -17.694912 327.148895
6.800000 0.840000 -6.920000 20.404121 -16.855450 700.434326
6.800000 0.840000 -6.880000 27.522097 -1.771794 760.605103
6.800000 0.840000 -6.840000 17.830208 10.505841 428.289032
6.800000 0.840000 -6.800000 3.899611 6.279428 54.638184
6.800000 0.880000 -7.200000 1.249084 -25.240208 638.628296
6.800000 0.880000 -7.160000 21.519552 -23.970924 1037.696289
6.800000 0.880000 -7.120000 33.602436 -8.540468 1202.063232
6.800000 0.880000 -7.080000 30.581444 8.049210 1000.014526
6.800000 0.880000 -7.040000 19.553900 14.291214 586.593811
6.800000 0.880000 -7.000000 12.437527 10.803782 271.413757
6.800000 0.880000 -6.960000 13.167198 6.975358 222.030731
6.800000 0.880000 -6.920000 15.522920 8.785769 318.150757
6.800000 0.880000 -6.880000 12.880689 12.383848 319.271851
6.800000 0.880000 -6.840000 7.392534 10.473040 164.334122
6.800000 0.880000 -6.800000 7.429126 3.092357 64.754585
6.800000 0.920000 -7.200000 12.359941 -17.211363 448.999176
6.800000 0.920000 -7.160000 28.241959 -10.359324 904.923828
6.800000 0.920000 -7.120000 35.748695 6.079581 1314.930542
6.800000 0.920000 -7.080000 31.009783 22.855816 1483.994873
6.800000 0.920000 -7.040000 18.242569 31.995411 1356.497559
6.800000 0.920000 -7.000000 4.827914 31.718311 1029.359985
6.800000 0.920000 -6.960000 -4.225532 25.136658 649.706665
6.800000 0.920000 -6.920000 -7.541104 16.158703 317.971924
6.800000 0.920000 -6.880000 -5.295617 7.648052 86.536263
6.800000 0.920000 -6.840000 1.851732 2.414860 9.260463
6.800000 0.920000 -6.800000 11.333294 3.577936 141.245178
6.800000 0.960000 -7.200000 11.553437 -7.652571 192.043762
6.800000 0.960000 -7.160000 23.633987 1.401576 560.529785
6.800000 0.960000 -7.120000 26.856262 18.560837 1065.763550
6.800000 0.960000 -7.080000 17.169285 34.920971 1514.258545
6.800000 0.960000 -7.040000 -1.504385 41.224152 1701.693848
6.800000 0.960000 -7.000000 -19.679310 33.860123 1533.783203
6.800000 0.960000 -6.960000 -28.187279 17.006647 1083.748779
6.800000 0.960000 -6.920000 -23.517321 -0.124903 553.080017
6.800000 0.960000 -6.880000 -9.477432 -8.751954 166.418427
6.800000 0.960000 -6.840000 5.422086 -5.390886 58.460670
6.800000 0.960000 -6.800000 13.053064 6.655446 214.677460
6.800000 1.000000 -7.200000 5.539423 -5.454255 60.434105
6.800000 1.000000 -7.160000 14.299623 5.708761 237.069153
6.800000 1.000000 -7.120000 11.293283 22.039156 613.262634
6.800000 1.000000 -7.080000 -4.312204 32.215508 1056.433960
6.800000 1.000000 -7.040000 -23.909126 28.057739 1358.883057
6.800000 1.000000 -7.000000 -35.391804 10.864399 1370.614868
6.800000 1.000000 -6.960000 -31.771553 -9.350838 1096.869751
6.800000 1.000000 -6.920000 -15.820776 -20.961496 689.681274
6.800000 1.000000 -6.880000 2.442346 -18.442606 346.094788
6.800000 1.000000 -6.840000 12.885397 -5.176173 192.826218
6.800000 1.000000 -6.800000 11.437826 10.014538 231.114838
6.800000 1.040000 -7.200000 2.933138 -8.552491 81.748405
6.800000 1.040000 -7.160000 5.951982 4.113278 52.345139
6.800000 1.040000 -7.120000 -3.642035 14.304568 217.885086
6.800000 1.040000 -7.080000 -18.795729 12.457878 508.478149
6.800000 1.040000 -7.040000 -27.684574 -1.332500 768.211243
6.800000 1.040000 -7.000000 -23.425957 -17.808914 865.932861
6.800000 1.040000 -6.960000 -8.874880 -26.391563 775.278137
6.800000 1.040000 -6.920000 6.795424 -22.897655 570.480408
6.800000 1.040000 -6.880000 15.451090 -11.006869 359.887329
6.800000 1.040000 -6.840000 14.657679 2.134149 219.402145
6.800000 1.040000 -6.800000 6.984675 11.036746 170.595459
6.800000 1.080000 -7.200000 4.221250 -9.894208 115.714294
6.800000 1.080000 -7.160000 -0.577456 -0.536675 0.621476
6.800000 1.080000 -7.120000 -11.098577 -2.078272 127.497612
6.800000 1.080000 -7.080000 -14.740626 -13.899409 410.479645
6.800000 1.080000 -7.040000 -5.872606 -25.027620 660.869263
6.800000 1.080000 -7.000000 9.226326 -25.390419 729.798462
6.800000 1.080000 -6.960000 19.453802 -15.027994 604.291016
6.800000 1.080000 -6.920000 19.550278 -2.357167 387.769592
6.800000 1.080000 -6.880000 13.198908 5.159477 200.831375
6.800000 1.080000 -6.840000 6.763349 7.178623 97.275520
6.800000 1.080000 -6.800000 2.053089 7.653080 62.784809
6.800000 1.120000 -7.200000 3.373921 -7.903553 73.849495
6.800000 1.120000 -7.160000 -5.699228 -8.593351 106.326889
6.800000 1.120000 -7.120000 -6.960753 -21.030981 490.754242
6.800000 1.120000 -7.080000 7.254052 -30.989893 1012.994751
6.800000 1.120000 -7.040000 27.370052 -24.559135 1352.270874
6.800000 1.120000 -7.000000 36.026344 -3.481249 1310.016602
6.800000 1.120000 -6.960000 25.987572 16.233259 938.872559
6.800000 1.120000 -6.920000 7.106133 20.649420 476.895660
6.800000 1.120000 -6.880000 -4.772870 11.250858 149.362091
6.800000 1.120000 -6.840000 -4.110115 1.221044 18.383993
6.800000 1.120000 -6.800000 0.623877 -0.109798 0.401278
6.800000 1.160000 -7.200000 -2.394000 -8.507107 78.102097
6.800000 1.160000 -7.160000 -6.443012 -21.172609 489.791779
6.800000 1.160000 -7.120000 8.569098 -34.822247 1286.018311
6.800000 1.160000 -7.080000 34.970062 -29.041712 2066.326172
6.800000 1.160000 -7.040000 49.229378 -0.623532 2423.920410
6.800000 1.160000 -7.000000 35.801193 30.474541 2210.423096
6.800000 1.160000 -6.960000 3.952960 39.859993 1604.444946
6.800000 1.160000 -6.920000 -20.820034 22.634212 945.781372
6.800000 1.160000 -6.880000 -21.818892 -2.776096 483.770752
6.800000 1.160000 -6.840000 -5.999807 -14.451414 244.841064
6.800000 1.160000 -6.800000 6.268003 -8.584254 112.977295
6.800000 1.200000 -7.200000 -7.455140 -16.859921 339.836029
6.800000 1.200000 -7.160000 1.948929 -34.785053 1213.798218
6.800000 1.200000 -7.120000 30.208494 -36.969109 2279.268066
6.800000 1.200000 -7.080000 53.760662 -10.609341 3002.766846
6.800000 1.200000 -7.040000 47.489098 28.944311 3092.987549
6.800000 1.200000 -7.000000 11.365433 50.279240 2657.175049
6.800000 1.200000 -6.960000 -27.238155 36.033337 2040.318481
6.800000 1.200000 -6.920000 -39.072296 -0.153204 1526.667725
6.800000 1.200000 -6.880000 -20.185150 -27.543903 1166.106934
6.800000 1.200000 -6.840000 7.048294 -28.155697 842.421753
6.800000 1.200000 -6.800000 18.609728 -11.349865 475.141388
6.840000 0.800000 -7.200000 -0.522803 -10.039954 101.074005
6.840000 0.800000 -7.160000 14.252301 -7.662971 261.849243
6.840000 0.800000 -7.120000 18.608662 9.240990 431.678162
6.840000 0.800000 -7.080000 3.424750 22.401079 513.537292
6.840000 0.800000 -7.040000 -17.758331 14.500755 525.630249
6.840000 0.800000 -7.000000 -21.908451 -9.770468 575.442261
6.840000 0.800000 -6.960000 -2.284939 -26.498104 707.370483
6.840000 0.800000 -6.920000 22.233709 -17.847479 812.870361
6.840000 0.800000 -6.880000 26.212904 7.484783 743.138306
6.840000 0.800000 -6.840000 5.361429 22.209953 522.026917
6.840000 0.800000 -6.800000 -17.686579 9.388755 400.963776
6.840000 0.840000 -7.200000 10.803238 -13.897115 309.839722
6.840000 0.840000 -7.160000 25.269703 -6.113883 675.937439
6.840000 0.840000 -7.120000 27.684364 11.198320 891.826416
6.840000 0.840000 -7.080000 15.630800 22.664360 757.995117
6.840000 0.840000 -7.040000 1.761192 19.196028 371.589294
6.840000 0.840000 -7.000000 -0.456131 8.038706 64.828842
6.840000 0.840000 -6.960000 8.019604 4.082465 80.980560
6.840000 0.840000 -6.920000 13.274758 12.220539 325.560791
6.840000 0.840000 -6.880000 5.304650 21.230827 478.887329
6.840000 0.840000 -6.840000 -9.105978 16.769669 364.140625
6.840000 0.840000 -6.800000 -12.862244 -0.946424 166.333038
6.840000 0.880000 -7.200000 18.217270 -6.903936 379.533264
6.840000 0.880000 -7.160000 31.066872 4.413519 984.629639
6.840000 0.880000 -7.120000 32.691208 23.953793 1642.499268
6.840000 0.880000 -7.080000 20.590612 39.976212 2022.070801
6.840000 0.880000 -7.040000 2.433922 44.245388 1963.578369
6.840000 0.880000 -7.000000 -12.110962 37.975880 1588.842896
6.840000 0.880000 -6.960000 -19.444477 27.783100 1149.988281
6.840000 0.880000 -6.920000 -21.807217 17.911343 796.370850
6.840000 0.880000 -6.880000 -21.044596 8.058784 507.819000
6.840000 0.880000 -6.840000 -15.329285 -1.789508 238.189316
6.840000 0.880000 -6.800000 -3.178216 -7.215977 62.171375
6.840000 0.920000 -7.200000 15.440371 1.197866 239.839935
6.840000 0.920000 -7.160000 27.008665 15.928380 983.181274
6.840000 0.920000 -7.120000 24.809956 40.061081 2220.424072
6.840000 0.920000 -7.080000 4.105097 59.580013 3566.629883
6.840000 0.920000 -7.040000 -26.873827 61.161602 4462.943848
6.840000 0.920000 -7.000000 -52.372246 42.146942 4519.216797
6.840000 0.920000 -6.960000 -59.952118 12.136103 3741.541260
6.840000 0.920000 -6.920000 -47.993362 -14.048609 2500.726074
6.840000 0.920000 -6.880000 -25.025969 -25.723135 1287.978760
6.840000 0.920000 -6.840000 -3.120636 -21.247440 461.192108
6.840000 0.920000 -6.800000 8.987985 -6.638033 124.847351
6.840000 0.960000 -7.200000 8.047347 1.479226 66.947906
6.840000 0.960000 -7.160000 16.642557 21.121277 723.083008
6.840000 0.960000 -7.120000 4.791745 47.409489 2270.620605
6.840000 0.960000 -7.080000 -28.466770 60.004021 4410.839355
6.840000 0.960000 -7.040000 -66.053268 44.269222 6322.798340
6.840000 0.960000 -7.000000 -84.311302 4.501133 7128.655762
6.840000 0.960000 -6.960000 -70.949417 -37.713398 6456.120117
6.840000 0.960000 -6.920000 -34.380405 -59.087578 4673.354004
6.840000 0.960000 -6.880000 3.156899 -51.120735 2623.295654
6.840000 0.960000 -6.840000 22.225729 -24.232733 1081.208374
6.840000 0.960000 -6.800000 18.540062 2.395321 349.471436
6.840000 1.000000 -7.200000 5.534849 -4.684517 52.579254
6.840000 1.000000 -7.160000 6.509165 18.945522 401.302032
6.840000 1.000000 -7.120000 -17.191666 38.754959 1797.500244
6.840000 1.000000 -7.080000 -54.954605 33.095062 4115.291992
6.840000 1.000000 -7.040000 -80.728531 -2.974838 6525.945312
6.840000 1.000000 -7.000000 -73.256668 -50.764420 7943.565918
6.840000 1.000000 -6.960000 -33.829212 -81.015396 7707.910156
6.840000 1.000000 -6.920000 14.091215 -76.189850 6003.455566
6.840000 1.000000 -6.880000 43.023254 -42.932213 3694.175293
6.840000 1.000000 -6.840000 41.378944 -4.833216 1735.577026
6.840000 1.000000 -6.800000 18.785040 16.683834 631.228027
6.840000 1.040000 -7.200000 10.017687 -8.689277 175.857574
6.840000 1.040000 -7.160000 -0.076812 12.756777 162.741257
6.840000 1.040000 -7.120000 -29.027658 16.979237 1130.899414
6.840000 1.040000 -7.080000 -54.950478 -7.482607 3075.544434
6.840000 1.040000 -7.040000 -53.988903 -48.920551 5308.022461
6.840000 1.040000 -7.000000 -20.750843 -79.976730 6826.875000
6.840000 1.040000 -6.960000 26.254229 -79.058609 6939.548340
6.840000 1.040000 -6.920000 58.941990 -46.969528 5680.294922
6.840000 1.040000 -6.880000 60.856049 -4.871428 3727.189453
6.840000 1.040000 -6.840000 37.199066 23.187340 1921.423218
6.840000 1.040000 -6.800000 7.085735 27.049580 781.887390
6.840000 1.080000 -7.200000 14.563690 -5.780853 245.519333
6.840000 1.080000 -7.160000 -3.562664 4.975089 37.444088
6.840000 1.080000 -7.120000 -24.742168 -7.540919 669.040405
6.840000 1.080000 -7.080000 -26.911650 -37.132385 2103.051025
6.840000 1.080000 -7.040000 -2.165935 -61.279633 3759.884521
6.840000 1.080000 -7.000000 35.744316 -59.894863 4865.050781
6.840000 1.080000 -6.960000 62.697975 -31.694656 4935.587402
6.840000 1.080000 -6.920000 63.315601 5.980301 4044.629395
6.840000 1.080000 -6.880000 40.902027 32.012665 2697.786621
6.840000 1.080000 -6.840000 11.482506 36.520210 1465.573608
6.840000 1.080000 -6.800000 -9.921045 23.985477 673.730225
6.840000 1.120000 -7.200000 12.407885 -0.772103 154.551743
6.840000 1.120000 -7.160000 -4.054390 -4.584137 37.452389
6.840000 1.120000 -7.120000 -7.135138 -24.059299 629.760132
6.840000 1.120000 -7.080000 11.529756 -39.962475 1729.934692
6.840000 1.120000 -7.040000 39.954178 -34.551636 2790.151855
6.840000 1.120000 -7.000000 56.725494 -7.909405 3280.340332
6.840000 1.120000 -6.960000 49.970055 22.950218 3023.718750
6.840000 1.120000 -6.920000 25.894352 39.786491 2253.482422
6.840000 1.120000 -6.880000 0.548742 37.258789 1388.518555
6.840000 1.120000 -6.840000 -14.623966 22.984125 742.130371
6.840000 1.120000 -6.800000 -18.747536 6.892745 398.980011
6.840000 1.160000 -7.200000 5.700503 -1.939890 36.258911
6.840000 1.160000 -7.160000 0.905570 -15.257549 233.612869
6.840000 1.160000 -7.120000 15.455240 -27.103079 973.441345
6.840000 1.160000 -7.080000 38.785339 -19.327913 1877.870728
6.840000 1.160000 -7.040000 49.020576 8.000572 2467.025879
6.840000 1.160000 -7.000000 34.520000 35.817139 2474.497803
6.840000 1.160000 -6.960000 4.886515 44.249687 1981.912842
6.840000 1.160000 -6.920000 -19.222631 30.517994 1300.857544
6.840000 1.160000 -6.880000 -25.569176 8.641374 728.456116
6.840000 1.160000 -6.840000 -18.580013 -6.528014 387.831848
6.840000 1.160000 -6.800000 -9.794427 -12.464851 251.303314
6.840000 1.200000 -7.200000 3.384537 -10.563482 123.042244
6.840000 1.200000 -7.160000 13.045169 -22.440550 673.754700
6.840000 1.200000 -7.120000 34.268867 -17.594227 1483.912109
6.840000 1.200000 -7.080000 45.066200 8.352232 2100.722168
6.840000 1.200000 -7.040000 29.603762 37.188545 2259.370605
6.840000 1.200000 -7.000000 -4.464661 44.756336 2023.062866
6.840000 1.200000 -6.960000 -32.301716 24.417593 1639.619751
6.840000 1.200000 -6.920000 -35.311470 -7.101342 1297.328979
6.840000 1.200000 -6.880000 -17.153347 -26.887182 1017.157898
6.840000 1.200000 -6.840000 3.328791 -27.039869 742.235413
6.840000 1.200000 -6.800000 12.728420 -18.025547 486.933044
6.880000 0.800000 -7.200000 20.483938 4.771118 442.355316
6.880000 0.800000 -7.160000 19.951099 21.261898 850.114624
6.880000 0.800000 -7.120000 2.863555 33.651005 1140.590088
6.880000 0.800000 -7.080000 -20.338022 26.699726 1126.510498
6.880000 0.800000 -7.040000 -28.867443 2.499729 839.577942
6.880000 0.800000 -7.000000 -13.556057 -18.013037 508.236145
6.880000 0.800000 -6.960000 10.961433 -15.323198 354.953430
6.880000 0.800000 -6.920000 19.296148 7.147192 423.423706
6.880000 0.800000 -6.880000 1.773143 24.542103 605.458862
6.880000 0.800000 -6.840000 -23.875641 15.580868 812.809631
6.880000 0.800000 -6.800000 -29.430183 -14.437788 1074.585449
6.880000 0.840000 -7.200000 20.182503 12.484441 563.194702
6.880000 0.840000 -7.160000 18.619593 25.790478 1011.838013
6.880000 0.840000 -7.120000 6.433079 35.785080 1321.956421
6.880000 0.840000 -7.080000 -9.301670 34.173782 1254.368530
6.880000 0.840000 -7.040000 -17.466515 23.446045 854.796143
6.880000 0.840000 -7.000000 -15.287468 14.628384 447.696289
6.880000 0.840000 -6.960000 -11.523809 14.619091 346.515991
6.880000 0.840000 -6.920000 -15.857802 17.710617 565.135864
6.880000 0.840000 -6.880000 -26.208624 12.016272 831.282715
6.880000 0.840000 -6.840000 -29.258781 -5.573807 887.143616
6.880000 0.840000 -6.800000 -14.989277 -22.977509 752.644287
6.880000 0.880000 -7.200000 12.271983 17.743084 465.418579
6.880000 0.880000 -7.160000 13.687686 31.267279 1164.995483
6.880000 0.880000 -7.120000 3.423393 47.265984 2245.792969
6.880000 0.880000 -7.080000 -18.068340 54.869225 3337.096680
6.880000 0.880000 -7.040000 -41.660622 47.624199 4003.671631
6.880000 0.880000 -7.000000 -56.947258 28.144279 4035.090820
6.880000 0.880000 -6.960000 -59.226318 4.725262 3530.084961
6.880000 0.880000 -6.920000 -50.201126 -15.069572 2747.245117
6.880000 0.880000 -6.880000 -34.121647 -27.328823 1911.151367
6.880000 0.880000 -6.840000 -15.054720 -30.371222 1149.055664
6.880000 0.880000 -6.800000 2.427412 -23.434410 555.063904
6.880000 0.920000 -7.200000 2.562003 14.161249 207.104843
6.880000 0.920000 -7.160000 4.864768 33.826088 1167.870239
6.880000 0.920000 -7.120000 -13.834232 56.652168 3400.854248
6.880000 0.920000 -7.080000 -51.614548 61.826839 6486.619629
6.880000 0.920000 -7.040000 -88.748138 37.163048 9257.324219
6.880000 0.920000 -7.000000 -101.932961 -9.083618 10472.839844
6.880000 0.920000 -6.960000 -82.283028 -53.259365 9607.056641
6.880000 0.920000 -6.920000 -41.568272 -73.623245 7148.303711
6.880000 0.920000 -6.880000 -2.323484 -64.934532 4221.892090
6.880000 0.920000 -6.840000 18.532288 -39.028545 1866.672974
6.880000 0.920000 -6.800000 18.801733 -13.308953 530.633423
6.880000 0.960000 -7.200000 -0.058860 4.092602 16.752853
6.880000 0.960000 -7.160000 -4.732620 31.034290 985.524902
6.880000 0.960000 -7.120000 -38.961899 50.316269 4049.756348
6.880000 0.960000 -7.080000 -87.542290 35.522625 8925.509766
6.880000 0.960000 -7.040000 -116.604378 -17.046137 13887.151367
6.880000 0.960000 -7.000000 -100.677460 -80.853134 16673.179688
6.880000 0.960000 -6.960000 -44.827740 -118.035568 15941.921875
6.880000 0.960000 -6.920000 18.423256 -108.654121 12145.133789
6.880000 0.960000 -6.880000 54.545593 -64.702316 7161.611328
6.880000 0.960000 -6.840000 51.988846 -17.695250 3015.961914
6.880000 0.960000 -6.800000 25.952629 7.092919 723.848450
6.880000 1.000000 -7.200000 6.682461 -3.204949 54.926983
6.880000 1.000000 -7.160000 -11.536766 23.786976 698.917175
6.880000 1.000000 -7.120000 -56.049641 25.686356 3801.351074
6.880000 1.000000 -7.080000 -95.381409 -15.355885 9333.416016
6.880000 1.000000 -7.040000 -92.895187 -82.592468 15451.031250
6.880000 1.000000 -7.000000 -39.166073 -133.658295 19398.519531
6.880000 1.000000 -6.960000 37.108765 -133.706528 19254.496094
6.880000 1.000000 -6.920000 90.691711 -83.494118 15196.253906
6.880000 1.000000 -6.880000 94.852386 -17.502604 9303.316406
6.880000 1.000000 -6.840000 59.059593 24.969303 4111.501953
6.880000 1.000000 -6.800000 15.912038 28.914482 1089.240234
6.880000 1.040000 -7.200000 15.691398 -1.208566 247.680588
6.880000 1.040000 -7.160000 -14.129974 14.701058 415.777283
6.880000 1.040000 -7.120000 -53.164009 -5.718044 2859.107910
6.880000 1.040000 -7.080000 -64.423431 -59.869091 7734.686523
6.880000 1.040000 -7.040000 -26.417383 -113.030853 13473.851562
6.880000 1.040000 -7.000000 44.949692 -124.508392 17522.814453
6.880000 1.040000 -6.960000 106.279518 -81.512268 17939.585938
6.880000 1.040000 -6.920000 120.588455 -10.148893 14644.575195
6.880000 1.040000 -6.880000 85.229385 46.022720 9382.138672
6.880000 1.040000 -6.840000 30.137573 59.787640 4482.834961
6.880000 1.040000 -6.800000 -9.174893 36.809303 1439.103516
6.880000 1.080000 -7.200000 17.967155 6.985415 371.614685
6.880000 1.080000 -7.160000 -12.870493 5.663960 197.730011
6.880000 1.080000 -7.120000 -31.769718 -27.704884 1776.875488
6.880000 1.080000 -7.080000 -13.092716 -71.286278 5253.152832
6.880000 1.080000 -7.040000 40.064346 -88.699326 9472.722656
6.880000 1.080000 -7.000000 94.906021 -59.600639 12559.389648
6.880000 1.080000 -6.960000 114.354927 2.103661 13081.475586
6.880000 1.080000 -6.920000 86.354439 58.981941 10935.958008
6.880000 1.080000 -6.880000 31.516329 79.490196 7311.970215
6.880000 1.080000 -6.840000 -15.652611 59.857719 3827.950684
6.880000 1.080000 -6.800000 -33.158962 21.363810 1555.929077
6.880000 1.120000 -7.200000 12.105602 12.217065 295.802277
6.880000 1.120000 -7.160000 -7.970179 -2.347002 69.032166
6.880000 1.120000 -7.120000 -4.208178 -31.613445 1017.118652
6.880000 1.120000 -7.080000 27.931150 -48.215553 3104.888672
6.880000 1.120000 -7.040000 67.351410 -31.616007 5535.784180
6.880000 1.120000 -7.000000 83.908371 13.046528 7210.826660
6.880000 1.120000 -6.960000 63.294220 58.374428 7413.731934
6.880000 1.120000 -6.920000 17.841648 76.767365 6211.552246
6.880000 1.120000 -6.880000 -24.964596 60.716442 4309.717285
6.880000 1.120000 -6.840000 -43.904194 24.760880 2540.679443
6.880000 1.120000 -6.800000 -36.275764 -9.173000 1400.074951
6.880000 1.160000 -7.200000 5.416924 9.297041 115.778038
6.880000 1.160000 -7.160000 0.715024 -7.595490 58.202736
6.880000 1.160000 -7.120000 16.757839 -20.446487 698.884033
6.880000 1.160000 -7.080000 40.903637 -11.726149 1810.610107
6.880000 1.160000 -7.040000 50.650330 17.461674 2870.365967
6.880000 1.160000 -7.000000 33.891243 47.503006 3405.151855
6.880000 1.160000 -6.960000 -0.658936 57.196487 3271.872314
6.880000 1.160000 -6.920000 -31.798788 40.822666 2677.653076
6.880000 1.160000 -6.880000 -43.303524 10.207302 1979.384155
6.880000 1.160000 -6.840000 -33.871708 -17.404179 1450.197998
6.880000 1.160000 -6.800000 -12.947379 -31.923878 1186.768555
6.880000 1.200000 -7.200000 5.515022 2.434477 36.342148
6.880000 1.200000 -7.160000 11.597718 -7.237569 186.889465
6.880000 1.200000 -7.120000 25.751497 -3.410072 674.768188
6.880000 1.200000 -7.080000 30.833660 15.442329 1189.180176
6.880000 1.200000 -7.040000 16.356098 34.539650 1460.509399
6.880000 1.200000 -7.000000 -10.511412 36.551109 1446.473389
6.880000 1.200000 -6.960000 -31.329208 17.755938 1296.792603
6.880000 1.200000 -6.920000 -32.969700 -9.480738 1176.885498
6.880000 1.200000 -6.880000 -17.396063 -28.957100 1141.136597
6.880000 1.200000 -6.840000 3.592576 -33.791672 1154.783691
6.880000 1.200000 -6.800000 20.561157 -27.847797 1198.260986
6.920000 0.800000 -7.200000 18.108643 31.468510 1318.190063
6.920000 0.800000 -7.160000 -2.614893 43.632435 1910.627075
6.920000 0.800000 -7.120000 -29.690544 36.218231 2193.288574
6.920000 0.800000 -7.080000 -43.222214 9.607208 1960.458252
6.920000 0.800000 -7.040000 -31.636185 -17.188618 1296.296753
6.920000 0.800000 -7.000000 -5.664982 -22.793499 551.635620
6.920000 0.800000 -6.960000 9.739813 -5.215092 122.061134
6.920000 0.800000 -6.920000 -0.213369 14.347656 205.900772
6.920000 0.800000 -6.880000 -24.098492 11.838835 720.895325
6.920000 0.800000 -6.840000 -34.470451 -14.756378 1405.962769
6.920000 0.800000 -6.800000 -15.306871 -41.877060 1987.988403
6.920000 0.840000 -7.200000 2.535824 35.274536 1250.723267
6.920000 0.840000 -7.160000 -12.364582 39.900246 1744.912598
6.920000 0.840000 -7.120000 -28.946526 34.542709 2031.100098
6.920000 0.840000 -7.080000 -38.646168 20.479012 1912.916138
6.920000 0.840000 -7.040000 -37.747395 6.281944 1464.328613
6.920000 0.840000 -7.000000 -31.905167 -0.571838 1018.266663
6.920000 0.840000 -6.960000 -30.077717 -2.001305 908.674316
6.920000 0.840000 -6.920000 -33.676239 -7.214092 1186.132202
6.920000 0.840000 -6.880000 -33.628593 -21.272261 1583.391357
6.920000 0.840000 -6.840000 -20.041912 -36.846588 1759.349243
6.920000 0.840000 -6.800000 5.116236 -39.513512 1587.493530
6.920000 0.880000 -7.200000 -11.585426 26.758270 850.227112
6.920000 0.880000 -7.160000 -18.972933 34.768471 1568.818726
6.920000 0.880000 -7.120000 -36.503597 39.767487 2913.965576
6.920000 0.880000 -7.080000 -59.661743 31.863821 4574.826660
6.920000 0.880000 -7.040000 -76.650047 8.545357 5948.252930
6.920000 0.880000 -7.000000 -77.523903 -22.471069 6514.904297
6.920000 0.880000 -6.960000 -61.166412 -48.905643 6133.091797
6.920000 0.880000 -6.920000 -34.727943 -61.985836 5048.273926
6.920000 0.880000 -6.880000 -7.831644 -60.074478 3670.277588
6.920000 0.880000 -6.840000 12.366068 -46.803352 2343.473389
6.920000 0.880000 -6.800000 22.312763 -27.733555 1267.009521
6.920000 0.920000 -7.200000 -14.849373 11.275158 347.633057
6.920000 0.920000 -7.160000 -24.152023 29.238190 1438.192017
6.920000 0.920000 -7.120000 -56.032391 37.285278 4529.820801
6.920000 0.920000 -7.080000 -94.873909 15.211554 9232.450195
6.920000 0.920000 -7.040000 -112.026672 -35.881500 13837.458008
6.920000 0.920000 -7.000000 -89.606659 -90.746216 16264.229492
6.920000 0.920000 -6.960000 -36.337345 -118.654243 15399.231445
6.920000 0.920000 -6.920000 18.968161 -106.884407 11784.067383
6.920000 0.920000 -6.880000 49.729614 -68.481415 7162.738281
6.920000 0.920000 -6.840000 49.579781 -29.122917 3306.298828
6.920000 0.920000 -6.800000 31.794630 -6.840137 1057.685913
6.920000 0.960000 -7.200000 -6.038996 -0.110268 36.481628
6.920000 0.960000 -7.160000 -28.453362 22.218090 1303.237305
6.920000 0.960000 -7.120000 -74.893265 16.171236 5870.509766
6.920000 0.960000 -7.080000 -110.884445 -34.020603 13452.761719
6.920000 0.960000 -7.040000 -99.631149 -107.057953 21387.771484
6.920000 0.960000 -7.000000 -35.702003 -157.299149 26017.654297
6.920000 0.960000 -6.960000 46.923050 -151.171326 25054.542969
6.920000 0.960000 -6.920000 100.956345 -94.440414 19111.175781
6.920000 0.960000 -6.880000 102.546310 -25.875830 11185.304688
6.920000 0.960000 -6.840000 66.010559 15.422909 4595.260254
6.920000 0.960000 -6.800000 26.061277 18.520542 1022.200684
6.920000 1.000000 -7.200000 6.647697 -0.048753 44.194260
6.920000 1.000000 -7.160000 -30.308357 13.049318 1088.881226
6.920000 1.000000 -7.120000 -75.609024 -17.811033 6033.957520
6.920000 1.000000 -7.080000 -84.345261 -88.018753 14861.423828
6.920000 1.000000 -7.040000 -31.664436 -153.643433 24608.941406
6.920000 1.000000 -7.000000 60.388405 -164.809372 30808.888672
6.920000 1.000000 -6.960000 136.641937 -108.095947 30355.753906
6.920000 1.000000 -6.920000 152.486404 -18.786654 23605.041016
6.920000 1.000000 -6.880000 108.119553 48.382484 14030.703125
6.920000 1.000000 -6.840000 43.554779 62.479149 5800.663086
6.920000 1.000000 -6.800000 2.053377 35.095181 1235.888062
6.920000 1.040000 -7.200000 12.988988 9.045783 250.539993
6.920000 1.040000 -7.160000 -27.785595 3.276505 782.774780
6.920000 1.040000 -7.120000 -52.855103 -45.894318 4899.950195
6.920000 1.040000 -7.080000 -25.445496 -110.435135 12843.392578
6.920000 1.040000 -7.040000 52.709549 -138.872620 22063.900391
6.920000 1.040000 -7.000000 135.903534 -99.642303 28398.359375
6.920000 1.040000 -6.960000 169.105927 -10.614576 28709.484375
6.920000 1.040000 -6.920000 132.530945 73.572571 22977.375000
6.920000 1.040000 -6.880000 55.944016 105.263596 14210.158203
6.920000 1.040000 -6.840000 -8.730855 78.966904 6312.000000
6.920000 1.040000 -6.800000 -29.340738 28.361420 1665.249023
6.920000 1.080000 -7.200000 9.601101 18.110687 420.178101
6.920000 1.080000 -7.160000 -20.821720 -4.077907 450.173370
6.920000 1.080000 -7.120000 -18.744205 -52.612404 3119.410156
6.920000 1.080000 -7.080000 30.555462 -88.407631 8749.544922
6.920000 1.080000 -7.040000 101.177742 -73.115662 15582.835938
6.920000 1.080000 -7.000000 143.404510 -4.663593 20586.603516
6.920000 1.080000 -6.960000 124.143250 77.085129 21353.664062
6.920000 1.080000 -6.920000 54.574570 121.205238 17669.093750
6.920000 1.080000 -6.880000 -19.802216 105.599319 11543.343750
6.920000 1.080000 -6.840000 -56.414429 50.704975 5753.582031
6.920000 1.080000 -6.800000 -45.939495 -2.219135 2115.361816
6.920000 1.120000 -7.200000 1.723665 20.279631 414.234436
6.920000 1.120000 -7.160000 -11.695000 -6.687186 181.491470
6.920000 1.120000 -7.120000 8.081823 -38.241997 1527.766235
6.920000 1.120000 -7.080000 54.104134 -41.577602 4655.954102
6.920000 1.120000 -7.040000 92.489365 -2.292503 8559.538086
6.920000 1.120000 -7.000000 89.400543 59.426468 11523.961914
6.920000 1.120000 -6.960000 40.338348 102.848221 12204.939453
6.920000 1.120000 -6.920000 -25.138348 99.171829 10466.988281
6.920000 1.120000 -6.880000 -67.173561 53.380417 7361.755859
6.920000 1.120000 -6.840000 -65.830986 -2.596094 4340.458496
6.920000 1.120000 -6.800000 -31.838871 -36.663773 2357.945801
6.920000 1.160000 -7.200000 -3.213614 16.554405 284.375671
6.920000 1.160000 -7.160000 -3.647404 -4.353933 32.260284
6.920000 1.160000 -7.120000 17.643925 -16.039066 568.559692
6.920000 1.160000 -7.080000 43.639397 -1.659580 1907.151123
6.920000 1.160000 -7.040000 48.942593 33.728481 3532.987793
6.920000 1.160000 -7.000000 22.337048 65.025246 4727.226562
6.920000 1.160000 -6.960000 -22.217705 67.380768 5033.794434
6.920000 1.160000 -6.920000 -56.332165 36.561638 4510.066406
6.920000 1.160000 -6.880000 -59.397327 -8.507248 3600.415771
6.920000 1.160000 -6.840000 -32.576653 -41.572838 2789.539062
6.920000 1.160000 -6.800000 5.649615 -47.862015 2322.690674
6.920000 1.200000 -7.200000 -3.169698 13.027349 179.758820
6.920000 1.200000 -7.160000 0.771078 1.105689 1.817109
6.920000 1.200000 -7.120000 13.527328 0.730457 183.522186
6.920000 1.200000 -7.080000 20.015644 14.657204 615.459595
6.920000 1.200000 -7.040000 9.438110 30.842619 1040.345093
6.920000 1.200000 -7.000000 -13.822456 32.883694 1272.397583
6.920000 1.200000 -6.960000 -33.283630 14.752701 1325.442261
6.920000 1.200000 -6.920000 -34.107773 -13.930626 1357.402588
6.920000 1.200000 -6.880000 -14.500112 -36.047676 1509.688232
6.920000 1.200000 -6.840000 14.545598 -39.855751 1800.055298
6.920000 1.200000 -6.800000 38.701561 -25.310993 2138.457031
6.960000 0.800000 -7.200000 -6.373970 44.605927 2030.316162
6.960000 0.800000 -7.160000 -35.437325 38.279087 2721.092285
6.960000 0.800000 -7.120000 -53.892040 10.758188 3020.090576
6.960000 0.800000 -7.080000 -46.938652 -22.267784 2699.091309
6.960000 0.800000 -7.040000 -19.648258 -37.865150 1819.823730
6.960000 0.800000 -7.000000 4.988029 -27.294678 769.879883
6.960000 0.800000 -6.960000 6.952294 -5.714752 80.992790
6.960000 0.800000 -6.920000 -10.930744 1.664879 122.252991
6.960000 0.800000 -6.880000 -25.079674 -15.355825 864.791443
6.960000 0.800000 -6.840000 -14.540264 -40.947437 1888.111938
6.960000 0.800000 -6.800000 17.372452 -48.289062 2633.635498
6.960000 0.840000 -7.200000 -26.555258 33.700249 1840.888428
6.960000 0.840000 -7.160000 -42.682533 23.703451 2383.652344
6.960000 0.840000 -7.120000 -51.437508 5.274450 2673.636963
6.960000 0.840000 -7.080000 -48.302490 -14.196682 2534.676270
6.960000 0.840000 -7.040000 -36.872765 -26.145653 2043.195801
6.960000 0.840000 -7.000000 -26.201454 -29.014023 1528.329712
6.960000 0.840000 -6.960000 -21.550144 -29.755791 1349.815796
6.960000 0.840000 -6.920000 -18.506580 -35.690434 1616.300537
6.960000 0.840000 -6.880000 -7.931992 -45.012161 2089.010986
6.960000 0.840000 -6.840000 12.555527 -46.955826 2362.490967
6.960000 0.840000 -6.800000 33.080620 -32.860424 2174.134766
6.960000 0.880000 -7.200000 -32.421661 12.762350 1214.041748
6.960000 0.880000 -7.160000 -42.111702 12.168032 1921.456421
6.960000 0.880000 -7.120000 -57.772083 3.767268 3351.805908
6.960000 0.880000 -7.080000 -70.033287 -18.198627 5235.851074
6.960000 0.880000 -7.040000 -67.351151 -48.740078 6911.772461
6.960000 0.880000 -7.000000 -46.083866 -74.813454 7720.775391
6.960000 0.880000 -6.960000 -13.629856 -84.935768 7399.857422
6.960000 0.880000 -6.920000 17.356911 -76.654182 6177.125977
6.960000 0.880000 -6.880000 37.363205 -56.178162 4551.995117
6.960000 0.880000 -6.840000 43.874565 -32.511177 2981.954102
6.960000 0.880000 -6.800000 39.512119 -12.401194 1714.997070
6.960000 0.920000 -7.200000 -22.328140 -3.705711 512.278137
6.960000 0.920000 -7.160000 -40.129822 5.121152 1636.628784
6.960000 0.920000 -7.120000 -70.979424 -8.638673 5112.705078
6.960000 0.920000 -7.080000 -88.296860 -52.344887 10536.322266
6.960000 0.920000 -7.040000 -68.244049 -106.169357 15929.182617
6.960000 0.920000 -7.000000 -12.521626 -136.632736 18825.294922
6.960000 0.920000 -6.960000 50.553452 -123.733566 17865.646484
6.960000 0.920000 -6.920000 88.060196 -76.801842 13653.121094
6.960000 0.920000 -6.880000 87.246292 -25.386358 8256.382812
6.960000 0.920000 -6.840000 61.461861 5.039948 3802.961426
6.960000 0.920000 -6.800000 34.662231 9.991402 1301.298462
6.960000 0.960000 -7.200000 -6.283918 -6.399315 80.438858
6.960000 0.960000 -7.160000 -39.307991 -1.442232 1547.198242
6.960000 0.960000 -7.120000 -74.842384 -36.541546 6936.666992
6.960000 0.960000 -7.080000 -72.601662 -102.829659 15844.939453
6.960000 0.960000 -7.040000 -14.864899 -157.611084 25062.218750
6.960000 0.960000 -7.000000 72.633774 -158.077728 30264.234375
6.960000 0.960000 -6.960000 138.366699 -98.431381 28834.080078
6.960000 0.960000 -6.920000 146.248428 -15.610502 21632.291016
6.960000 0.960000 -6.880000 102.889038 41.559914 12313.380859
6.960000 0.960000 -6.840000 47.331795 50.664574 4807.197754
6.960000 0.960000 -6.800000 15.687836 27.408810 997.351074
6.960000 1.000000 -7.200000 3.639969 2.351562 18.779221
6.960000 1.000000 -7.160000 -36.578903 -10.075363 1439.529053
6.960000 1.000000 -7.120000 -56.062103 -66.195183 7524.761719
6.960000 1.000000 -7.080000 -18.284817 -133.216766 18081.041016
6.960000 1.000000 -7.040000 70.193657 -156.534958 29430.343750
6.960000 1.000000 -7.000000 157.600937 -106.846535 36254.234375
6.960000 1.000000 -6.960000 187.043747 -8.659967 35060.359375
6.960000 1.000000 -6.920000 143.205399 77.905914 26577.119141
6.960000 1.000000 -6.880000 62.894104 105.877350 15165.681641
6.960000 1.000000 -6.840000 1.233076 76.041809 5783.877441
6.960000 1.000000 -6.800000 -13.295708 28.136169 968.419922
6.960000 1.040000 -7.200000 3.056274 12.942848 176.858139
6.960000 1.040000 -7.160000 -28.501858 -17.815145 1129.735352
6.960000 1.040000 -7.120000 -19.665075 -77.275177 6358.168457
6.960000 1.040000 -7.080000 45.463985 -117.976257 15985.371094
6.960000 1.040000 -7.040000 133.580658 -94.702293 26812.316406
6.960000 1.040000 -7.000000 183.800507 -7.538288 33839.449219
6.960000 1.040000 -6.960000 157.822296 92.664803 33494.640625
6.960000 1.040000 -6.920000 72.786400 144.144363 26075.457031
6.960000 1.040000 -6.880000 -13.762871 123.540405 15451.648438
6.960000 1.040000 -6.840000 -51.987270 60.253128 6333.115723
6.960000 1.040000 -6.800000 -36.284283 5.770904 1349.852539
6.960000 1.080000 -7.200000 -3.586470 18.021694 337.644226
6.960000 1.080000 -7.160000 -16.830969 -19.374210 658.641541
6.960000 1.080000 -7.120000 13.932081 -62.185524 4061.142090
6.960000 1.080000 -7.080000 80.666428 -66.255737 10896.895508
6.960000 1.080000 -7.040000 137.520386 -10.543629 19023.025391
6.960000 1.080000 -7.000000 136.605743 78.152527 24768.945312
6.960000 1.080000 -6.960000 70.189049 142.683838 25285.179688
6.960000 1.080000 -6.920000 -20.499559 141.588013 20467.398438
6.960000 1.080000 -6.880000 -78.772446 81.967628 12923.790039
6.960000 1.080000 -6.840000 -77.350922 10.098143 6085.137695
6.960000 1.080000 -6.800000 -34.528679 -29.069048 2037.239136
6.960000 1.120000 -7.200000 -9.764511 17.525162 402.476959
6.960000 1.120000 -7.160000 -7.851263 -13.464094 242.924164
6.960000 1.120000 -7.120000 27.031347 -32.958389 1816.949097
6.960000 1.120000 -7.080000 73.123459 -12.643456 5506.896973
6.960000 1.120000 -7.040000 90.342300 45.335808 10217.066406
6.960000 1.120000 -7.000000 55.079353 104.062798 13862.800781
6.960000 1.120000 -6.960000 -16.213230 120.212692 14713.960938
6.960000 1.120000 -6.920000 -78.066467 80.318420 12545.421875
6.960000 1.120000 -6.880000 -92.465340 11.736671 8687.587891
6.960000 1.120000 -6.840000 -57.623459 -40.999184 5001.395996
6.960000 1.120000 -6.800000 -4.590139 -51.474998 2670.744873
6.960000 1.160000 -7.200000 -13.442339 15.529373 421.857910
6.960000 1.160000 -7.160000 -6.377007 -4.944238 65.111710
6.960000 1.160000 -7.120000 19.141356 -9.443092 455.563477
6.960000 1.160000 -7.080000 40.735584 14.084940 1857.773315
6.960000 1.160000 -7.040000 33.483829 52.155064 3841.317383
6.960000 1.160000 -7.000000 -5.932667 74.027786 5515.309570
6.960000 1.160000 -6.960000 -53.018940 57.736706 6144.535156
6.960000 1.160000 -6.920000 -74.410202 9.985153 5636.581055
6.960000 1.160000 -6.880000 -55.031288 -38.632217 4520.890625
6.960000 1.160000 -6.840000 -9.075568 -58.311871 3482.640137
6.960000 1.160000 -6.800000 33.583424 -41.920547 2885.178711
6.960000 1.200000 -7.200000 -17.041176 13.960266 485.290710
6.960000 1.200000 -7.160000 -11.130517 -0.525449 124.164513
6.960000 1.200000 -7.120000 4.211946 -1.953259 21.555702
6.960000 1.200000 -7.080000 12.436333 12.347363 307.119751
6.960000 1.200000 -7.040000 1.901352 28.650944 824.491699
6.960000 1.200000 -7.000000 -21.610340 28.589506 1284.366699
6.960000 1.200000 -6.960000 -38.465080 6.478539 1521.533813
6.960000 1.200000 -6.920000 -32.003353 -24.333771 1616.346924
6.960000 1.200000 -6.880000 -2.987921 -42.092148 1780.676514
6.960000 1.200000 -6.840000 31.198345 -34.105247 2136.504639
6.960000 1.200000 -6.800000 50.681519 -5.448849 2598.306152
7.000000 0.800000 -7.200000 -31.087635 32.556751 2026.383057
7.000000 0.800000 -7.160000 -51.163170 9.195541 2702.228027
7.000000 0.800000 -7.120000 -50.052200 -24.847004 3122.596191
7.000000 0.800000 -7.080000 -25.245396 -48.730488 3011.990479
7.000000 0.800000 -7.040000 6.437045 -47.298912 2278.622559
7.000000 0.800000 -7.000000 22.272024 -26.162354 1180.511841
7.000000 0.800000 -6.960000 14.690662 -7.574402 273.187134
7.000000 0.800000 -6.920000 -1.266949 -9.315666 88.386795
7.000000 0.800000 -6.880000 -2.858282 -27.108955 743.065247
7.000000 0.800000 -6.840000 17.221035 -38.803207 1802.253052
7.000000 0.800000 -6.800000 42.844463 -26.834579 2555.742676
7.000000 0.840000 -7.200000 -41.921677 10.076322 1858.959229
7.000000 0.840000 -7.160000 -48.501869 -8.890131 2431.465820
7.000000 0.840000 -7.120000 -43.579323 -30.569744 2833.666504
7.000000 0.840000 -7.080000 -27.296738 -45.849125 2847.254150
7.000000 0.840000 -7.040000 -7.672228 -48.807987 2441.082764
7.000000 0.840000 -7.000000 5.856533 -42.634674 1852.014404
7.000000 0.840000 -6.960000 11.314972 -36.440613 1455.946777
7.000000 0.840000 -6.920000 15.524933 -35.409191 1494.834351
7.000000 0.840000 -6.880000 25.547756 -34.934784 1873.126953
7.000000 0.840000 -6.840000 39.215096 -25.910460 2209.175781
7.000000 0.840000 -6.800000 45.682777 -6.171724 2125.006348
7.000000 0.880000 -7.200000 -33.436935 -10.937286 1237.652954
7.000000 0.880000 -7.160000 -39.774174 -18.049826 1907.781006
7.000000 0.880000 -7.120000 -45.112129 -35.009026 3260.736084
7.000000 0.880000 -7.080000 -38.471016 -59.344036 5001.733398
7.000000 0.880000 -7.040000 -15.175209 -79.098991 6486.937500
7.000000 0.880000 -7.000000 17.712887 -82.450569 7111.842773
7.000000 0.880000 -6.960000 46.559448 -67.152901 6677.294434
7.000000 0.880000 -6.920000 61.306438 -41.262733 5461.092773
7.000000 0.880000 -6.880000 61.000130 -15.876989 3973.094727
7.000000 0.880000 -6.840000 51.247837 2.211265 2631.230469
7.000000 0.880000 -6.800000 38.209682 11.925816 1602.204956
7.000000 0.920000 -7.200000 -15.456245 -17.412901 542.104614
7.000000 0.920000 -7.160000 -33.763947 -21.212704 1589.982788
7.000000 0.920000 -7.120000 -47.950741 -50.053421 4804.618164
7.000000 0.920000 -7.080000 -33.554413 -92.665695 9712.829102
7.000000 0.920000 -7.040000 14.503567 -119.377365 14461.308594
7.000000 0.920000 -7.000000 73.763550 -106.818077 16851.164062
7.000000 0.920000 -6.960000 111.011581 -58.559475 15752.783203
7.000000 0.920000 -6.920000 108.670425 -2.399445 11815.019531
7.000000 0.920000 -6.880000 76.841522 32.484932 6959.890625
7.000000 0.920000 -6.840000 41.590626 37.023888 3100.548340
7.000000 0.920000 -6.800000 22.505852 24.149349 1089.704346
7.000000 0.960000 -7.200000 -2.369533 -10.044911 106.514931
7.000000 0.960000 -7.160000 -30.500763 -25.555428 1583.376465
7.000000 0.960000 -7.120000 -36.698540 -73.097328 6690.001953
7.000000 0.960000 -7.080000 4.295612 -121.765007 14845.168945
7.000000 0.960000 -7.040000 80.205330 -128.647964 22983.193359
7.000000 0.960000 -7.000000 145.882690 -77.067337 27221.134766
7.000000 0.960000 -6.960000 159.267975 6.111622 25403.638672
7.000000 0.960000 -6.920000 116.030197 71.401627 18561.199219
7.000000 0.960000 -6.880000 51.113125 86.752968 10138.628906
7.000000 0.960000 -6.840000 7.236621 60.040916 3657.280273
7.000000 0.960000 -6.800000 0.860610 25.766329 664.644348
7.000000 1.000000 -7.200000 -0.303082 0.815174 0.756367
7.000000 1.000000 -7.160000 -23.764608 -32.088516 1594.429443
7.000000 1.000000 -7.120000 -6.218235 -86.531296 7526.331543
7.000000 1.000000 -7.080000 61.564438 -116.361694 17330.224609
7.000000 1.000000 -7.040000 143.050598 -83.377113 27415.214844
7.000000 1.000000 -7.000000 181.461075 4.932198 32952.449219
7.000000 1.000000 -6.960000 147.434097 96.550095 31058.734375
7.000000 1.000000 -6.920000 64.628387 136.457947 22797.599609
7.000000 1.000000 -6.880000 -10.919767 110.722672 12378.750977
7.000000 1.000000 -6.840000 -37.787941 53.281067 4266.800781
7.000000 1.000000 -6.800000 -18.962975 11.859121 500.233154
7.000000 1.040000 -7.200000 -4.906981 6.883347 71.458916
7.000000 1.040000 -7.160000 -11.203669 -34.207645 1295.685181
7.000000 1.040000 -7.120000 29.163303 -75.181213 6502.712891
7.000000 1.040000 -7.080000 102.822372 -70.565880 15551.984375
7.000000 1.040000 -7.040000 158.949280 -3.286034 25275.671875
7.000000 1.040000 -7.000000 149.824112 92.857796 31069.833984
7.000000 1.040000 -6.960000 73.789886 156.455765 29923.353516
7.000000 1.040000 -6.920000 -20.675180 148.627960 22517.734375
7.000000 1.040000 -6.880000 -74.931358 84.115097 12690.058594
7.000000 1.040000 -6.840000 -67.148689 15.191551 4739.729492
7.000000 1.040000 -6.800000 -23.946566 -14.511278 784.015198
7.000000 1.080000 -7.200000 -9.546638 8.202579 158.420624
7.000000 1.080000 -7.160000 0.617970 -26.482080 701.682495
7.000000 1.080000 -7.120000 47.270760 -43.104481 4092.520996
7.000000 1.080000 -7.080000 102.136467 -10.867296 10549.955078
7.000000 1.080000 -7.040000 117.959122 63.662479 17967.265625
7.000000 1.080000 -7.000000 70.152710 134.089478 22901.390625
7.000000 1.080000 -6.960000 -17.342255 150.111328 22834.164062
7.000000 1.080000 -6.920000 -88.734352 100.276489 17929.160156
7.000000 1.080000 -6.880000 -101.863922 21.535898 10840.053711
7.000000 1.080000 -6.840000 -60.696884 -33.119190 4780.992676
7.000000 1.080000 -6.800000 -6.279620 -37.936478 1478.609985
7.000000 1.120000 -7.200000 -13.109103 8.851383 250.195572
7.000000 1.120000 -7.160000 2.545644 -12.920815 173.427750
7.000000 1.120000 -7.120000 38.794495 -11.421808 1635.470459
7.000000 1.120000 -7.080000 65.850380 26.935984 5061.819824
7.000000 1.120000 -7.040000 51.721001 82.341331 9455.156250
7.000000 1.120000 -7.000000 -5.997166 113.040009 12814.009766
7.000000 1.120000 -6.960000 -72.557892 90.577599 13468.949219
7.000000 1.120000 -6.920000 -102.801231 26.232807 11256.252930
7.000000 1.120000 -6.880000 -78.557770 -37.172432 7553.112793
7.000000 1.120000 -6.840000 -22.152569 -60.835922 4191.745605
7.000000 1.120000 -6.800000 25.307758 -39.720531 2218.203125
7.000000 1.160000 -7.200000 -18.842947 9.241823 440.467926
7.000000 1.160000 -7.160000 -6.666536 -4.543987 65.090530
7.000000 1.160000 -7.120000 15.564552 0.802927 242.899994
7.000000 1.160000 -7.080000 24.543621 28.295944 1403.049805
7.000000 1.160000 -7.040000 3.361801 57.169060 3279.603271
7.000000 1.160000 -7.000000 -38.991138 58.998722 5001.158203
7.000000 1.160000 -6.960000 -71.620720 24.328255 5721.391113
7.000000 1.160000 -6.920000 -67.532555 -26.199615 5247.065918
7.000000 1.160000 -6.880000 -27.357529 -58.000660 4112.511230
7.000000 1.160000 -6.840000 21.382973 -51.176830 3076.299316
7.000000 1.160000 -6.800000 48.014732 -15.038422 2531.568604
7.000000 1.200000 -7.200000 -27.228661 4.909719 765.505310
7.000000 1.200000 -7.160000 -17.787502 -8.542375 389.367401
7.000000 1.200000 -7.120000 -1.654814 -7.178382 54.267574
7.000000 1.200000 -7.080000 4.165806 8.092351 82.840080
7.000000 1.200000 -7.040000 -8.538719 20.904718 509.916992
7.000000 1.200000 -7.000000 -29.128326 14.748230 1065.969727
7.000000 1.200000 -6.960000 -36.630215 -9.985672 1441.486206
7.000000 1.200000 -6.920000 -19.305531 -34.538116 1565.584961
7.000000 1.200000 -6.880000 13.769493 -37.929771 1628.266602
7.000000 1.200000 -6.840000 40.191368 -15.196137 1846.268677
7.000000 1.200000 -6.800000 43.062092 19.272610 2225.777344
7.040000 0.800000 -7.200000 -35.714073 7.606218 1333.349609
7.040000 0.800000 -7.160000 -38.922722 -19.017845 1876.656738
7.040000 0.800000 -7.120000 -21.866550 -44.394104 2448.982422
7.040000 0.800000 -7.080000 9.120615 -51.833763 2769.924561
7.040000 0.800000 -7.040000 35.111229 -36.201050 2543.314453
7.040000 0.800000 -7.000000 40.350540 -10.594256 1740.404419
7.040000 0.800000 -6.960000 27.018730 4.530535 750.537537
7.040000 0.800000 -6.920000 13.267441 0.440212 176.218765
7.040000 0.800000 -6.880000 15.235071 -11.755608 370.301697
7.040000 0.800000 -6.840000 30.749029 -12.886305 1111.559692
7.040000 0.800000 -6.800000 41.661247 4.032136 1751.917725
7.040000 0.840000 -7.200000 -32.876759 -13.897064 1274.009644
7.040000 0.840000 -7.160000 -28.561008 -31.328426 1797.201416
7.040000 0.840000 -7.120000 -13.051455 -46.722992 2353.378662
7.040000 0.840000 -7.080000 10.489475 -50.784283 2689.072510
7.040000 0.840000 -7.040000 31.229864 -40.222500 2593.153809
7.040000 0.840000 -7.000000 39.779411 -22.316635 2080.433838
7.040000 0.840000 -6.960000 36.984394 -8.578737 1441.440186
7.040000 0.840000 -6.920000 32.347504 -3.650997 1059.690796
7.040000 0.840000 -6.880000 33.235733 -1.571882 1107.084717
7.040000 0.840000 -6.840000 36.696941 6.075784 1383.580688
7.040000 0.840000 -6.800000 33.341225 19.124828 1477.396240
7.040000 0.880000 -7.200000 -16.934002 -24.172176 871.054565
7.040000 0.880000 -7.160000 -17.976460 -33.480053 1444.067017
7.040000 0.880000 -7.120000 -10.538711 -49.696632 2580.819824
7.040000 0.880000 -7.080000 11.165066 -61.939312 3961.136963
7.040000 0.880000 -7.040000 40.388931 -58.218788 5020.692871
7.040000 0.880000 -7.000000 62.705128 -36.889145 5292.742188
7.040000 0.880000 -6.960000 68.098763 -8.220688 4705.020996
7.040000 0.880000 -6.920000 58.158455 14.694527 3598.334961
7.040000 0.880000 -6.880000 42.289421 25.889137 2458.642578
7.040000 0.880000 -6.840000 28.545795 27.999817 1598.852173
7.040000 0.880000 -6.800000 18.927820 26.157961 1042.501221
7.040000 0.920000 -7.200000 -2.447973 -19.856422 400.270081
7.040000 0.920000 -7.160000 -12.932963 -32.993275 1255.817627
7.040000 0.920000 -7.120000 -5.433449 -60.362968 3673.210449
7.040000 0.920000 -7.080000 28.984392 -79.451775 7152.679688
7.040000 0.920000 -7.040000 75.299278 -68.151100 10314.553711
7.040000 0.920000 -7.000000 105.024673 -25.526714 11681.794922
7.040000 0.920000 -6.960000 99.747688 25.836033 10617.102539
7.040000 0.920000 -6.920000 65.778336 58.134468 7706.406250
7.040000 0.920000 -6.880000 27.202030 59.946503 4333.533691
7.040000 0.920000 -6.840000 5.265970 41.991386 1791.006958
7.040000 0.920000 -6.800000 3.585505 24.258678 601.339294
7.040000 0.960000 -7.200000 1.951397 -10.054711 104.905174
7.040000 0.960000 -7.160000 -8.601308 -35.927704 1364.782471
7.040000 0.960000 -7.120000 13.139776 -70.962517 5208.332520
7.040000 0.960000 -7.080000 66.631271 -80.830185 10973.245117
7.040000 0.960000 -7.040000 120.147018 -44.190395 16388.097656
7.040000 0.960000 -7.000000 134.997330 24.972170 18847.888672
7.040000 0.960000 -6.960000 98.595932 85.935844 17106.126953
7.040000 0.960000 -6.920000 35.550114 104.104347 12101.525391
7.040000 0.960000 -6.880000 -13.490243 78.137177 6287.405273
7.040000 0.960000 -6.840000 -25.116390 37.337566 2024.927002
7.040000 0.960000 -6.800000 -8.351688 13.872616 262.200165
7.040000 1.000000 -7.200000 -0.572721 -4.115508 17.265417
7.040000 1.000000 -7.160000 1.489309 -38.360916 1473.777954
7.040000 1.000000 -7.120000 41.779560 -65.452515 6029.563477
7.040000 1.000000 -7.080000 102.641052 -50.167419 13051.955078
7.040000 1.000000 -7.040000 140.110046 14.059425 19828.492188
7.040000 1.000000 -7.000000 120.152519 92.886978 23064.617188
7.040000 1.000000 -6.960000 50.091248 136.209137 21062.062500
7.040000 1.000000 -6.920000 -25.340174 119.400826 14898.681641
7.040000 1.000000 -6.880000 -60.929550 62.775074 7653.120117
7.040000 1.000000 -6.840000 -46.890244 11.723108 2336.125977
7.040000 1.000000 -6.800000 -11.686441 -2.769444 144.242737
7.040000 1.040000 -7.200000 -2.821514 -2.438540 13.907419
7.040000 1.040000 -7.160000 14.452399 -31.742832 1216.479248
7.040000 1.040000 -7.120000 61.845367 -38.142258 5279.681152
7.040000 1.040000 -7.080000 108.829575 1.909907 11847.523438
7.040000 1.040000 -7.040000 113.205879 75.289291 18484.048828
7.040000 1.040000 -7.000000 59.198860 135.874908 21966.496094
7.040000 1.040000 -6.960000 -24.029274 140.974274 20451.152344
7.040000 1.040000 -6.920000 -83.753288 88.126595 14780.910156
7.040000 1.040000 -6.880000 -86.969238 17.360781 7865.044922
7.040000 1.040000 -6.840000 -45.756882 -23.643621 2652.712891
7.040000 1.040000 -6.800000 -2.194094 -18.696537 354.374542
7.040000 1.080000 -7.200000 -3.706551 0.117000 13.752210
7.040000 1.080000 -7.160000 19.117237 -15.493116 605.505371
7.040000 1.080000 -7.120000 56.780594 -3.481657 3236.157715
7.040000 1.080000 -7.080000 77.484779 44.056499 7944.866211
7.040000 1.080000 -7.040000 52.579849 101.716995 13110.987305
7.040000 1.080000 -7.000000 -13.549015 126.752716 16249.827148
7.040000 1.080000 -6.960000 -81.006393 95.623138 15705.820312
7.040000 1.080000 -6.920000 -105.502319 26.861885 11852.299805
7.040000 1.080000 -6.880000 -75.458763 -33.056973 6786.788086
7.040000 1.080000 -6.840000 -20.280745 -48.744194 2787.304932
7.040000 1.080000 -6.800000 17.521797 -23.363403 852.862000
7.040000 1.120000 -7.200000 -8.341690 4.347947 88.488434
7.040000 1.120000 -7.160000 8.797714 -1.123161 78.661263
7.040000 1.120000 -7.120000 29.776337 15.250048 1119.194214
7.040000 1.120000 -7.080000 30.155996 51.418282 3553.223633
7.040000 1.120000 -7.040000 -3.733601 81.597496 6672.091309
7.040000 1.120000 -7.000000 -56.377266 76.251633 8992.707031
7.040000 1.120000 -6.960000 -91.449432 30.468056 9291.301758
7.040000 1.120000 -6.920000 -82.177963 -27.772404 7524.524414
7.040000 1.120000 -6.880000 -35.367115 -59.717140 4816.969727
7.040000 1.120000 -6.840000 14.487031 -48.364601 2549.008545
7.040000 1.120000 -6.800000 35.501827 -10.693887 1374.739014
7.040000 1.160000 -7.200000 -18.802540 3.657052 366.909515
7.040000 1.160000 -7.160000 -8.999063 -1.679467 83.803757
7.040000 1.160000 -7.120000 2.384459 7.598236 63.418835
7.040000 1.160000 -7.080000 -1.387417 27.132236 738.083191
7.040000 1.160000 -7.040000 -25.432747 37.334213 2040.668091
7.040000 1.160000 -7.000000 -53.647263 21.541111 3342.048340
7.040000 1.160000 -6.960000 -60.747345 -15.334538 3925.387939
7.040000 1.160000 -6.920000 -35.783119 -47.831169 3568.252441
7.040000 1.160000 -6.880000 6.166534 -51.456528 2685.800293
7.040000 1.160000 -6.840000 36.459858 -24.196114 1914.773193
7.040000 1.160000 -6.800000 37.507366 12.836929 1571.589233
7.040000 1.200000 -7.200000 -28.003960 -7.885310 846.399841
7.040000 1.200000 -7.160000 -18.020369 -17.522369 631.767090
7.040000 1.200000 -7.120000 -5.283670 -14.499864 238.163223
7.040000 1.200000 -7.080000 -2.769857 -2.976948 16.534328
7.040000 1.200000 -7.040000 -12.885794 2.827431 174.038055
7.040000 1.200000 -7.000000 -23.455324 -6.433681 591.544495
7.040000 1.200000 -6.960000 -19.397497 -24.198528 961.831665
7.040000 1.200000 -6.920000 1.434059 -33.065449 1095.380371
7.040000 1.200000 -6.880000 24.830456 -21.361626 1072.870605
7.040000 1.200000 -6.840000 32.844261 5.533823 1109.368652
7.040000 1.200000 -6.800000 19.650648 30.242689 1300.768188
7.080000 0.800000 -7.200000 -20.455935 -7.793563 479.184875
7.080000 0.800000 -7.160000 -13.122705 -25.195303 807.008667
7.080000 0.800000 -7.120000 7.721799 -36.641037 1402.191772
7.080000 0.800000 -7.080000 34.144451 -30.744766 2111.084229
7.080000 0.800000 -7.040000 49.904583 -7.433105 2545.718262
7.080000 0.800000 -7.000000 44.672001 18.814587 2349.576416
7.080000 0.800000 -6.960000 24.746861 30.662556 1552.599365
7.080000 0.800000 -6.920000 7.965352 23.940918 636.614380
7.080000 0.800000 -6.880000 6.615665 11.288459 171.196335
7.080000 0.800000 -6.840000 15.723526 8.716137 323.200317
7.080000 0.800000 -6.800000 19.325497 18.697029 723.053711
7.080000 0.840000 -7.200000 -11.710201 -19.032711 499.372894
7.080000 0.840000 -7.160000 -3.296686 -29.180883 862.392151
7.080000 0.840000 -7.120000 15.145504 -35.050297 1457.909668
7.080000 0.840000 -7.080000 37.529430 -26.662247 2119.333496
7.080000 0.840000 -7.040000 50.052505 -4.025471 2521.457764
7.080000 0.840000 -7.000000 44.428310 20.208937 2382.275879
7.080000 0.840000 -6.960000 26.774721 31.830109 1730.041504
7.080000 0.840000 -6.920000 11.793234 28.465282 949.352661
7.080000 0.840000 -6.880000 8.108935 20.655277 492.395294
7.080000 0.840000 -6.840000 10.727066 19.383636 490.795319
7.080000 0.840000 -6.800000 8.827226 24.074091 657.481750
7.080000 0.880000 -7.200000 -0.043497 -18.995354 360.825348
7.080000 0.880000 -7.160000 2.938570 -27.328859 755.501770
7.080000 0.880000 -7.120000 18.394718 -35.082050 1569.115967
7.080000 0.880000 -7.080000 41.636414 -28.834900 2565.042480
7.080000 0.880000 -7.040000 57.356625 -5.485857 3319.877197
7.080000 0.880000 -7.000000 54.000809 23.317421 3459.789551
7.080000 0.880000 -6.960000 34.515175 41.541927 2917.028809
7.080000 0.880000 -6.920000 12.700380 42.774094 1990.922729
7.080000 0.880000 -6.880000 0.041386 33.660385 1133.023193
7.080000 0.880000 -6.840000 -2.829031 24.852245 625.637512
7.080000 0.880000 -6.800000 -2.361952 20.622700 430.874573
7.080000 0.920000 -7.200000 5.189830 -12.636316 186.610809
7.080000 0.920000 -7.160000 5.789010 -27.020330 763.610901
7.080000 0.920000 -7.120000 25.746998 -39.016178 2185.170166
7.080000 0.920000 -7.080000 56.142929 -30.158840 4061.584229
7.080000 0.920000 -7.040000 74.961617 2.549007 5625.741699
7.080000 0.920000 -7.000000 66.243233 42.103859 6160.900879
7.080000 0.920000 -6.960000 34.133659 65.307236 5430.141602
7.080000 0.920000 -6.920000 -1.085543 61.689152 3806.729980
7.080000 0.920000 -6.880000 -20.224638 40.194130 2024.604126
7.080000 0.920000 -6.840000 -19.168804 19.156151 734.401123
7.080000 0.920000 -6.800000 -8.199686 10.805752 183.999115
7.080000 0.960000 -7.200000 4.701982 -8.346157 91.766983
7.080000 0.960000 -7.160000 11.992390 -28.720814 968.702515
7.080000 0.960000 -7.120000 42.019279 -37.440590 3167.417480
7.080000 0.960000 -7.080000 76.730522 -16.036446 6144.740723
7.080000 0.960000 -7.040000 87.917618 30.931587 8686.270508
7.080000 0.960000 -7.000000 61.537163 76.232018 9598.142578
7.080000 0.960000 -6.960000 11.234990 91.226181 8448.440430
7.080000 0.960000 -6.920000 -32.002480 69.257698 5820.787598
7.080000 0.960000 -6.880000 -44.886246 30.121714 2922.092773
7.080000 0.960000 -6.840000 -29.068169 2.305106 850.271973
7.080000 0.960000 -6.800000 -6.296974 -0.140168 39.671528
7.080000 1.000000 -7.200000 4.918426 -7.339330 78.056679
7.080000 1.000000 -7.160000 23.057716 -24.613413 1137.478271
7.080000 1.000000 -7.120000 58.093674 -20.078976 3778.040283
7.080000 1.000000 -7.080000 84.584045 16.971634 7442.497070
7.080000 1.000000 -7.040000 75.653679 70.197914 10651.226562
7.080000 1.000000 -7.000000 27.970341 105.200531 11849.491211
7.080000 1.000000 -6.960000 -31.648756 97.068703 10423.976562
7.080000 1.000000 -6.920000 -66.342041 52.097641 7115.430664
7.080000 1.000000 -6.880000 -59.114738 3.026611 3503.712646
7.080000 1.000000 -6.840000 -25.508148 -18.483974 992.322998
7.080000 1.000000 -6.800000 2.068869 -7.195623 56.057213
7.080000 1.040000 -7.200000 7.364998 -4.150146 71.466904
7.080000 1.040000 -7.160000 29.867119 -9.752880 987.163452
7.080000 1.040000 -7.120000 57.316715 8.970341 3365.672852
7.080000 1.040000 -7.080000 64.555794 51.711952 6841.576660
7.080000 1.040000 -7.040000 34.430836 94.195015 10058.183594
7.080000 1.040000 -7.000000 -22.681225 104.430908 11420.251953
7.080000 1.040000 -6.960000 -72.321869 70.417374 10189.058594
7.080000 1.040000 -6.920000 -82.795105 13.243637 7030.423340
7.080000 1.040000 -6.880000 -51.990875 -28.877104 3536.938232
7.080000 1.040000 -6.840000 -8.761262 -32.429138 1128.408813
7.080000 1.040000 -6.800000 13.102854 -7.090715 221.963028
7.080000 1.080000 -7.200000 5.943774 3.406764 46.934490
7.080000 1.080000 -7.160000 21.862724 8.076596 543.210144
7.080000 1.080000 -7.120000 33.671684 30.395119 2057.645508
7.080000 1.080000 -7.080000 23.407175 63.162876 4537.444824
7.080000 1.080000 -7.040000 -14.368832 82.986237 7093.178711
7.080000 1.080000 -7.000000 -61.198952 68.538681 8442.862305
7.080000 1.080000 -6.960000 -85.631149 22.198311 7825.458984
7.080000 1.080000 -6.920000 -69.618828 -27.532757 5604.833984
7.080000 1.080000 -6.880000 -25.734543 -48.377842 3002.682129
7.080000 1.080000 -6.840000 12.857960 -31.808657 1177.117798
7.080000 1.080000 -6.800000 21.435867 0.707112 459.996399
7.080000 1.120000 -7.200000 -4.177978 8.374191 87.582581
7.080000 1.120000 -7.160000 1.070910 13.317784 178.510223
7.080000 1.120000 -7.120000 1.676928 26.887444 725.746704
7.080000 1.120000 -7.080000 -12.568256 42.049156 1926.092651
7.080000 1.120000 -7.040000 -40.589664 42.504333 3454.139160
7.080000 1.120000 -7.000000 -64.892654 18.317162 4546.575195
7.080000 1.120000 -6.960000 -64.392929 -20.392677 4562.310547
7.080000 1.120000 -6.920000 -34.708778 -48.155571 3523.658203
7.080000 1.120000 -6.880000 5.004627 -45.600876 2104.486328
7.080000 1.120000 -6.840000 27.609020 -17.233643 1059.256470
7.080000 1.120000 -6.800000 21.833626 12.777318 639.967041
7.080000 1.160000 -7.200000 -17.310608 1.496002 301.895142
7.080000 1.160000 -7.160000 -16.148764 -1.131157 262.062073
7.080000 1.160000 -7.120000 -14.779020 1.222867 219.914856
7.080000 1.160000 -7.080000 -20.162012 5.020132 431.708466
7.080000 1.160000 -7.040000 -31.174524 0.592886 972.202454
7.080000 1.160000 -7.000000 -36.393265 -16.014732 1580.941406
7.080000 1.160000 -6.960000 -24.932457 -35.223000 1862.287109
7.080000 1.160000 -6.920000 0.507044 -40.633110 1651.306763
7.080000 1.160000 -6.880000 23.368431 -24.843409 1163.278564
7.080000 1.160000 -6.840000 27.636200 2.216899 768.674133
7.080000 1.160000 -6.800000 12.557661 21.939804 639.049866
7.080000 1.200000 -7.200000 -20.275696 -16.477108 682.598938
7.080000 1.200000 -7.160000 -13.852930 -24.177839 776.471619
7.080000 1.200000 -7.120000 -4.652164 -24.647497 629.141785
7.080000 1.200000 -7.080000 0.172441 -19.926235 397.084564
7.080000 1.200000 -7.040000 -0.238698 -17.033653 290.202332
7.080000 1.200000 -7.000000 0.312534 -19.110703 365.316650
7.080000 1.200000 -6.960000 7.131752 -21.100700 496.101440
7.080000 1.200000 -6.920000 17.289879 -15.336085 534.135437
7.080000 1.200000 -6.880000 21.615452 -0.819443 467.899231
7.080000 1.200000 -6.840000 14.112885 14.466681 408.458374
7.080000 1.200000 -6.800000 -1.706590 20.959686 442.220886
7.120000 0.800000 -7.200000 -3.498853 -3.217664 22.595333
7.120000 0.800000 -7.160000 2.366817 -10.513905 116.144012
7.120000 0.800000 -7.120000 18.022566 -13.624503 510.439941
7.120000 0.800000 -7.080000 36.324329 -1.844626 1322.859497
7.120000 0.800000 -7.040000 41.630325 23.642696 2292.061035
7.120000 0.800000 -7.000000 25.565140 46.872841 2850.639648
7.120000 0.800000 -6.960000 -2.290882 50.776783 2583.529785
7.120000 0.800000 -6.920000 -21.815172 34.041954 1634.756348
7.120000 0.800000 -6.880000 -21.373001 12.741034 619.139099
7.120000 0.800000 -6.840000 -8.515287 4.053832 88.943672
7.120000 0.800000 -6.800000 -0.532494 9.198557 84.896996
7.120000 0.840000 -7.200000 0.399527 -6.029434 36.513699
7.120000 0.840000 -7.160000 6.006682 -11.459520 167.400833
7.120000 0.840000 -7.120000 21.685638 -10.793484 586.766174
7.120000 0.840000 -7.080000 36.571823 5.836168 1371.559204
7.120000 0.840000 -7.040000 34.730457 32.592018 2268.444336
7.120000 0.840000 -7.000000 12.734817 50.959259 2759.021729
7.120000 0.840000 -6.960000 -14.771543 47.519367 2476.288818
7.120000 0.840000 -6.920000 -28.590742 27.479715 1572.565308
7.120000 0.840000 -6.880000 -23.381849 9.020781 628.085327
7.120000 0.840000 -6.840000 -11.097803 4.564052 143.991791
7.120000 0.840000 -6.800000 -6.213999 9.560199 130.011185
7.120000 0.880000 -7.200000 2.894707 -5.178829 35.199600
7.120000 0.880000 -7.160000 7.909164 -11.808584 201.997543
7.120000 0.880000 -7.120000 23.416544 -9.619803 640.875122
7.120000 0.880000 -7.080000 35.354183 9.052096 1331.858643
7.120000 0.880000 -7.040000 29.022810 34.784653 2052.295410
7.120000 0.880000 -7.000000 4.896659 49.102943 2435.076416
7.120000 0.880000 -6.960000 -20.979908 42.294514 2228.982422
7.120000 0.880000 -6.920000 -32.278637 22.179281 1533.830933
7.120000 0.880000 -6.880000 -26.868435 5.163649 748.576050
7.120000 0.880000 -6.840000 -15.788321 0.238700 249.328049
7.120000 0.880000 -6.800000 -9.672945 3.134415 103.390419
7.120000 0.920000 -7.200000 3.508996 -5.225637 39.620338
7.120000 0.920000 -7.160000 11.676815 -13.624563 321.976746
7.120000 0.920000 -7.120000 28.854816 -8.946639 912.642761
7.120000 0.920000 -7.080000 38.630726 12.621401 1651.632812
7.120000 0.920000 -7.040000 28.262518 38.488976 2280.171143
7.120000 0.920000 -7.000000 1.159616 50.423275 2543.851318
7.120000 0.920000 -6.960000 -25.881390 40.642036 2321.621582
7.120000 0.920000 -6.920000 -37.318806 17.681812 1705.339722
7.120000 0.920000 -6.880000 -30.841415 -2.374579 956.831543
7.120000 0.920000 -6.840000 -16.407986 -9.415279 357.869476
7.120000 0.920000 -6.800000 -5.677924 -4.864822 55.905319
7.120000 0.960000 -7.200000 6.429690 -6.499903 83.589661
7.120000 0.960000 -7.160000 20.078461 -11.952105 545.997375
7.120000 0.960000 -7.120000 37.360695 -1.050399 1396.924927
7.120000 0.960000 -7.080000 41.836941 24.635927 2357.258545
7.120000 0.960000 -7.040000 24.350836 49.619858 3055.093506
7.120000 0.960000 -7.000000 -7.938543 56.213837 3223.015869
7.120000 0.960000 -6.960000 -36.142540 38.923668 2821.334961
7.120000 0.960000 -6.920000 -44.148502 9.041833 2030.844971
7.120000 0.960000 -6.880000 -30.660379 -14.329283 1145.387207
7.120000 0.960000 -6.840000 -9.027480 -18.883007 438.063354
7.120000 0.960000 -6.800000 4.041973 -7.219417 68.457520
7.120000 1.000000 -7.200000 12.364157 -3.813751 167.417068
7.120000 1.000000 -7.160000 27.376434 -0.789345 750.092224
7.120000 1.000000 -7.120000 38.465816 16.948238 1766.861816
7.120000 1.000000 -7.080000 32.872200 42.913635 2922.161621
7.120000 1.000000 -7.040000 7.069659 60.858284 3753.710693
7.120000 1.000000 -7.000000 -27.362364 56.081139 3893.792969
7.120000 1.000000 -6.960000 -50.037216 28.132812 3295.177979
7.120000 1.000000 -6.920000 -46.988400 -6.596496 2251.423340
7.120000 1.000000 -6.880000 -22.435360 -26.419676 1201.344604
7.120000 1.000000 -6.840000 3.862187 -21.431927 474.243958
7.120000 1.000000 -6.800000 12.558647 -1.444541 159.806320
7.120000 1.040000 -7.200000 14.791002 5.685901 251.103210
7.120000 1.040000 -7.160000 22.878830 16.406879 792.626587
7.120000 1.040000 -7.120000 22.485878 34.542538 1698.801636
7.120000 1.040000 -7.080000 7.237332 52.258636 2783.343994
7.120000 1.040000 -7.040000 -20.852026 56.534927 3631.004883
7.120000 1.040000 -7.000000 -48.035179 38.839764 3815.905762
7.120000 1.040000 -6.960000 -56.444397 5.174773 3212.748291
7.120000 1.040000 -6.920000 -38.869095 -24.775650 2124.639404
7.120000 1.040000 -6.880000 -7.262670 -32.060905 1080.647949
7.120000 1.040000 -6.840000 15.282053 -14.997753 458.473755
7.120000 1.040000 -6.800000 14.062429 8.333307 267.195923
7.120000 1.080000 -7.200000 6.911172 15.692858 294.030090
7.120000 1.080000 -7.160000 3.720324 25.818853 680.454041
7.120000 1.080000 -7.120000 -5.594312 34.878910 1247.834595
7.120000 1.080000 -7.080000 -21.994366 38.454872 1962.529297
7.120000 1.080000 -7.040000 -41.423920 29.799915 2603.976074
7.120000 1.080000 -7.000000 -52.735947 6.945443 2829.319336
7.120000 1.080000 -6.960000 -44.972534 -20.573559 2445.800049
7.120000 1.080000 -6.920000 -19.125275 -35.545502 1629.258789
7.120000 1.080000 -6.880000 8.719990 -27.382290 825.828003
7.120000 1.080000 -6.840000 19.436115 -3.523235 390.175751
7.120000 1.080000 -6.800000 8.395968 15.467331 309.730621
7.120000 1.120000 -7.200000 -8.246958 15.161721 297.890106
7.120000 1.120000 -7.160000 -17.904457 16.029167 577.503784
7.120000 1.120000 -7.120000 -26.180475 12.280988 836.239990
7.120000 1.120000 -7.080000 -32.898472 5.196795 1109.316162
7.120000 1.120000 -7.040000 -36.729935 -6.453066 1390.730225
7.120000 1.120000 -7.000000 -32.714275 -21.708883 1541.499390
7.120000 1.120000 -6.960000 -17.362888 -33.146034 1400.129395
7.120000 1.120000 -6.920000 4.003898 -31.118332 984.381775
7.120000 1.120000 -6.880000 18.198868 -14.123341 530.667542
7.120000 1.120000 -6.840000 15.477111 6.653320 283.807617
7.120000 1.120000 -6.800000 0.084402 16.105705 259.400848
7.120000 1.160000 -7.200000 -17.578007 0.778666 309.592651
7.120000 1.160000 -7.160000 -23.758652 -8.219219 632.029053
7.120000 1.160000 -7.120000 -22.115330 -18.629107 836.131409
7.120000 1.160000 -7.080000 -15.377142 -25.432671 883.277222
7.120000 1.160000 -7.040000 -7.126031 -28.259319 849.369446
7.120000 1.160000 -7.000000 1.902087 -28.032118 789.417542
7.120000 1.160000 -6.960000 11.531704 -23.383015 679.745605
7.120000 1.160000 -6.920000 18.311951 -12.617173 494.520599
7.120000 1.160000 -6.880000 16.980297 1.408685 290.314880
7.120000 1.160000 -6.840000 6.699556 11.093970 167.960236
7.120000 1.160000 -6.800000 -5.866367 10.884131 152.878586
7.120000 1.200000 -7.200000 -10.239768 -16.592335 380.158417
7.120000 1.200000 -7.160000 -7.521387 -27.464375 810.863159
7.120000 1.200000 -7.120000 3.748026 -34.173458 1181.872925
7.120000 1.200000 -7.080000 17.550396 -31.740723 1315.489868
7.120000 1.200000 -7.040000 27.026657 -21.527107 1193.856567
7.120000 1.200000 -7.000000 29.115194 -8.524075 920.354370
7.120000 1.200000 -6.960000 24.650270 2.763003 615.270081
7.120000 1.200000 -6.920000 16.040310 9.855619 354.424774
7.120000 1.200000 -6.880000 5.993171 11.687428 172.514069
7.120000 1.200000 -6.840000 -2.441301 8.548297 79.033333
7.120000 1.200000 -6.800000 -6.805577 2.857611 54.481815
7.160000 0.800000 -7.200000 -1.619987 11.575112 136.607590
7.160000 0.800000 -7.160000 -2.744692 5.624659 39.170116
7.160000 0.800000 -7.120000 7.979485 2.827000 71.664101
7.160000 0.800000 -7.080000 20.317101 15.710157 659.593628
7.160000 0.800000 -7.040000 16.219534 39.729057 1841.471191
7.160000 0.800000 -7.000000 -9.496871 54.411339 3050.784424
7.160000 0.800000 -6.960000 -40.350124 43.477371 3518.414551
7.160000 0.800000 -6.920000 -52.662800 12.710926 2934.938232
7.160000 0.800000 -6.880000 -38.810345 -14.557823 1718.172974
7.160000 0.800000 -6.840000 -14.236688 -20.383080 618.153198
7.160000 0.800000 -6.800000 -0.508525 -9.039425 81.969803
7.160000 0.840000 -7.200000 -5.879290 7.957617 97.889709
7.160000 0.840000 -7.160000 -3.591540 0.948341 13.798513
7.160000 0.840000 -7.120000 8.709986 3.612303 88.912582
7.160000 0.840000 -7.080000 14.530280 22.169651 702.622498
7.160000 0.840000 -7.040000 -0.370869 43.019753 1850.836670
7.160000 0.840000 -7.000000 -30.290615 45.214691 2961.889648
7.160000 0.840000 -6.960000 -52.854240 22.683495 3308.111816
7.160000 0.840000 -6.920000 -50.798271 -8.241810 2648.391846
7.160000 0.840000 -6.880000 -28.925470 -24.762165 1449.847656
7.160000 0.840000 -6.840000 -7.909003 -19.861719 457.040222
7.160000 0.840000 -6.800000 -2.190557 -6.832058 51.475563
7.160000 0.880000 -7.200000 -7.050520 1.505762 51.977150
7.160000 0.880000 -7.160000 -0.718314 -4.080960 17.170212
7.160000 0.880000 -7.120000 9.605883 3.748588 106.324890
7.160000 0.880000 -7.080000 7.426773 22.381855 556.104370
7.160000 0.880000 -7.040000 -12.892412 34.608837 1363.985840
7.160000 0.880000 -7.000000 -38.292336 26.141941 2149.704102
7.160000 0.880000 -6.960000 -49.138054 0.918974 2415.392822
7.160000 0.880000 -6.920000 -38.398735 -22.457291 1978.792725
7.160000 0.880000 -6.880000 -17.459030 -28.974707 1144.351318
7.160000 0.880000 -6.840000 -3.158701 -20.373590 425.060577
7.160000 0.880000 -6.800000 -1.174224 -9.870249 98.800613
7.160000 0.920000 -7.200000 -2.000489 -4.729018 26.365568
7.160000 0.920000 -7.160000 7.011207 -5.409958 78.424660
7.160000 0.920000 -7.120000 12.578173 5.992109 194.115814
7.160000 0.920000 -7.080000 4.174371 20.614561 442.385498
7.160000 0.920000 -7.040000 -15.712274 24.142754 829.748108
7.160000 0.920000 -7.000000 -33.187546 10.880917 1219.807617
7.160000 0.920000 -6.960000 -35.842945 -10.786787 1401.071411
7.160000 0.920000 -6.920000 -23.503071 -26.540838 1256.810425
7.160000 0.920000 -6.880000 -6.689682 -28.721096 869.653198
7.160000 0.920000 -6.840000 4.049662 -20.810043 449.457642
7.160000 0.920000 -6.800000 6.086688 -11.132299 160.975861
7.160000 0.960000 -7.200000 7.958652 -4.310575 81.921188
7.160000 0.960000 -7.160000 14.986326 2.025327 228.691925
7.160000 0.960000 -7.120000 13.512181 14.054030 380.094818
7.160000 0.960000 -7.080000 1.394257 22.331108 500.622314
7.160000 0.960000 -7.040000 -14.911480 19.303177 594.964844
7.160000 0.960000 -7.000000 -25.457129 5.281454 675.959106
7.160000 0.960000 -6.960000 -24.162971 -12.177803 732.148071
7.160000 0.960000 -6.920000 -12.435135 -23.943373 727.917664
7.160000 0.960000 -6.880000 2.684772 -24.986893 631.552795
7.160000 0.960000 -6.840000 13.170263 -16.489456 445.358002
7.160000 0.960000 -6.800000 14.172787 -4.470922 220.857040
7.160000 1.000000 -7.200000 14.811865 5.836617 253.457443
7.160000 1.000000 -7.160000 13.860482 16.653769 469.460938
7.160000 1.000000 -7.120000 4.818357 24.392426 618.206970
7.160000 1.000000 -7.080000 -7.948961 24.481098 662.510132
7.160000 1.000000 -7.040000 -18.803057 16.418289 623.115112
7.160000 1.000000 -7.000000 -23.204782 2.834974 546.498962
7.160000 1.000000 -6.960000 -18.582621 -11.455183 476.535004
7.160000 1.000000 -6.920000 -5.708065 -20.153015 438.726013
7.160000 1.000000 -6.880000 9.726540 -18.115429 422.774353
7.160000 1.000000 -6.840000 18.585743 -5.995452 381.375275
7.160000 1.000000 -6.800000 14.626249 7.647833 272.416504
7.160000 1.040000 -7.200000 10.208637 19.519754 485.237091
7.160000 1.040000 -7.160000 -1.175993 27.484390 756.774658
7.160000 1.040000 -7.120000 -14.279716 25.591518 858.836182
7.160000 1.040000 -7.080000 -22.825191 16.851303 804.955811
7.160000 1.040000 -7.040000 -25.441715 5.726690 680.075867
7.160000 1.040000 -7.000000 -22.594643 -5.485597 540.609680
7.160000 1.040000 -6.960000 -13.737871 -14.619410 402.456238
7.160000 1.040000 -6.920000 0.218987 -17.103199 292.567352
7.160000 1.040000 -6.880000 13.050854 -9.130818 253.696625
7.160000 1.040000 -6.840000 15.708502 5.762154 279.959442
7.160000 1.040000 -6.800000 5.480507 16.058477 287.910645
7.160000 1.080000 -7.200000 -4.962988 24.775345 638.448914
7.160000 1.080000 -7.160000 -22.357491 22.458519 1004.242432
7.160000 1.080000 -7.120000 -32.017990 9.193350 1109.669434
7.160000 1.080000 -7.080000 -30.586922 -5.196490 962.563232
7.160000 1.080000 -7.040000 -22.599855 -14.399717 718.105347
7.160000 1.080000 -7.000000 -12.812073 -18.313192 499.522217
7.160000 1.080000 -6.960000 -2.372119 -17.961250 328.233459
7.160000 1.080000 -6.920000 7.517443 -11.932974 198.907806
7.160000 1.080000 -6.880000 11.971899 0.021057 143.326813
7.160000 1.080000 -6.840000 6.298394 11.881983 180.851288
7.160000 1.080000 -6.800000 -6.200924 14.207279 240.298248
7.160000 1.120000 -7.200000 -18.871449 15.347057 591.663696
7.160000 1.120000 -7.160000 -33.303471 1.311529 1110.841187
7.160000 1.120000 -7.120000 -32.280434 -18.618103 1388.660156
7.160000 1.120000 -7.080000 -18.313356 -31.091650 1302.069702
7.160000 1.120000 -7.040000 -1.712687 -31.207157 976.819946
7.160000 1.120000 -7.000000 9.670387 -22.898474 617.856445
7.160000 1.120000 -6.960000 14.296744 -11.860935 345.078674
7.160000 1.120000 -6.920000 13.264513 -1.051709 177.053406
7.160000 1.120000 -6.880000 6.903280 7.445950 103.097450
7.160000 1.120000 -6.840000 -3.207487 10.008051 110.449051
7.160000 1.120000 -6.800000 -11.282180 4.533860 147.843475
7.160000 1.160000 -7.200000 -18.934132 -1.426593 360.536499
7.160000 1.160000 -7.160000 -23.744053 -21.138058 1010.597534
7.160000 1.160000 -7.120000 -10.655567 -38.816235 1620.241211
7.160000 1.160000 -7.080000 11.855012 -41.484188 1861.479126
7.160000 1.160000 -7.040000 29.485481 -28.140144 1661.261353
7.160000 1.160000 -7.000000 33.558716 -8.091306 1191.656616
7.160000 1.160000 -6.960000 25.152889 7.917991 695.362427
7.160000 1.160000 -6.920000 11.152048 14.395991 331.612732
7.160000 1.160000 -6.880000 -1.411996 11.689348 138.634598
7.160000 1.160000 -6.840000 -7.973223 3.537932 76.089249
7.160000 1.160000 -6.800000 -7.068333 -4.622426 71.328140
7.160000 1.200000 -7.200000 -4.765264 -9.997645 122.660652
7.160000 1.200000 -7.160000 -0.811117 -27.020687 730.775452
7.160000 1.200000 -7.120000 18.533255 -35.886559 1631.326660
7.160000 1.200000 -7.080000 40.937366 -26.349308 2370.153809
7.160000 1.200000 -7.040000 50.698807 -2.156554 2575.019531
7.160000 1.200000 -7.000000 41.128048 22.285397 2188.155273
7.160000 1.200000 -6.960000 18.782335 33.217087 1456.151001
7.160000 1.200000 -6.920000 -2.534892 26.949471 732.699646
7.160000 1.200000 -6.880000 -11.956730 10.854789 260.789825
7.160000 1.200000 -6.840000 -8.087800 -3.231768 75.856827
7.160000 1.200000 -6.800000 1.685132 -7.423477 57.947678
7.200000 0.800000 -7.200000 -14.726159 18.760015 568.797913
7.200000 0.800000 -7.160000 -17.884460 6.260785 359.051331
7.200000 0.800000 -7.120000 -6.366059 1.595195 43.071354
7.200000 0.800000 -7.080000 2.459160 15.180082 236.482376
7.200000 0.800000 -7.040000 -9.593866 34.509613 1282.955688
7.200000 0.800000 -7.000000 -39.233173 35.548500 2802.937744
7.200000 0.800000 -6.960000 -61.871414 8.865219 3906.663818
7.200000 0.800000 -6.920000 -55.800655 -28.160656 3906.735596
7.200000 0.800000 -6.880000 -24.771976 -47.434196 2863.653809
7.200000 0.800000 -6.840000 5.730700 -37.904701 1469.607300
7.200000 0.800000 -6.800000 14.620381 -15.146446 443.170410
7.200000 0.840000 -7.200000 -21.321095 7.596536 512.296448
7.200000 0.840000 -7.160000 -17.069756 -3.813773 305.921417
7.200000 0.840000 -7.120000 -5.549977 -0.848143 31.521587
7.200000 0.840000 -7.080000 -6.175612 15.116879 266.658203
7.200000 0.840000 -7.040000 -26.389202 24.447168 1294.054077
7.200000 0.840000 -7.000000 -50.843300 10.320129 2691.546387
7.200000 0.840000 -6.960000 -55.881695 -21.591726 3588.966553
7.200000 0.840000 -6.920000 -34.209000 -47.126915 3391.201660
7.200000 0.840000 -6.880000 -2.813878 -47.637161 2277.217041
7.200000 0.840000 -6.840000 14.629708 -28.046320 1000.624451
7.200000 0.840000 -6.800000 11.419224 -9.583876 222.249329
7.200000 0.880000 -7.200000 -17.057549 -5.348585 319.567322
7.200000 0.880000 -7.160000 -8.658319 -9.998747 174.941406
7.200000 0.880000 -7.120000 -3.174564 -1.731473 13.075857
7.200000 0.880000 -7.080000 -12.267252 8.736370 226.809631
7.200000 0.880000 -7.040000 -30.991535 5.180008 987.307739
7.200000 0.880000 -7.000000 -41.491951 -15.819999 1971.854370
7.200000 0.880000 -6.960000 -31.387388 -39.737419 2564.230713
7.200000 0.880000 -6.920000 -6.883385 -48.217457 2372.304199
7.200000 0.880000 -6.880000 13.623779 -37.142963 1565.207031
7.200000 0.880000 -6.840000 18.126720 -19.207928 697.522461
7.200000 0.880000 -6.800000 11.269695 -9.103872 209.886536
7.200000 0.920000 -7.200000 -3.573725 -10.025520 113.282562
7.200000 0.920000 -7.160000 1.924533 -6.362115 44.180332
7.200000 0.920000 -7.120000 -1.378122 1.156303 3.236257
7.200000 0.920000 -7.080000 -12.951233 1.540882 170.108749
7.200000 0.920000 -7.040000 -22.215879 -10.245816 598.522034
7.200000 0.920000 -7.000000 -19.031151 -27.304363 1107.712891
7.200000 0.920000 -6.960000 -3.911530 -37.209633 1399.856812
7.200000 0.920000 -6.920000 12.768945 -33.848873 1308.792114
7.200000 0.920000 -6.880000 21.114586 -22.096745 934.091858
7.200000 0.920000 -6.840000 20.074833 -11.324539 531.244080
7.200000 0.920000 -6.800000 15.522525 -5.939578 276.227356
7.200000 0.960000 -7.200000 8.781927 -1.224654 78.622025
7.200000 0.960000 -7.160000 4.949253 6.171664 62.584545
7.200000 0.960000 -7.120000 -4.987167 6.430786 66.226852
7.200000 0.960000 -7.080000 -12.086021 -2.765936 153.722321
7.200000 0.960000 -7.040000 -9.734064 -15.148684 324.234619
7.200000 0.960000 -7.000000 0.532054 -22.248243 495.267426
7.200000 0.960000 -6.960000 11.687209 -20.983738 576.908081
7.200000 0.960000 -6.920000 18.380962 -14.694173 553.778503
7.200000 0.960000 -6.880000 20.460842 -7.926327 481.472717
7.200000 0.960000 -6.840000 20.019972 -2.054047 405.018402
7.200000 0.960000 -6.800000 17.200941 3.379559 307.293793
7.200000 1.000000 -7.200000 8.835346 15.038320 304.214417
7.200000 1.000000 -7.160000 -5.375007 17.766825 344.550751
7.200000 1.000000 -7.120000 -15.829227 7.155671 301.768066
7.200000 1.000000 -7.080000 -13.697035 -7.433327 242.863113
7.200000 1.000000 -7.040000 -2.214022 -14.635654 219.104263
7.200000 1.000000 -7.000000 8.635594 -11.904384 216.287842
7.200000 1.000000 -6.960000 13.129384 -5.386829 201.398651
7.200000 1.000000 -6.920000 13.678436 -0.890487 187.892593
7.200000 1.000000 -6.880000 14.551617 2.252503 216.823318
7.200000 1.000000 -6.840000 14.838995 7.385014 274.734192
7.200000 1.000000 -6.800000 10.216881 13.005733 273.533752
7.200000 1.040000 -7.200000 -4.800719 25.347553 665.545349
7.200000 1.040000 -7.160000 -23.729565 16.637268 839.890869
7.200000 1.040000 -7.120000 -27.494528 -3.616521 769.028259
7.200000 1.040000 -7.080000 -14.499995 -18.007324 534.513611
7.200000 1.040000 -7.040000 2.423540 -17.252026 303.505920
7.200000 1.040000 -7.000000 10.835746 -6.955808 165.796646
7.200000 1.040000 -6.960000 9.992954 1.848477 103.276001
7.200000 1.040000 -6.920000 7.271967 5.277560 80.734138
7.200000 1.040000 -6.880000 6.640433 7.689581 103.225021
7.200000 1.040000 -6.840000 4.537547 12.124165 167.584702
7.200000 1.040000 -6.800000 -2.374194 14.142713 205.653122
7.200000 1.080000 -7.200000 -21.287331 20.834194 887.214111
7.200000 1.080000 -7.160000 -36.125725 0.155025 1305.092041
7.200000 1.080000 -7.120000 -28.375681 -24.104141 1386.188965
7.200000 1.080000 -7.080000 -5.781749 -32.805222 1109.611206
7.200000 1.080000 -7.040000 13.213890 -22.660933 688.124756
7.200000 1.080000 -7.000000 17.755987 -5.664227 347.358551
7.200000 1.080000 -6.960000 11.559608 5.635403 165.382309
7.200000 1.080000 -6.920000 4.051689 9.051018 98.337105
7.200000 1.080000 -6.880000 -0.987973 9.495325 91.137291
7.200000 1.080000 -6.840000 -5.841035 9.144075 117.731796
7.200000 1.080000 -6.800000 -10.703715 5.222460 141.843597
7.200000 1.120000 -7.200000 -27.059109 5.962860 767.751099
7.200000 1.120000 -7.160000 -31.683279 -20.939137 1442.277588
7.200000 1.120000 -7.120000 -12.369063 -41.872055 1906.262817
7.200000 1.120000 -7.080000 15.923919 -40.613049 1902.990845
7.200000 1.120000 -7.040000 32.955910 -20.184155 1493.492188
7.200000 1.120000 -7.000000 30.616158 3.144518 947.237122
7.200000 1.120000 -6.960000 16.012978 15.825791 506.871155
7.200000 1.120000 -6.920000 1.025657 15.958861 255.737228
7.200000 1.120000 -6.880000 -7.983964 9.297575 150.188583
7.200000 1.120000 -6.840000 -10.781686 1.135262 117.533569
7.200000 1.120000 -6.800000 -8.354664 -5.843759 103.949921
7.200000 1.160000 -7.200000 -18.784264 -5.263155 380.549377
7.200000 1.160000 -7.160000 -13.268705 -30.876863 1129.439209
7.200000 1.160000 -7.120000 13.086537 -43.204937 2037.924072
7.200000 1.160000 -7.080000 41.219757 -30.428415 2624.956787
7.200000 1.160000 -7.040000 51.073799 -0.913128 2609.366699
7.200000 1.160000 -7.000000 37.632713 25.523808 2067.685791
7.200000 1.160000 -6.960000 12.298850 34.164280 1318.459717
7.200000 1.160000 -6.920000 -8.535030 24.587103 677.372375
7.200000 1.160000 -6.880000 -15.469460 7.184888 290.926819
7.200000 1.160000 -6.840000 -9.638900 -6.352611 133.264053
7.200000 1.160000 -6.800000 1.275362 -9.834398 98.341942
7.200000 1.200000 -7.200000 -6.816495 -2.739305 53.968399
7.200000 1.200000 -7.160000 4.057742 -23.069443 548.664490
7.200000 1.200000 -7.120000 31.273973 -26.061436 1657.259766
7.200000 1.200000 -7.080000 53.542725 -4.045273 2883.187500
7.200000 1.200000 -7.040000 51.958836 29.806480 3588.146973
7.200000 1.200000 -7.000000 25.858234 52.476681 3422.450195
7.200000 1.200000 -6.960000 -7.293461 49.791332 2532.371338
7.200000 1.200000 -6.920000 -26.573351 26.552742 1411.191162
7.200000 1.200000 -6.880000 -23.406866 0.868651 548.635986
7.200000 1.200000 -6.840000 -5.973689 -10.820596 152.770248
7.200000 1.200000 -6.800000 9.410545 -5.228387 115.894402
