#kx 	ky 	kz 	real 	imag 	intensity
0.800000 4.800000 6.800000 -1.390342 -9.530801 92.769218
0.800000 4.800000 6.840000 -4.065560 -2.766848 24.184225
0.800000 4.800000 6.880000 -12.386947 -4.461809 173.344193
0.800000 4.800000 6.920000 -15.155907 -16.253841 493.888855
0.800000 4.800000 6.960000 -4.601048 -28.540007 835.701599
0.800000 4.800000 7.000000 14.855253 -28.669710 1042.630859
0.800000 4.800000 7.040000 29.383152 -13.323071 1040.873901
0.800000 4.800000 7.080000 28.318924 7.509734 858.357544
0.800000 4.800000 7.120000 14.105243 19.603851 583.268860
0.800000 4.800000 7.160000 -0.682861 17.648354 311.930695
0.800000 4.800000 7.200000 -6.077347 8.950370 117.043266
0.800000 4.840000 6.800000 0.221568 -9.981246 99.674370
0.800000 4.840000 6.840000 -4.889202 -4.181567 41.389801
0.800000 4.840000 6.880000 -12.739429 -8.595211 236.170715
0.800000 4.840000 6.920000 -11.693946 -20.868223 572.231079
0.800000 4.840000 6.960000 2.176725 -28.674435 826.961365
0.800000 4.840000 7.000000 19.426874 -21.656546 846.409424
0.800000 4.840000 7.040000 25.469212 -2.791144 656.471191
0.800000 4.840000 7.080000 15.088858 13.430910 408.062988
0.800000 4.840000 7.120000 -1.986973 15.013655 229.357880
0.800000 4.840000 7.160000 -10.899358 4.228005 136.672028
0.800000 4.840000 7.200000 -6.767380 -5.538312 76.470337
0.800000 4.880000 6.800000 3.931238 -13.178319 189.122726
0.800000 4.880000 6.840000 -1.701589 -9.174927 87.074684
0.800000 4.880000 6.880000 -7.115712 -14.745891 268.074646
0.800000 4.880000 6.920000 -2.950196 -24.500546 608.980408
0.800000 4.880000 6.960000 10.281963 -26.938251 831.388123
0.800000 4.880000 7.000000 21.553520 -16.800285 746.803833
0.800000 4.880000 7.040000 20.513416 -1.566689 423.254791
0.800000 4.880000 7.080000 8.777674 5.785335 110.517654
0.800000 4.880000 7.120000 -1.423662 0.533728 2.311679
0.800000 4.880000 7.160000 -0.443705 -8.689086 75.697090
0.800000 4.880000 7.200000 8.137482 -9.617813 158.720932
0.800000 4.920000 6.800000 13.366642 -13.911533 372.197876
0.800000 4.920000 6.840000 8.211281 -10.342781 174.398254
0.800000 4.920000 6.880000 4.561442 -14.685569 236.472687
0.800000 4.920000 6.920000 8.819674 -20.920275 515.444580
0.800000 4.920000 6.960000 18.448853 -20.627909 765.870789
0.800000 4.920000 7.000000 24.811707 -12.346020 768.044983
0.800000 4.920000 7.040000 22.912468 -3.075525 534.440063
0.800000 4.920000 7.080000 16.873903 -0.016699 284.728882
0.800000 4.920000 7.120000 14.621487 -2.134506 218.343994
0.800000 4.920000 7.160000 17.821438 -1.654444 320.340820
0.800000 4.920000 7.200000 19.179657 5.729649 400.688110
0.800000 4.960000 6.800000 24.282282 -5.632485 621.354126
0.800000 4.960000 6.840000 18.286280 -1.261045 335.978271
0.800000 4.960000 6.880000 13.780087 -4.079943 206.536713
0.800000 4.960000 6.920000 15.681556 -8.978653 326.527405
0.800000 4.960000 6.960000 22.280327 -9.740723 591.294617
0.800000 4.960000 7.000000 28.160042 -4.865884 816.664795
0.800000 4.960000 7.040000 30.045792 2.494247 908.970825
0.800000 4.960000 7.080000 28.799473 9.315439 916.187012
0.800000 4.960000 7.120000 25.936192 15.702868 919.266113
0.800000 4.960000 7.160000 20.152073 22.371799 906.603455
0.800000 4.960000 7.200000 9.203888 26.413021 782.359253
0.800000 5.000000 6.800000 27.460581 11.067959 876.583191
0.800000 5.000000 6.840000 18.506939 15.129002 571.393433
0.800000 5.000000 6.880000 11.573156 11.272292 261.002502
0.800000 5.000000 6.920000 11.868727 4.336758 159.674133
0.800000 5.000000 6.960000 18.967430 1.139435 361.061707
0.800000 5.000000 7.000000 27.684479 5.685698 798.757507
0.800000 5.000000 7.040000 31.787886 17.053616 1301.295410
0.800000 5.000000 7.080000 27.448997 30.472710 1682.033447
0.800000 5.000000 7.120000 14.766035 39.832077 1804.630127
0.800000 5.000000 7.160000 -2.281224 40.148834 1617.132812
0.800000 5.000000 7.200000 -16.911293 29.765368 1171.968994
0.800000 5.040000 6.800000 17.901756 27.325499 1067.155762
0.800000 5.040000 6.840000 5.763842 28.016521 818.147339
0.800000 5.040000 6.880000 -1.946931 20.018990 404.550476
0.800000 5.040000 6.920000 0.346547 9.909183 98.311996
0.800000 5.040000 6.960000 11.003465 6.830998 167.738770
0.800000 5.040000 7.000000 21.275759 15.668129 698.148193
0.800000 5.040000 7.040000 21.108730 32.516109 1502.875854
0.800000 5.040000 7.080000 6.794441 46.442604 2203.079834
0.800000 5.040000 7.120000 -15.436121 46.963326 2443.827881
0.800000 5.040000 7.160000 -33.127697 31.800545 2108.718994
0.800000 5.040000 7.200000 -36.110561 8.884912 1382.914307
0.800000 5.080000 6.800000 0.080997 33.752453 1139.234619
0.800000 5.080000 6.840000 -12.650031 28.639456 980.241699
0.800000 5.080000 6.880000 -17.192167 15.977238 550.842773
0.800000 5.080000 6.920000 -9.683568 5.368484 122.592117
0.800000 5.080000 6.960000 3.820485 6.769756 60.425705
0.800000 5.080000 7.000000 10.392241 21.310341 562.129272
0.800000 5.080000 7.040000 0.652833 38.247086 1463.265747
0.800000 5.080000 7.080000 -22.052132 42.506416 2293.091797
0.800000 5.080000 7.120000 -42.745728 27.357641 2575.637695
0.800000 5.080000 7.160000 -46.439857 1.001766 2157.663818
0.800000 5.080000 7.200000 -30.507198 -19.424437 1307.997925
0.800000 5.120000 6.800000 -16.367268 28.646523 1088.510742
0.800000 5.120000 6.840000 -26.013409 17.937078 998.436218
0.800000 5.120000 6.880000 -24.303888 3.493347 602.882507
0.800000 5.120000 6.920000 -11.888954 -3.121941 151.093750
0.800000 5.120000 6.960000 -0.033290 4.817755 23.211868
0.800000 5.120000 7.000000 -1.919981 21.013069 445.235413
0.800000 5.120000 7.040000 -19.802834 29.602337 1268.450562
0.800000 5.120000 7.080000 -40.790859 18.986675 2024.387939
0.800000 5.120000 7.120000 -46.941528 -6.426261 2244.803955
0.800000 5.120000 7.160000 -31.411762 -28.610880 1805.281250
0.800000 5.120000 7.200000 -5.302134 -31.282501 1006.707520
0.800000 5.160000 6.800000 -25.553322 17.952805 975.275391
0.800000 5.160000 6.840000 -29.777790 4.071298 903.292236
0.800000 5.160000 6.880000 -21.871231 -8.069642 543.469849
0.800000 5.160000 6.920000 -8.355466 -8.119223 135.735596
0.800000 5.160000 6.960000 -2.825066 3.736572 21.942965
0.800000 5.160000 7.000000 -12.820938 14.633858 378.526245
0.800000 5.160000 7.040000 -30.625605 10.307629 1044.174927
0.800000 5.160000 7.080000 -38.780754 -10.196136 1607.908081
0.800000 5.160000 7.120000 -26.521545 -31.644958 1704.795776
0.800000 5.160000 7.160000 -1.231111 -35.851749 1286.863525
0.800000 5.160000 7.200000 17.152084 -18.960003 653.675720
0.800000 5.200000 6.800000 -29.057999 7.832372 905.713379
0.800000 5.200000 6.840000 -27.521753 -6.616274 801.221985
0.800000 5.200000 6.880000 -15.959513 -14.017494 451.196167
0.800000 5.200000 6.920000 -5.464792 -8.795792 107.229904
0.800000 5.200000 6.960000 -7.013151 1.503421 51.444561
0.800000 5.200000 7.000000 -19.079086 2.715915 371.387726
0.800000 5.200000 7.040000 -27.502705 -10.974108 876.829773
0.800000 5.200000 7.080000 -19.382267 -29.275183 1232.708618
0.800000 5.200000 7.120000 2.629213 -34.632702 1206.336792
0.800000 5.200000 7.160000 21.037373 -19.852982 836.711914
0.800000 5.200000 7.200000 19.720388 3.403608 400.478271
0.840000 4.800000 6.800000 -1.775168 -3.842527 17.916235
0.840000 4.800000 6.840000 -4.606018 -1.757968 24.305853
0.840000 4.800000 6.880000 -8.642444 -5.453416 104.431580
0.840000 4.800000 6.920000 -7.286354 -14.056832 250.685486
0.840000 4.800000 6.960000 2.824378 -20.689049 436.013855
0.840000 4.800000 7.000000 17.502270 -17.771080 622.140747
0.840000 4.800000 7.040000 27.329201 -4.097027 763.670837
0.840000 4.800000 7.080000 25.313908 13.207664 815.236328
0.840000 4.800000 7.120000 12.824652 24.207989 750.498413
0.840000 4.800000 7.160000 -1.870368 24.143997 586.430908
0.840000 4.800000 7.200000 -10.896101 16.257154 383.020081
0.840000 4.840000 6.800000 0.759764 -7.946962 63.731449
0.840000 4.840000 6.840000 0.829092 -5.700441 33.182426
0.840000 4.840000 6.880000 0.124789 -5.950976 35.429691
0.840000 4.840000 6.920000 1.800863 -7.840252 64.712662
0.840000 4.840000 6.960000 6.613194 -7.735864 103.577927
0.840000 4.840000 7.000000 11.300907 -2.889578 136.060165
0.840000 4.840000 7.040000 11.319081 5.084965 153.978470
0.840000 4.840000 7.080000 5.544120 11.079357 153.489410
0.840000 4.840000 7.120000 -2.207918 11.257406 131.604095
0.840000 4.840000 7.160000 -6.791094 6.783123 92.129715
0.840000 4.840000 7.200000 -6.731201 2.260336 50.418190
0.840000 4.880000 6.800000 9.568584 -10.290979 197.462067
0.840000 4.880000 6.840000 11.969303 -3.389453 154.752609
0.840000 4.880000 6.880000 9.306112 3.301634 97.504517
0.840000 4.880000 6.920000 3.277157 6.153265 48.602432
0.840000 4.880000 6.960000 -2.305150 4.169188 22.695850
0.840000 4.880000 7.000000 -4.420562 -0.598583 19.899668
0.840000 4.880000 7.040000 -2.556563 -4.949097 31.029575
0.840000 4.880000 7.080000 1.720346 -6.548631 45.844162
0.840000 4.880000 7.120000 6.007113 -4.632742 57.547707
0.840000 4.880000 7.160000 7.905109 0.046219 62.492889
0.840000 4.880000 7.200000 5.766463 5.137524 59.646244
0.840000 4.920000 6.800000 20.896469 -3.185718 446.811218
0.840000 4.920000 6.840000 19.800926 10.465913 501.612030
0.840000 4.920000 6.880000 7.959528 20.358067 477.804962
0.840000 4.920000 6.920000 -8.526631 18.322206 408.406677
0.840000 4.920000 6.960000 -18.521791 4.097612 359.847198
0.840000 4.920000 7.000000 -14.460781 -13.324862 386.666138
0.840000 4.920000 7.040000 1.458517 -22.107698 490.877594
0.840000 4.920000 7.080000 18.723383 -16.331524 617.283691
0.840000 4.920000 7.120000 26.219799 -0.085321 687.485107
0.840000 4.920000 7.160000 19.884842 15.914224 648.669434
0.840000 4.920000 7.200000 4.828200 21.942833 504.799438
0.840000 4.960000 6.800000 24.156832 13.683982 770.803833
0.840000 4.960000 6.840000 13.384645 29.369125 1041.694214
0.840000 4.960000 6.880000 -8.657490 32.733406 1146.427979
0.840000 4.960000 6.920000 -27.971823 17.001490 1071.473511
0.840000 4.960000 6.960000 -29.053766 -9.899320 942.117859
0.840000 4.960000 7.000000 -8.438335 -29.425014 937.036987
0.840000 4.960000 7.040000 20.736038 -26.696396 1142.680908
0.840000 4.960000 7.080000 38.160049 -2.851745 1464.321777
0.840000 4.960000 7.120000 32.104149 25.496841 1680.765381
0.840000 4.960000 7.160000 8.112162 39.234928 1605.186768
0.840000 4.960000 7.200000 -16.209400 31.043451 1226.440552
0.840000 5.000000 6.800000 12.638218 30.033596 1061.741455
0.840000 5.000000 6.840000 -7.577552 38.750111 1558.990356
0.840000 5.000000 6.880000 -31.576248 28.209038 1792.809326
0.840000 5.000000 6.920000 -40.856209 0.039332 1669.231445
0.840000 5.000000 6.960000 -24.352444 -27.785669 1365.084961
0.840000 5.000000 7.000000 9.474119 -33.667137 1223.234985
0.840000 5.000000 7.040000 36.813564 -10.865341 1473.294189
0.840000 5.000000 7.080000 37.124046 25.186771 2012.568359
0.840000 5.000000 7.120000 10.234199 48.472607 2454.332275
0.840000 5.000000 7.160000 -23.507431 43.269958 2424.888672
0.840000 5.000000 7.200000 -40.061287 16.026346 1861.750488
0.840000 5.040000 6.800000 -8.308658 33.664268 1202.316772
0.840000 5.040000 6.840000 -30.116936 29.704048 1789.360352
0.840000 5.040000 6.880000 -44.521210 7.505483 2038.470337
0.840000 5.040000 6.920000 -36.733215 -21.418533 1808.082642
0.840000 5.040000 6.960000 -7.323068 -35.529964 1316.005737
0.840000 5.040000 7.000000 24.108902 -21.115921 1027.121216
0.840000 5.040000 7.040000 33.113884 13.658903 1283.094971
0.840000 5.040000 7.080000 11.317965 43.073406 1983.414673
0.840000 5.040000 7.120000 -25.171543 44.613209 2623.944824
0.840000 5.040000 7.160000 -48.662582 17.928555 2689.479980
0.840000 5.040000 7.200000 -42.877380 -15.291052 2072.285889
0.840000 5.080000 6.800000 -25.327337 22.226770 1135.503296
0.840000 5.080000 6.840000 -39.353146 8.210743 1616.086304
0.840000 5.080000 6.880000 -38.855980 -15.155583 1739.479004
0.840000 5.080000 6.920000 -19.055250 -32.143154 1396.284912
0.840000 5.080000 6.960000 8.612252 -27.542429 832.756287
0.840000 5.080000 7.000000 22.868885 -1.697135 525.866150
0.840000 5.080000 7.040000 10.483907 26.437233 808.839600
0.840000 5.080000 7.080000 -20.405764 33.776447 1557.243652
0.840000 5.080000 7.120000 -45.448090 13.306364 2242.588135
0.840000 5.080000 7.160000 -44.575462 -18.928152 2345.246826
0.840000 5.080000 7.200000 -19.336409 -37.432365 1775.078735
0.840000 5.120000 6.800000 -29.560627 5.210630 900.981384
0.840000 5.120000 6.840000 -32.324062 -10.559507 1156.348145
0.840000 5.120000 6.880000 -21.629135 -25.179180 1101.810547
0.840000 5.120000 6.920000 -2.281742 -26.794971 723.176880
0.840000 5.120000 6.960000 11.375282 -11.921599 271.521576
0.840000 5.120000 7.000000 6.895497 8.576903 121.111145
0.840000 5.120000 7.040000 -13.746091 16.770346 470.199524
0.840000 5.120000 7.080000 -33.553978 3.535495 1138.369141
0.840000 5.120000 7.120000 -34.553772 -21.794958 1668.983398
0.840000 5.120000 7.160000 -14.270758 -38.457554 1682.637939
0.840000 5.120000 7.200000 11.252121 -32.527111 1184.623169
0.840000 5.160000 6.800000 -24.248791 -6.126991 625.543884
0.840000 5.160000 6.840000 -19.508055 -17.108608 673.268677
0.840000 5.160000 6.880000 -7.917380 -21.133110 509.293243
0.840000 5.160000 6.920000 1.953358 -14.553263 215.613068
0.840000 5.160000 6.960000 1.265250 -3.083677 11.109923
0.840000 5.160000 7.000000 -10.038068 1.596421 103.311363
0.840000 5.160000 7.040000 -21.220663 -7.500055 506.567352
0.840000 5.160000 7.080000 -19.576166 -24.655926 991.140991
0.840000 5.160000 7.120000 -2.845835 -35.029335 1235.153076
0.840000 5.160000 7.160000 17.091755 -27.951500 1073.414429
0.840000 5.160000 7.200000 24.023026 -7.585787 634.649963
0.840000 5.200000 6.800000 -19.347294 -9.911597 472.557556
0.840000 5.200000 6.840000 -12.628703 -15.751258 407.586273
0.840000 5.200000 6.880000 -5.374828 -14.495417 239.005890
0.840000 5.200000 6.920000 -4.171441 -9.337293 104.585953
0.840000 5.200000 6.960000 -9.439935 -8.299170 157.988586
0.840000 5.200000 7.000000 -13.541081 -16.062128 441.352844
0.840000 5.200000 7.040000 -7.627933 -27.674530 824.065002
0.840000 5.200000 7.080000 8.591462 -31.638912 1074.833984
0.840000 5.200000 7.120000 24.371658 -20.795635 1026.436157
0.840000 5.200000 7.160000 26.614819 -0.683286 708.815430
0.840000 5.200000 7.200000 12.304554 13.682206 338.604797
0.880000 4.800000 6.800000 -6.156091 -3.943433 53.448116
0.880000 4.800000 6.840000 -4.159585 -4.196045 34.908939
0.880000 4.800000 6.880000 -3.673691 -4.790890 36.448631
0.880000 4.800000 6.920000 -2.548023 -7.779547 67.013771
0.880000 4.800000 6.960000 2.873459 -11.479975 140.046585
0.880000 4.800000 7.000000 12.901576 -10.520901 277.140015
0.880000 4.800000 7.040000 21.999241 -0.898323 484.773590
0.880000 4.800000 7.080000 22.408455 14.724033 718.936035
0.880000 4.800000 7.120000 11.269039 27.480223 882.153931
0.880000 4.800000 7.160000 -5.726283 29.066116 877.629456
0.880000 4.800000 7.200000 -18.220388 18.783180 684.790405
0.880000 4.840000 6.800000 2.440057 -8.982958 86.647415
0.880000 4.840000 6.840000 9.619312 -1.184971 93.935326
0.880000 4.840000 6.880000 7.513411 10.037026 157.193237
0.880000 4.840000 6.920000 -2.945976 14.905944 230.865936
0.880000 4.840000 6.960000 -12.460312 9.089506 237.878494
0.880000 4.840000 7.000000 -12.403618 -1.497700 156.092834
0.880000 4.840000 7.040000 -3.494968 -6.418095 53.406746
0.880000 4.840000 7.080000 5.023354 -1.082718 26.406359
0.880000 4.840000 7.120000 4.734026 8.960496 102.701492
0.880000 4.840000 7.160000 -3.811538 13.987804 210.186493
0.880000 4.840000 7.200000 -12.313307 9.734278 246.373688
0.880000 4.880000 6.800000 15.379377 -4.000042 252.525589
0.880000 4.880000 6.840000 18.378235 17.105671 630.363525
0.880000 4.880000 6.880000 0.429611 35.693787 1274.230957
0.880000 4.880000 6.920000 -28.840721 33.253807 1937.602783
0.880000 4.880000 6.960000 -47.016327 7.468807 2266.317871
0.880000 4.880000 7.000000 -38.925686 -23.663450 2075.167969
0.880000 4.880000 7.040000 -10.791014 -37.160408 1497.341797
0.880000 4.880000 7.080000 15.424755 -25.172142 871.559814
0.880000 4.880000 7.120000 21.727556 -0.604862 472.452545
0.880000 4.880000 7.160000 8.620462 16.134867 334.646301
0.880000 4.880000 7.200000 -8.405149 15.328060 305.595947
0.880000 4.920000 6.800000 20.607622 12.954247 592.486633
0.880000 4.920000 6.840000 7.195021 41.138432 1744.138916
0.880000 4.920000 6.880000 -31.002319 50.149227 3476.088867
0.880000 4.920000 6.920000 -68.057144 22.886490 5155.566406
0.880000 4.920000 6.960000 -72.424973 -27.641172 6009.411133
0.880000 4.920000 7.000000 -36.140980 -66.075912 5672.196777
0.880000 4.920000 7.040000 16.066729 -64.609726 4432.556152
0.880000 4.920000 7.080000 47.424286 -26.959066 2975.854248
0.880000 4.920000 7.120000 40.145386 16.107456 1871.102051
0.880000 4.920000 7.160000 7.954428 34.466660 1251.223511
0.880000 4.920000 7.200000 -19.718019 22.719837 904.991272
0.880000 4.960000 6.800000 8.706983 30.670464 1016.488831
0.880000 4.960000 6.840000 -23.633389 49.933170 3051.858643
0.880000 4.960000 6.880000 -68.974625 33.664246 5890.780273
0.880000 4.960000 6.920000 -89.829834 -19.635218 8454.940430
0.880000 4.960000 6.960000 -61.168175 -76.606232 9610.060547
0.880000 4.960000 7.000000 3.451679 -94.564331 8954.327148
0.880000 4.960000 7.040000 59.908108 -58.839043 7051.014648
0.880000 4.960000 7.080000 70.150352 3.525105 4933.498047
0.880000 4.960000 7.120000 33.609932 47.131035 3350.961914
0.880000 4.960000 7.160000 -15.315487 46.512051 2397.935059
0.880000 4.960000 7.200000 -39.390671 13.925667 1745.549194
0.880000 5.000000 6.800000 -15.307409 33.289803 1342.527710
0.880000 5.000000 6.840000 -54.142975 30.801321 3880.183105
0.880000 5.000000 6.880000 -84.217079 -9.553392 7183.783691
0.880000 5.000000 6.920000 -72.183594 -68.580414 9913.744141
0.880000 5.000000 6.960000 -14.259639 -103.217224 10857.131836
0.880000 5.000000 7.000000 54.053459 -82.851189 9786.095703
0.880000 5.000000 7.040000 84.890442 -18.549009 7550.453125
0.880000 5.000000 7.080000 58.544880 43.930534 5357.394531
0.880000 5.000000 7.120000 -0.137853 62.409893 3895.013672
0.880000 5.000000 7.160000 -44.644188 32.537350 3051.782715
0.880000 5.000000 7.200000 -46.728668 -12.762210 2346.442383
0.880000 5.040000 6.800000 -34.095642 16.002586 1418.595581
0.880000 5.040000 6.840000 -61.024071 -6.060074 3760.661865
0.880000 5.040000 6.880000 -62.767494 -51.296562 6571.095703
0.880000 5.040000 6.920000 -24.179464 -89.593796 8611.695312
0.880000 5.040000 6.960000 36.813896 -87.109467 8943.322266
0.880000 5.040000 7.000000 78.657806 -37.915043 7624.600586
0.880000 5.040000 7.040000 70.228897 26.280291 5622.751953
0.880000 5.040000 7.080000 18.783005 60.536880 4017.515137
0.880000 5.040000 7.120000 -35.367451 44.323765 3215.452637
0.880000 5.040000 7.160000 -53.344040 -2.310959 2850.927246
0.880000 5.040000 7.200000 -29.500383 -38.530815 2354.896240
0.880000 5.080000 6.800000 -33.723251 -8.869856 1215.932007
0.880000 5.080000 6.840000 -39.573135 -34.872284 2782.109375
0.880000 5.080000 6.880000 -20.270283 -63.468929 4439.189453
0.880000 5.080000 6.920000 20.444298 -70.395966 5373.561035
0.880000 5.080000 6.960000 57.428894 -42.645817 5116.743652
0.880000 5.080000 7.000000 62.497982 5.906769 3940.887695
0.880000 5.080000 7.040000 29.626549 42.153679 2654.665039
0.880000 5.080000 7.080000 -17.239195 40.687988 1952.702271
0.880000 5.080000 7.120000 -43.197235 5.978075 1901.738525
0.880000 5.080000 7.160000 -31.900188 -31.522011 2011.259155
0.880000 5.080000 7.200000 1.624467 -42.180340 1781.819946
0.880000 5.120000 6.800000 -17.136452 -23.100922 827.310547
0.880000 5.120000 6.840000 -8.533197 -37.722931 1495.834961
0.880000 5.120000 6.880000 11.801600 -43.382633 2021.330566
0.880000 5.120000 6.920000 33.278263 -31.401165 2093.475830
0.880000 5.120000 6.960000 40.258171 -5.323654 1649.061646
0.880000 5.120000 7.000000 25.200493 18.429377 974.706726
0.880000 5.120000 7.040000 -2.546021 22.541317 514.593201
0.880000 5.120000 7.080000 -22.391703 4.112020 518.297058
0.880000 5.120000 7.120000 -19.511841 -21.415936 839.354248
0.880000 5.120000 7.160000 1.950460 -32.860943 1083.645874
0.880000 5.120000 7.200000 22.376537 -21.730446 972.921692
0.880000 5.160000 6.800000 -0.812406 -20.154840 406.877594
0.880000 5.160000 6.840000 8.067678 -20.691601 493.229767
0.880000 5.160000 6.880000 15.053442 -14.753489 444.271545
0.880000 5.160000 6.920000 15.703964 -5.608334 278.067902
0.880000 5.160000 6.960000 9.367256 0.778488 88.351532
0.880000 5.160000 7.000000 0.531296 -0.388826 0.433461
0.880000 5.160000 7.040000 -3.610092 -8.598061 86.959412
0.880000 5.160000 7.080000 1.273909 -17.283236 300.333069
0.880000 5.160000 7.120000 12.267778 -18.430164 490.169342
0.880000 5.160000 7.160000 20.537224 -9.520489 512.417236
0.880000 5.160000 7.200000 18.413136 3.335638 350.170044
0.880000 5.200000 6.800000 2.390469 -10.734422 120.942146
0.880000 5.200000 6.840000 3.848169 -6.041851 51.312366
0.880000 5.200000 6.880000 -0.538747 -3.569016 13.028120
0.880000 5.200000 6.920000 -5.777460 -7.981094 97.076912
0.880000 5.200000 6.960000 -4.790371 -17.396557 325.587860
0.880000 5.200000 7.000000 5.036007 -24.346691 618.122742
0.880000 5.200000 7.040000 18.842510 -21.818279 831.077515
0.880000 5.200000 7.080000 27.586452 -9.358116 848.586731
0.880000 5.200000 7.120000 24.987480 5.960082 659.896729
0.880000 5.200000 7.160000 12.534236 14.572275 369.458252
0.880000 5.200000 7.200000 -1.456281 11.409819 132.304718
0.920000 4.800000 6.800000 -6.686272 -8.931639 124.480400
0.920000 4.800000 6.840000 0.186772 -5.552767 30.868103
0.920000 4.800000 6.880000 0.241364 -0.185045 0.092498
0.920000 4.800000 6.920000 -3.617989 -0.450794 13.293057
0.920000 4.800000 6.960000 -2.682098 -6.680702 51.825436
0.920000 4.800000 7.000000 7.387458 -10.151554 157.628586
0.920000 4.800000 7.040000 19.939426 -1.951897 401.390625
0.920000 4.800000 7.080000 22.464066 16.357830 772.212891
0.920000 4.800000 7.120000 9.143644 32.074726 1112.394287
0.920000 4.800000 7.160000 -11.997589 32.529404 1202.104248
0.920000 4.800000 7.200000 -25.381817 17.315208 944.053101
0.920000 4.840000 6.800000 7.341783 -7.611524 111.837067
0.920000 4.840000 6.840000 12.642315 12.256958 310.061157
0.920000 4.840000 6.880000 -3.391918 29.692133 893.127869
0.920000 4.840000 6.920000 -29.443468 25.826872 1533.945068
0.920000 4.840000 6.960000 -42.111481 0.669525 1773.825073
0.920000 4.840000 7.000000 -28.656357 -24.994293 1445.901489
0.920000 4.840000 7.040000 -0.208969 -28.951120 838.210999
0.920000 4.840000 7.080000 18.565514 -8.900887 423.904053
0.920000 4.840000 7.120000 13.107210 15.872194 423.725525
0.920000 4.840000 7.160000 -8.051689 23.899982 636.038879
0.920000 4.840000 7.200000 -23.451168 11.821766 689.711426
0.920000 4.880000 6.800000 16.028198 7.708627 316.326050
0.920000 4.880000 6.840000 2.766560 40.702477 1664.345459
0.920000 4.880000 6.880000 -40.523464 51.157959 4259.288086
0.920000 4.880000 6.920000 -81.626816 18.852402 7018.350098
0.920000 4.880000 6.960000 -83.229927 -38.712936 8425.912109
0.920000 4.880000 7.000000 -38.888741 -78.660645 7699.831055
0.920000 4.880000 7.040000 18.914040 -71.008110 5399.892578
0.920000 4.880000 7.080000 47.654865 -25.585342 2925.595703
0.920000 4.880000 7.120000 32.390980 18.631834 1396.320801
0.920000 4.880000 7.160000 -4.295330 30.186094 929.650146
0.920000 4.880000 7.200000 -27.522614 11.155537 881.940247
0.920000 4.920000 6.800000 6.852293 27.050121 778.662964
0.920000 4.920000 6.840000 -33.647778 53.622612 4007.557617
0.920000 4.920000 6.880000 -92.587997 32.537537 9631.228516
0.920000 4.920000 6.920000 -118.474350 -37.778931 15463.419922
0.920000 4.920000 6.960000 -78.681343 -111.254951 18568.417969
0.920000 4.920000 7.000000 6.149498 -131.686859 17379.246094
0.920000 4.920000 7.040000 76.700317 -83.252838 12813.973633
0.920000 4.920000 7.080000 86.263939 -4.911999 7465.595215
0.920000 4.920000 7.120000 39.725281 45.312389 3631.310547
0.920000 4.920000 7.160000 -16.021547 40.772835 1919.114014
0.920000 4.920000 7.200000 -37.821404 3.423134 1442.176514
0.920000 4.960000 6.800000 -18.021660 31.839569 1338.538330
0.920000 4.960000 6.840000 -73.634453 30.555462 6355.668945
0.920000 4.960000 6.880000 -117.504654 -27.966206 14589.452148
0.920000 4.960000 6.920000 -98.778801 -114.436508 22852.966797
0.920000 4.960000 6.960000 -12.789067 -164.196320 27123.992188
0.920000 4.960000 7.000000 86.816734 -133.490204 25356.781250
0.920000 4.960000 7.040000 131.144989 -41.010002 18880.828125
0.920000 4.960000 7.080000 95.200424 46.721970 11246.063477
0.920000 4.960000 7.120000 17.042274 72.937645 5610.338867
0.920000 4.960000 7.160000 -39.779160 36.337765 2902.814697
0.920000 4.960000 7.200000 -42.185387 -16.286448 2044.855225
0.920000 5.000000 6.800000 -39.709412 12.816055 1741.088623
0.920000 5.000000 6.840000 -83.986816 -19.871521 7448.662598
0.920000 5.000000 6.880000 -87.603531 -93.059799 16334.503906
0.920000 5.000000 6.920000 -24.072180 -155.868896 24874.583984
0.920000 5.000000 6.960000 76.680878 -151.861053 28941.736328
0.920000 5.000000 7.000000 146.579437 -71.960320 26663.818359
0.920000 5.000000 7.040000 136.459137 32.272041 19662.580078
0.920000 5.000000 7.080000 58.937737 90.623260 11686.232422
0.920000 5.000000 7.120000 -23.841377 73.091240 5910.740723
0.920000 5.000000 7.160000 -55.271755 10.815749 3171.947510
0.920000 5.000000 7.200000 -29.518930 -37.837402 2303.036377
0.920000 5.040000 6.800000 -38.583698 -18.366312 1826.023193
0.920000 5.040000 6.840000 -52.237282 -63.012802 6699.346680
0.920000 5.040000 6.880000 -18.603874 -116.135338 13833.521484
0.920000 5.040000 6.920000 57.266769 -130.370102 20275.845703
0.920000 5.040000 6.960000 128.592331 -79.635445 22877.792969
0.920000 5.040000 7.000000 142.662262 11.732454 20490.171875
0.920000 5.040000 7.040000 87.116127 84.318222 14698.782227
0.920000 5.040000 7.080000 2.637138 92.379791 8540.979492
0.920000 5.040000 7.120000 -51.343353 41.433208 4352.850586
0.920000 5.040000 7.160000 -46.247189 -19.940905 2536.442139
0.920000 5.040000 7.200000 -3.606030 -44.757507 2016.237915
0.920000 5.080000 6.800000 -13.587581 -37.771622 1611.317749
0.920000 5.080000 6.840000 -0.612961 -67.986855 4622.587891
0.920000 5.080000 6.880000 41.394363 -83.140427 8625.824219
0.920000 5.080000 6.920000 91.204704 -59.545109 11863.917969
0.920000 5.080000 6.960000 112.712830 -0.623135 12704.570312
0.920000 5.080000 7.000000 85.021248 59.749165 10798.575195
0.920000 5.080000 7.040000 23.202232 82.268738 7306.488770
0.920000 5.080000 7.080000 -31.518396 54.900696 4007.495605
0.920000 5.080000 7.120000 -45.231907 3.021053 2055.052246
0.920000 5.080000 7.160000 -18.329729 -32.853058 1415.302368
0.920000 5.080000 7.200000 18.221092 -31.193890 1305.067017
0.920000 5.120000 6.800000 15.408899 -31.283356 1216.082520
0.920000 5.120000 6.840000 32.935200 -35.868187 2371.254395
0.920000 5.120000 6.880000 54.228100 -25.126316 3572.018555
0.920000 5.120000 6.920000 65.247894 1.633373 4259.955566
0.920000 5.120000 6.960000 54.750259 32.550682 4057.137695
0.920000 5.120000 7.000000 24.724903 49.384056 3050.105713
0.920000 5.120000 7.040000 -8.283909 41.162361 1762.963135
0.920000 5.120000 7.080000 -24.472673 14.040562 796.049133
0.920000 5.120000 7.120000 -16.292341 -12.425961 419.844849
0.920000 5.120000 7.160000 5.492659 -20.676453 457.684998
0.920000 5.120000 7.200000 21.193161 -9.101696 531.990967
0.920000 5.160000 6.800000 26.116070 -8.164743 748.712097
0.920000 5.160000 6.840000 29.122829 2.094612 852.526611
0.920000 5.160000 6.880000 24.278204 11.392776 719.226562
0.920000 5.160000 6.920000 15.659336 14.874470 466.464661
0.920000 5.160000 6.960000 8.449013 12.911132 238.083145
0.920000 5.160000 7.000000 4.782730 8.808348 100.461502
0.920000 5.160000 7.040000 3.827700 5.064835 40.303833
0.920000 5.160000 7.080000 4.330764 2.288776 23.994013
0.920000 5.160000 7.120000 5.795841 0.686333 34.062828
0.920000 5.160000 7.160000 7.452339 0.863033 56.282185
0.920000 5.160000 7.200000 7.567495 2.609724 64.077637
0.920000 5.200000 6.800000 15.147082 8.366301 299.429077
0.920000 5.200000 6.840000 3.298532 14.815229 230.371338
0.920000 5.200000 6.880000 -10.015217 6.757439 145.967545
0.920000 5.200000 6.920000 -10.533268 -10.685786 225.135773
0.920000 5.200000 6.960000 4.701263 -21.969740 504.771332
0.920000 5.200000 7.000000 23.680639 -16.115839 820.492981
0.920000 5.200000 7.040000 30.585312 2.632530 942.391541
0.920000 5.200000 7.080000 20.420025 18.967455 776.741760
0.920000 5.200000 7.120000 2.780308 20.818956 441.159058
0.920000 5.200000 7.160000 -8.019125 9.421413 153.069397
0.920000 5.200000 7.200000 -5.770052 -3.810608 47.814232
0.960000 4.800000 6.800000 -1.464778 -11.582788 136.306564
0.960000 4.800000 6.840000 4.618792 -1.587343 23.852894
0.960000 4.800000 6.880000 -1.045372 6.542046 43.891163
0.960000 4.800000 6.920000 -9.750439 3.088940 104.612602
0.960000 4.800000 6.960000 -8.270672 -8.274483 136.871078
0.960000 4.800000 7.000000 6.325348 -13.098202 211.572922
0.960000 4.800000 7.040000 21.748390 -1.136345 474.283752
0.960000 4.800000 7.080000 21.791054 21.637005 943.010010
0.960000 4.800000 7.120000 2.939457 37.229431 1394.670898
0.960000 4.800000 7.160000 -20.931986 32.638130 1503.395630
0.960000 4.800000 7.200000 -31.219872 12.646611 1134.617188
0.960000 4.840000 6.800000 9.711351 -0.337582 94.424309
0.960000 4.840000 6.840000 1.416912 25.962189 676.042847
0.960000 4.840000 6.880000 -30.610140 33.878681 2084.745605
0.960000 4.840000 6.920000 -59.082069 8.556931 3563.911865
0.960000 4.840000 6.960000 -55.204681 -33.264084 4154.056152
0.960000 4.840000 7.000000 -17.829872 -56.612885 3522.923096
0.960000 4.840000 7.040000 23.440788 -41.196884 2246.653809
0.960000 4.840000 7.080000 35.522438 -0.955009 1262.755615
0.960000 4.840000 7.120000 12.513371 29.605587 1033.075195
0.960000 4.840000 7.160000 -20.712818 28.329865 1231.602051
0.960000 4.840000 7.200000 -34.534431 4.383766 1211.844360
0.960000 4.880000 6.800000 5.310888 18.411171 367.176758
0.960000 4.880000 6.840000 -32.064644 44.350426 2995.101562
0.960000 4.880000 6.880000 -86.735611 23.969345 8097.595703
0.960000 4.880000 6.920000 -108.161285 -42.422894 13498.565430
0.960000 4.880000 6.960000 -66.980598 -108.403763 16237.776367
0.960000 4.880000 7.000000 13.182762 -121.007545 14816.611328
0.960000 4.880000 7.040000 73.924500 -69.774078 10333.253906
0.960000 4.880000 7.080000 74.078491 3.369507 5498.976562
0.960000 4.880000 7.120000 24.870026 43.228954 2487.260742
0.960000 4.880000 7.160000 -25.112005 30.357208 1552.172852
0.960000 4.880000 7.200000 -37.667278 -7.410445 1473.738525
0.960000 4.920000 6.800000 -16.703831 26.390009 975.450562
0.960000 4.920000 6.840000 -77.108894 25.678860 6605.185547
0.960000 4.920000 6.880000 -123.773453 -38.799103 16825.238281
0.960000 4.920000 6.920000 -100.302429 -132.364197 27580.859375
0.960000 4.920000 6.960000 -4.421902 -182.554993 33345.878906
0.960000 4.920000 7.000000 101.856262 -143.931107 31090.863281
0.960000 4.920000 7.040000 143.932343 -41.838470 22466.976562
0.960000 4.920000 7.080000 99.863655 48.933701 12367.256836
0.960000 4.920000 7.120000 16.296156 70.376801 5218.458984
0.960000 4.920000 7.160000 -38.255966 28.098570 2253.048584
0.960000 4.920000 7.200000 -34.696419 -23.718845 1766.425049
0.960000 4.960000 6.800000 -39.766880 10.344898 1688.421753
0.960000 4.960000 6.840000 -95.094490 -29.399660 9907.301758
0.960000 4.960000 6.880000 -98.417145 -120.469513 24198.837891
0.960000 4.960000 6.920000 -17.265274 -196.707321 38991.859375
0.960000 4.960000 6.960000 107.871544 -187.777817 46896.777344
0.960000 4.960000 7.000000 190.947571 -86.080093 43870.757812
0.960000 4.960000 7.040000 174.241394 41.027954 32043.355469
0.960000 4.960000 7.080000 78.592087 108.216309 17887.486328
0.960000 4.960000 7.120000 -18.027597 84.495758 7464.527344
0.960000 4.960000 7.160000 -51.184227 12.721227 2781.654785
0.960000 4.960000 7.200000 -20.988146 -38.025948 1886.474854
0.960000 5.000000 6.800000 -41.280380 -22.259279 2199.545410
0.960000 5.000000 6.840000 -62.623482 -84.972557 11142.036133
0.960000 5.000000 6.880000 -14.665297 -160.781433 26065.740234
0.960000 5.000000 6.920000 94.076912 -179.562881 41093.292969
0.960000 5.000000 6.960000 194.295334 -105.142838 48805.691406
0.960000 5.000000 7.000000 211.516495 24.659054 45347.296875
0.960000 5.000000 7.040000 132.061829 124.908661 33042.500000
0.960000 5.000000 7.080000 15.935146 134.883148 18447.392578
0.960000 5.000000 7.120000 -56.135689 66.993889 7639.396484
0.960000 5.000000 7.160000 -50.512688 -11.261164 2678.345459
0.960000 5.000000 7.200000 -0.256131 -41.193825 1696.996704
0.960000 5.040000 6.800000 -14.365185 -46.387825 2358.188965
0.960000 5.040000 6.840000 2.984385 -98.550842 9721.174805
0.960000 5.040000 6.880000 72.934464 -126.703934 21373.322266
0.960000 5.040000 6.920000 157.842224 -87.670547 32600.292969
0.960000 5.040000 6.960000 194.240875 12.092148 37875.738281
0.960000 5.040000 7.000000 147.433212 113.516083 34622.453125
0.960000 5.040000 7.040000 44.880367 151.296677 24904.931641
0.960000 5.040000 7.080000 -44.981251 108.296509 13751.446289
0.960000 5.040000 7.120000 -69.793716 27.449183 5624.620605
0.960000 5.040000 7.160000 -33.315430 -28.652304 1930.872314
0.960000 5.040000 7.200000 16.523331 -30.744743 1218.259766
0.960000 5.080000 6.800000 23.034582 -41.203613 2228.329834
0.960000 5.080000 6.840000 55.477501 -59.648178 6635.658203
0.960000 5.080000 6.880000 105.007942 -44.210339 12981.221680
0.960000 5.080000 6.920000 135.804733 12.770279 18606.005859
0.960000 5.080000 6.960000 116.833641 84.252037 20748.505859
0.960000 5.080000 7.000000 50.713497 125.766174 18388.990234
0.960000 5.080000 7.040000 -24.430878 110.874771 12890.083008
0.960000 5.080000 7.080000 -64.140190 53.260468 6950.641602
0.960000 5.080000 7.120000 -52.513504 -5.061573 2783.287842
0.960000 5.080000 7.160000 -11.797689 -28.624559 958.550903
0.960000 5.080000 7.200000 20.376095 -14.780217 633.640076
0.960000 5.120000 6.800000 42.816780 -10.085256 1934.989014
0.960000 5.120000 6.840000 59.912117 -0.246227 3589.522217
0.960000 5.120000 6.880000 69.110336 24.441162 5373.609375
0.960000 5.120000 6.920000 59.439346 54.978863 6555.710938
0.960000 5.120000 6.960000 29.808655 75.567177 6598.954102
0.960000 5.120000 7.000000 -8.123650 73.525894 5472.050781
0.960000 5.120000 7.040000 -36.143608 48.616379 3669.912598
0.960000 5.120000 7.080000 -41.379745 14.340088 1917.921387
0.960000 5.120000 7.120000 -25.174290 -10.858564 751.653320
0.960000 5.120000 7.160000 -1.690550 -16.275562 267.751892
0.960000 5.120000 7.200000 12.960902 -5.602659 199.374771
0.960000 5.160000 6.800000 32.312775 21.618773 1511.486694
0.960000 5.160000 6.840000 22.903841 34.284916 1700.041382
0.960000 5.160000 6.880000 7.358086 36.337189 1374.532715
0.960000 5.160000 6.920000 -3.283421 28.522907 824.337036
0.960000 5.160000 6.960000 -5.038040 19.887363 420.889069
0.960000 5.160000 7.000000 -3.596695 16.870659 297.555359
0.960000 5.160000 7.040000 -5.993597 16.735760 316.008881
0.960000 5.160000 7.080000 -11.673664 12.362158 289.097382
0.960000 5.160000 7.120000 -13.335117 2.015621 181.888077
0.960000 5.160000 7.160000 -6.189415 -7.578411 95.741173
0.960000 5.160000 7.200000 5.478986 -8.518470 102.583618
0.960000 5.200000 6.800000 5.713253 30.097628 938.508423
0.960000 5.200000 6.840000 -16.352154 25.768682 931.417969
0.960000 5.200000 6.880000 -26.066616 2.364557 685.059570
0.960000 5.200000 6.920000 -11.340950 -20.066465 531.280151
0.960000 5.200000 6.960000 15.856003 -20.210518 659.877869
0.960000 5.200000 7.000000 30.445818 2.341362 932.429810
0.960000 5.200000 7.040000 19.224546 26.033237 1047.312622
0.960000 5.200000 7.080000 -6.080647 28.725294 862.116760
0.960000 5.200000 7.120000 -21.055559 9.304743 529.914795
0.960000 5.200000 7.160000 -12.921030 -12.502733 323.271362
0.960000 5.200000 7.200000 8.195982 -16.844616 350.915222
1.000000 4.800000 6.800000 3.401131 -7.512363 68.003296
1.000000 4.800000 6.840000 3.115967 5.338640 38.210327
1.000000 4.800000 6.880000 -8.044323 9.767223 160.109772
1.000000 4.800000 6.920000 -16.234083 0.265579 263.615997
1.000000 4.800000 6.960000 -9.479261 -13.021576 259.417847
1.000000 4.800000 7.000000 8.892342 -13.714958 267.173828
1.000000 4.800000 7.040000 21.978828 3.810506 497.588867
1.000000 4.800000 7.080000 15.483742 27.360992 988.370178
1.000000 4.800000 7.120000 -7.731051 37.700150 1481.070435
1.000000 4.800000 7.160000 -29.719200 26.820692 1602.580322
1.000000 4.800000 7.200000 -34.338272 5.399614 1208.272827
1.000000 4.840000 6.800000 3.042694 7.460634 64.919052
1.000000 4.840000 6.840000 -20.159800 25.610838 1062.332520
1.000000 4.840000 6.880000 -54.564323 12.649155 3137.266602
1.000000 4.840000 6.920000 -65.747742 -29.668076 5202.960449
1.000000 4.840000 6.960000 -35.832741 -68.671082 5999.702637
1.000000 4.840000 7.000000 16.241585 -69.810913 5137.352539
1.000000 4.840000 7.040000 49.979637 -29.929102 3393.715332
1.000000 4.840000 7.080000 40.351913 18.838997 1983.184814
1.000000 4.840000 7.120000 0.137858 38.902805 1513.447266
1.000000 4.840000 7.160000 -34.132034 21.167557 1613.061157
1.000000 4.840000 7.200000 -37.524082 -10.098235 1510.031128
1.000000 4.880000 6.800000 -13.478758 16.374126 449.788940
1.000000 4.880000 6.840000 -61.681839 15.979137 4059.981934
1.000000 4.880000 6.880000 -97.682693 -36.481560 10872.812500
1.000000 4.880000 6.920000 -75.607666 -110.668655 17964.070312
1.000000 4.880000 6.960000 3.782974 -146.534836 21486.769531
1.000000 4.880000 7.000000 87.141876 -109.313843 19543.222656
1.000000 4.880000 7.040000 114.075989 -24.002777 13589.464844
1.000000 4.880000 7.080000 70.986649 45.968861 7152.240723
1.000000 4.880000 7.120000 0.830549 55.522038 3083.386230
1.000000 4.880000 7.160000 -39.439827 14.776905 1773.856934
1.000000 4.880000 7.200000 -30.084188 -27.952450 1686.397949
1.000000 4.920000 6.800000 -34.253014 5.028807 1198.557861
1.000000 4.920000 6.840000 -85.635864 -32.700588 8402.830078
1.000000 4.920000 6.880000 -86.318634 -118.558266 21506.968750
1.000000 4.920000 6.920000 -6.880608 -187.661926 35264.343750
1.000000 4.920000 6.960000 111.031418 -173.885345 42564.089844
1.000000 4.920000 7.000000 184.512070 -73.911774 39507.652344
1.000000 4.920000 7.040000 161.917374 44.690666 28214.492188
1.000000 4.920000 7.080000 68.377983 101.690231 15016.451172
1.000000 4.920000 7.120000 -19.649351 72.972672 5711.107910
1.000000 4.920000 7.160000 -44.298317 4.400736 1981.707397
1.000000 4.920000 7.200000 -12.033821 -38.478661 1625.420166
1.000000 4.960000 6.800000 -38.136768 -23.853718 2023.412964
1.000000 4.960000 6.840000 -60.830654 -91.863403 12139.252930
1.000000 4.960000 6.880000 -6.774445 -173.157288 30029.337891
1.000000 4.960000 6.920000 112.344444 -189.879395 48675.457031
1.000000 4.960000 6.960000 218.315506 -104.900757 58665.828125
1.000000 4.960000 7.000000 231.137268 36.367588 54747.039062
1.000000 4.960000 7.040000 140.902527 140.238312 39520.304688
1.000000 4.960000 7.080000 16.935560 144.804840 21255.253906
1.000000 4.960000 7.120000 -54.680309 69.699623 7847.973633
1.000000 4.960000 7.160000 -43.985794 -9.925810 2033.271851
1.000000 4.960000 7.200000 7.881799 -35.408165 1315.860962
1.000000 5.000000 6.800000 -14.493994 -48.806892 2592.188721
1.000000 5.000000 6.840000 6.171047 -115.208427 13311.063477
1.000000 5.000000 6.880000 94.952827 -150.506348 31668.199219
1.000000 5.000000 6.920000 201.475464 -99.162773 50425.617188
1.000000 5.000000 6.960000 243.863571 27.747013 60239.339844
1.000000 5.000000 7.000000 181.036652 152.580872 56055.191406
1.000000 5.000000 7.040000 52.342335 194.484955 40564.117188
1.000000 5.000000 7.080000 -55.097359 137.563782 21959.513672
1.000000 5.000000 7.120000 -80.618004 39.809990 8084.098145
1.000000 5.000000 7.160000 -35.610306 -23.057178 1799.727295
1.000000 5.000000 7.200000 18.937874 -22.256603 853.999451
1.000000 5.040000 6.800000 23.911160 -46.941833 2775.279297
1.000000 5.040000 6.840000 70.911079 -80.023613 11432.160156
1.000000 5.040000 6.880000 148.159012 -60.002892 25551.441406
1.000000 5.040000 6.920000 196.827667 26.547358 39445.890625
1.000000 5.040000 6.960000 167.269180 135.268616 46276.578125
1.000000 5.040000 7.000000 66.090477 195.632889 42640.179688
1.000000 5.040000 7.040000 -44.986931 169.604065 30789.363281
1.000000 5.040000 7.080000 -99.489418 83.004478 16787.888672
1.000000 5.040000 7.120000 -79.294418 0.761528 6288.185059
1.000000 5.040000 7.160000 -22.385294 -29.079748 1346.733154
1.000000 5.040000 7.200000 17.763744 -9.819839 411.979858
1.000000 5.080000 6.800000 49.389263 -15.429909 2677.381348
1.000000 5.080000 6.840000 87.776062 -10.069525 7806.032715
1.000000 5.080000 6.880000 119.115738 34.417648 15373.132812
1.000000 5.080000 6.920000 109.133995 101.684570 22249.980469
1.000000 5.080000 6.960000 49.339996 150.705673 25146.634766
1.000000 5.080000 7.000000 -31.585976 147.401016 22724.734375
1.000000 5.080000 7.040000 -88.105530 92.787773 16372.156250
1.000000 5.080000 7.080000 -92.868057 22.266182 9120.258789
1.000000 5.080000 7.120000 -55.732811 -23.183193 3643.606689
1.000000 5.080000 7.160000 -11.333952 -27.650391 893.002563
1.000000 5.080000 7.200000 11.186713 -6.737049 170.530380
1.000000 5.120000 6.800000 43.156189 24.093269 2442.942383
1.000000 5.120000 6.840000 49.798244 43.929718 4409.685547
1.000000 5.120000 6.880000 39.896946 69.872253 6473.898438
1.000000 5.120000 6.920000 11.967316 87.642365 7824.400879
1.000000 5.120000 6.960000 -24.486771 85.831024 7966.566895
1.000000 5.120000 7.000000 -54.480663 62.821304 6914.659180
1.000000 5.120000 7.040000 -65.967957 27.547878 5110.657227
1.000000 5.120000 7.080000 -56.017780 -5.598560 3169.335693
1.000000 5.120000 7.120000 -31.766485 -24.384941 1603.734863
1.000000 5.120000 7.160000 -6.032881 -24.721466 647.546509
1.000000 5.120000 7.200000 9.801777 -11.985556 239.728378
1.000000 5.160000 6.800000 12.213669 43.883751 2074.957275
1.000000 5.160000 6.840000 -6.758320 48.559380 2403.688232
1.000000 5.160000 6.880000 -23.485703 37.663975 1970.153198
1.000000 5.160000 6.920000 -26.701389 20.960947 1152.325439
1.000000 5.160000 6.960000 -20.007385 12.025070 544.897766
1.000000 5.160000 7.000000 -16.362522 12.858116 433.063263
1.000000 5.160000 7.040000 -21.995308 12.511753 640.337524
1.000000 5.160000 7.080000 -28.533510 1.159512 815.505676
1.000000 5.160000 7.120000 -22.662737 -16.764288 794.640991
1.000000 5.160000 7.160000 -2.473363 -25.836143 673.623840
1.000000 5.160000 7.200000 18.227657 -16.259882 596.631226
1.000000 5.200000 6.800000 -17.358788 34.438393 1487.330444
1.000000 5.200000 6.840000 -37.048622 14.496301 1582.743042
1.000000 5.200000 6.880000 -31.165676 -16.272518 1236.094238
1.000000 5.200000 6.920000 -1.430195 -29.247364 857.453796
1.000000 5.200000 6.960000 25.071507 -11.525124 761.408936
1.000000 5.200000 7.000000 23.110023 19.059639 897.343018
1.000000 5.200000 7.040000 -4.090248 31.334370 998.572815
1.000000 5.200000 7.080000 -27.660763 12.803883 929.057190
1.000000 5.200000 7.120000 -22.719318 -17.512787 822.865112
1.000000 5.200000 7.160000 6.302490 -28.979483 879.531799
1.000000 5.200000 7.200000 31.059608 -10.743148 1080.114502
1.040000 4.800000 6.800000 1.169275 -0.856842 2.101383
1.040000 4.800000 6.840000 -4.812807 7.922466 85.928589
1.040000 4.800000 6.880000 -15.579327 5.663555 274.791290
1.040000 4.800000 6.920000 -18.164375 -6.537796 372.687286
1.040000 4.800000 6.960000 -6.817871 -16.100285 305.702545
1.040000 4.800000 7.000000 9.998505 -10.937532 219.599701
1.040000 4.800000 7.040000 16.675133 8.044346 342.771545
1.040000 4.800000 7.080000 5.192877 26.642220 736.773804
1.040000 4.800000 7.120000 -16.884727 30.048100 1187.982300
1.040000 4.800000 7.160000 -33.173523 16.315880 1366.690674
1.040000 4.800000 7.200000 -33.364292 -2.452847 1119.192505
1.040000 4.840000 6.800000 -10.157652 5.683672 135.482025
1.040000 4.840000 6.840000 -35.687832 6.127495 1311.167480
1.040000 4.840000 6.880000 -54.345276 -22.236897 3447.888428
1.040000 4.840000 6.920000 -40.490124 -61.728104 5449.809082
1.040000 4.840000 6.960000 4.378281 -78.309151 6151.492676
1.040000 4.840000 7.000000 48.964836 -53.382492 5247.245605
1.040000 4.840000 7.040000 59.092819 -3.070572 3501.389648
1.040000 4.840000 7.080000 28.737869 35.049404 2054.325684
1.040000 4.840000 7.120000 -15.100883 35.481941 1487.004883
1.040000 4.840000 7.160000 -38.178329 6.066390 1494.385986
1.040000 4.840000 7.200000 -29.511696 -22.828434 1392.077637
1.040000 4.880000 6.800000 -25.804644 -2.905132 674.319458
1.040000 4.880000 6.840000 -59.461418 -29.362719 4397.829590
1.040000 4.880000 6.880000 -57.271187 -88.274536 11072.382812
1.040000 4.880000 6.920000 0.292755 -133.527069 17829.564453
1.040000 4.880000 6.960000 82.328934 -119.471375 21051.462891
1.040000 4.880000 7.000000 130.000229 -46.024330 19018.296875
1.040000 4.880000 7.040000 108.551964 37.063969 13157.267578
1.040000 4.880000 7.080000 38.671406 73.024773 6828.094727
1.040000 4.880000 7.120000 -23.480240 47.092426 2769.018066
1.040000 4.880000 7.160000 -37.362789 -5.154799 1422.549927
1.040000 4.880000 7.200000 -10.199803 -35.675594 1376.784058
1.040000 4.920000 6.800000 -28.867924 -26.111702 1515.177979
1.040000 4.920000 6.840000 -44.582027 -81.314301 8599.572266
1.040000 4.920000 6.880000 2.717148 -145.491104 21175.044922
1.040000 4.920000 6.920000 101.421967 -154.542999 34169.953125
1.040000 4.920000 6.960000 185.595917 -80.135765 40867.585938
1.040000 4.920000 7.000000 190.422241 37.203018 37644.695312
1.040000 4.920000 7.040000 111.337036 119.118469 26585.144531
1.040000 4.920000 7.080000 8.811243 116.975967 13761.014648
1.040000 4.920000 7.120000 -46.144989 51.230827 4753.958008
1.040000 4.920000 7.160000 -32.347069 -13.619818 1231.832275
1.040000 4.920000 7.200000 12.225959 -30.675983 1090.489990
1.040000 4.960000 6.800000 -9.088959 -47.369919 2326.518311
1.040000 4.960000 6.840000 12.502409 -108.882080 12011.618164
1.040000 4.960000 6.880000 98.191528 -139.007843 28964.755859
1.040000 4.960000 6.920000 197.802170 -85.766899 46481.660156
1.040000 4.960000 6.960000 233.011383 37.085514 55669.640625
1.040000 4.960000 7.000000 167.824585 153.120789 51611.070312
1.040000 4.960000 7.040000 44.101929 186.786545 36834.195312
1.040000 4.960000 7.080000 -53.853268 127.875496 19252.316406
1.040000 4.960000 7.120000 -71.905914 35.673767 6443.078125
1.040000 4.960000 7.160000 -26.514927 -18.626102 1049.973022
1.040000 4.960000 7.200000 21.991217 -13.026283 653.297668
1.040000 5.000000 6.800000 24.868519 -46.609245 2790.864746
1.040000 5.000000 6.840000 77.123222 -83.164803 12864.375000
1.040000 5.000000 6.880000 162.985550 -59.389866 30091.445312
1.040000 5.000000 6.920000 214.796173 38.621323 47629.000000
1.040000 5.000000 6.960000 177.801163 158.370209 56694.375000
1.040000 5.000000 7.000000 63.273243 220.338806 52552.695312
1.040000 5.000000 7.040000 -56.790611 185.807373 37749.550781
1.040000 5.000000 7.080000 -110.130692 88.928665 20037.078125
1.040000 5.000000 7.120000 -82.762161 3.380962 6861.005859
1.040000 5.000000 7.160000 -21.753593 -22.326700 971.700378
1.040000 5.000000 7.200000 15.261691 1.029499 233.979095
1.040000 5.040000 6.800000 49.803432 -18.680382 2829.338379
1.040000 5.040000 6.840000 102.921761 -16.253723 10857.072266
1.040000 5.040000 6.880000 148.925583 42.495495 23984.697266
1.040000 5.040000 6.920000 136.942764 134.696701 36896.523438
1.040000 5.040000 6.960000 55.055775 200.537827 43246.554688
1.040000 5.040000 7.000000 -53.643814 192.362030 39880.812500
1.040000 5.040000 7.040000 -124.381180 115.710579 28859.617188
1.040000 5.040000 7.080000 -123.265656 23.766914 15759.288086
1.040000 5.040000 7.120000 -70.742958 -28.553837 5819.887695
1.040000 5.040000 7.160000 -16.943611 -27.069616 1019.850098
1.040000 5.040000 7.200000 3.931850 0.037233 15.460835
1.040000 5.080000 6.800000 46.887558 20.032757 2599.754395
1.040000 5.080000 6.840000 72.110527 46.182899 7332.788086
1.040000 5.080000 6.880000 69.547913 97.275925 14299.517578
1.040000 5.080000 6.920000 23.896866 141.549133 20607.216797
1.040000 5.080000 6.960000 -47.640930 145.070068 23314.982422
1.040000 5.080000 7.000000 -106.330376 99.797394 21265.667969
1.040000 5.080000 7.040000 -121.426910 30.516472 15675.749023
1.040000 5.080000 7.080000 -92.323692 -25.058407 9151.587891
1.040000 5.080000 7.120000 -45.088409 -44.467403 4010.314697
1.040000 5.080000 7.160000 -9.141611 -32.779831 1158.086426
1.040000 5.080000 7.200000 3.669167 -11.476577 145.174606
1.040000 5.120000 6.800000 18.053280 44.311066 2289.391602
1.040000 5.120000 6.840000 10.954636 63.540581 4157.409668
1.040000 5.120000 6.880000 -12.519272 76.723892 6043.287598
1.040000 5.120000 6.920000 -43.524742 72.823425 7197.654785
1.040000 5.120000 6.960000 -68.626801 50.911987 7301.667969
1.040000 5.120000 7.000000 -78.418442 18.861763 6505.218262
1.040000 5.120000 7.040000 -70.903130 -12.758457 5190.032227
1.040000 5.120000 7.080000 -49.795609 -35.320732 3727.156738
1.040000 5.120000 7.120000 -22.013866 -43.565166 2382.533936
1.040000 5.120000 7.160000 3.610197 -36.268433 1328.432739
1.040000 5.120000 7.200000 18.333384 -17.736708 650.703735
1.040000 5.160000 6.800000 -15.744393 41.061874 1933.963379
1.040000 5.160000 6.840000 -34.551861 33.846809 2339.437500
1.040000 5.160000 6.880000 -42.135651 14.093645 1974.043945
1.040000 5.160000 6.920000 -33.912300 -2.339661 1155.518066
1.040000 5.160000 6.960000 -21.943861 -4.950569 506.041199
1.040000 5.160000 7.000000 -20.145966 -0.526215 406.136841
1.040000 5.160000 7.040000 -27.157604 -4.501133 757.795654
1.040000 5.160000 7.080000 -27.181335 -21.377472 1195.821289
1.040000 5.160000 7.120000 -8.718718 -37.046295 1448.443970
1.040000 5.160000 7.160000 19.845625 -32.975410 1481.226562
1.040000 5.160000 7.200000 36.274303 -7.350720 1369.858154
1.040000 5.200000 6.800000 -32.961250 19.135790 1452.622437
1.040000 5.200000 6.840000 -38.967438 -9.013130 1599.697754
1.040000 5.200000 6.880000 -16.787617 -32.308895 1325.688843
1.040000 5.200000 6.920000 15.792630 -26.805626 967.948730
1.040000 5.200000 6.960000 27.806479 2.845833 781.299011
1.040000 5.200000 7.000000 8.286297 26.160511 753.035034
1.040000 5.200000 7.040000 -20.622547 18.430735 764.981445
1.040000 5.200000 7.080000 -26.089506 -12.403630 834.512390
1.040000 5.200000 7.120000 0.601894 -33.205555 1102.971191
1.040000 5.200000 7.160000 34.234112 -20.231052 1581.269775
1.040000 5.200000 7.200000 41.681503 15.835052 1988.096558
1.080000 4.800000 6.800000 -7.248342 -0.062817 52.542400
1.080000 4.800000 6.840000 -12.371805 1.932152 156.794785
1.080000 4.800000 6.880000 -17.310783 -3.224258 310.059052
1.080000 4.800000 6.920000 -14.921864 -12.141949 370.088928
1.080000 4.800000 6.960000 -4.305511 -16.190838 280.680664
1.080000 4.800000 7.000000 7.136612 -9.367126 138.674286
1.080000 4.800000 7.040000 9.509394 5.415184 119.752785
1.080000 4.800000 7.080000 -0.803731 17.849323 319.244324
1.080000 4.800000 7.120000 -17.465626 18.614843 651.560486
1.080000 4.800000 7.160000 -29.205795 7.194184 904.734741
1.080000 4.800000 7.200000 -29.072706 -7.962294 908.620361
1.080000 4.840000 6.800000 -18.064035 -8.914306 405.774231
1.080000 4.840000 6.840000 -30.545496 -20.457663 1351.543335
1.080000 4.840000 6.880000 -27.910015 -45.687210 2866.290039
1.080000 4.840000 6.920000 -1.140396 -64.721947 4190.230469
1.080000 4.840000 6.960000 36.480896 -56.955833 4574.822754
1.080000 4.840000 7.000000 58.212910 -21.638180 3856.953613
1.080000 4.840000 7.040000 47.083015 18.696304 2566.362061
1.080000 4.840000 7.080000 11.581493 36.611404 1474.525879
1.080000 4.840000 7.120000 -21.539358 23.102942 997.689819
1.080000 4.840000 7.160000 -30.608881 -6.056488 973.584656
1.080000 4.840000 7.200000 -16.312880 -26.250366 955.191772
1.080000 4.880000 6.800000 -17.789272 -28.224377 1113.073608
1.080000 4.880000 6.840000 -22.408962 -58.875771 3968.518066
1.080000 4.880000 6.880000 8.007965 -92.901505 8694.817383
1.080000 4.880000 6.920000 66.257355 -94.241814 13271.556641
1.080000 4.880000 6.960000 114.162094 -47.361015 15276.048828
1.080000 4.880000 7.000000 114.331535 23.472576 13622.662109
1.080000 4.880000 7.040000 64.596748 71.900284 9342.390625
1.080000 4.880000 7.080000 1.308575 68.948792 4755.648438
1.080000 4.880000 7.120000 -32.418602 26.841221 1771.416748
1.080000 4.880000 7.160000 -23.004948 -15.024991 754.977966
1.080000 4.880000 7.200000 6.771660 -26.902554 769.602783
1.080000 4.920000 6.800000 0.886822 -44.221146 1956.296265
1.080000 4.920000 6.840000 20.193916 -82.866348 7274.625977
1.080000 4.920000 6.880000 81.133102 -98.001633 16186.900391
1.080000 4.920000 6.920000 148.276550 -55.592098 25076.417969
1.080000 4.920000 6.960000 168.156235 32.721767 29347.234375
1.080000 4.920000 7.000000 117.915039 112.855446 26640.308594
1.080000 4.920000 7.040000 28.922564 133.042969 18536.947266
1.080000 4.920000 7.080000 -39.109550 88.275955 9322.201172
1.080000 4.920000 7.120000 -49.222652 21.977549 2905.882324
1.080000 4.920000 7.160000 -14.885459 -15.397823 458.669861
1.080000 4.920000 7.200000 20.006470 -9.468255 489.906677
1.080000 4.960000 6.800000 29.888046 -41.034111 2577.093506
1.080000 4.960000 6.840000 73.872032 -65.391739 9733.156250
1.080000 4.960000 6.880000 141.781769 -40.414955 21735.439453
1.080000 4.960000 6.920000 178.765137 42.652275 33776.191406
1.080000 4.960000 6.960000 142.678101 139.122772 39712.187500
1.080000 4.960000 7.000000 46.163372 184.854431 36302.218750
1.080000 4.960000 7.040000 -50.236298 151.615082 25510.818359
1.080000 4.960000 7.080000 -89.151253 70.907608 12975.833984
1.080000 4.960000 7.120000 -63.089844 3.788805 3994.683350
1.080000 4.960000 7.160000 -13.509352 -12.803127 346.422668
1.080000 4.960000 7.200000 13.013983 8.338690 238.897491
1.080000 5.000000 6.800000 49.926594 -15.469215 2731.961426
1.080000 5.000000 6.840000 99.793320 -10.222742 10063.211914
1.080000 5.000000 6.880000 140.966782 48.407505 22214.919922
1.080000 5.000000 6.920000 125.027649 136.583176 34286.878906
1.080000 5.000000 6.960000 43.188000 195.799988 40202.839844
1.080000 5.000000 7.000000 -60.063705 182.309937 36844.562500
1.080000 5.000000 7.040000 -122.374344 105.845993 26178.855469
1.080000 5.000000 7.080000 -115.229889 20.474409 13697.128906
1.080000 5.000000 7.120000 -63.445049 -22.887064 4549.091797
1.080000 5.000000 7.160000 -16.613008 -16.279884 541.026733
1.080000 5.000000 7.200000 -3.472023 8.703650 87.808479
1.080000 5.040000 6.800000 46.027260 18.313740 2453.901611
1.080000 5.040000 6.840000 77.230209 47.348946 8206.427734
1.080000 5.040000 6.880000 75.857101 107.916466 17400.263672
1.080000 5.040000 6.920000 21.833843 160.554810 26254.564453
1.080000 5.040000 6.960000 -62.750160 162.764465 30429.853516
1.080000 5.040000 7.000000 -128.718460 106.437927 27897.472656
1.080000 5.040000 7.040000 -139.804413 25.540310 20197.580078
1.080000 5.040000 7.080000 -100.495834 -32.837257 11177.698242
1.080000 5.040000 7.120000 -47.208580 -46.021347 4346.614258
1.080000 5.040000 7.160000 -14.271570 -27.711323 971.595154
1.080000 5.040000 7.200000 -8.308161 -7.330408 122.760406
1.080000 5.080000 6.800000 20.293598 39.603905 1980.299316
1.080000 5.080000 6.840000 22.539986 69.428352 5328.346680
1.080000 5.080000 6.880000 -5.820221 100.568985 10147.996094
1.080000 5.080000 6.920000 -57.418320 105.394386 14404.839844
1.080000 5.080000 6.960000 -104.517693 72.471046 16176.000977
1.080000 5.080000 7.000000 -120.614555 16.365688 14815.707031
1.080000 5.080000 7.040000 -100.086655 -34.360161 11197.958984
1.080000 5.080000 7.080000 -59.395424 -58.779400 6982.833984
1.080000 5.080000 7.120000 -21.475565 -55.682728 3561.766113
1.080000 5.080000 7.160000 0.681215 -38.260433 1464.324829
1.080000 5.080000 7.200000 7.923908 -20.162380 469.309906
1.080000 5.120000 6.800000 -10.194258 37.824867 1534.643433
1.080000 5.120000 6.840000 -25.262798 47.199905 2866.040039
1.080000 5.120000 6.880000 -47.952244 43.078339 4155.161133
1.080000 5.120000 6.920000 -65.512344 23.993225 4867.541992
1.080000 5.120000 6.960000 -69.901306 -2.043625 4890.368652
1.080000 5.120000 7.000000 -61.541748 -25.990387 4462.886719
1.080000 5.120000 7.040000 -44.669029 -43.388550 3877.888428
1.080000 5.120000 7.080000 -22.288166 -52.580811 3261.504150
1.080000 5.120000 7.120000 2.826870 -50.851501 2593.866455
1.080000 5.120000 7.160000 24.137104 -35.850349 1867.847412
1.080000 5.120000 7.200000 32.353016 -11.411222 1176.933594
1.080000 5.160000 6.800000 -28.199059 19.666996 1181.977661
1.080000 5.160000 6.840000 -38.415764 5.489151 1505.901611
1.080000 5.160000 6.880000 -33.823032 -12.798199 1307.791504
1.080000 5.160000 6.920000 -18.865021 -20.162663 762.421997
1.080000 5.160000 6.960000 -8.970798 -14.698738 296.528137
1.080000 5.160000 7.000000 -11.655193 -10.011707 236.077820
1.080000 5.160000 7.040000 -16.487431 -18.383579 609.791382
1.080000 5.160000 7.080000 -6.795839 -34.142288 1211.879272
1.080000 5.160000 7.120000 19.252262 -37.522354 1778.576660
1.080000 5.160000 7.160000 42.765591 -16.528503 2102.087158
1.080000 5.160000 7.200000 41.996006 17.167149 2058.375488
1.080000 5.200000 6.800000 -29.687790 0.796273 881.998901
1.080000 5.200000 6.840000 -21.276970 -22.657064 966.052002
1.080000 5.200000 6.880000 5.942131 -29.087151 881.371216
1.080000 5.200000 6.920000 26.660351 -9.119953 793.947815
1.080000 5.200000 6.960000 19.986145 17.929092 720.898315
1.080000 5.200000 7.000000 -6.096451 23.427818 586.029358
1.080000 5.200000 7.040000 -21.357224 1.161455 457.479950
1.080000 5.200000 7.080000 -5.681819 -23.991566 607.878296
1.080000 5.200000 7.120000 27.760197 -21.605595 1237.430298
1.080000 5.200000 7.160000 44.820023 11.148756 2133.129150
1.080000 5.200000 7.200000 26.124302 44.908562 2699.258057
1.120000 4.800000 6.800000 -13.418247 -8.451628 251.479370
1.120000 4.800000 6.840000 -12.142294 -8.628133 221.879974
1.120000 4.800000 6.880000 -12.164722 -10.137147 250.742218
1.120000 4.800000 6.920000 -10.392654 -13.825075 299.139954
1.120000 4.800000 6.960000 -4.241657 -16.530191 291.238892
1.120000 4.800000 7.000000 4.318775 -13.361137 197.171814
1.120000 4.800000 7.040000 8.787014 -3.113628 86.906296
1.120000 4.800000 7.080000 3.556063 8.592028 86.468521
1.120000 4.800000 7.120000 -9.863583 12.753312 259.937225
1.120000 4.800000 7.160000 -22.445595 4.865593 527.478699
1.120000 4.800000 7.200000 -24.662495 -10.133982 710.936218
1.120000 4.840000 6.800000 -10.627165 -26.842422 833.452271
1.120000 4.840000 6.840000 -6.756134 -34.234028 1217.614014
1.120000 4.840000 6.880000 4.822353 -41.851871 1774.834229
1.120000 4.840000 6.920000 23.908934 -40.885674 2243.275391
1.120000 4.840000 6.960000 41.239037 -25.272549 2339.359863
1.120000 4.840000 7.000000 44.454910 0.560501 1976.553223
1.120000 4.840000 7.040000 28.840456 22.604704 1342.744507
1.120000 4.840000 7.080000 2.945665 27.492302 764.503601
1.120000 4.840000 7.120000 -16.981356 13.484918 470.209473
1.120000 4.840000 7.160000 -19.630901 -7.868862 447.291260
1.120000 4.840000 7.200000 -7.165372 -21.300175 505.040009
1.120000 4.880000 6.800000 8.990010 -39.772888 1662.703003
1.120000 4.880000 6.840000 23.292799 -50.584190 3101.314697
1.120000 4.880000 6.880000 51.188103 -50.443672 5164.786133
1.120000 4.880000 6.920000 79.144470 -27.072611 6996.773438
1.120000 4.880000 6.960000 86.067131 14.782291 7626.067383
1.120000 4.880000 7.000000 61.994633 52.954811 6647.546387
1.120000 4.880000 7.040000 19.162964 64.517960 4529.786133
1.120000 4.880000 7.080000 -16.294628 44.924316 2283.708984
1.120000 4.880000 7.120000 -25.260616 11.697230 774.923950
1.120000 4.880000 7.160000 -10.130842 -10.959532 222.745300
1.120000 4.880000 7.200000 10.060424 -12.099549 247.611221
1.120000 4.920000 6.800000 35.877178 -33.380978 2401.461426
1.120000 4.920000 6.840000 62.184265 -36.924442 5230.297363
1.120000 4.920000 6.880000 95.721252 -14.951851 9386.116211
1.120000 4.920000 6.920000 109.514366 34.393349 13176.298828
1.120000 4.920000 6.960000 84.052940 86.988922 14631.969727
1.120000 4.920000 7.000000 27.811743 109.997978 12873.048828
1.120000 4.920000 7.040000 -26.630705 89.732620 8761.137695
1.120000 4.920000 7.080000 -48.802155 43.699860 4291.328125
1.120000 4.920000 7.120000 -34.662834 5.079597 1227.314453
1.120000 4.920000 7.160000 -6.600155 -5.485248 73.649994
1.120000 4.920000 7.200000 9.435007 5.834143 123.056580
1.120000 4.960000 6.800000 51.429230 -7.218221 2697.068359
1.120000 4.960000 6.840000 80.748856 5.390010 6549.429688
1.120000 4.960000 6.880000 99.705154 48.758347 12318.494141
1.120000 4.960000 6.920000 80.835098 105.385513 17640.419922
1.120000 4.960000 6.960000 22.522814 138.804199 19773.882812
1.120000 4.960000 7.000000 -44.833527 124.433441 17493.726562
1.120000 4.960000 7.040000 -82.482391 71.919769 11975.797852
1.120000 4.960000 7.080000 -75.181366 17.062477 5943.365723
1.120000 4.960000 7.120000 -41.305511 -8.978319 1786.755493
1.120000 4.960000 7.160000 -12.879788 -3.649033 179.204391
1.120000 4.960000 7.200000 -6.527691 11.293037 170.143433
1.120000 5.000000 6.800000 43.583820 23.183500 2437.024170
1.120000 5.000000 6.840000 61.995518 50.056652 6349.112793
1.120000 5.000000 6.880000 53.503597 96.915504 12255.250000
1.120000 5.000000 6.920000 6.158315 132.886566 17696.765625
1.120000 5.000000 6.960000 -59.922855 127.758148 19912.892578
1.120000 5.000000 7.000000 -106.705307 79.619171 17725.234375
1.120000 5.000000 7.040000 -109.687485 17.644035 12342.656250
1.120000 5.000000 7.080000 -76.923721 -22.795034 6436.872559
1.120000 5.000000 7.120000 -38.490513 -28.536659 2295.860352
1.120000 5.000000 7.160000 -18.448563 -14.285314 544.419678
1.120000 5.000000 7.200000 -17.087561 -3.080927 301.476868
1.120000 5.040000 6.800000 17.698212 38.763680 1815.849487
1.120000 5.040000 6.840000 17.590206 67.066383 4807.315430
1.120000 5.040000 6.880000 -11.713116 95.465157 9250.792969
1.120000 5.040000 6.920000 -62.076241 96.955803 13253.887695
1.120000 5.040000 6.960000 -105.075241 61.829617 14863.708008
1.120000 5.040000 7.000000 -115.342560 7.245060 13356.397461
1.120000 5.040000 7.040000 -90.956856 -37.160412 9654.045898
1.120000 5.040000 7.080000 -52.264374 -53.257427 5567.917969
1.120000 5.040000 7.120000 -22.360119 -45.463676 2566.920654
1.120000 5.040000 7.160000 -9.273779 -30.877237 1039.406738
1.120000 5.040000 7.200000 -5.565327 -21.301502 484.726868
1.120000 5.080000 6.800000 -8.448841 32.918674 1155.022095
1.120000 5.080000 6.840000 -21.796055 48.453659 2822.825195
1.120000 5.080000 6.880000 -50.565960 50.300209 5087.027344
1.120000 5.080000 6.920000 -78.126572 29.171818 6954.756348
1.120000 5.080000 6.960000 -87.055740 -7.061954 7628.573242
1.120000 5.080000 7.000000 -72.909576 -40.722961 6974.166016
1.120000 5.080000 7.040000 -45.272469 -58.617836 5485.647461
1.120000 5.080000 7.080000 -17.498703 -59.518471 3848.652832
1.120000 5.080000 7.120000 3.042107 -49.954632 2504.719727
1.120000 5.080000 7.160000 15.738726 -35.886993 1535.583862
1.120000 5.080000 7.200000 21.292721 -19.744421 843.222107
1.120000 5.120000 6.800000 -20.694773 15.502365 668.596924
1.120000 5.120000 6.840000 -33.361053 13.471889 1294.451660
1.120000 5.120000 6.880000 -43.111942 0.246857 1858.700439
1.120000 5.120000 6.920000 -42.547016 -17.317871 2110.157227
1.120000 5.120000 6.960000 -33.395134 -30.917114 2071.103027
1.120000 5.120000 7.000000 -21.528847 -38.731373 1963.610474
1.120000 5.120000 7.040000 -8.770935 -43.607399 1978.534546
1.120000 5.120000 7.080000 7.517297 -45.272568 2106.115234
1.120000 5.120000 7.120000 26.820341 -37.992241 2162.741211
1.120000 5.120000 7.160000 40.528484 -18.070192 1969.089844
1.120000 5.120000 7.200000 38.086498 7.621554 1508.669434
1.120000 5.160000 6.800000 -19.675764 1.380082 389.040314
1.120000 5.160000 6.840000 -19.992714 -11.157935 524.208130
1.120000 5.160000 6.880000 -8.974539 -19.699755 468.622681
1.120000 5.160000 6.920000 3.141188 -16.170006 271.336151
1.120000 5.160000 6.960000 4.806190 -7.303936 76.446945
1.120000 5.160000 7.000000 -1.662048 -6.903024 50.414143
1.120000 5.160000 7.040000 -1.354431 -17.965237 324.584198
1.120000 5.160000 7.080000 15.303518 -26.270123 924.317017
1.120000 5.160000 7.120000 38.287537 -14.986374 1690.526855
1.120000 5.160000 7.160000 45.455921 14.763546 2284.203125
1.120000 5.160000 7.200000 25.784721 41.138435 2357.222656
1.120000 5.200000 6.800000 -16.522396 -4.160905 290.302704
1.120000 5.200000 6.840000 -2.606673 -15.404507 244.093567
1.120000 5.200000 6.880000 16.220470 -7.947392 326.264709
1.120000 5.200000 6.920000 19.232742 13.077290 540.913879
1.120000 5.200000 6.960000 1.990139 25.359089 647.044006
1.120000 5.200000 7.000000 -16.148024 14.402199 468.182007
1.120000 5.200000 7.040000 -12.309259 -8.031733 216.026596
1.120000 5.200000 7.080000 13.167691 -14.552680 385.168579
1.120000 5.200000 7.120000 34.194942 7.854457 1230.986572
1.120000 5.200000 7.160000 25.630232 41.287064 2361.530273
1.120000 5.200000 7.200000 -8.744936 53.630867 2952.743652
1.160000 4.800000 6.800000 -9.996548 -20.077572 503.039856
1.160000 4.800000 6.840000 -3.890041 -15.250983 247.724899
1.160000 4.800000 6.880000 -5.299593 -11.085428 150.972412
1.160000 4.800000 6.920000 -8.167380 -13.939611 261.018860
1.160000 4.800000 6.960000 -3.836329 -20.554327 437.197754
1.160000 4.800000 7.000000 8.275122 -20.676188 495.982361
1.160000 4.800000 7.040000 18.003815 -8.539977 397.068542
1.160000 4.800000 7.080000 14.090167 8.912003 277.956604
1.160000 4.800000 7.120000 -3.217825 17.021328 300.080017
1.160000 4.800000 7.160000 -20.336765 7.680431 472.573029
1.160000 4.800000 7.200000 -22.446152 -11.624393 638.956299
1.160000 4.840000 6.800000 9.263840 -33.470802 1206.113281
1.160000 4.840000 6.840000 17.652370 -25.746952 974.511719
1.160000 4.840000 6.880000 20.249506 -18.579998 755.258789
1.160000 4.840000 6.920000 22.008219 -14.167130 685.069275
1.160000 4.840000 6.960000 25.754616 -8.596724 737.203857
1.160000 4.840000 7.000000 27.643238 2.100764 768.561829
1.160000 4.840000 7.040000 21.085508 14.989774 669.291992
1.160000 4.840000 7.080000 5.442609 20.930265 467.697998
1.160000 4.840000 7.120000 -10.465656 13.505841 291.937714
1.160000 4.840000 7.160000 -15.149698 -3.048450 238.806396
1.160000 4.840000 7.200000 -5.450550 -16.050392 287.323578
1.160000 4.880000 6.800000 36.097031 -26.959961 2029.835083
1.160000 4.880000 6.840000 44.592201 -13.666589 2175.239990
1.160000 4.880000 6.880000 46.808506 1.193487 2192.460449
1.160000 4.880000 6.920000 43.510284 15.619442 2137.111816
1.160000 4.880000 6.960000 34.671955 28.279699 2001.885986
1.160000 4.880000 7.000000 20.216618 36.333549 1728.838501
1.160000 4.880000 7.040000 2.868296 35.848385 1293.333862
1.160000 4.880000 7.080000 -10.983396 25.531834 772.509521
1.160000 4.880000 7.120000 -14.953751 9.941184 322.441803
1.160000 4.880000 7.160000 -8.176287 -2.328707 72.274536
1.160000 4.880000 7.200000 3.084894 -4.926302 33.785023
1.160000 4.920000 6.800000 50.784637 -0.082043 2579.086182
1.160000 4.920000 6.840000 54.592999 18.911295 3338.032715
1.160000 4.920000 6.880000 48.495430 39.876244 3941.921387
1.160000 4.920000 6.920000 31.560661 56.398521 4176.868652
1.160000 4.920000 6.960000 7.782583 61.968964 3900.720947
1.160000 4.920000 7.000000 -14.721761 54.088409 3142.286377
1.160000 4.920000 7.040000 -27.899611 36.625660 2119.827148
1.160000 4.920000 7.080000 -28.638554 17.948048 1142.299194
1.160000 4.920000 7.120000 -20.509510 5.729861 453.471313
1.160000 4.920000 7.160000 -10.734522 2.319175 120.608528
1.160000 4.920000 7.200000 -4.800326 4.378942 42.218258
1.160000 4.960000 6.800000 40.573696 30.161951 2555.968262
1.160000 4.960000 6.840000 35.670731 50.475559 3820.183105
1.160000 4.960000 6.880000 17.430706 68.757957 5031.486328
1.160000 4.960000 6.920000 -11.060029 74.467285 5667.700684
1.160000 4.960000 6.960000 -38.506168 62.447495 5382.414551
1.160000 4.960000 7.000000 -52.986809 38.065422 4256.578125
1.160000 4.960000 7.040000 -50.770958 13.681401 2764.870850
1.160000 4.960000 7.080000 -38.378098 -0.683948 1473.346191
1.160000 4.960000 7.120000 -26.114059 -4.029964 698.184692
1.160000 4.960000 7.160000 -19.486019 -2.666306 386.814148
1.160000 4.960000 7.200000 -16.413816 -2.605364 276.201294
1.160000 5.000000 6.800000 12.230188 42.859146 1986.483887
1.160000 5.000000 6.840000 -0.732451 57.768257 3337.708008
1.160000 5.000000 6.880000 -25.792589 64.049942 4767.652832
1.160000 5.000000 6.920000 -53.148602 52.822121 5614.950195
1.160000 5.000000 6.960000 -68.685257 26.760412 5433.784180
1.160000 5.000000 7.000000 -65.734291 -1.171807 4322.370117
1.160000 5.000000 7.040000 -50.120022 -18.407104 2850.838135
1.160000 5.000000 7.080000 -33.841629 -22.414062 1647.645996
1.160000 5.000000 7.120000 -24.162619 -20.193089 991.593018
1.160000 5.000000 7.160000 -19.022766 -19.224693 731.454468
1.160000 5.000000 7.200000 -12.472121 -19.839224 549.148621
1.160000 5.040000 6.800000 -13.337214 31.808094 1189.636108
1.160000 5.040000 6.840000 -28.678171 37.016602 2192.666260
1.160000 5.040000 6.880000 -49.318382 29.675617 3312.945068
1.160000 5.040000 6.920000 -62.721100 8.471571 4005.703857
1.160000 5.040000 6.960000 -60.445740 -16.724243 3933.387695
1.160000 5.040000 7.000000 -45.495117 -33.753250 3209.087402
1.160000 5.040000 7.040000 -28.298101 -38.536556 2285.848633
1.160000 5.040000 7.080000 -16.291164 -36.415554 1591.494629
1.160000 5.040000 7.120000 -8.464621 -34.110676 1235.187988
1.160000 5.040000 7.160000 0.100975 -32.074593 1028.789795
1.160000 5.040000 7.200000 9.973456 -25.558371 752.700134
1.160000 5.080000 6.800000 -20.288916 10.526667 522.450806
1.160000 5.080000 6.840000 -31.142254 7.160835 1021.117554
1.160000 5.080000 6.880000 -39.039467 -6.031284 1560.456299
1.160000 5.080000 6.920000 -36.582203 -22.864189 1861.028687
1.160000 5.080000 6.960000 -25.237738 -34.302395 1813.597656
1.160000 5.080000 7.000000 -12.498616 -37.458984 1559.390991
1.160000 5.080000 7.040000 -3.045253 -36.619080 1350.230591
1.160000 5.080000 7.080000 5.274694 -35.922192 1318.226196
1.160000 5.080000 7.120000 16.193138 -33.276794 1369.562744
1.160000 5.080000 7.160000 27.478518 -23.308281 1298.344849
1.160000 5.080000 7.200000 31.094576 -5.913348 1001.840332
1.160000 5.120000 6.800000 -11.901049 -1.983311 145.568481
1.160000 5.120000 6.840000 -14.619875 -8.847394 292.017120
1.160000 5.120000 6.880000 -10.503477 -17.150013 404.445984
1.160000 5.120000 6.920000 -2.130003 -20.118805 409.303253
1.160000 5.120000 6.960000 3.597778 -17.930550 334.448608
1.160000 5.120000 7.000000 5.022324 -17.074127 316.749542
1.160000 5.120000 7.040000 8.480742 -20.844341 506.409546
1.160000 5.120000 7.080000 19.847353 -23.015820 923.645386
1.160000 5.120000 7.120000 34.666767 -13.844749 1393.461914
1.160000 5.120000 7.160000 39.856880 7.287207 1641.674316
1.160000 5.120000 7.200000 27.078173 27.583176 1494.059082
1.160000 5.160000 6.800000 -4.998982 -0.362656 25.121346
1.160000 5.160000 6.840000 -0.182316 -5.693336 32.447308
1.160000 5.160000 6.880000 8.191254 -3.605763 80.098160
1.160000 5.160000 6.920000 10.216475 4.955478 128.933121
1.160000 5.160000 6.960000 3.167095 9.377331 97.964828
1.160000 5.160000 7.000000 -2.918194 2.480520 14.668836
1.160000 5.160000 7.040000 3.988151 -8.345836 85.558319
1.160000 5.160000 7.080000 22.040863 -6.961876 534.267395
1.160000 5.160000 7.120000 33.853645 13.168127 1319.468872
1.160000 5.160000 7.160000 23.611076 38.508224 2040.366211
1.160000 5.160000 7.200000 -4.531412 46.688953 2200.392090
1.160000 5.200000 6.800000 -10.641626 2.982941 122.142143
1.160000 5.200000 6.840000 -0.736428 1.763670 3.652858
1.160000 5.200000 6.880000 4.475815 12.149013 167.631424
1.160000 5.200000 6.920000 -4.157122 22.370535 517.722473
1.160000 5.200000 6.960000 -18.585730 18.231155 677.804382
1.160000 5.200000 7.000000 -20.864044 1.547386 437.702759
1.160000 5.200000 7.040000 -4.382862 -8.792674 96.520599
1.160000 5.200000 7.080000 15.375341 3.053575 245.725433
1.160000 5.200000 7.120000 15.132391 30.044716 1131.674194
1.160000 5.200000 7.160000 -10.419946 46.383385 2259.993652
1.160000 5.200000 7.200000 -40.023155 33.736000 2739.970703
1.200000 4.800000 6.800000 1.629075 -25.501865 652.999023
1.200000 4.800000 6.840000 5.327271 -13.702690 216.143524
1.200000 4.800000 6.880000 -2.072473 -8.833176 82.320137
1.200000 4.800000 6.920000 -6.905799 -16.594902 323.080841
1.200000 4.800000 6.960000 2.223237 -26.610615 713.067627
1.200000 4.800000 7.000000 20.581369 -22.990911 952.174805
1.200000 4.800000 7.040000 30.398567 -2.338885 929.543274
1.200000 4.800000 7.080000 19.040012 20.294697 774.396790
1.200000 4.800000 7.120000 -6.498101 25.127632 673.623230
1.200000 4.800000 7.160000 -24.773275 7.668843 672.526306
1.200000 4.800000 7.200000 -20.397728 -15.857777 667.536377
1.200000 4.840000 6.800000 27.225960 -23.177975 1278.471436
1.200000 4.840000 6.840000 25.273594 -4.894034 662.706177
1.200000 4.840000 6.880000 12.873997 1.170520 167.109909
1.200000 4.840000 6.920000 6.289424 -6.003448 75.598236
1.200000 4.840000 6.960000 13.420364 -12.646274 340.034424
1.200000 4.840000 7.000000 25.160759 -5.735768 665.962830
1.200000 4.840000 7.040000 25.343649 12.027717 786.966492
1.200000 4.840000 7.080000 8.879975 24.221672 665.543335
1.200000 4.840000 7.120000 -11.575842 17.999531 457.983246
1.200000 4.840000 7.160000 -17.988571 -1.733469 326.593597
1.200000 4.840000 7.200000 -5.491978 -16.586714 305.280884
1.200000 4.880000 6.800000 43.839294 0.605560 1922.250488
1.200000 4.880000 6.840000 31.032497 20.198360 1370.989624
1.200000 4.880000 6.880000 11.756893 22.353060 637.883789
1.200000 4.880000 6.920000 2.609683 11.438451 137.648590
1.200000 4.880000 6.960000 7.687512 3.043636 68.361565
1.200000 4.880000 7.000000 15.780005 7.354867 303.102631
1.200000 4.880000 7.040000 13.419535 19.022612 541.943665
1.200000 4.880000 7.080000 -0.382110 23.858686 569.382935
1.200000 4.880000 7.120000 -13.335680 14.679028 393.314209
1.200000 4.880000 7.160000 -13.331657 -0.859628 178.472061
1.200000 4.880000 7.200000 -1.341669 -8.479081 73.694885
1.200000 4.920000 6.800000 36.076485 30.825218 2251.706787
1.200000 4.920000 6.840000 12.799063 42.880753 2002.574951
1.200000 4.920000 6.880000 -9.503885 34.920300 1309.751221
1.200000 4.920000 6.920000 -16.299034 16.771484 546.941162
1.200000 4.920000 6.960000 -7.934403 5.081617 88.777588
1.200000 4.920000 7.000000 2.190120 7.637164 63.122898
1.200000 4.920000 7.040000 1.701675 17.255901 300.661835
1.200000 4.920000 7.080000 -8.987340 20.646944 507.068573
1.200000 4.920000 7.120000 -18.594784 12.326241 497.702209
1.200000 4.920000 7.160000 -17.448900 -0.627282 304.857605
1.200000 4.920000 7.200000 -7.068707 -6.830244 96.618851
1.200000 4.960000 6.800000 7.660925 44.873238 2072.297119
1.200000 4.960000 6.840000 -18.331757 43.041496 2188.623779
1.200000 4.960000 6.880000 -34.777149 23.842672 1777.923096
1.200000 4.960000 6.920000 -32.057045 1.523472 1029.975098
1.200000 4.960000 6.960000 -16.359135 -8.083941 332.971375
1.200000 4.960000 7.000000 -3.672595 -1.491226 15.711708
1.200000 4.960000 7.040000 -4.900982 10.301572 130.142014
1.200000 4.960000 7.080000 -16.519968 13.126127 445.204529
1.200000 4.960000 7.120000 -25.278473 3.087045 648.531067
1.200000 4.960000 7.160000 -21.607059 -10.783013 583.138428
1.200000 4.960000 7.200000 -8.260241 -16.190468 330.362823
1.200000 5.000000 6.800000 -19.992123 32.817326 1476.661743
1.200000 5.000000 6.840000 -38.178745 18.830688 1812.211426
1.200000 5.000000 6.880000 -41.356472 -4.639191 1731.879883
1.200000 5.000000 6.920000 -27.200584 -21.987953 1223.341797
1.200000 5.000000 6.960000 -7.656832 -22.078651 546.093933
1.200000 5.000000 7.000000 1.313077 -8.651854 76.578743
1.200000 5.000000 7.040000 -5.694228 3.087664 41.957893
1.200000 5.000000 7.080000 -18.852819 0.871270 356.187927
1.200000 5.000000 7.120000 -22.973484 -13.250582 703.358887
1.200000 5.000000 7.160000 -12.163206 -25.467871 796.556030
1.200000 5.000000 7.200000 4.977682 -23.814789 591.921509
1.200000 5.040000 6.800000 -26.850904 7.168822 772.363098
1.200000 5.040000 6.840000 -31.716869 -9.901899 1104.007324
1.200000 5.040000 6.880000 -22.313745 -26.906858 1221.882202
1.200000 5.040000 6.920000 -3.595229 -31.456924 1002.463745
1.200000 5.040000 6.960000 10.320426 -20.797771 539.058472
1.200000 5.040000 7.000000 9.153372 -5.797681 117.397324
1.200000 5.040000 7.040000 -3.162878 -1.158801 11.346618
1.200000 5.040000 7.080000 -11.879481 -11.017830 262.514648
1.200000 5.040000 7.120000 -5.961811 -24.670753 644.189270
1.200000 5.040000 7.160000 10.862366 -27.088301 851.767029
1.200000 5.040000 7.200000 23.696321 -13.785527 751.556396
1.200000 5.080000 6.800000 -13.084456 -8.992140 252.061584
1.200000 5.080000 6.840000 -7.906414 -19.859110 456.895630
1.200000 5.080000 6.880000 5.438871 -24.239414 617.130493
1.200000 5.080000 6.920000 17.884760 -16.689579 598.406677
1.200000 5.080000 6.960000 19.122047 -3.000225 374.654053
1.200000 5.080000 7.000000 9.039600 4.089646 98.439583
1.200000 5.080000 7.040000 -0.712039 -2.127321 5.032493
1.200000 5.080000 7.080000 1.904984 -14.399933 210.987030
1.200000 5.080000 7.120000 16.352615 -18.091072 594.694946
1.200000 5.080000 7.160000 29.097376 -6.218552 885.327698
1.200000 5.080000 7.200000 26.935934 12.765886 888.512390
1.200000 5.120000 6.800000 1.792451 -4.810423 26.353050
1.200000 5.120000 6.840000 8.988363 -6.959594 129.226624
1.200000 5.120000 6.880000 16.932596 -1.482673 288.911102
1.200000 5.120000 6.920000 17.215233 9.326119 383.340729
1.200000 5.120000 6.960000 7.925745 15.493599 302.869049
1.200000 5.120000 7.000000 -1.848849 9.926737 101.958351
1.200000 5.120000 7.040000 -0.456022 -2.064340 4.469454
1.200000 5.120000 7.080000 12.992863 -6.451126 210.431519
1.200000 5.120000 7.120000 25.575890 4.942039 678.549866
1.200000 5.120000 7.160000 22.850439 24.338650 1114.512451
1.200000 5.120000 7.200000 4.302798 34.457901 1205.860962
1.200000 5.160000 6.800000 -0.391438 7.705204 59.523396
1.200000 5.160000 6.840000 3.852637 9.962278 114.089806
1.200000 5.160000 6.880000 3.696433 17.435081 317.645660
1.200000 5.160000 6.920000 -4.856321 22.345413 522.901367
1.200000 5.160000 6.960000 -15.128660 16.602844 504.530823
1.200000 5.160000 7.000000 -15.124762 3.195635 238.970490
1.200000 5.160000 7.040000 -1.611401 -3.972003 18.373423
1.200000 5.160000 7.080000 13.282207 5.782336 209.852417
1.200000 5.160000 7.120000 12.625296 26.462292 859.650940
1.200000 5.160000 7.160000 -7.045780 38.817951 1556.476440
1.200000 5.160000 7.200000 -29.828236 29.376059 1752.676514
1.200000 5.200000 6.800000 -16.869694 6.844767 331.437408
1.200000 5.200000 6.840000 -13.873762 8.914675 271.952698
1.200000 5.200000 6.880000 -17.855373 13.379877 497.835480
1.200000 5.200000 6.920000 -27.049965 10.310792 838.013062
1.200000 5.200000 6.960000 -29.865675 -2.491945 898.168335
1.200000 5.200000 7.000000 -18.430126 -13.546605 523.180054
1.200000 5.200000 7.040000 -0.714127 -8.731194 76.743721
1.200000 5.200000 7.080000 4.761802 11.420948 153.112808
1.200000 5.200000 7.120000 -11.453278 28.499823 943.417419
1.200000 5.200000 7.160000 -36.930737 23.611431 1921.378906
1.200000 5.200000 7.200000 -47.460354 -1.725545 2255.462646
