#kx 	ky 	kz 	real 	imag 	intensity
6.800000 4.800000 4.800000 -16.578688 -11.181423 399.877106
6.800000 4.800000 4.840000 -13.707931 -9.396832 276.207825
6.800000 4.800000 4.880000 -14.964269 -10.588201 336.039337
6.800000 4.800000 4.920000 -13.603765 -17.020044 474.744324
6.800000 4.800000 4.960000 -4.466416 -22.911310 544.877014
6.800000 4.800000 5.000000 9.317144 -20.241642 496.533234
6.800000 4.800000 5.040000 18.532242 -7.514658 399.914093
6.800000 4.800000 5.080000 16.776024 8.133842 347.594360
6.800000 4.800000 5.120000 6.327812 17.804918 357.056305
6.800000 4.800000 5.160000 -5.163055 18.905247 384.065491
6.800000 4.800000 5.200000 -12.929386 15.614671 410.986969
6.800000 4.840000 4.800000 -6.684528 -24.500725 644.968445
6.800000 4.840000 4.840000 -5.273606 -19.886398 423.279755
6.800000 4.840000 4.880000 -5.654562 -21.338406 487.301605
6.800000 4.840000 4.920000 -0.229066 -25.119509 631.042236
6.800000 4.840000 4.960000 9.958526 -22.819626 619.907593
6.800000 4.840000 5.000000 16.294529 -12.192139 414.159912
6.800000 4.840000 5.040000 12.892014 -0.458538 166.414261
6.800000 4.840000 5.080000 3.755280 3.863695 29.030266
6.800000 4.840000 5.120000 -1.958242 0.855312 4.566273
6.800000 4.840000 5.160000 -1.068733 -1.241747 2.684126
6.800000 4.840000 5.200000 -0.462248 3.216881 10.561995
6.800000 4.880000 4.800000 10.730200 -28.807243 944.994446
6.800000 4.880000 4.840000 10.004683 -23.132042 635.185059
6.800000 4.880000 4.880000 10.989166 -23.288973 663.138062
6.800000 4.880000 4.920000 16.815954 -21.569206 748.006958
6.800000 4.880000 4.960000 20.935635 -13.516209 620.988708
6.800000 4.880000 5.000000 17.017807 -4.741931 312.091644
6.800000 4.880000 5.040000 8.810513 -3.908407 92.900795
6.800000 4.880000 5.080000 6.890114 -10.501327 157.751526
6.800000 4.880000 5.120000 15.210719 -13.259247 407.173615
6.800000 4.880000 5.160000 23.798178 -2.895571 574.737610
6.800000 4.880000 5.200000 18.065334 14.847930 546.817322
6.800000 4.920000 4.800000 28.114090 -20.259342 1200.843018
6.800000 4.920000 4.840000 25.089359 -14.283834 833.503906
6.800000 4.920000 4.880000 25.283222 -12.070851 784.946777
6.800000 4.920000 4.920000 26.760653 -7.022559 765.448853
6.800000 4.920000 4.960000 23.396824 -0.861233 548.153076
6.800000 4.920000 5.000000 16.545027 -1.119374 274.990906
6.800000 4.920000 5.040000 16.063803 -8.716028 334.014893
6.800000 4.920000 5.080000 27.705254 -12.444710 922.451843
6.800000 4.920000 5.120000 42.034924 0.133453 1766.952637
6.800000 4.920000 5.160000 40.481907 26.139105 2322.037598
6.800000 4.920000 5.200000 14.948357 45.207359 2267.158691
6.800000 4.960000 4.800000 36.288342 -1.181050 1318.238647
6.800000 4.960000 4.840000 29.983965 4.006561 915.090698
6.800000 4.960000 4.880000 26.840588 6.326217 760.438110
6.800000 4.960000 4.920000 23.628326 8.960896 638.595459
6.800000 4.960000 4.960000 18.979349 8.222769 427.829620
6.800000 4.960000 5.000000 19.091431 2.163994 369.165588
6.800000 4.960000 5.040000 29.954466 -1.121423 898.527588
6.800000 4.960000 5.080000 45.188030 10.820659 2159.044678
6.800000 4.960000 5.120000 46.732758 38.864536 3694.402832
6.800000 4.960000 5.160000 21.965132 64.892059 4693.446289
6.800000 4.960000 5.200000 -19.686699 65.006454 4613.405273
6.800000 5.000000 4.800000 29.620415 19.700951 1265.496338
6.800000 5.000000 4.840000 19.730677 21.118015 835.270142
6.800000 5.000000 4.880000 14.294434 19.148975 571.014099
6.800000 5.000000 4.920000 11.767947 16.029667 395.434814
6.800000 5.000000 4.960000 13.441339 11.637411 316.098938
6.800000 5.000000 5.000000 22.293045 10.446806 606.115601
6.800000 5.000000 5.040000 34.368126 21.250040 1632.732300
6.800000 5.000000 5.080000 35.790215 46.282219 3422.983154
6.800000 5.000000 5.120000 13.771366 72.186707 5400.570801
6.800000 5.000000 5.160000 -27.456676 76.704636 6637.470215
6.800000 5.000000 5.200000 -64.263382 48.553009 6487.176758
6.800000 5.040000 4.800000 10.267431 31.537540 1100.036621
6.800000 5.040000 4.840000 -0.286458 25.697884 660.463257
6.800000 5.040000 4.880000 -2.678796 17.591915 316.651428
6.800000 5.040000 4.920000 1.631530 12.015875 147.043152
6.800000 5.040000 4.960000 10.514553 12.660848 270.852875
6.800000 5.040000 5.000000 19.131327 23.459866 916.372925
6.800000 5.040000 5.040000 17.916870 44.241081 2278.287598
6.800000 5.040000 5.080000 -1.994967 64.995255 4228.363281
6.800000 5.040000 5.120000 -38.133488 68.651520 6167.194336
6.800000 5.040000 5.160000 -72.711533 44.429646 7260.959961
6.800000 5.040000 5.200000 -83.399017 0.267577 6955.467773
6.800000 5.080000 4.800000 -12.300115 28.012194 935.975830
6.800000 5.080000 4.840000 -17.643532 14.608955 524.715820
6.800000 5.080000 4.880000 -11.582962 4.220006 151.973465
6.800000 5.080000 4.920000 0.128905 3.753443 14.104953
6.800000 5.080000 4.960000 8.815966 14.984212 302.247864
6.800000 5.080000 5.000000 5.837833 33.568565 1160.928955
6.800000 5.080000 5.040000 -13.229574 49.086342 2584.490723
6.800000 5.080000 5.080000 -43.718536 48.849747 4297.608398
6.800000 5.080000 5.120000 -71.203972 26.277828 5760.529785
6.800000 5.080000 5.160000 -79.017189 -11.826977 6383.593750
6.800000 5.080000 5.200000 -60.420994 -47.036655 5863.143555
6.800000 5.120000 4.800000 -27.093153 11.450695 865.157349
6.800000 5.120000 4.840000 -22.354319 -4.759540 522.368774
6.800000 5.120000 4.880000 -7.533558 -10.161922 160.019135
6.800000 5.120000 4.920000 5.399858 -0.485354 29.394041
6.800000 5.120000 4.960000 4.891992 18.094786 351.352844
6.800000 5.120000 5.000000 -12.533943 32.315666 1201.401978
6.800000 5.120000 5.040000 -39.208546 29.897472 2431.168945
6.800000 5.120000 5.080000 -60.161758 7.771934 3679.840088
6.800000 5.120000 5.120000 -62.294090 -24.964703 4503.790039
6.800000 5.120000 5.160000 -43.124512 -52.152538 4579.610840
6.800000 5.120000 5.200000 -12.745485 -60.966228 3879.328613
6.800000 5.160000 4.800000 -28.546114 -9.173126 899.026855
6.800000 5.160000 4.840000 -13.880299 -21.064293 636.367126
6.800000 5.160000 4.880000 4.196980 -16.532831 290.949158
6.800000 5.160000 4.920000 10.687268 1.372509 116.101486
6.800000 5.160000 4.960000 -1.537756 18.211226 334.013428
6.800000 5.160000 5.000000 -25.216789 18.857759 991.501587
6.800000 5.160000 5.040000 -43.525021 -0.575748 1894.758911
6.800000 5.160000 5.080000 -42.666794 -29.344349 2681.546143
6.800000 5.160000 5.120000 -22.180182 -50.125496 3004.525879
6.800000 5.160000 5.160000 5.332270 -51.917515 2723.861328
6.800000 5.160000 5.200000 24.376415 -37.290005 1984.754028
6.800000 5.200000 4.800000 -19.080509 -24.824860 980.339478
6.800000 5.200000 4.840000 0.513903 -27.886028 777.894653
6.800000 5.200000 4.880000 15.040529 -14.295113 430.567749
6.800000 5.200000 4.920000 12.137203 5.213647 174.493820
6.800000 5.200000 4.960000 -6.401923 13.453962 221.993729
6.800000 5.200000 5.000000 -24.878031 1.654720 621.654541
6.800000 5.200000 5.040000 -26.660519 -22.271070 1206.783813
6.800000 5.200000 5.080000 -8.496006 -40.063320 1677.251709
6.800000 5.200000 5.120000 16.850813 -38.584415 1772.707031
6.800000 5.200000 5.160000 31.843521 -20.445171 1432.014893
6.800000 5.200000 5.200000 28.839897 -0.603406 832.103760
6.840000 4.800000 4.800000 -13.564919 -3.156850 193.972717
6.840000 4.800000 4.840000 -16.523369 -6.061734 309.766357
6.840000 4.800000 4.880000 -16.488136 -14.513522 482.500977
6.840000 4.800000 4.920000 -8.039780 -23.361191 610.383301
6.840000 4.800000 4.960000 6.956823 -24.277475 637.793213
6.840000 4.800000 5.000000 19.815104 -13.918973 586.376160
6.840000 4.800000 5.040000 22.557873 2.437015 514.796692
6.840000 4.800000 5.080000 14.725733 15.620786 460.856140
6.840000 4.800000 5.120000 2.575191 20.531834 428.187805
6.840000 4.800000 5.160000 -7.852202 18.857307 417.255127
6.840000 4.800000 5.200000 -15.565881 14.398161 449.603699
6.840000 4.840000 4.800000 -3.654125 -14.388391 220.378433
6.840000 4.840000 4.840000 -1.899084 -15.113949 232.037964
6.840000 4.840000 4.880000 3.139112 -16.462450 280.866302
6.840000 4.840000 4.920000 10.504744 -13.310604 287.521820
6.840000 4.840000 4.960000 14.328719 -4.598373 226.457230
6.840000 4.840000 5.000000 10.748337 4.221006 133.343628
6.840000 4.840000 5.040000 3.122870 6.871567 56.970749
6.840000 4.840000 5.080000 -1.306128 3.668211 15.161737
6.840000 4.840000 5.120000 -0.000059 1.437696 2.066971
6.840000 4.840000 5.160000 1.266747 5.102011 27.635160
6.840000 4.840000 5.200000 -4.907467 10.425578 132.775909
6.840000 4.880000 4.800000 13.014317 -14.707927 385.695557
6.840000 4.880000 4.840000 16.405682 -8.594705 343.015350
6.840000 4.880000 4.880000 17.748178 0.069132 315.002625
6.840000 4.880000 4.920000 12.683521 9.739008 255.720001
6.840000 4.880000 4.960000 0.665427 13.223539 175.304794
6.840000 4.880000 5.000000 -10.239635 5.134045 131.208557
6.840000 4.880000 5.040000 -9.230906 -9.410814 173.773056
6.840000 4.880000 5.080000 5.102415 -16.507692 298.538544
6.840000 4.880000 5.120000 20.112812 -6.644543 448.675171
6.840000 4.880000 5.160000 19.497112 13.615044 565.506836
6.840000 4.880000 5.200000 0.114582 25.317577 640.992859
6.840000 4.920000 4.800000 25.507942 -1.198009 652.090332
6.840000 4.920000 4.840000 23.114857 11.784729 673.176453
6.840000 4.920000 4.880000 12.303207 23.479380 702.650146
6.840000 4.920000 4.920000 -6.590469 25.408781 689.040405
6.840000 4.920000 4.960000 -22.963160 10.826344 644.516418
6.840000 4.920000 5.000000 -21.667259 -13.955234 664.218689
6.840000 4.920000 5.040000 1.457520 -29.464401 870.275330
6.840000 4.920000 5.080000 30.611219 -19.003204 1298.168457
6.840000 4.920000 5.120000 40.492668 13.392702 1819.020630
6.840000 4.920000 5.160000 19.297033 42.618744 2188.732910
6.840000 4.920000 5.200000 -18.032558 43.459003 2213.858154
6.840000 4.960000 4.800000 23.584900 18.812553 910.159668
6.840000 4.960000 4.840000 10.167067 31.185158 1075.883301
6.840000 4.960000 4.880000 -11.446747 33.439018 1249.196045
6.840000 4.960000 4.920000 -31.773123 17.870636 1328.890869
6.840000 4.960000 4.960000 -34.120548 -11.603094 1298.843628
6.840000 4.960000 5.000000 -9.838772 -34.982407 1320.570190
6.840000 4.960000 5.040000 27.866980 -29.832771 1666.562744
6.840000 4.960000 5.080000 49.383076 6.598868 2482.233398
6.840000 4.960000 5.120000 33.240326 49.559582 3561.071289
6.840000 4.960000 5.160000 -12.370334 65.014877 4379.959473
6.840000 4.960000 5.200000 -53.721924 39.444077 4441.880371
6.840000 5.000000 4.800000 6.379059 31.851730 1055.225098
6.840000 5.000000 4.840000 -14.577413 33.588406 1340.682007
6.840000 5.000000 4.880000 -34.846539 19.885571 1609.717163
6.840000 5.000000 4.920000 -40.599480 -7.932981 1711.249878
6.840000 5.000000 4.960000 -21.164185 -34.220993 1618.999146
6.840000 5.000000 5.000000 16.196573 -36.304138 1580.319458
6.840000 5.000000 5.040000 44.785259 -4.814032 2028.894409
6.840000 5.000000 5.080000 37.883869 42.245125 3219.837891
6.840000 5.000000 5.120000 -6.058866 69.526947 4870.706543
6.840000 5.000000 5.160000 -57.777485 53.429501 6192.949219
6.840000 5.000000 5.200000 -79.855637 3.871747 6391.913086
6.840000 5.040000 4.800000 -15.918878 28.418991 1061.049683
6.840000 5.040000 4.840000 -33.234123 15.993618 1360.302734
6.840000 5.040000 4.880000 -39.127960 -7.165154 1582.336792
6.840000 5.040000 4.920000 -25.447069 -30.570339 1582.098999
6.840000 5.040000 4.960000 4.867439 -36.780708 1376.512573
6.840000 5.040000 5.000000 32.717209 -14.686468 1286.108154
6.840000 5.040000 5.040000 33.645626 26.120459 1814.306641
6.840000 5.040000 5.080000 -0.781178 56.874420 3235.310059
6.840000 5.040000 5.120000 -51.075256 50.965340 5206.147461
6.840000 5.040000 5.160000 -82.185822 7.726208 6814.203613
6.840000 5.040000 5.200000 -71.815437 -44.543457 7141.576660
6.840000 5.080000 4.800000 -29.587187 10.367235 982.881165
6.840000 5.080000 4.840000 -33.230824 -9.147270 1187.960205
6.840000 5.080000 4.880000 -22.352055 -27.259218 1242.679321
6.840000 5.080000 4.920000 0.003734 -32.848049 1078.994385
6.840000 5.080000 4.960000 21.408581 -18.426395 797.859375
6.840000 5.080000 5.000000 24.789913 11.024595 736.081482
6.840000 5.080000 5.040000 1.467925 36.313919 1320.855469
6.840000 5.080000 5.080000 -37.948486 35.827339 2723.686035
6.840000 5.080000 5.120000 -67.534409 3.666631 4574.340820
6.840000 5.080000 5.160000 -65.131607 -42.497425 6048.157715
6.840000 5.080000 5.200000 -30.850080 -73.532104 6358.697754
6.840000 5.120000 4.800000 -27.765543 -11.099239 894.118469
6.840000 5.120000 4.840000 -17.221737 -25.582943 951.075195
6.840000 5.120000 4.880000 0.560738 -28.590694 817.742249
6.840000 5.120000 4.920000 15.402552 -17.392815 539.748596
6.840000 5.120000 4.960000 16.897028 2.596380 292.250732
6.840000 5.120000 5.000000 0.923615 18.688267 350.104370
6.840000 5.120000 5.040000 -25.341181 17.530056 949.478271
6.840000 5.120000 5.080000 -45.433262 -5.021200 2089.393799
6.840000 5.120000 5.120000 -44.062550 -38.491776 3423.125000
6.840000 5.120000 5.160000 -19.008007 -63.383804 4378.811035
6.840000 5.120000 5.200000 15.975782 -65.063652 4488.504395
6.840000 5.160000 4.800000 -14.440397 -24.835064 825.305481
6.840000 5.160000 4.840000 1.672744 -27.125553 738.593750
6.840000 5.160000 4.880000 13.819666 -16.942413 478.028564
6.840000 5.160000 4.920000 13.717207 -1.365509 190.026382
6.840000 5.160000 4.960000 1.000853 8.488014 73.048096
6.840000 5.160000 5.000000 -16.212252 4.573679 283.755646
6.840000 5.160000 5.040000 -26.143778 -12.693239 844.615479
6.840000 5.160000 5.080000 -20.780931 -34.211143 1602.249512
6.840000 5.160000 5.120000 -1.277123 -47.702110 2277.122314
6.840000 5.160000 5.160000 22.618670 -45.617355 2592.547363
6.840000 5.160000 5.200000 39.064419 -29.982290 2424.966553
6.840000 5.200000 4.800000 0.878487 -27.755871 771.160095
6.840000 5.200000 4.840000 13.342220 -20.219461 586.841492
6.840000 5.200000 4.880000 15.318658 -6.368166 275.214813
6.840000 5.200000 4.920000 5.595451 2.804712 39.175484
6.840000 5.200000 4.960000 -7.561339 -0.482285 57.406452
6.840000 5.200000 5.000000 -12.799927 -14.379292 370.602142
6.840000 5.200000 5.040000 -4.588907 -28.788868 849.856934
6.840000 5.200000 5.080000 12.661900 -33.284782 1268.200439
6.840000 5.200000 5.120000 28.477444 -24.900246 1430.987061
6.840000 5.200000 5.160000 34.528713 -9.548211 1283.400391
6.840000 5.200000 5.200000 30.307306 3.466780 930.551392
6.880000 4.800000 4.800000 -19.440239 2.504699 384.196411
6.880000 4.800000 4.840000 -21.814537 -8.448494 547.251099
6.880000 4.800000 4.880000 -14.351001 -20.867882 641.419678
6.880000 4.800000 4.920000 1.820652 -25.608677 659.119080
6.880000 4.800000 4.960000 17.980097 -17.761015 638.737549
6.880000 4.800000 5.000000 24.730066 -1.406776 613.555176
6.880000 4.800000 5.040000 19.693115 13.910442 581.319214
6.880000 4.800000 5.080000 8.361778 21.375814 526.844788
6.880000 4.800000 5.120000 -2.262705 21.353882 461.108124
6.880000 4.800000 5.160000 -9.849618 17.991455 420.707428
6.880000 4.800000 5.200000 -16.088951 12.909647 425.513306
6.880000 4.840000 4.800000 -8.196103 -7.967499 130.657150
6.880000 4.840000 4.840000 -1.943932 -9.644110 96.787720
6.880000 4.840000 4.880000 4.841930 -5.440147 53.039494
6.880000 4.840000 4.920000 6.253662 3.082872 48.612392
6.880000 4.840000 4.960000 0.513781 9.307781 86.898758
6.880000 4.840000 5.000000 -7.072722 8.001148 114.041779
6.880000 4.840000 5.040000 -8.921743 1.434372 81.654930
6.880000 4.840000 5.080000 -3.465712 -2.159626 16.675140
6.880000 4.840000 5.120000 2.138050 2.640125 11.541519
6.880000 4.840000 5.160000 -0.915886 11.419407 131.241699
6.880000 4.840000 5.200000 -12.736778 13.110026 334.098328
6.880000 4.880000 4.800000 6.949316 -4.188290 65.834763
6.880000 4.880000 4.840000 9.721546 8.861903 173.041779
6.880000 4.880000 4.880000 -0.548603 23.069485 532.502075
6.880000 4.880000 4.920000 -21.795395 24.927305 1096.409790
6.880000 4.880000 4.960000 -39.187672 7.575211 1593.057373
6.880000 4.880000 5.000000 -36.624802 -19.351704 1715.864502
6.880000 4.880000 5.040000 -12.785645 -35.093010 1394.991943
6.880000 4.880000 5.080000 14.712231 -25.831985 883.741211
6.880000 4.880000 5.120000 23.469112 1.273846 552.421936
6.880000 4.880000 5.160000 6.791636 22.928215 571.829346
6.880000 4.880000 5.200000 -19.249109 20.486584 790.228271
6.880000 4.920000 4.800000 11.785663 11.509085 271.360870
6.880000 4.920000 4.840000 -1.830269 31.036652 966.623657
6.880000 4.920000 4.880000 -32.844448 35.506504 2339.469727
6.880000 4.920000 4.920000 -62.450829 11.182789 4025.160645
6.880000 4.920000 4.960000 -64.420853 -32.955700 5236.124512
6.880000 4.920000 5.000000 -29.690208 -66.647156 5323.351562
6.880000 4.920000 5.040000 20.664841 -62.378174 4318.072266
6.880000 4.920000 5.080000 49.871544 -21.202782 2936.728760
6.880000 4.920000 5.120000 36.777340 25.419062 1998.701416
6.880000 4.920000 5.160000 -4.995554 41.946960 1784.503052
6.880000 4.920000 5.200000 -39.123043 19.627609 1915.855591
6.880000 4.960000 4.800000 0.017319 25.170826 633.570801
6.880000 4.960000 4.840000 -30.434467 34.145493 2092.171387
6.880000 4.960000 4.880000 -66.436966 13.452045 4594.828125
6.880000 4.960000 4.920000 -77.983513 -35.843674 7366.197266
6.880000 4.960000 4.960000 -45.303017 -84.014008 9110.716797
6.880000 4.960000 5.000000 17.602295 -92.948494 8949.263672
6.880000 4.960000 5.040000 68.079643 -50.228325 7157.722656
6.880000 4.960000 5.080000 68.828896 15.620743 4981.424805
6.880000 4.960000 5.120000 20.920483 56.527603 3633.036377
6.880000 4.960000 5.160000 -36.188583 45.432076 3373.687012
6.880000 4.960000 5.200000 -59.074245 -1.498867 3492.012939
6.880000 5.000000 4.800000 -19.917938 23.256979 937.611328
6.880000 5.000000 4.840000 -52.524010 10.861651 2876.747070
6.880000 5.000000 4.880000 -70.589813 -30.601894 5919.397949
6.880000 5.000000 4.920000 -49.292122 -81.254814 9032.058594
6.880000 5.000000 4.960000 9.862546 -103.158875 10739.022461
6.880000 5.000000 5.000000 71.171844 -71.799538 10220.605469
6.880000 5.000000 5.040000 89.613480 -2.391709 8036.295898
6.880000 5.000000 5.080000 49.549980 57.240654 5731.692871
6.880000 5.000000 5.120000 -19.202244 65.017929 4596.057129
6.880000 5.000000 5.160000 -65.398689 20.149389 4682.986816
6.880000 5.000000 5.200000 -59.569153 -37.624378 4964.077637
6.880000 5.040000 4.800000 -31.813162 5.146644 1038.565186
6.880000 5.040000 4.840000 -48.730999 -22.752880 2892.403809
6.880000 5.040000 4.880000 -39.036949 -63.400192 5543.467773
6.880000 5.040000 4.920000 4.280663 -89.418228 8013.943848
6.880000 5.040000 4.960000 60.200287 -74.039688 9105.950195
6.880000 5.040000 5.000000 89.556122 -17.719383 8334.275391
6.880000 5.040000 5.040000 66.430504 44.849419 6424.481934
6.880000 5.040000 5.080000 3.505178 69.246330 4807.340332
6.880000 5.040000 5.120000 -54.763435 38.270439 4463.660156
6.880000 5.040000 5.160000 -68.040314 -22.772469 5148.069824
6.880000 5.040000 5.200000 -32.947948 -67.904724 5696.619141
6.880000 5.080000 4.800000 -26.106907 -16.292473 947.015259
6.880000 5.080000 4.840000 -21.809626 -42.034378 2242.548584
6.880000 5.080000 4.880000 4.115509 -61.925240 3851.672852
6.880000 5.080000 4.920000 42.985138 -57.247929 5125.047363
6.880000 5.080000 4.960000 70.363533 -21.666498 5420.463867
6.880000 5.080000 5.000000 62.571594 27.197140 4654.888672
6.880000 5.080000 5.040000 18.597221 56.203323 3504.670166
6.880000 5.080000 5.080000 -34.011517 42.339474 2949.414062
6.880000 5.080000 5.120000 -58.555889 -6.420151 3470.010498
6.880000 5.080000 5.160000 -38.804115 -55.722717 4610.780762
6.880000 5.080000 5.200000 8.058909 -72.631805 5340.325195
6.880000 5.120000 4.800000 -7.784045 -26.596355 767.957520
6.880000 5.120000 4.840000 7.171648 -36.384529 1375.266479
6.880000 5.120000 4.880000 28.144106 -33.662216 1925.235474
6.880000 5.120000 4.920000 44.097935 -14.964478 2168.563477
6.880000 5.120000 4.960000 42.376923 12.897728 1962.155029
6.880000 5.120000 5.000000 18.877060 33.158401 1455.822998
6.880000 5.120000 5.040000 -14.792480 29.561398 1092.693726
6.880000 5.120000 5.080000 -36.423756 0.405811 1326.854614
6.880000 5.120000 5.120000 -29.440498 -37.013245 2236.723145
6.880000 5.120000 5.160000 3.018357 -58.034302 3377.090820
6.880000 5.120000 5.200000 39.744995 -49.746971 4054.425781
6.880000 5.160000 4.800000 9.611910 -22.211739 585.750122
6.880000 5.160000 4.840000 19.822109 -16.969213 680.870239
6.880000 5.160000 4.880000 24.236099 -6.114491 624.775513
6.880000 5.160000 4.920000 20.444057 5.294626 445.992554
6.880000 5.160000 4.960000 9.434441 11.605211 223.689590
6.880000 5.160000 5.000000 -4.127996 8.328724 86.407997
6.880000 5.160000 5.040000 -12.602661 -5.097328 184.809830
6.880000 5.160000 5.080000 -8.960410 -23.007603 609.638733
6.880000 5.160000 5.120000 7.824656 -35.115757 1294.341553
6.880000 5.160000 5.160000 30.245007 -32.873055 1995.398193
6.880000 5.160000 5.200000 46.333008 -16.128670 2406.881592
6.880000 5.200000 4.800000 17.160524 -11.550467 427.896881
6.880000 5.200000 4.840000 16.585293 -2.699820 282.360962
6.880000 5.200000 4.880000 9.775991 2.004021 99.586105
6.880000 5.200000 4.920000 2.509445 -0.518686 6.566350
6.880000 5.200000 4.960000 0.221092 -7.713289 59.543705
6.880000 5.200000 5.000000 4.132862 -14.439404 225.576950
6.880000 5.200000 5.040000 11.710015 -17.157360 431.499451
6.880000 5.200000 5.080000 19.698400 -15.356949 623.862854
6.880000 5.200000 5.120000 26.199310 -10.106005 788.535217
6.880000 5.200000 5.160000 30.338154 -2.368708 926.014343
6.880000 5.200000 5.200000 31.191376 7.007814 1022.011353
6.920000 4.800000 4.800000 -28.029507 0.571590 785.979980
6.920000 4.800000 4.840000 -23.969330 -15.102213 802.605591
6.920000 4.800000 4.880000 -8.544460 -24.982277 697.121948
6.920000 4.800000 4.920000 10.539177 -21.652786 579.917358
6.920000 4.800000 4.960000 22.292057 -6.587299 540.328308
6.920000 4.800000 5.000000 21.197523 10.862030 567.318665
6.920000 4.800000 5.040000 11.008173 21.438377 580.783936
6.920000 4.800000 5.080000 -0.004017 23.094196 533.341919
6.920000 4.800000 5.120000 -7.045883 20.334837 463.150055
6.920000 4.800000 5.160000 -11.502564 17.337833 432.909454
6.920000 4.800000 5.200000 -16.018902 13.258913 432.403992
6.920000 4.840000 4.800000 -14.968999 -7.340362 277.951843
6.920000 4.840000 4.840000 -7.029297 -5.251026 76.984291
6.920000 4.840000 4.880000 -5.241886 2.537962 33.918621
6.920000 4.840000 4.920000 -11.665653 7.544769 193.011002
6.920000 4.840000 4.960000 -19.608089 3.502937 396.747742
6.920000 4.840000 5.000000 -19.791601 -6.685646 436.405365
6.920000 4.840000 5.040000 -9.978142 -12.893171 265.797180
6.920000 4.840000 5.080000 1.685349 -7.584621 60.366882
6.920000 4.840000 5.120000 3.834414 5.848143 48.903500
6.920000 4.840000 5.160000 -6.657976 15.166384 274.347839
6.920000 4.840000 5.200000 -20.379538 10.797734 531.916626
6.920000 4.880000 4.800000 -4.210485 -0.410269 17.896507
6.920000 4.880000 4.840000 -11.250416 16.375040 394.713806
6.920000 4.880000 4.880000 -35.723137 21.213480 1726.154175
6.920000 4.880000 4.920000 -59.693245 0.709793 3563.787354
6.920000 4.880000 4.960000 -59.593609 -36.311123 4869.895996
6.920000 4.880000 5.000000 -29.010197 -63.045353 4816.308105
6.920000 4.880000 5.040000 12.495392 -57.621319 3476.351074
6.920000 4.880000 5.080000 34.795570 -23.637236 1769.450684
6.920000 4.880000 5.120000 23.524418 11.944172 696.061523
6.920000 4.880000 5.160000 -7.408411 22.516609 561.882263
6.920000 4.880000 5.200000 -29.201427 5.056218 878.288757
6.920000 4.920000 4.800000 -7.582186 11.296239 185.094543
6.920000 4.920000 4.840000 -38.077095 23.340506 1994.644287
6.920000 4.920000 4.880000 -76.902138 0.938976 5914.820801
6.920000 4.920000 4.920000 -87.709251 -53.851185 10592.863281
6.920000 4.920000 4.960000 -49.465004 -105.636406 13605.835938
6.920000 4.920000 5.000000 19.379265 -113.339645 13221.430664
6.920000 4.920000 5.040000 72.188919 -67.499168 9767.377930
6.920000 4.920000 5.080000 73.234161 -1.097332 5364.446289
6.920000 4.920000 5.120000 28.504669 38.092304 2263.539795
6.920000 4.920000 5.160000 -21.063290 28.458824 1253.566895
6.920000 4.920000 5.200000 -37.168880 -9.541973 1472.574829
6.920000 4.960000 4.800000 -21.984127 12.085823 629.368958
6.920000 4.960000 4.840000 -63.566589 0.181814 4040.744141
6.920000 4.960000 4.880000 -87.629204 -53.340546 10524.091797
6.920000 4.960000 4.920000 -58.617004 -119.918030 17816.287109
6.920000 4.960000 4.960000 19.749411 -147.876358 22257.457031
6.920000 4.960000 5.000000 99.113800 -107.563675 21393.488281
6.920000 4.960000 5.040000 124.084747 -21.753593 15870.243164
6.920000 4.960000 5.080000 80.021072 50.285973 8932.050781
6.920000 4.960000 5.120000 5.743379 62.569744 3947.959229
6.920000 4.960000 5.160000 -41.489624 19.927523 2118.495117
6.920000 4.960000 5.200000 -35.336758 -31.288441 2227.652832
6.920000 5.000000 4.800000 -31.675159 -3.198805 1013.548096
6.920000 5.000000 4.840000 -60.541092 -39.722996 5243.140137
6.920000 5.000000 4.880000 -49.139584 -101.626923 12742.730469
6.920000 5.000000 4.920000 16.438452 -143.472595 20854.607422
6.920000 5.000000 4.960000 102.988846 -122.313042 25567.183594
6.920000 5.000000 5.000000 150.833771 -39.822868 24336.687500
6.920000 5.000000 5.040000 123.763214 52.156029 18037.583984
6.920000 5.000000 5.080000 42.249813 92.332581 10310.352539
6.920000 5.000000 5.120000 -33.010384 61.120071 4825.348633
6.920000 5.000000 5.160000 -52.943150 -5.393585 2832.067871
6.920000 5.000000 5.200000 -18.952324 -50.856365 2945.560547
6.920000 5.040000 4.800000 -23.888073 -23.148087 1106.473877
6.920000 5.040000 4.840000 -25.846170 -65.049393 4899.447754
6.920000 5.040000 4.880000 14.377276 -105.151894 11263.626953
6.920000 5.040000 4.920000 84.807564 -103.475357 17899.472656
6.920000 5.040000 4.960000 140.013474 -44.118484 21550.214844
6.920000 5.040000 5.000000 135.765228 43.030098 20283.787109
6.920000 5.040000 5.040000 69.104675 101.058975 14988.372070
6.920000 5.040000 5.080000 -15.063406 92.216766 8730.837891
6.920000 5.040000 5.120000 -59.957809 29.696503 4476.821289
6.920000 5.040000 5.160000 -43.438828 -35.078186 3117.410889
6.920000 5.040000 5.200000 7.646107 -57.590149 3375.088135
6.920000 5.080000 4.800000 -1.909732 -30.591728 939.500916
6.920000 5.080000 4.840000 15.595901 -56.086819 3388.963379
6.920000 5.080000 4.880000 57.311092 -62.853722 7235.151367
6.920000 5.080000 4.920000 100.221909 -31.759495 11053.095703
6.920000 5.080000 4.960000 110.116089 29.125372 12973.839844
6.920000 5.080000 5.000000 70.728638 83.661987 12001.868164
6.920000 5.080000 5.040000 2.250381 93.881432 8818.788086
6.920000 5.080000 5.080000 -51.010902 52.140911 5320.786621
6.920000 5.080000 5.120000 -55.666321 -10.871680 3216.932617
6.920000 5.080000 5.160000 -15.812229 -51.207733 2872.258545
6.920000 5.080000 5.200000 33.138725 -47.286095 3334.149902
6.920000 5.120000 4.800000 17.968815 -19.377710 698.373962
6.920000 5.120000 4.840000 34.479752 -22.930742 1714.672241
6.920000 5.120000 4.880000 54.828156 -10.922466 3125.427002
6.920000 5.120000 4.920000 63.763786 18.138792 4394.836426
6.920000 5.120000 4.960000 47.965359 50.892159 4890.687500
6.920000 5.120000 5.000000 9.704659 65.249664 4351.698730
6.920000 5.120000 5.040000 -30.043631 47.456387 3154.728516
6.920000 5.120000 5.080000 -45.346390 5.787041 2089.784912
6.920000 5.120000 5.120000 -25.924454 -33.251381 1777.731689
6.920000 5.120000 5.160000 13.866672 -44.928741 2210.876465
6.920000 5.120000 5.200000 46.636974 -25.302116 2815.204346
6.920000 5.160000 4.800000 22.446846 0.156146 503.885284
6.920000 5.160000 4.840000 24.233068 5.968740 622.867432
6.920000 5.160000 4.880000 23.023441 13.237740 705.316589
6.920000 5.160000 4.920000 17.478712 20.703081 734.122925
6.920000 5.160000 4.960000 6.406418 25.004162 666.250305
6.920000 5.160000 5.000000 -7.788307 20.920948 498.343811
6.920000 5.160000 5.040000 -17.392523 6.078518 339.448242
6.920000 5.160000 5.080000 -13.700559 -13.995344 383.574951
6.920000 5.160000 5.120000 4.935787 -27.149040 761.432373
6.920000 5.160000 5.160000 29.258425 -23.211699 1394.838379
6.920000 5.160000 5.200000 44.662834 -2.786701 2002.534546
6.920000 5.200000 4.800000 13.581024 12.336267 336.627686
6.920000 5.200000 4.840000 4.195524 12.248568 167.629822
6.920000 5.200000 4.880000 -1.798559 4.970702 27.942696
6.920000 5.200000 4.920000 -0.027569 -3.516382 12.365704
6.920000 5.200000 4.960000 6.529266 -6.738005 88.032028
6.920000 5.200000 5.000000 11.301340 -4.407440 147.145813
6.920000 5.200000 5.040000 11.678997 -1.897137 139.998093
6.920000 5.200000 5.080000 11.698496 -3.208591 147.149872
6.920000 5.200000 5.120000 16.746002 -5.567574 311.426453
6.920000 5.200000 5.160000 26.220243 -1.958080 691.335266
6.920000 5.200000 5.200000 32.517715 10.900693 1176.226929
6.960000 4.800000 4.800000 -32.837982 -6.910210 1126.084106
6.960000 4.800000 4.840000 -22.021708 -21.547287 949.241211
6.960000 4.800000 4.880000 -2.993202 -25.471931 657.778564
6.960000 4.800000 4.920000 13.964811 -15.520500 435.901886
6.960000 4.800000 4.960000 19.614128 2.272415 389.877899
6.960000 4.800000 5.000000 12.954979 17.264858 465.906799
6.960000 4.800000 5.040000 1.191040 22.873045 524.594788
6.960000 4.800000 5.080000 -7.543495 20.963570 496.375580
6.960000 4.800000 5.120000 -11.260443 17.848150 445.354034
6.960000 4.800000 5.160000 -13.742078 16.684803 467.227356
6.960000 4.800000 5.200000 -17.901819 14.880969 541.918335
6.960000 4.840000 4.800000 -20.968388 -11.100138 562.886353
6.960000 4.840000 4.840000 -16.658487 -6.963707 325.998413
6.960000 4.840000 4.880000 -20.374304 -3.536098 427.616241
6.960000 4.840000 4.920000 -26.379700 -8.240860 763.800293
6.960000 4.840000 4.960000 -24.991623 -19.348244 998.935791
6.960000 4.840000 5.000000 -12.701324 -26.822464 880.768188
6.960000 4.840000 5.040000 3.189774 -21.716118 481.764435
6.960000 4.840000 5.080000 10.353926 -5.321407 135.521149
6.960000 4.840000 5.120000 2.633242 10.863579 124.951302
6.960000 4.840000 5.160000 -13.800715 14.914935 412.915039
6.960000 4.840000 5.200000 -25.486307 5.217762 676.776917
6.960000 4.880000 4.800000 -16.428652 -5.839010 303.994629
6.960000 4.880000 4.840000 -34.349030 2.695305 1187.120483
6.960000 4.880000 4.880000 -59.097099 -13.188343 3666.399414
6.960000 4.880000 4.920000 -63.366188 -51.561020 6673.812500
6.960000 4.880000 4.960000 -32.868450 -85.726318 8429.335938
6.960000 4.880000 5.000000 17.066448 -86.803764 7826.157227
6.960000 4.880000 5.040000 52.436451 -50.634113 5313.394531
6.960000 4.880000 5.080000 49.829918 -2.889389 2491.369385
6.960000 4.880000 5.120000 16.518970 23.098740 806.428101
6.960000 4.880000 5.160000 -17.449100 14.887459 526.107544
6.960000 4.880000 5.200000 -26.932499 -10.731503 840.524658
6.960000 4.920000 4.800000 -22.285301 -4.320154 515.298401
6.960000 4.920000 4.840000 -58.299019 -14.291916 3603.034424
6.960000 4.920000 4.880000 -77.818268 -63.612362 10102.214844
6.960000 4.920000 4.920000 -47.259331 -123.389809 17458.488281
6.960000 4.920000 4.960000 27.136990 -144.793793 21701.658203
6.960000 4.920000 5.000000 98.375336 -103.377075 20364.527344
6.960000 4.920000 5.040000 117.430893 -24.118275 14371.706055
6.960000 4.920000 5.080000 75.914619 38.483067 7243.975586
6.960000 4.920000 5.120000 12.058201 47.201401 2373.372314
6.960000 4.920000 5.160000 -25.086079 11.593110 763.711548
6.960000 4.920000 5.200000 -18.122114 -26.328323 1021.591614
6.960000 4.960000 4.800000 -27.463799 -14.973145 978.455322
6.960000 4.960000 4.840000 -58.705112 -53.117229 6267.730469
6.960000 4.960000 4.880000 -44.465752 -120.526215 16503.771484
6.960000 4.960000 4.920000 30.026436 -164.027725 27806.679688
6.960000 4.960000 4.960000 124.879837 -136.798065 34308.683594
6.960000 4.960000 5.000000 174.168671 -44.835327 32344.933594
6.960000 4.960000 5.040000 142.881943 52.805031 23203.621094
6.960000 4.960000 5.080000 58.194237 93.138016 12061.259766
6.960000 4.960000 5.120000 -15.317167 62.035496 4083.018555
6.960000 4.960000 5.160000 -32.487793 1.288363 1057.116577
6.960000 4.960000 5.200000 -2.160245 -34.292145 1180.617798
6.960000 5.000000 4.800000 -18.715912 -30.836483 1301.174072
6.960000 5.000000 4.840000 -23.677099 -83.134064 7471.877441
6.960000 5.000000 4.880000 28.076792 -134.866119 18977.177734
6.960000 5.000000 4.920000 119.564117 -131.270966 31527.644531
6.960000 5.000000 4.960000 189.524445 -53.279175 38758.187500
6.960000 5.000000 5.000000 182.731293 57.368134 36681.828125
6.960000 5.000000 5.040000 100.294449 128.738556 26632.591797
6.960000 5.000000 5.080000 0.855463 119.114693 14189.041016
6.960000 5.000000 5.120000 -49.817261 50.585793 5040.681641
6.960000 5.000000 5.160000 -33.210827 -15.038137 1329.104614
6.960000 5.000000 5.200000 13.910416 -32.871552 1274.038574
6.960000 5.040000 4.800000 3.877699 -35.510136 1276.006226
6.960000 5.040000 4.840000 25.793650 -76.368774 6497.502441
6.960000 5.040000 4.880000 89.518051 -89.712753 16061.859375
6.960000 5.040000 4.920000 156.861923 -42.728058 26431.349609
6.960000 5.040000 4.960000 172.876053 50.570953 32443.550781
6.960000 5.040000 5.000000 114.749214 133.020844 30861.925781
6.960000 5.040000 5.040000 16.178162 149.852936 22717.634766
6.960000 5.040000 5.080000 -58.422874 95.217316 12479.569336
6.960000 5.040000 5.120000 -67.371414 15.867855 4790.696289
6.960000 5.040000 5.160000 -23.201340 -31.122484 1506.911133
6.960000 5.040000 5.200000 25.476395 -25.702728 1309.677002
6.960000 5.080000 4.800000 24.841927 -20.218590 1025.912720
6.960000 5.080000 4.840000 53.732506 -35.356499 4137.264160
6.960000 5.080000 4.880000 97.434189 -17.713972 9807.206055
6.960000 5.080000 4.920000 120.223747 38.644402 15947.138672
6.960000 5.080000 4.960000 92.850403 104.596687 19561.664062
6.960000 5.080000 5.000000 21.751846 135.237152 18762.230469
6.960000 5.080000 5.040000 -51.168282 107.179474 14105.632812
6.960000 5.080000 5.080000 -81.014160 39.723270 8141.232422
6.960000 5.080000 5.120000 -56.045219 -20.708485 3569.907959
6.960000 5.080000 5.160000 -4.532102 -38.922150 1535.473633
6.960000 5.080000 5.200000 32.644295 -16.736282 1345.753174
6.960000 5.120000 4.800000 27.792294 5.936569 807.654419
6.960000 5.120000 4.840000 42.677193 8.552704 1894.491455
6.960000 5.120000 4.880000 55.274422 29.253559 3911.032471
6.960000 5.120000 4.920000 47.961311 61.840813 6124.573242
6.960000 5.120000 4.960000 14.091682 85.332687 7480.243164
6.960000 5.120000 5.000000 -32.145035 79.102051 7290.437500
6.960000 5.120000 5.040000 -63.406033 41.182472 5716.320801
6.960000 5.120000 5.080000 -59.934242 -7.330475 3645.849121
6.960000 5.120000 5.120000 -25.666494 -37.413391 2058.530762
6.960000 5.120000 5.160000 15.019848 -34.210938 1395.984009
6.960000 5.120000 5.200000 37.006824 -6.788360 1415.586792
6.960000 5.160000 4.800000 11.770610 23.930622 711.221924
6.960000 5.160000 4.840000 8.862073 24.979074 702.490479
6.960000 5.160000 4.880000 5.470356 27.374454 779.285583
6.960000 5.160000 4.920000 -1.228550 30.563862 935.658997
6.960000 5.160000 4.960000 -12.957161 30.237957 1082.222046
6.960000 5.160000 5.000000 -26.063190 20.712849 1108.312012
6.960000 5.160000 5.040000 -31.529602 1.252785 995.685242
6.960000 5.160000 5.080000 -21.607899 -19.918489 863.647461
6.960000 5.160000 5.120000 2.030825 -29.625332 881.784546
6.960000 5.160000 5.160000 26.921400 -19.856537 1119.043823
6.960000 5.160000 5.200000 38.002052 4.785708 1467.058960
6.960000 5.200000 4.800000 -7.799056 23.197783 598.962341
6.960000 5.200000 4.840000 -15.751378 11.945787 390.807739
6.960000 5.200000 4.880000 -13.441666 -2.040970 184.843933
6.960000 5.200000 4.920000 -2.559673 -9.046585 88.392624
6.960000 5.200000 4.960000 7.254967 -5.527763 83.190704
6.960000 5.200000 5.000000 8.224134 1.687363 70.483582
6.960000 5.200000 5.040000 3.028961 2.572689 15.793335
6.960000 5.200000 5.080000 2.230959 -4.691734 26.989548
6.960000 5.200000 5.120000 12.446850 -10.607796 267.449402
6.960000 5.200000 5.160000 27.675325 -3.766922 780.113342
6.960000 5.200000 5.200000 33.550167 16.475685 1397.062012
7.000000 4.800000 4.800000 -32.706284 -14.690565 1285.513672
7.000000 4.800000 4.840000 -18.781208 -25.889105 1022.979492
7.000000 4.800000 4.880000 0.119659 -25.355217 642.901367
7.000000 4.800000 4.920000 14.009888 -12.328228 348.262146
7.000000 4.800000 4.960000 15.505260 5.631077 272.122131
7.000000 4.800000 5.000000 5.961205 18.129168 364.202667
7.000000 4.800000 5.040000 -6.045403 20.468033 455.487244
7.000000 4.800000 5.080000 -12.905223 16.708767 445.727661
7.000000 4.800000 5.120000 -14.549779 14.113579 410.889160
7.000000 4.800000 5.160000 -16.594030 15.029889 501.259399
7.000000 4.800000 5.200000 -22.493420 15.165642 735.950623
7.000000 4.840000 4.800000 -25.318010 -18.542715 984.833923
7.000000 4.840000 4.840000 -24.397066 -18.815392 949.235840
7.000000 4.840000 4.880000 -25.305862 -23.967308 1214.818604
7.000000 4.840000 4.920000 -20.350166 -33.221466 1517.795044
7.000000 4.840000 4.960000 -6.503021 -38.494164 1524.089966
7.000000 4.840000 5.000000 10.232986 -32.087059 1134.293335
7.000000 4.840000 5.040000 19.089798 -14.509472 574.945190
7.000000 4.840000 5.080000 13.540019 4.824848 206.611282
7.000000 4.840000 5.120000 -3.050648 14.699484 225.381287
7.000000 4.840000 5.160000 -20.003078 10.754854 515.790039
7.000000 4.840000 5.200000 -27.732040 -1.615030 771.674377
7.000000 4.880000 4.800000 -23.106636 -20.969112 973.620300
7.000000 4.880000 4.840000 -40.041328 -28.694551 2426.685303
7.000000 4.880000 4.880000 -45.702606 -58.639229 5527.287109
7.000000 4.880000 4.920000 -20.832047 -91.339043 8776.794922
7.000000 4.880000 4.960000 27.629158 -97.221710 10215.430664
7.000000 4.880000 5.000000 69.080223 -64.553986 8939.294922
7.000000 4.880000 5.040000 75.076935 -12.216522 5785.789062
7.000000 4.880000 5.080000 44.142342 25.593842 2603.591064
7.000000 4.880000 5.120000 2.136768 28.311857 806.127075
7.000000 4.880000 5.160000 -21.412294 4.437540 478.178131
7.000000 4.880000 5.200000 -17.871201 -19.748838 709.396484
7.000000 4.920000 4.800000 -20.942102 -29.014236 1280.397583
7.000000 4.920000 4.840000 -41.336632 -59.074554 5198.520020
7.000000 4.920000 4.880000 -24.590618 -110.432785 12800.098633
7.000000 4.920000 4.920000 38.657974 -139.105530 20844.787109
7.000000 4.920000 4.960000 113.273148 -109.817551 24890.699219
7.000000 4.920000 5.000000 146.785217 -32.032921 22572.007812
7.000000 4.920000 5.040000 115.688255 44.538818 15367.478516
7.000000 4.920000 5.080000 46.344231 72.140312 7352.012207
7.000000 4.920000 5.120000 -9.526171 44.798023 2097.610840
7.000000 4.920000 5.160000 -20.362196 -1.455529 416.737579
7.000000 4.920000 5.200000 2.306753 -25.539429 657.583496
7.000000 4.960000 4.800000 -9.376059 -39.393608 1639.766846
7.000000 4.960000 4.840000 -11.531754 -87.308640 7755.779785
7.000000 4.960000 4.880000 40.773132 -133.005463 19352.902344
7.000000 4.960000 4.920000 128.399078 -123.565521 31754.761719
7.000000 4.960000 4.960000 190.803162 -44.254307 38364.292969
7.000000 4.960000 5.000000 178.038940 60.894279 35405.976562
7.000000 4.960000 5.040000 96.972420 123.759911 24720.166016
7.000000 4.960000 5.080000 6.193727 110.472328 12242.498047
7.000000 4.960000 5.120000 -35.793571 47.789879 3565.052246
7.000000 4.960000 5.160000 -18.922634 -6.234169 396.930939
7.000000 4.960000 5.200000 18.396118 -16.221848 601.565552
7.000000 5.000000 4.800000 12.495785 -39.775307 1738.219727
7.000000 5.000000 4.840000 37.155407 -84.126396 8457.774414
7.000000 5.000000 4.880000 109.243454 -96.375092 21222.289062
7.000000 5.000000 4.920000 182.865311 -39.936996 35034.687500
7.000000 5.000000 4.960000 196.010498 65.571701 42719.765625
7.000000 5.000000 5.000000 127.655312 153.882538 39975.714844
7.000000 5.000000 5.040000 20.371382 167.600494 28504.919922
7.000000 5.000000 5.080000 -55.251175 107.469589 14602.405273
7.000000 5.000000 5.120000 -60.829514 28.427057 4508.327148
7.000000 5.000000 5.160000 -17.774208 -12.168158 463.986542
7.000000 5.000000 5.200000 21.164429 -2.610685 454.748718
7.000000 5.040000 4.800000 32.141777 -21.890785 1512.300293
7.000000 5.040000 4.840000 70.671684 -43.476181 6884.665039
7.000000 5.040000 4.880000 130.194763 -18.977530 17310.822266
7.000000 5.040000 4.920000 159.322144 58.259945 28777.765625
7.000000 5.040000 4.960000 119.886826 145.190872 35453.238281
7.000000 5.040000 5.000000 25.715351 181.767609 33700.742188
7.000000 5.040000 5.040000 -64.844215 142.985718 24649.687500
7.000000 5.040000 5.080000 -97.637375 60.675243 13214.541992
7.000000 5.040000 5.120000 -66.860962 -5.759153 4503.556152
7.000000 5.040000 5.160000 -13.781229 -20.756208 620.742432
7.000000 5.040000 5.200000 15.514103 2.845184 248.782471
7.000000 5.080000 4.800000 33.730564 7.190528 1189.454712
7.000000 5.080000 4.840000 63.829414 8.492054 4146.309082
7.000000 5.080000 4.880000 89.886879 46.076557 10202.700195
7.000000 5.080000 4.920000 77.347061 105.188210 17047.126953
7.000000 5.080000 4.960000 17.875351 144.794708 21285.035156
7.000000 5.080000 5.000000 -58.036228 131.666550 20704.283203
7.000000 5.080000 5.040000 -103.863708 70.460289 15752.322266
7.000000 5.080000 5.080000 -95.310913 0.884106 9084.951172
7.000000 5.080000 5.120000 -48.627975 -35.693848 3638.730713
7.000000 5.080000 5.160000 -3.065878 -28.694937 832.799011
7.000000 5.080000 5.200000 13.925703 -0.739192 194.471603
7.000000 5.120000 4.800000 13.988410 28.776794 1023.779480
7.000000 5.120000 4.840000 24.153742 35.940670 1875.135010
7.000000 5.120000 4.880000 23.504581 58.216248 3941.596924
7.000000 5.120000 4.920000 -0.171078 80.198700 6431.860840
7.000000 5.120000 4.960000 -40.729401 80.622444 8158.862305
7.000000 5.120000 5.000000 -75.528069 50.754524 8280.510742
7.000000 5.120000 5.040000 -82.422615 3.632992 6806.686035
7.000000 5.120000 5.080000 -57.426861 -34.874008 4514.040527
7.000000 5.120000 5.120000 -17.515003 -45.607994 2386.864502
7.000000 5.120000 5.160000 13.365279 -29.278603 1035.867310
7.000000 5.120000 5.200000 21.996540 -2.739098 491.350433
7.000000 5.160000 4.800000 -12.922607 29.108589 1014.303711
7.000000 5.160000 4.840000 -15.426388 25.541073 890.319824
7.000000 5.160000 4.880000 -18.722984 23.526886 904.064453
7.000000 5.160000 4.920000 -24.664310 20.825550 1042.031738
7.000000 5.160000 4.960000 -32.467430 13.655537 1240.607666
7.000000 5.160000 5.000000 -37.467697 -0.464767 1404.044434
7.000000 5.160000 5.040000 -33.092598 -18.993752 1455.882568
7.000000 5.160000 5.080000 -16.206860 -33.552586 1388.438232
7.000000 5.160000 5.120000 8.223569 -34.541683 1260.755005
7.000000 5.160000 5.160000 28.192478 -18.781603 1147.564453
7.000000 5.160000 5.200000 32.239479 6.298450 1079.054443
7.000000 5.200000 4.800000 -27.764008 12.344110 923.217163
7.000000 5.200000 4.840000 -27.691257 -3.617082 779.888977
7.000000 5.200000 4.880000 -16.650272 -16.654322 554.598022
7.000000 5.200000 4.920000 -0.700254 -18.266376 334.150879
7.000000 5.200000 4.960000 8.748740 -9.351334 163.987900
7.000000 5.200000 5.000000 6.621351 -0.777790 44.447250
7.000000 5.200000 5.040000 0.444332 -2.378544 5.854902
7.000000 5.200000 5.080000 2.963940 -11.572306 142.703201
7.000000 5.200000 5.120000 17.742607 -14.698176 530.836487
7.000000 5.200000 5.160000 33.164467 -1.172743 1101.257202
7.000000 5.200000 5.200000 32.515343 23.698383 1618.860840
7.040000 4.800000 4.800000 -30.766726 -20.404984 1362.954834
7.040000 4.800000 4.840000 -15.963856 -29.885687 1147.999023
7.040000 4.800000 4.880000 3.116738 -27.270710 753.405701
7.040000 4.800000 4.920000 15.754871 -12.034229 393.038635
7.040000 4.800000 4.960000 14.440456 6.876021 255.806458
7.040000 4.800000 5.000000 2.052643 17.984640 327.660614
7.040000 4.800000 5.040000 -10.838078 17.466415 422.539581
7.040000 4.800000 5.080000 -16.359829 11.730736 405.254181
7.040000 4.800000 5.120000 -16.483692 9.475433 361.495941
7.040000 4.800000 5.160000 -19.171394 11.897518 509.093292
7.040000 4.800000 5.200000 -28.065266 11.912641 929.570129
7.040000 4.840000 4.800000 -25.931749 -29.867014 1564.494141
7.040000 4.840000 4.840000 -21.007776 -37.208057 1825.766235
7.040000 4.840000 4.880000 -10.306986 -44.524986 2088.708252
7.040000 4.840000 4.920000 6.337078 -45.138672 2077.658203
7.040000 4.840000 4.960000 22.257774 -34.461609 1683.010986
7.040000 4.840000 5.000000 28.803207 -15.199600 1060.652588
7.040000 4.840000 5.040000 22.189842 3.984596 508.266113
7.040000 4.840000 5.080000 6.098522 14.613121 250.735275
7.040000 4.840000 5.120000 -11.491995 13.601150 317.057220
7.040000 4.840000 5.160000 -23.653509 3.855019 574.349609
7.040000 4.840000 5.200000 -27.716675 -8.918924 847.761230
7.040000 4.880000 4.800000 -16.986732 -40.431572 1923.261108
7.040000 4.880000 4.840000 -18.161760 -57.674877 3656.240967
7.040000 4.880000 4.880000 0.758892 -80.024414 6404.482422
7.040000 4.880000 4.920000 39.670616 -84.659309 8740.957031
7.040000 4.880000 4.960000 76.825127 -57.713120 9232.904297
7.040000 4.880000 5.000000 86.261932 -9.813354 7537.422852
7.040000 4.880000 5.040000 60.755318 30.769005 4637.940430
7.040000 4.880000 5.080000 18.330280 41.308556 2042.395874
7.040000 4.880000 5.120000 -13.478241 22.384781 682.741394
7.040000 4.880000 5.160000 -20.198120 -5.646848 439.850952
7.040000 4.880000 5.200000 -8.998158 -22.343937 580.218384
7.040000 4.920000 4.800000 0.328423 -47.858841 2290.576660
7.040000 4.920000 4.840000 6.698290 -77.744133 6089.017578
7.040000 4.920000 4.880000 48.427753 -101.303268 12607.599609
7.040000 4.920000 4.920000 108.542511 -84.332024 18893.367188
7.040000 4.920000 4.960000 144.649414 -21.877571 21402.082031
7.040000 4.920000 5.000000 126.317108 51.649342 18623.666016
7.040000 4.920000 5.040000 63.971756 90.004677 12193.227539
7.040000 4.920000 5.080000 0.633808 74.606369 5566.512207
7.040000 4.920000 5.120000 -25.618629 28.243816 1454.027344
7.040000 4.920000 5.160000 -12.085266 -8.829640 224.016205
7.040000 4.920000 5.200000 12.935864 -15.456661 406.244965
7.040000 4.960000 4.800000 23.764429 -43.151062 2426.762207
7.040000 4.960000 4.840000 47.929943 -74.326591 7821.721680
7.040000 4.960000 4.880000 108.040451 -76.704788 17556.363281
7.040000 4.960000 4.920000 164.191727 -22.961674 27486.162109
7.040000 4.960000 4.960000 166.685150 66.359604 32187.537109
7.040000 4.960000 5.000000 103.308502 134.980392 28892.353516
7.040000 4.960000 5.040000 13.849674 139.110016 19543.410156
7.040000 4.960000 5.080000 -43.800255 85.456345 9221.249023
7.040000 4.960000 5.120000 -43.339973 22.371376 2378.831787
7.040000 4.960000 5.160000 -7.807226 -5.800781 94.601845
7.040000 4.960000 5.200000 19.101971 4.471100 384.876038
7.040000 5.000000 4.800000 41.735016 -21.622862 2209.359619
7.040000 5.000000 4.840000 79.388420 -38.237808 7764.651367
7.040000 5.000000 4.880000 134.915741 -9.565976 18293.765625
7.040000 5.000000 4.920000 157.529129 68.129105 29457.000000
7.040000 5.000000 4.960000 112.975418 150.038086 35274.875000
7.040000 5.000000 5.000000 19.794579 178.884491 32391.486328
7.040000 5.000000 5.040000 -63.187019 136.139908 22526.673828
7.040000 5.000000 5.080000 -87.594193 58.241837 11064.854492
7.040000 5.000000 5.120000 -55.394493 2.189363 3073.343018
7.040000 5.000000 5.160000 -10.433661 -4.816087 132.055969
7.040000 5.000000 5.200000 6.875932 17.172272 342.165344
7.040000 5.040000 4.800000 40.981911 9.035928 1761.164917
7.040000 5.040000 4.840000 76.063080 12.493038 5941.668457
7.040000 5.040000 4.880000 104.597321 58.766975 14394.157227
7.040000 5.040000 4.920000 85.954269 127.663651 23686.144531
7.040000 5.040000 4.960000 14.192442 169.479660 28924.781250
7.040000 5.040000 5.000000 -70.818184 148.880157 27180.515625
7.040000 5.040000 5.040000 -116.008911 78.023514 19545.736328
7.040000 5.040000 5.080000 -100.712120 6.049389 10179.525391
7.040000 5.040000 5.120000 -51.364182 -24.620068 3244.426758
7.040000 5.040000 5.160000 -12.866522 -12.288368 316.551392
7.040000 5.040000 5.200000 -7.090368 10.906412 169.223145
7.040000 5.080000 4.800000 19.034061 31.530163 1356.446655
7.040000 5.080000 4.840000 38.011353 45.145004 3482.934326
7.040000 5.080000 4.880000 37.115990 83.148926 8291.339844
7.040000 5.080000 4.920000 -1.530689 117.526688 13814.865234
7.040000 5.080000 4.960000 -63.075806 115.014664 17206.929688
7.040000 5.080000 5.000000 -109.579987 68.257729 16666.890625
7.040000 5.080000 5.040000 -112.235199 4.103306 12613.577148
7.040000 5.080000 5.080000 -75.399811 -39.284554 7228.407227
7.040000 5.080000 5.120000 -30.128023 -44.163971 2858.154053
7.040000 5.080000 5.160000 -5.215137 -23.883099 597.600037
7.040000 5.080000 5.200000 -4.734049 -4.946690 46.880959
7.040000 5.120000 4.800000 -11.103117 32.322002 1167.990967
7.040000 5.120000 4.840000 -7.842863 40.330204 1688.035889
7.040000 5.120000 4.880000 -19.811306 53.753197 3281.894043
7.040000 5.120000 4.920000 -47.083591 55.042595 5246.551758
7.040000 5.120000 4.960000 -73.999786 33.559486 6602.207520
7.040000 5.120000 5.000000 -81.788162 -3.996487 6705.275391
7.040000 5.120000 5.040000 -64.100151 -38.453102 5587.470703
7.040000 5.120000 5.080000 -31.450096 -53.283684 3828.259277
7.040000 5.120000 5.120000 -1.723202 -46.100807 2128.253906
7.040000 5.120000 5.160000 13.358585 -27.378067 928.010315
7.040000 5.120000 5.200000 13.966070 -9.926592 293.588348
7.040000 5.160000 4.800000 -30.376579 13.636815 1108.699341
7.040000 5.160000 4.840000 -30.979095 8.445849 1031.036743
7.040000 5.160000 4.880000 -32.555889 2.220043 1064.814453
7.040000 5.160000 4.920000 -32.964149 -6.180107 1124.828857
7.040000 5.160000 4.960000 -30.434643 -15.862747 1177.894165
7.040000 5.160000 5.000000 -24.173382 -25.513332 1235.282471
7.040000 5.160000 5.040000 -13.393944 -33.564709 1305.987427
7.040000 5.160000 5.080000 2.164694 -36.870972 1364.154419
7.040000 5.160000 5.120000 19.593294 -31.163887 1355.085083
7.040000 5.160000 5.160000 31.666527 -15.071319 1229.913574
7.040000 5.160000 5.200000 30.805983 5.783814 982.461060
7.040000 5.200000 4.800000 -29.620134 -8.125006 943.368042
7.040000 5.200000 4.840000 -23.302948 -21.504660 1005.477783
7.040000 5.200000 4.880000 -7.786567 -29.881962 953.562256
7.040000 5.200000 4.920000 9.762896 -25.886829 765.442078
7.040000 5.200000 4.960000 17.987789 -12.556458 481.225159
7.040000 5.200000 5.000000 13.834877 -2.176018 196.138870
7.040000 5.200000 5.040000 7.235218 -3.481585 64.469810
7.040000 5.200000 5.080000 10.942863 -11.053831 241.933441
7.040000 5.200000 5.120000 25.483850 -9.996655 749.359741
7.040000 5.200000 5.160000 36.334755 7.444174 1375.630249
7.040000 5.200000 5.200000 28.235334 31.075790 1762.938965
7.080000 4.800000 4.800000 -29.151079 -25.872274 1519.159912
7.080000 4.800000 4.840000 -11.905660 -35.086731 1372.823486
7.080000 4.800000 4.880000 9.227928 -29.395739 949.264099
7.080000 4.800000 4.920000 20.495747 -9.880446 517.698853
7.080000 4.800000 4.960000 14.583878 10.716885 327.541107
7.080000 4.800000 5.000000 -1.985607 19.244907 374.309082
7.080000 4.800000 5.040000 -15.408989 14.317326 442.422729
7.080000 4.800000 5.080000 -18.508291 6.205080 381.059875
7.080000 4.800000 5.120000 -16.886028 4.562986 305.958771
7.080000 4.800000 5.160000 -20.768944 7.620419 489.419800
7.080000 4.800000 5.200000 -31.859753 4.908906 1039.141235
7.080000 4.840000 4.800000 -19.276251 -42.695980 2194.520508
7.080000 4.840000 4.840000 -3.453766 -50.723351 2584.786865
7.080000 4.840000 4.880000 17.554779 -47.894173 2602.021973
7.080000 4.840000 4.920000 33.951435 -31.688026 2156.831055
7.080000 4.840000 4.960000 36.948952 -8.732872 1441.488037
7.080000 4.840000 5.000000 26.013542 10.007912 776.862671
7.080000 4.840000 5.040000 8.420582 17.614601 381.180359
7.080000 4.840000 5.080000 -7.540375 14.813796 276.305786
7.080000 4.840000 5.120000 -18.224560 6.360281 372.587769
7.080000 4.840000 5.160000 -24.045519 -4.437622 597.879456
7.080000 4.840000 5.200000 -25.256001 -16.868206 922.401917
7.080000 4.880000 4.800000 3.236658 -53.016552 2821.230957
7.080000 4.880000 4.840000 20.331371 -62.351810 4301.112793
7.080000 4.880000 4.880000 48.216743 -59.707413 5889.829102
7.080000 4.880000 4.920000 73.580231 -36.023491 6711.742188
7.080000 4.880000 4.960000 78.815132 2.330818 6217.257812
7.080000 4.880000 5.000000 57.542236 35.900986 4599.989746
7.080000 4.880000 5.040000 21.200630 46.907951 2649.822754
7.080000 4.880000 5.080000 -9.709965 32.899734 1176.676025
7.080000 4.880000 5.120000 -21.375282 7.044997 506.534668
7.080000 4.880000 5.160000 -15.149435 -14.079519 427.738251
7.080000 4.880000 5.200000 -2.400157 -23.074829 538.208496
7.080000 4.920000 4.800000 31.688644 -46.368134 3154.174072
7.080000 4.920000 4.840000 53.948399 -54.608433 5892.510742
7.080000 4.920000 4.880000 89.362076 -42.352364 9779.302734
7.080000 4.920000 4.920000 113.797684 -0.297909 12950.001953
7.080000 4.920000 4.960000 102.864761 54.392006 13539.649414
7.080000 4.920000 5.000000 56.201252 89.013374 11081.961914
7.080000 4.920000 5.040000 0.905361 82.861809 6866.899414
7.080000 4.920000 5.080000 -30.448467 45.073513 2958.730713
7.080000 4.920000 5.120000 -26.475847 5.522296 731.466187
7.080000 4.920000 5.160000 -3.177788 -11.828303 150.007080
7.080000 4.920000 5.200000 14.602264 -7.142695 264.244202
7.080000 4.960000 4.800000 51.272148 -20.550018 3051.136475
7.080000 4.960000 4.840000 78.042000 -21.687820 6560.915039
7.080000 4.960000 4.880000 110.786949 7.358684 12327.898438
7.080000 4.960000 4.920000 116.361519 64.904022 17752.535156
7.080000 4.960000 4.960000 75.911110 118.190735 19731.546875
7.080000 4.960000 5.000000 7.072611 130.037018 16959.648438
7.080000 4.960000 5.040000 -48.099480 92.857544 10936.083984
7.080000 4.960000 5.080000 -59.174999 36.099854 4804.879883
7.080000 4.960000 5.120000 -32.378319 -0.634367 1048.757935
7.080000 4.960000 5.160000 -0.721242 -2.071096 4.809631
7.080000 4.960000 5.200000 9.272791 14.139579 285.912354
7.080000 5.000000 4.800000 48.957661 13.409358 2576.663330
7.080000 5.000000 4.840000 73.479507 22.719322 5915.405273
7.080000 5.000000 4.880000 89.538956 63.596218 12061.703125
7.080000 5.000000 4.920000 66.659637 117.800270 18320.410156
7.080000 5.000000 4.960000 3.868917 145.390610 21153.398438
7.080000 5.000000 5.000000 -63.696823 121.323555 18776.691406
7.080000 5.000000 5.040000 -94.078568 60.504765 12511.603516
7.080000 5.000000 5.080000 -75.554329 5.231827 5735.828613
7.080000 5.000000 5.120000 -34.805336 -12.863428 1376.879150
7.080000 5.000000 5.160000 -8.997675 1.475050 83.133926
7.080000 5.000000 5.200000 -11.077862 17.999924 446.716278
7.080000 5.040000 4.800000 24.464928 36.966812 1965.077881
7.080000 5.040000 4.840000 39.025642 52.727264 4303.165039
7.080000 5.040000 4.880000 33.292465 89.642365 9144.141602
7.080000 5.040000 4.920000 -8.172709 119.569771 14363.722656
7.080000 5.040000 4.960000 -67.899422 111.455261 17032.607422
7.080000 5.040000 5.000000 -107.899879 62.413464 15537.824219
7.080000 5.040000 5.040000 -103.646812 2.737871 10750.158203
7.080000 5.040000 5.080000 -65.797356 -30.998226 5290.182129
7.080000 5.040000 5.120000 -28.211157 -27.928612 1575.876709
7.080000 5.040000 5.160000 -15.367304 -8.426540 307.160614
7.080000 5.040000 5.200000 -22.452650 0.270396 504.194611
7.080000 5.080000 4.800000 -7.750132 37.338364 1454.218018
7.080000 5.080000 4.840000 -4.862553 50.447906 2568.635742
7.080000 5.080000 4.880000 -22.759302 68.937653 5270.385742
7.080000 5.080000 4.920000 -59.515125 69.093987 8316.029297
7.080000 5.080000 4.960000 -92.032013 39.186020 10005.435547
7.080000 5.080000 5.000000 -96.572510 -7.340439 9380.131836
7.080000 5.080000 5.040000 -70.659103 -43.106491 6850.878418
7.080000 5.080000 5.080000 -34.456135 -51.096668 3798.094727
7.080000 5.080000 5.120000 -11.147423 -37.748817 1549.238281
7.080000 5.080000 5.160000 -6.846016 -22.997623 575.758606
7.080000 5.080000 5.200000 -9.607610 -19.398594 468.611633
7.080000 5.120000 4.800000 -28.646036 17.478485 1126.092773
7.080000 5.120000 4.840000 -31.462540 20.950096 1428.797974
7.080000 5.120000 4.880000 -44.447792 19.496229 2355.709229
7.080000 5.120000 4.920000 -58.058247 4.339779 3389.593750
7.080000 5.120000 4.960000 -59.330643 -20.669765 3947.364502
7.080000 5.120000 5.000000 -44.266747 -42.457237 3762.161621
7.080000 5.120000 5.040000 -20.867624 -50.633678 2999.227051
7.080000 5.120000 5.080000 -0.877958 -45.462109 2067.573975
7.080000 5.120000 5.120000 10.177496 -34.853027 1318.314941
7.080000 5.120000 5.160000 14.793403 -25.413729 864.702393
7.080000 5.120000 5.200000 17.260942 -17.713974 611.724976
7.080000 5.160000 4.800000 -29.034567 -6.515436 885.457031
7.080000 5.160000 4.840000 -29.111214 -12.486125 1003.366089
7.080000 5.160000 4.880000 -26.167330 -22.341663 1183.879028
7.080000 5.160000 4.920000 -16.572220 -31.047871 1238.608765
7.080000 5.160000 4.960000 -3.686546 -33.073135 1107.422852
7.080000 5.160000 5.000000 6.177792 -29.137527 887.160583
7.080000 5.160000 5.040000 11.417650 -24.818840 746.337524
7.080000 5.160000 5.080000 16.488062 -22.878376 795.276245
7.080000 5.160000 5.120000 24.989548 -19.243706 994.797729
7.080000 5.160000 5.160000 33.122658 -8.382925 1167.383911
7.080000 5.160000 5.200000 32.469761 7.956505 1117.591309
7.080000 5.200000 4.800000 -15.812290 -18.830175 604.604004
7.080000 5.200000 4.840000 -8.743211 -28.613401 895.170471
7.080000 5.200000 4.880000 8.098440 -33.038479 1157.125854
7.080000 5.200000 4.920000 25.701508 -23.573210 1216.263672
7.080000 5.200000 4.960000 31.009373 -5.025963 986.841492
7.080000 5.200000 5.000000 22.144720 7.830832 551.710571
7.080000 5.200000 5.040000 11.860872 6.346786 180.962006
7.080000 5.200000 5.080000 13.750844 -1.549139 191.485535
7.080000 5.200000 5.120000 26.185753 0.334297 685.805420
7.080000 5.200000 5.160000 32.847172 17.527702 1386.156982
7.080000 5.200000 5.200000 20.745832 36.764874 1782.045410
7.120000 4.800000 4.800000 -26.207708 -33.099297 1782.407471
7.120000 4.800000 4.840000 -4.438658 -39.697979 1595.631226
7.120000 4.800000 4.880000 17.427073 -27.619375 1066.532715
7.120000 4.800000 4.920000 23.643843 -3.245281 569.563171
7.120000 4.800000 4.960000 10.755316 16.259289 380.041290
7.120000 4.800000 5.000000 -8.957131 18.941532 439.011841
7.120000 4.800000 5.040000 -20.033493 8.812298 478.997437
7.120000 4.800000 5.080000 -19.035925 -0.201996 362.407227
7.120000 4.800000 5.120000 -16.042198 -0.213749 257.397797
7.120000 4.800000 5.160000 -21.207634 2.413310 455.587799
7.120000 4.800000 5.200000 -31.749184 -4.342792 1026.870483
7.120000 4.840000 4.800000 -4.618909 -50.948532 2617.087158
7.120000 4.840000 4.840000 19.873360 -49.202423 2815.828857
7.120000 4.840000 4.880000 39.091713 -30.323238 2447.660645
7.120000 4.840000 4.920000 41.208111 -3.274277 1708.829346
7.120000 4.840000 4.960000 26.120670 16.975563 970.459167
7.120000 4.840000 5.000000 4.943890 21.767357 498.259857
7.120000 4.840000 5.040000 -10.486088 14.367565 316.384949
7.120000 4.840000 5.080000 -17.002542 3.970688 304.852814
7.120000 4.840000 5.120000 -19.196342 -4.407003 387.921234
7.120000 4.840000 5.160000 -20.770737 -12.978655 599.868958
7.120000 4.840000 5.200000 -18.946209 -24.859385 976.947876
7.120000 4.880000 4.800000 28.582504 -49.159134 3233.579834
7.120000 4.880000 4.840000 50.239841 -38.511177 4007.152344
7.120000 4.880000 4.880000 63.862408 -14.145769 4278.509766
7.120000 4.880000 4.920000 60.219734 15.645958 3871.212402
7.120000 4.880000 4.960000 39.196480 37.363533 2932.397461
7.120000 4.880000 5.000000 10.800556 41.529484 1841.349976
7.120000 4.880000 5.040000 -11.731419 28.901224 972.906982
7.120000 4.880000 5.080000 -20.654388 8.613063 500.788605
7.120000 4.880000 5.120000 -17.001318 -9.313205 375.780579
7.120000 4.880000 5.160000 -6.810584 -20.066925 449.065552
7.120000 4.880000 5.200000 4.800001 -24.168053 607.134766
7.120000 4.920000 4.800000 54.140026 -22.723949 3447.520264
7.120000 4.920000 4.840000 68.433899 -6.325538 4723.210938
7.120000 4.920000 4.880000 73.823837 21.130239 5896.445801
7.120000 4.920000 4.920000 60.817635 51.558071 6357.019531
7.120000 4.920000 4.960000 29.563845 69.622681 5721.338867
7.120000 4.920000 5.000000 -6.558277 64.161736 4159.739746
7.120000 4.920000 5.040000 -29.292570 38.304852 2325.316406
7.120000 4.920000 5.080000 -29.264917 8.071465 921.583923
7.120000 4.920000 5.120000 -12.602281 -10.077479 260.373047
7.120000 4.920000 5.160000 5.729073 -11.424892 163.350433
7.120000 4.920000 5.200000 15.157411 -3.904013 244.988419
7.120000 4.960000 4.800000 54.665100 15.590288 3231.330322
7.120000 4.960000 4.840000 60.064823 32.723946 4678.639648
7.120000 4.960000 4.880000 55.388077 59.039284 6553.476074
7.120000 4.960000 4.920000 31.071306 83.500557 7937.769043
7.120000 4.960000 4.960000 -8.202817 88.431450 7887.407227
7.120000 4.960000 5.000000 -42.742531 66.089767 6194.781250
7.120000 4.960000 5.040000 -53.034893 28.456198 3622.455078
7.120000 4.960000 5.080000 -36.935905 -1.221813 1365.753906
7.120000 4.960000 5.120000 -11.416431 -8.086567 195.727463
7.120000 4.960000 5.160000 3.413177 2.649464 18.669436
7.120000 4.960000 5.200000 2.134267 13.385540 183.727783
7.120000 5.000000 4.800000 28.903229 43.286060 2709.079590
7.120000 5.000000 4.840000 26.993832 56.624493 3935.000244
7.120000 5.000000 4.880000 13.196423 75.890808 5933.560059
7.120000 5.000000 4.920000 -17.871891 86.110672 7734.452148
7.120000 5.000000 4.960000 -53.954002 72.296631 8137.836914
7.120000 5.000000 5.000000 -73.041077 36.609478 6675.252930
7.120000 5.000000 5.040000 -63.556519 -0.220296 4039.479736
7.120000 5.000000 5.080000 -36.088669 -16.534950 1575.796509
7.120000 5.000000 5.120000 -13.721591 -9.196188 272.851929
7.120000 5.000000 5.160000 -10.261086 5.145331 131.764313
7.120000 5.000000 5.200000 -18.616552 8.185641 413.580750
7.120000 5.040000 4.800000 -6.474251 45.009258 2067.749268
7.120000 5.040000 4.840000 -12.270750 52.015285 2856.161133
7.120000 5.040000 4.880000 -29.853399 59.251358 4401.948730
7.120000 5.040000 4.920000 -56.499577 52.194157 5916.432129
7.120000 5.040000 4.960000 -75.726898 25.330448 6376.194336
7.120000 5.040000 5.000000 -72.525719 -8.991333 5340.824219
7.120000 5.040000 5.040000 -49.075970 -30.341286 3329.044434
7.120000 5.040000 5.080000 -23.698524 -29.296131 1419.883301
7.120000 5.040000 5.120000 -13.356472 -15.916051 431.716003
7.120000 5.040000 5.160000 -17.828989 -8.475880 389.713409
7.120000 5.040000 5.200000 -22.033333 -14.467275 694.769775
7.120000 5.080000 4.800000 -29.697292 23.949799 1455.521973
7.120000 5.080000 4.840000 -35.729076 24.320177 1868.037842
7.120000 5.080000 4.880000 -48.815712 19.174242 2750.625244
7.120000 5.080000 4.920000 -59.838776 1.619978 3583.303223
7.120000 5.080000 4.960000 -57.031265 -22.835682 3774.033691
7.120000 5.080000 5.000000 -38.939423 -40.102562 3124.494141
7.120000 5.080000 5.040000 -17.089176 -41.182541 1988.041626
7.120000 5.080000 5.080000 -4.906125 -31.010651 985.730530
7.120000 5.080000 5.120000 -4.721299 -22.809671 542.571777
7.120000 5.080000 5.160000 -6.713634 -24.081930 625.012207
7.120000 5.080000 5.200000 -0.660222 -29.374271 863.283752
7.120000 5.120000 4.800000 -30.506456 -2.000586 934.646179
7.120000 5.120000 4.840000 -33.960655 -7.044544 1202.951660
7.120000 5.120000 4.880000 -35.755955 -18.944944 1637.399170
7.120000 5.120000 4.920000 -28.276180 -33.435986 1917.507446
7.120000 5.120000 4.960000 -11.987350 -40.844582 1811.976440
7.120000 5.120000 5.000000 3.922466 -36.603371 1355.192505
7.120000 5.120000 5.040000 10.902565 -26.458542 818.920349
7.120000 5.120000 5.080000 9.896818 -20.256695 508.280701
7.120000 5.120000 5.120000 9.628158 -21.263699 544.846313
7.120000 5.120000 5.160000 16.313383 -23.055277 797.672241
7.120000 5.120000 5.200000 26.456757 -17.374950 1001.848877
7.120000 5.160000 4.800000 -16.319185 -15.650402 511.250885
7.120000 5.160000 4.840000 -15.397614 -24.256836 825.480591
7.120000 5.160000 4.880000 -4.756335 -34.152149 1188.991943
7.120000 5.160000 4.920000 13.232039 -34.253269 1348.373413
7.120000 5.160000 4.960000 26.502783 -21.549389 1166.773682
7.120000 5.160000 5.000000 26.318748 -5.852801 726.931763
7.120000 5.160000 5.040000 17.398252 0.309801 302.795166
7.120000 5.160000 5.080000 12.994070 -4.470584 188.831985
7.120000 5.160000 5.120000 20.012947 -8.914429 479.985077
7.120000 5.160000 5.160000 31.070831 -1.964329 969.255127
7.120000 5.160000 5.200000 32.742493 14.333506 1277.520142
7.120000 5.200000 4.800000 -3.353795 -13.696329 198.837372
7.120000 5.200000 4.840000 3.059207 -23.736513 572.780823
7.120000 5.200000 4.880000 21.268051 -24.860668 1070.382812
7.120000 5.200000 4.920000 36.700703 -8.935253 1426.780273
7.120000 5.200000 4.960000 34.648285 13.855815 1392.487305
7.120000 5.200000 5.000000 17.518089 24.961336 929.951782
7.120000 5.200000 5.040000 3.241197 17.898705 330.868958
7.120000 5.200000 5.080000 5.667919 5.811122 65.894447
7.120000 5.200000 5.120000 18.978634 6.839023 406.960754
7.120000 5.200000 5.160000 24.193558 23.423307 1133.979492
7.120000 5.200000 5.200000 10.900393 39.172676 1653.317139
7.160000 4.800000 4.800000 -19.154259 -40.602562 2015.453613
7.160000 4.800000 4.840000 5.245471 -40.510696 1668.631592
7.160000 4.800000 4.880000 22.837828 -21.518061 984.593262
7.160000 4.800000 4.920000 20.694988 3.679562 441.821716
7.160000 4.800000 4.960000 2.319990 17.221294 301.955322
7.160000 4.800000 5.000000 -16.043457 12.701475 418.719971
7.160000 4.800000 5.040000 -21.655905 -0.087254 468.985809
7.160000 4.800000 5.080000 -16.899078 -7.043152 335.184845
7.160000 4.800000 5.120000 -14.084074 -5.043646 223.799515
7.160000 4.800000 5.160000 -19.833193 -3.965812 409.083191
7.160000 4.800000 5.200000 -26.691395 -13.567421 896.505432
7.160000 4.840000 4.800000 12.727785 -49.379330 2600.314697
7.160000 4.840000 4.840000 35.148842 -33.885532 2383.670410
7.160000 4.840000 4.880000 40.681213 -6.159539 1692.901123
7.160000 4.840000 4.920000 25.929491 16.617607 948.483398
7.160000 4.840000 4.960000 2.396082 21.920601 486.253967
7.160000 4.840000 5.000000 -14.407507 11.650065 343.300293
7.160000 4.840000 5.040000 -18.349142 -2.162421 341.367065
7.160000 4.840000 5.080000 -15.289231 -10.311401 340.085571
7.160000 4.840000 5.120000 -13.485236 -14.095760 380.542053
7.160000 4.840000 5.160000 -13.321363 -20.293911 589.301575
7.160000 4.840000 5.200000 -7.750703 -30.253109 975.324036
7.160000 4.880000 4.800000 44.771149 -30.149406 2913.442383
7.160000 4.880000 4.840000 53.508068 -4.413694 2882.593994
7.160000 4.880000 4.880000 43.208839 21.229000 2317.674316
7.160000 4.880000 4.920000 19.996960 33.445915 1518.507690
7.160000 4.880000 4.960000 -2.813141 28.551134 823.080994
7.160000 4.880000 5.000000 -15.095434 13.450994 408.801392
7.160000 4.880000 5.040000 -15.884167 -1.801556 255.552353
7.160000 4.880000 5.080000 -10.584491 -11.985016 255.672058
7.160000 4.880000 5.120000 -3.820967 -18.033958 339.823456
7.160000 4.880000 5.160000 4.235594 -22.076984 505.333496
7.160000 4.880000 5.200000 15.072851 -22.857122 749.638916
7.160000 4.920000 4.800000 53.828587 8.600141 2971.479248
7.160000 4.920000 4.840000 45.137039 31.975382 3059.777344
7.160000 4.920000 4.880000 24.324125 45.437279 2656.209473
7.160000 4.920000 4.920000 0.983255 44.149952 1950.185059
7.160000 4.920000 4.960000 -15.508204 30.983711 1200.494751
7.160000 4.920000 5.000000 -20.742987 13.350232 608.500183
7.160000 4.920000 5.040000 -15.985708 -1.561986 257.982666
7.160000 4.920000 5.080000 -5.747310 -9.828657 129.634064
7.160000 4.920000 5.120000 5.254059 -11.127334 151.422684
7.160000 4.920000 5.160000 13.934098 -7.337856 248.003220
7.160000 4.920000 5.200000 19.157799 -0.805528 367.670105
7.160000 4.960000 4.800000 32.225361 42.357933 2832.668457
7.160000 4.960000 4.840000 12.984255 52.551727 2930.274902
7.160000 4.960000 4.880000 -8.025094 50.754051 2640.375732
7.160000 4.960000 4.920000 -23.916634 38.906487 2085.720215
7.160000 4.960000 4.960000 -30.619455 21.885778 1416.538330
7.160000 4.960000 5.000000 -27.321184 5.616730 777.994751
7.160000 4.960000 5.040000 -16.628696 -4.472619 296.517853
7.160000 4.960000 5.080000 -4.149076 -5.606862 48.651733
7.160000 4.960000 5.120000 4.015031 0.365694 16.254208
7.160000 4.960000 5.160000 5.207814 7.799681 87.956345
7.160000 4.960000 5.200000 2.157521 11.527647 137.541534
7.160000 5.000000 4.800000 -5.207968 49.931583 2520.286133
7.160000 5.000000 4.840000 -23.376450 45.115154 2581.835449
7.160000 5.000000 4.880000 -36.111092 32.466572 2358.089355
7.160000 5.000000 4.920000 -40.769894 16.170532 1923.670288
7.160000 5.000000 4.960000 -36.798367 0.787587 1354.739990
7.160000 5.000000 5.000000 -25.991488 -8.934246 755.378174
7.160000 5.000000 5.040000 -13.375519 -9.777170 274.497559
7.160000 5.000000 5.080000 -5.630184 -3.099193 41.303963
7.160000 5.000000 5.120000 -6.343064 4.601231 61.405792
7.160000 5.000000 5.160000 -12.233675 6.259969 188.850021
7.160000 5.000000 5.200000 -15.328676 0.784009 235.582977
7.160000 5.040000 4.800000 -33.342060 30.243448 2026.359131
7.160000 5.040000 4.840000 -42.738281 16.874981 2111.325684
7.160000 5.040000 4.880000 -44.443169 0.726898 1975.723511
7.160000 5.040000 4.920000 -37.917721 -13.763685 1627.192627
7.160000 5.040000 4.960000 -25.212505 -21.868677 1113.909424
7.160000 5.040000 5.000000 -11.767323 -20.649948 564.890259
7.160000 5.040000 5.040000 -4.505472 -12.126274 167.345810
7.160000 5.040000 5.080000 -6.783425 -3.641884 59.278179
7.160000 5.040000 5.120000 -14.478265 -2.942985 218.281311
7.160000 5.040000 5.160000 -18.285664 -11.155239 458.804840
7.160000 5.040000 5.200000 -11.741207 -20.677662 565.421631
7.160000 5.080000 4.800000 -37.182175 1.606939 1385.096436
7.160000 5.080000 4.840000 -37.835781 -12.513167 1588.125732
7.160000 5.080000 4.880000 -30.310955 -26.562410 1624.315674
7.160000 5.080000 4.920000 -15.225389 -34.211563 1402.243530
7.160000 5.080000 4.960000 0.996215 -30.702671 943.646423
7.160000 5.080000 5.000000 9.276230 -18.258095 419.406464
7.160000 5.080000 5.040000 5.362800 -6.354277 69.136459
7.160000 5.080000 5.080000 -5.234099 -4.663288 49.142048
7.160000 5.080000 5.120000 -10.913210 -14.261890 322.499664
7.160000 5.080000 5.160000 -4.013346 -25.831007 683.347839
7.160000 5.080000 5.200000 11.911475 -27.515163 898.967468
7.160000 5.120000 4.800000 -22.318832 -15.130094 727.050049
7.160000 5.120000 4.840000 -18.486307 -26.951942 1068.150757
7.160000 5.120000 4.880000 -4.650444 -36.251377 1335.788940
7.160000 5.120000 4.920000 14.431357 -33.632446 1339.405518
7.160000 5.120000 4.960000 26.411169 -17.933981 1019.177551
7.160000 5.120000 5.000000 22.710238 0.000106 515.754883
7.160000 5.120000 5.040000 8.069345 6.151699 102.957733
7.160000 5.120000 5.080000 -2.624348 -3.178833 16.992184
7.160000 5.120000 5.120000 1.866098 -17.184401 298.785950
7.160000 5.120000 5.160000 18.303883 -20.642801 761.157349
7.160000 5.120000 5.200000 32.310066 -8.322123 1113.198120
7.160000 5.160000 4.800000 -6.843622 -13.721750 235.121582
7.160000 5.160000 4.840000 -0.887897 -24.798578 615.757874
7.160000 5.160000 4.880000 16.962646 -27.945295 1068.670898
7.160000 5.160000 4.920000 33.869923 -14.213284 1349.189087
7.160000 5.160000 4.960000 34.460880 8.685545 1262.990967
7.160000 5.160000 5.000000 17.775105 22.421829 818.692749
7.160000 5.160000 5.040000 -0.221397 16.624477 276.422272
7.160000 5.160000 5.080000 -2.348094 0.076135 5.519344
7.160000 5.160000 5.120000 12.242434 -8.050008 214.679810
7.160000 5.160000 5.160000 27.565792 2.167490 764.570862
7.160000 5.160000 5.200000 27.752264 21.905880 1250.055786
7.160000 5.200000 4.800000 -3.701292 -4.710233 35.885857
7.160000 5.200000 4.840000 6.126048 -16.234793 301.096954
7.160000 5.200000 4.880000 25.398096 -11.794145 784.165161
7.160000 5.200000 4.920000 33.988178 9.937482 1253.949829
7.160000 5.200000 4.960000 21.075409 30.878057 1397.627197
7.160000 5.200000 5.000000 -2.100618 32.505455 1061.017212
7.160000 5.200000 5.040000 -13.689788 16.063795 445.455811
7.160000 5.200000 5.080000 -4.661621 1.343790 23.536484
7.160000 5.200000 5.120000 11.790640 5.168251 165.730011
7.160000 5.200000 5.160000 15.227514 23.491873 783.745300
7.160000 5.200000 5.200000 0.316193 36.873158 1359.729736
7.200000 4.800000 4.800000 -8.243757 -44.719807 2067.820557
7.200000 4.800000 4.840000 13.390274 -37.386490 1577.049072
7.200000 4.800000 4.880000 23.029615 -16.166037 791.703857
7.200000 4.800000 4.920000 14.392592 4.020897 223.314331
7.200000 4.800000 4.960000 -3.792361 9.881327 112.022621
7.200000 4.800000 5.000000 -16.558821 1.537910 276.559723
7.200000 4.800000 5.040000 -17.052689 -9.352570 378.264740
7.200000 4.800000 5.080000 -11.515688 -12.699461 293.887390
7.200000 4.800000 5.120000 -10.235404 -10.052001 205.806213
7.200000 4.800000 5.160000 -14.912089 -10.929203 341.817871
7.200000 4.800000 5.200000 -16.681734 -20.021685 679.148071
7.200000 4.840000 4.800000 24.712952 -39.419838 2164.653564
7.200000 4.840000 4.840000 35.906033 -17.177929 1584.324463
7.200000 4.840000 4.880000 27.534069 5.783430 791.572998
7.200000 4.840000 4.920000 6.909751 14.523544 258.678009
7.200000 4.840000 4.960000 -10.499870 6.584265 153.599823
7.200000 4.840000 5.000000 -15.061705 -7.767665 287.191589
7.200000 4.840000 5.040000 -9.853316 -16.877951 381.953064
7.200000 4.840000 5.080000 -4.438046 -18.472157 360.916840
7.200000 4.840000 5.120000 -3.331951 -19.069736 374.756744
7.200000 4.840000 5.160000 -1.828006 -23.907290 574.900085
7.200000 4.840000 5.200000 6.772861 -29.283648 903.403687
7.200000 4.880000 4.800000 44.168941 -8.750391 2027.464722
7.200000 4.880000 4.840000 35.092350 15.442081 1469.930908
7.200000 4.880000 4.880000 12.252274 24.705685 760.489075
7.200000 4.880000 4.920000 -7.714506 15.314450 294.045990
7.200000 4.880000 4.960000 -13.299885 -2.302309 182.187561
7.200000 4.880000 5.000000 -6.376598 -14.777977 259.049622
7.200000 4.880000 5.040000 2.913589 -17.564558 317.002686
7.200000 4.880000 5.080000 7.718252 -16.008739 315.851166
7.200000 4.880000 5.120000 10.117779 -16.498503 374.570038
7.200000 4.880000 5.160000 15.982206 -18.322563 591.147217
7.200000 4.880000 5.200000 26.003418 -14.958097 899.922363
7.200000 4.920000 4.800000 34.058968 27.549770 1919.003174
7.200000 4.920000 4.840000 8.983040 37.252808 1468.466797
7.200000 4.920000 4.880000 -13.675228 25.641705 844.508911
7.200000 4.920000 4.920000 -19.464024 3.684615 392.424591
7.200000 4.920000 4.960000 -9.047258 -12.247366 231.850861
7.200000 4.920000 5.000000 5.539363 -14.678517 246.143417
7.200000 4.920000 5.040000 13.801788 -8.640872 265.154022
7.200000 4.920000 5.080000 15.154034 -3.235684 240.114380
7.200000 4.920000 5.120000 15.791986 -1.623431 252.022339
7.200000 4.920000 5.160000 19.560205 0.354400 382.727234
7.200000 4.920000 5.200000 23.402647 7.295930 600.914490
7.200000 4.960000 4.800000 0.819598 44.294327 1962.659180
7.200000 4.960000 4.840000 -24.817133 32.489677 1671.469238
7.200000 4.960000 4.880000 -32.634319 6.515931 1107.456177
7.200000 4.960000 4.920000 -19.715872 -14.499603 598.954102
7.200000 4.960000 4.960000 1.209590 -18.264448 335.053162
7.200000 4.960000 5.000000 14.889960 -7.682698 280.734772
7.200000 4.960000 5.040000 16.065464 5.322508 286.428223
7.200000 4.960000 5.080000 10.397416 12.010598 252.360733
7.200000 4.960000 5.120000 5.802039 12.675450 194.330688
7.200000 4.960000 5.160000 4.681886 12.578243 180.132263
7.200000 4.960000 5.200000 4.077478 14.738956 233.862656
7.200000 5.000000 4.800000 -31.714127 31.805668 2017.386353
7.200000 5.000000 4.840000 -43.516514 5.592132 1924.958984
7.200000 5.000000 4.880000 -32.186947 -20.430836 1453.418579
7.200000 5.000000 4.920000 -7.007988 -29.052719 893.172363
7.200000 5.000000 4.960000 13.925857 -17.601444 503.740356
7.200000 5.000000 5.000000 18.810581 2.364356 359.428131
7.200000 5.000000 5.040000 9.380390 16.559896 362.221893
7.200000 5.000000 5.080000 -4.002984 18.817013 370.103851
7.200000 5.000000 5.120000 -12.294992 12.649152 311.167877
7.200000 5.000000 5.160000 -13.242321 5.209073 202.493500
7.200000 5.000000 5.200000 -9.806949 1.210016 97.640381
7.200000 5.040000 4.800000 -42.615665 3.125546 1825.864014
7.200000 5.040000 4.840000 -37.403656 -23.576342 1954.877319
7.200000 5.040000 4.880000 -13.887358 -38.604538 1683.168945
7.200000 5.040000 4.920000 12.568113 -32.105038 1188.690918
7.200000 5.040000 4.960000 25.126343 -9.845905 728.274963
7.200000 5.040000 5.000000 17.962292 12.290204 473.693054
7.200000 5.040000 5.040000 -0.997514 20.777336 432.692719
7.200000 5.040000 5.080000 -17.729578 13.238409 489.593445
7.200000 5.040000 5.120000 -22.513706 -2.195932 511.689087
7.200000 5.040000 5.160000 -15.108746 -14.376330 434.953064
7.200000 5.040000 5.200000 -2.628064 -16.623291 283.240509
7.200000 5.080000 4.800000 -30.603022 -18.874849 1292.804932
7.200000 5.080000 4.840000 -15.860998 -36.932739 1615.598511
7.200000 5.080000 4.880000 9.507162 -39.362373 1639.782593
7.200000 5.080000 4.920000 29.598747 -22.329754 1374.703735
7.200000 5.080000 4.960000 30.941525 3.667936 970.831665
7.200000 5.080000 5.000000 13.278575 21.212893 626.307373
7.200000 5.080000 5.040000 -10.011914 19.225088 469.842438
7.200000 5.080000 5.080000 -22.300425 1.139229 498.606781
7.200000 5.080000 5.120000 -16.218054 -18.515316 605.842163
7.200000 5.080000 5.160000 1.837961 -25.767237 667.328613
7.200000 5.080000 5.200000 18.043861 -17.200483 621.437561
7.200000 5.120000 4.800000 -12.238155 -21.725914 621.787781
7.200000 5.120000 4.840000 3.193176 -31.886789 1026.963745
7.200000 5.120000 4.880000 24.802124 -26.563486 1320.764160
7.200000 5.120000 4.920000 36.676682 -4.905173 1369.239624
7.200000 5.120000 4.960000 27.988453 19.256439 1154.163940
7.200000 5.120000 5.000000 4.118072 27.924128 796.715393
7.200000 5.120000 5.040000 -16.462280 14.824122 490.761292
7.200000 5.120000 5.080000 -17.773327 -8.466421 387.571442
7.200000 5.120000 5.120000 -0.055549 -22.469652 504.888336
7.200000 5.120000 5.160000 21.188005 -16.598442 724.439819
7.200000 5.120000 5.200000 29.483181 2.916984 877.766724
7.200000 5.160000 4.800000 -4.653988 -12.082238 167.640091
7.200000 5.160000 4.840000 9.255424 -19.951996 483.745026
7.200000 5.160000 4.880000 27.376999 -11.073566 872.123901
7.200000 5.160000 4.920000 31.900652 11.794712 1156.766846
7.200000 5.160000 4.960000 15.617208 30.529257 1175.932739
7.200000 5.160000 5.000000 -9.044662 28.658092 903.092163
7.200000 5.160000 5.040000 -20.849468 8.184546 501.687134
7.200000 5.160000 5.080000 -10.210906 -11.608255 239.014191
7.200000 5.160000 5.120000 11.704992 -12.632423 296.584961
7.200000 5.160000 5.160000 24.399273 5.148975 621.836487
7.200000 5.160000 5.200000 17.748091 25.371033 958.684082
7.200000 5.200000 4.800000 -10.182368 -5.962675 139.234116
7.200000 5.200000 4.840000 5.895939 -13.669863 221.627243
7.200000 5.200000 4.880000 21.822802 -1.461203 478.369781
7.200000 5.200000 4.920000 19.355326 20.619455 799.790527
7.200000 5.200000 4.960000 -1.318004 31.168156 973.191040
7.200000 5.200000 5.000000 -21.014727 19.944466 839.400452
7.200000 5.200000 5.040000 -21.452494 -1.120975 461.466064
7.200000 5.200000 5.080000 -4.253560 -10.468088 127.673645
7.200000 5.200000 5.120000 11.377750 0.669025 129.900803
7.200000 5.200000 5.160000 9.196205 20.174463 491.579163
7.200000 5.200000 5.200000 -8.057824 29.196064 917.338684
