#kx 	ky 	kz 	real 	imag 	intensity
2.800000 4.800000 2.800000 -4.603953 -11.787306 160.136963
2.800000 4.800000 2.840000 -3.285158 -8.143420 77.107559
2.800000 4.800000 2.880000 -6.779823 -7.303429 99.306076
2.800000 4.800000 2.920000 -9.387672 -12.809099 252.201416
2.800000 4.800000 2.960000 -4.675633 -20.989414 462.417053
2.800000 4.800000 3.000000 7.499473 -23.670464 616.532898
2.800000 4.800000 3.040000 19.822998 -15.957661 647.598206
2.800000 4.800000 3.080000 23.851564 -1.227223 570.403198
2.800000 4.800000 3.120000 17.518353 11.842634 447.140656
2.800000 4.800000 3.160000 6.244007 17.111631 331.795532
2.800000 4.800000 3.200000 -3.095751 15.484401 249.350342
2.800000 4.840000 2.800000 -1.300127 -16.286970 266.955750
2.800000 4.840000 2.840000 -0.961048 -12.720756 162.741241
2.800000 4.840000 2.880000 -3.651213 -14.042480 210.522614
2.800000 4.840000 2.920000 -2.032310 -20.147926 410.069214
2.800000 4.840000 2.960000 7.055332 -23.842800 618.256836
2.800000 4.840000 3.000000 18.225002 -18.523890 675.285156
2.800000 4.840000 3.040000 22.561813 -5.729109 541.858154
2.800000 4.840000 3.080000 16.770336 5.905453 316.118530
2.800000 4.840000 3.120000 6.442103 9.342793 128.788467
2.800000 4.840000 3.160000 -0.212816 5.922450 35.120708
2.800000 4.840000 3.200000 -1.083556 2.764822 8.818334
2.800000 4.880000 2.800000 6.307032 -20.283411 451.195404
2.800000 4.880000 2.840000 6.834949 -16.910971 332.697449
2.800000 4.880000 2.880000 6.736906 -18.290504 379.928436
2.800000 4.880000 2.920000 11.514297 -20.930962 570.684204
2.800000 4.880000 2.960000 19.709936 -18.319183 724.074097
2.800000 4.880000 3.000000 24.322479 -9.236434 676.894714
2.800000 4.880000 3.040000 21.067295 0.165297 443.858246
2.800000 4.880000 3.080000 13.690977 3.180875 197.560822
2.800000 4.880000 3.120000 9.859556 0.381622 97.356483
2.800000 4.880000 3.160000 12.036884 -0.957249 145.802902
2.800000 4.880000 3.200000 14.131925 4.285107 218.073425
2.800000 4.920000 2.800000 18.278984 -18.465141 675.082703
2.800000 4.920000 2.840000 18.836689 -13.775074 544.573547
2.800000 4.920000 2.880000 19.665791 -12.595150 545.381104
2.800000 4.920000 2.920000 23.162891 -10.858919 654.435669
2.800000 4.920000 2.960000 26.172138 -5.693459 717.396301
2.800000 4.920000 3.000000 25.116644 0.387530 630.996033
2.800000 4.920000 3.040000 21.609070 2.922064 475.490356
2.800000 4.920000 3.080000 20.948532 2.171556 443.556671
2.800000 4.920000 3.120000 24.838083 4.094730 633.697205
2.800000 4.920000 3.160000 27.327408 13.307979 923.889526
2.800000 4.920000 3.200000 20.164038 25.721344 1068.175903
2.800000 4.960000 2.800000 28.467585 -6.748781 855.949402
2.800000 4.960000 2.840000 26.535725 -0.351965 704.268555
2.800000 4.960000 2.880000 24.646038 2.637069 614.381348
2.800000 4.960000 2.920000 23.853182 4.870670 592.697754
2.800000 4.960000 2.960000 22.964437 6.919626 575.246643
2.800000 4.960000 3.000000 22.555473 7.678465 567.708191
2.800000 4.960000 3.040000 25.071009 8.392654 698.992126
2.800000 4.960000 3.080000 30.182911 13.675552 1098.028809
2.800000 4.960000 3.120000 31.746145 26.421644 1705.921021
2.800000 4.960000 3.160000 22.056168 41.773834 2231.527832
2.800000 4.960000 3.200000 0.623271 48.337761 2336.927490
2.800000 5.000000 2.800000 28.198750 11.665426 931.251648
2.800000 5.000000 2.840000 21.409958 16.781513 740.005493
2.800000 5.000000 2.880000 15.692909 17.116087 539.227783
2.800000 5.000000 2.920000 12.925075 14.927229 389.879700
2.800000 5.000000 2.960000 14.035028 12.333984 349.109192
2.800000 5.000000 3.000000 19.306255 12.536966 529.907043
2.800000 5.000000 3.040000 25.936890 19.677948 1059.943848
2.800000 5.000000 3.080000 26.846447 34.820740 1933.215576
2.800000 5.000000 3.120000 14.900776 51.694168 2894.320312
2.800000 5.000000 3.160000 -9.528835 58.494434 3512.397461
2.800000 5.000000 3.200000 -35.444878 46.746956 3441.617188
2.800000 5.040000 2.800000 14.252340 26.540169 907.509766
2.800000 5.040000 2.840000 4.032948 25.520290 667.549866
2.800000 5.040000 2.880000 -1.500373 19.291656 374.419128
2.800000 5.040000 2.920000 -0.111951 12.284941 150.932297
2.800000 5.040000 2.960000 7.478146 9.909397 154.118805
2.800000 5.040000 3.000000 16.384964 16.779106 550.005432
2.800000 5.040000 3.040000 18.146080 32.811653 1405.884766
2.800000 5.040000 3.080000 5.648115 50.315773 2563.578125
2.800000 5.040000 3.120000 -19.936069 56.816139 3625.520508
2.800000 5.040000 3.160000 -46.925941 43.878757 4127.389160
2.800000 5.040000 3.200000 -59.862125 15.154782 3813.141602
2.800000 5.080000 2.800000 -6.795019 28.236870 843.493103
2.800000 5.080000 2.840000 -14.774641 18.815792 572.324036
2.800000 5.080000 2.880000 -13.711170 7.352980 242.062500
2.800000 5.080000 2.920000 -4.142590 1.162977 18.513565
2.800000 5.080000 2.960000 7.833257 6.022430 97.629585
2.800000 5.080000 3.000000 12.340223 21.712420 623.710266
2.800000 5.080000 3.040000 1.631095 39.624500 1572.761597
2.800000 5.080000 3.080000 -22.938683 46.500816 2688.509033
2.800000 5.080000 3.120000 -49.219116 33.634052 3553.770996
2.800000 5.080000 3.160000 -61.423630 4.753802 3795.460938
2.800000 5.080000 3.200000 -51.688377 -25.059601 3299.672119
2.800000 5.120000 2.800000 -23.022030 15.916118 783.336670
2.800000 5.120000 2.840000 -22.797865 1.324941 521.498108
2.800000 5.120000 2.880000 -12.082973 -8.783263 223.143951
2.800000 5.120000 2.920000 3.076380 -7.018338 58.721176
2.800000 5.120000 2.960000 11.775610 7.429681 193.865158
2.800000 5.120000 3.000000 4.992779 25.969351 699.335022
2.800000 5.120000 3.040000 -16.702749 34.644890 1479.250244
2.800000 5.120000 3.080000 -41.284126 23.928904 2276.971436
2.800000 5.120000 3.120000 -52.631657 -2.978264 2778.961426
2.800000 5.120000 3.160000 -42.485107 -31.094191 2771.833008
2.800000 5.120000 3.200000 -17.090511 -44.331833 2257.396973
2.800000 5.160000 2.800000 -26.700634 -1.811344 716.204773
2.800000 5.160000 2.840000 -16.820797 -14.770771 501.114868
2.800000 5.160000 2.880000 0.121952 -16.792318 281.996826
2.800000 5.160000 2.920000 13.240343 -4.787757 198.229309
2.800000 5.160000 2.960000 11.880007 14.158604 341.600647
2.800000 5.160000 3.000000 -5.467607 25.928368 702.174988
2.800000 5.160000 3.040000 -27.984108 19.558670 1165.651855
2.800000 5.160000 3.080000 -39.381260 -3.341097 1562.046631
2.800000 5.160000 3.120000 -30.395561 -28.560349 1739.583618
2.800000 5.160000 3.160000 -6.418194 -39.827148 1627.395020
2.800000 5.160000 3.200000 16.712677 -31.358208 1262.650757
2.800000 5.200000 2.800000 -19.926714 -14.584898 609.793152
2.800000 5.200000 2.840000 -4.351788 -20.704744 447.624481
2.800000 5.200000 2.880000 11.646767 -13.113430 307.609222
2.800000 5.200000 2.920000 16.287830 4.532588 285.837799
2.800000 5.200000 2.960000 4.766008 19.409405 399.439850
2.800000 5.200000 3.000000 -15.043847 18.957535 585.705444
2.800000 5.200000 3.040000 -27.483341 1.822474 758.655457
2.800000 5.200000 3.080000 -21.690655 -19.844934 864.305908
2.800000 5.200000 3.120000 -0.964052 -29.807735 889.430481
2.800000 5.200000 3.160000 19.773598 -21.063000 834.645142
2.800000 5.200000 3.200000 26.395985 -1.221806 698.240784
2.840000 4.800000 2.800000 0.714668 -1.854125 3.948530
2.840000 4.800000 2.840000 -3.107154 -2.411567 15.470063
2.840000 4.800000 2.880000 -5.439338 -7.355172 83.684952
2.840000 4.800000 2.920000 -2.481236 -14.039095 203.252716
2.840000 4.800000 2.960000 5.941336 -17.369816 337.009979
2.840000 4.800000 3.000000 15.731562 -13.830617 438.768005
2.840000 4.800000 3.040000 21.509014 -4.296577 481.098267
2.840000 4.800000 3.080000 20.491743 6.866400 467.058960
2.840000 4.800000 3.120000 13.780976 15.217257 421.480225
2.840000 4.800000 3.160000 4.453807 18.781139 372.567596
2.840000 4.800000 3.200000 -4.951473 17.699524 337.790222
2.840000 4.840000 2.800000 1.671239 -6.142630 40.524940
2.840000 4.840000 2.840000 4.796556 -8.076740 88.240692
2.840000 4.840000 2.880000 10.002210 -7.179935 151.595673
2.840000 4.840000 2.920000 13.987946 -2.003349 199.676041
2.840000 4.840000 2.960000 13.280815 5.130475 202.701828
2.840000 4.840000 3.000000 7.922798 9.625469 155.420380
2.840000 4.840000 3.040000 2.008358 8.931747 83.809616
2.840000 4.840000 3.080000 -0.080610 5.297014 28.064857
2.840000 4.840000 3.120000 1.777922 3.704427 16.883789
2.840000 4.840000 3.160000 3.028891 6.598959 52.720440
2.840000 4.840000 3.200000 -0.887346 10.739297 116.119881
2.840000 4.880000 2.800000 8.620812 -9.319251 161.166840
2.840000 4.880000 2.840000 18.324142 -4.300942 354.272308
2.840000 4.880000 2.880000 22.382748 9.089703 583.610107
2.840000 4.880000 2.920000 14.143597 23.427914 748.908447
2.840000 4.880000 2.960000 -3.720802 27.337507 761.183655
2.840000 4.880000 3.000000 -19.046530 15.887600 615.186157
2.840000 4.880000 3.040000 -19.844572 -3.231697 404.250916
2.840000 4.880000 3.080000 -5.487724 -15.027426 255.938644
2.840000 4.880000 3.120000 11.692421 -10.170835 240.158600
2.840000 4.880000 3.160000 16.860569 6.339485 324.467834
2.840000 4.880000 3.200000 5.908031 19.413990 411.807861
2.840000 4.920000 2.800000 18.531839 -4.428342 363.039307
2.840000 4.920000 2.840000 25.794607 12.417109 819.546387
2.840000 4.920000 2.880000 16.379601 33.611767 1398.042236
2.840000 4.920000 2.920000 -9.669056 42.114349 1867.109009
2.840000 4.920000 2.960000 -36.034317 26.503906 2000.929077
2.840000 4.920000 3.000000 -41.631119 -5.769855 1766.441284
2.840000 4.920000 3.040000 -19.659388 -31.412243 1373.220459
2.840000 4.920000 3.080000 14.145988 -30.284744 1117.274658
2.840000 4.920000 3.120000 33.603226 -3.478403 1141.276001
2.840000 4.920000 3.160000 24.429001 26.989807 1325.225830
2.840000 4.920000 3.200000 -3.772799 37.291622 1404.899048
2.840000 4.960000 2.800000 22.088570 9.549257 579.093201
2.840000 4.960000 2.840000 16.296600 32.520493 1323.161621
2.840000 4.960000 2.880000 -10.048940 46.662781 2278.396240
2.840000 4.960000 2.920000 -43.281578 34.482296 3062.323730
2.840000 4.960000 2.960000 -57.419258 -2.738220 3304.468994
2.840000 4.960000 3.000000 -36.595119 -40.344872 2966.911377
2.840000 4.960000 3.040000 7.540035 -48.622513 2421.000732
2.840000 4.960000 3.080000 42.347301 -19.147890 2159.935547
2.840000 4.960000 3.120000 41.208755 25.993519 2373.824463
2.840000 4.960000 3.160000 6.523027 52.312210 2779.117188
2.840000 4.960000 3.200000 -32.985455 42.217045 2870.319092
2.840000 5.000000 2.800000 12.347672 24.020737 729.460815
2.840000 5.000000 2.840000 -8.064038 39.670776 1638.799194
2.840000 5.000000 2.880000 -40.122391 34.117867 2773.834961
2.840000 5.000000 2.920000 -60.542759 1.308653 3667.138428
2.840000 5.000000 2.960000 -47.576187 -40.417816 3897.093506
2.840000 5.000000 3.000000 -3.747167 -58.855743 3478.039795
2.840000 5.000000 3.040000 40.728325 -35.562744 2923.505371
2.840000 5.000000 3.080000 51.144135 15.010792 2841.046387
2.840000 5.000000 3.120000 18.524954 55.152641 3384.987549
2.840000 5.000000 3.160000 -31.759714 55.406887 4078.602539
2.840000 5.000000 3.200000 -61.945122 19.121916 4202.845703
2.840000 5.040000 2.800000 -7.118227 27.102297 785.203613
2.840000 5.040000 2.840000 -31.413734 25.592434 1641.795410
2.840000 5.040000 2.880000 -51.348217 2.016906 2640.707275
2.840000 5.040000 2.920000 -46.553352 -34.460705 3354.754883
2.840000 5.040000 2.960000 -11.715851 -57.577400 3452.418213
2.840000 5.040000 3.000000 32.304508 -44.681042 3039.976807
2.840000 5.040000 3.040000 51.629776 0.346356 2665.753662
2.840000 5.040000 3.080000 28.174120 45.750206 2886.862305
2.840000 5.040000 3.120000 -22.521652 56.861412 3740.445068
2.840000 5.040000 3.160000 -62.953781 25.738050 4625.625977
2.840000 5.040000 3.200000 -65.246719 -22.402916 4759.024902
2.840000 5.080000 2.800000 -23.700092 14.582861 774.354248
2.840000 5.080000 2.840000 -37.186806 -1.206292 1384.313721
2.840000 5.080000 2.880000 -35.546883 -27.274750 2007.492798
2.840000 5.080000 2.920000 -11.753826 -47.217060 2367.603027
2.840000 5.080000 2.960000 23.237051 -42.105442 2312.828857
2.840000 5.080000 3.000000 44.023048 -8.977531 2018.624878
2.840000 5.080000 3.040000 30.877674 31.263990 1930.867920
2.840000 5.080000 3.080000 -10.802703 47.891468 2410.291260
2.840000 5.080000 3.120000 -51.717617 26.195770 3360.930176
2.840000 5.080000 3.160000 -62.048885 -18.751719 4201.691406
2.840000 5.080000 3.200000 -36.363102 -54.376045 4279.029297
2.840000 5.120000 2.800000 -26.409424 -5.533082 728.072632
2.840000 5.120000 2.840000 -22.781864 -22.327148 1017.514893
2.840000 5.120000 2.880000 -6.184015 -34.552948 1232.148315
2.840000 5.120000 2.920000 17.445660 -31.161425 1275.385376
2.840000 5.120000 2.960000 32.760441 -9.041010 1154.986328
2.840000 5.120000 3.000000 25.459358 19.883812 1043.544922
2.840000 5.120000 3.040000 -3.847300 34.376564 1196.549927
2.840000 5.120000 3.080000 -36.300652 20.622406 1743.020996
2.840000 5.120000 3.120000 -48.009979 -14.442065 2513.531250
2.840000 5.120000 3.160000 -29.714560 -46.914509 3083.926270
2.840000 5.120000 3.200000 5.101589 -55.025185 3053.797119
2.840000 5.160000 2.800000 -15.483389 -19.969515 638.516846
2.840000 5.160000 2.840000 -1.303802 -25.697651 662.069153
2.840000 5.160000 2.880000 14.451215 -20.144047 614.620239
2.840000 5.160000 2.920000 22.505989 -3.978623 522.348999
2.840000 5.160000 2.960000 15.768969 14.362636 454.945679
2.840000 5.160000 3.000000 -4.064574 22.218840 510.197601
2.840000 5.160000 3.040000 -24.955866 11.645992 758.424377
2.840000 5.160000 3.080000 -31.729177 -12.882166 1172.690918
2.840000 5.160000 3.120000 -17.778936 -35.854824 1601.658936
2.840000 5.160000 3.160000 8.733992 -41.856705 1828.266357
2.840000 5.160000 3.200000 30.574738 -27.665277 1700.182129
2.840000 5.200000 2.800000 -1.349477 -21.973995 484.677551
2.840000 5.200000 2.840000 11.283853 -15.314106 361.847168
2.840000 5.200000 2.880000 15.433314 -1.418458 240.199219
2.840000 5.200000 2.920000 7.820993 11.125682 184.948730
2.840000 5.200000 2.960000 -7.154828 13.530557 234.267517
2.840000 5.200000 3.000000 -19.416626 3.003965 386.029175
2.840000 5.200000 3.040000 -19.710369 -14.480636 598.187500
2.840000 5.200000 3.080000 -6.356251 -27.583271 801.238770
2.840000 5.200000 3.120000 13.005939 -27.410923 920.513123
2.840000 5.200000 3.160000 26.603216 -13.974701 903.023438
2.840000 5.200000 3.200000 26.966959 3.887737 742.331360
2.880000 4.800000 2.800000 -4.164919 9.343746 104.652145
2.880000 4.800000 2.840000 -7.825207 1.145428 62.545864
2.880000 4.800000 2.880000 -4.137203 -7.118382 67.787811
2.880000 4.800000 2.920000 4.128216 -10.112640 119.307663
2.880000 4.800000 2.960000 11.614544 -7.002924 183.938568
2.880000 4.800000 3.000000 15.202957 -1.000484 232.130890
2.880000 4.800000 3.040000 15.647758 4.768024 267.586395
2.880000 4.800000 3.080000 14.744072 10.100197 319.401642
2.880000 4.800000 3.120000 11.968721 16.132690 403.513977
2.880000 4.800000 3.160000 5.003311 21.586014 490.989105
2.880000 4.800000 3.200000 -6.104330 22.012236 521.801331
2.880000 4.840000 2.800000 -4.758743 2.169079 27.350540
2.880000 4.840000 2.840000 6.116230 0.768759 37.999260
2.880000 4.840000 2.880000 13.501137 12.152786 329.970917
2.880000 4.840000 2.920000 6.463192 27.190502 781.096252
2.880000 4.840000 2.960000 -12.318451 30.714111 1095.100830
2.880000 4.840000 3.000000 -27.481039 16.929047 1041.800171
2.880000 4.840000 3.040000 -25.482687 -3.553932 661.997742
2.880000 4.840000 3.080000 -8.357769 -13.158381 242.995270
2.880000 4.840000 3.120000 7.638317 -4.371504 77.453934
2.880000 4.840000 3.160000 7.690222 12.788572 222.687088
2.880000 4.840000 3.200000 -7.200228 20.632744 477.553406
2.880000 4.880000 2.800000 2.216043 -1.379838 6.814801
2.880000 4.880000 2.840000 16.201017 17.186537 557.849976
2.880000 4.880000 2.880000 5.258282 46.465614 2186.702637
2.880000 4.880000 2.920000 -32.243786 57.791878 4379.562988
2.880000 4.880000 2.960000 -70.204498 32.663681 5995.587402
2.880000 4.880000 3.000000 -76.333038 -16.234169 6090.281250
2.880000 4.880000 3.040000 -42.751133 -53.228767 4660.960938
2.880000 4.880000 3.080000 4.899426 -51.184914 2643.899658
2.880000 4.880000 3.120000 30.040520 -16.100800 1161.668579
2.880000 4.880000 3.160000 17.905846 19.365601 695.645752
2.880000 4.880000 3.200000 -13.180734 26.684143 885.775269
2.880000 4.920000 2.800000 9.156872 4.715535 106.084579
2.880000 4.920000 2.840000 6.186026 40.470367 1676.117554
2.880000 4.920000 2.880000 -35.475414 65.016212 5485.612793
2.880000 4.920000 2.920000 -91.939362 43.835037 10374.357422
2.880000 4.920000 2.960000 -116.064087 -21.672630 13940.575195
2.880000 4.920000 3.000000 -80.348183 -88.147751 14225.856445
2.880000 4.920000 3.040000 -5.841610 -105.730789 11213.124023
2.880000 4.920000 3.080000 53.470078 -62.858490 6810.238770
2.880000 4.920000 3.120000 57.682968 3.216587 3337.671143
2.880000 4.920000 3.160000 14.614216 40.693455 1869.532593
2.880000 4.920000 3.200000 -31.427332 28.773659 1815.600586
2.880000 4.960000 2.800000 6.106321 16.004364 293.426849
2.880000 4.960000 2.840000 -23.974466 48.732834 2949.664062
2.880000 4.960000 2.880000 -83.528061 42.616653 8793.116211
2.880000 4.960000 2.920000 -125.084732 -19.167633 16013.588867
2.880000 4.960000 2.960000 -103.158920 -102.373642 21122.125000
2.880000 4.960000 3.000000 -20.399784 -144.810623 21386.267578
2.880000 4.960000 3.040000 67.832367 -110.945633 16910.164062
2.880000 4.960000 3.080000 99.171791 -25.895100 10505.600586
2.880000 4.960000 3.120000 58.278763 45.623955 5477.959473
2.880000 4.960000 3.160000 -12.318892 56.041656 3292.422363
2.880000 4.960000 3.200000 -53.684193 13.266352 3057.988525
2.880000 5.000000 2.800000 -8.010026 20.354389 478.461670
2.880000 5.000000 2.840000 -53.884460 28.617750 3722.510742
2.880000 5.000000 2.880000 -100.728058 -13.406826 10325.884766
2.880000 5.000000 2.920000 -98.792313 -91.687515 18166.521484
2.880000 5.000000 2.960000 -29.738449 -150.264389 23463.761719
2.880000 5.000000 3.000000 67.468956 -137.404449 23432.042969
2.880000 5.000000 3.040000 124.057846 -54.979141 18413.054688
2.880000 5.000000 3.080000 100.459610 38.522011 11576.078125
2.880000 5.000000 3.120000 21.088554 77.339615 6426.143066
2.880000 5.000000 3.160000 -48.775185 44.223038 4334.695801
2.880000 5.000000 3.200000 -61.316677 -19.695721 4147.656250
2.880000 5.040000 2.800000 -22.361023 9.973274 599.481567
2.880000 5.040000 2.840000 -59.358921 -9.741278 3618.374023
2.880000 5.040000 2.880000 -70.441483 -65.666313 9274.066406
2.880000 5.040000 2.920000 -27.116711 -122.175217 15662.099609
2.880000 5.040000 2.960000 55.205730 -128.996185 19687.687500
2.880000 5.040000 3.000000 121.058449 -67.917976 19268.000000
2.880000 5.040000 3.040000 119.909897 24.213974 14964.700195
2.880000 5.040000 3.080000 51.955036 82.708214 9539.974609
2.880000 5.040000 3.120000 -30.200548 69.816360 5786.397461
2.880000 5.040000 3.160000 -67.182327 5.818384 4547.318848
2.880000 5.040000 3.200000 -42.694344 -52.587860 4588.290039
2.880000 5.080000 2.800000 -23.759800 -9.704874 658.712646
2.880000 5.080000 2.840000 -34.815544 -39.735989 2791.070801
2.880000 5.080000 2.880000 -14.000792 -78.534103 6363.627441
2.880000 5.080000 2.920000 39.593292 -92.397232 10104.876953
2.880000 5.080000 2.960000 94.094070 -57.714615 12184.670898
2.880000 5.080000 3.000000 106.845627 11.881279 11557.153320
2.880000 5.080000 3.040000 62.427036 70.228714 8829.207031
2.880000 5.080000 3.080000 -9.757736 75.627098 5814.671387
2.880000 5.080000 3.120000 -58.018490 27.113649 4101.295410
2.880000 5.080000 3.160000 -51.825203 -34.814919 3897.930176
2.880000 5.080000 3.200000 -5.758951 -64.177170 4151.874512
2.880000 5.120000 2.800000 -9.634324 -24.136330 675.382629
2.880000 5.120000 2.840000 0.988951 -41.671116 1737.459961
2.880000 5.120000 2.880000 28.047310 -49.168983 3204.240479
2.880000 5.120000 2.920000 59.023056 -32.170395 4518.655273
2.880000 5.120000 2.960000 70.498001 7.682076 5028.982422
2.880000 5.120000 3.000000 47.475697 47.439865 4504.482422
2.880000 5.120000 3.040000 0.202190 58.209435 3388.379150
2.880000 5.120000 3.080000 -39.928391 29.933769 2490.306885
2.880000 5.120000 3.120000 -44.952850 -17.720226 2334.765137
2.880000 5.120000 3.160000 -13.860263 -50.490276 2741.375000
2.880000 5.120000 3.200000 27.122395 -47.905228 3030.535156
2.880000 5.160000 2.800000 9.118307 -23.329319 627.400635
2.880000 5.160000 2.840000 22.141928 -19.901302 886.326782
2.880000 5.160000 2.880000 31.875889 -7.739464 1075.971558
2.880000 5.160000 2.920000 31.962360 10.131363 1124.236938
2.880000 5.160000 2.960000 18.845213 25.480732 1004.409790
2.880000 5.160000 3.000000 -3.398884 28.005600 795.866089
2.880000 5.160000 3.040000 -22.510410 12.952521 674.486389
2.880000 5.160000 3.080000 -25.234035 -12.770164 799.833618
2.880000 5.160000 3.120000 -7.965493 -33.233315 1167.902344
2.880000 5.160000 3.160000 18.765676 -34.865555 1567.757568
2.880000 5.160000 3.200000 37.540855 -17.390783 1711.755127
2.880000 5.200000 2.800000 18.695509 -11.157513 474.012146
2.880000 5.200000 2.840000 18.858387 2.978666 364.511230
2.880000 5.200000 2.880000 8.726541 12.304081 227.542923
2.880000 5.200000 2.920000 -4.458590 11.174372 144.745605
2.880000 5.200000 2.960000 -12.489059 1.255751 157.553513
2.880000 5.200000 3.000000 -11.526756 -11.145403 257.086121
2.880000 5.200000 3.040000 -2.954004 -19.888628 404.283661
2.880000 5.200000 3.080000 9.059493 -21.757702 555.471985
2.880000 5.200000 3.120000 20.016804 -16.498363 672.868408
2.880000 5.200000 3.160000 26.186266 -6.043762 722.247559
2.880000 5.200000 3.200000 25.357508 5.832798 677.024719
2.920000 4.800000 2.800000 -16.780281 14.027315 478.343384
2.920000 4.800000 2.840000 -14.522629 0.468410 211.126160
2.920000 4.800000 2.880000 -4.211868 -5.849638 51.958099
2.920000 4.800000 2.920000 5.109505 -2.853369 34.248753
2.920000 4.800000 2.960000 7.848991 3.444603 73.471954
2.920000 4.800000 3.000000 6.594450 6.543205 86.300308
2.920000 4.800000 3.040000 7.403061 6.779617 100.768524
2.920000 4.800000 3.080000 11.294289 10.026005 228.081726
2.920000 4.800000 3.120000 12.060001 19.207266 514.362671
2.920000 4.800000 3.160000 3.511467 28.653160 833.333984
2.920000 4.800000 3.200000 -11.757522 28.593645 955.835876
2.920000 4.840000 2.800000 -16.229012 3.094124 272.954437
2.920000 4.840000 2.840000 -1.395742 9.811680 98.217155
2.920000 4.840000 2.880000 -3.420998 30.045250 914.420288
2.920000 4.840000 2.920000 -27.737320 40.368813 2399.000000
2.920000 4.840000 2.960000 -55.009777 23.309349 3569.401367
2.920000 4.840000 3.000000 -58.534916 -12.668198 3586.819580
2.920000 4.840000 3.040000 -31.290985 -38.812439 2485.531250
2.920000 4.840000 3.080000 5.318779 -33.229126 1132.464233
2.920000 4.840000 3.120000 21.082127 -2.473717 450.575317
2.920000 4.840000 3.160000 5.691091 24.691730 642.070068
2.920000 4.840000 3.200000 -22.259388 25.170788 1129.048828
2.920000 4.880000 2.800000 -8.643106 -1.049602 75.804955
2.920000 4.880000 2.840000 -5.918415 32.356575 1081.975586
2.920000 4.880000 2.880000 -44.655628 58.117508 5371.770020
2.920000 4.880000 2.920000 -101.119095 37.358074 11620.697266
2.920000 4.880000 2.960000 -124.880821 -29.928917 16490.958984
2.920000 4.880000 3.000000 -86.445587 -97.920288 17061.222656
2.920000 4.880000 3.040000 -8.720650 -114.212158 13120.466797
2.920000 4.880000 3.080000 51.081039 -68.307816 7275.230469
2.920000 4.880000 3.120000 52.880547 -1.207249 2797.809814
2.920000 4.880000 3.160000 8.260347 33.434940 1186.128662
2.920000 4.880000 3.200000 -34.780209 17.767708 1525.354370
2.920000 4.920000 2.800000 -4.358517 3.508284 31.304722
2.920000 4.920000 2.840000 -35.261421 44.201099 3197.104980
2.920000 4.920000 2.880000 -105.995827 38.725269 12734.761719
2.920000 4.920000 2.920000 -156.501221 -36.433468 25820.031250
2.920000 4.920000 2.960000 -128.807495 -138.896164 35883.515625
2.920000 4.920000 3.000000 -26.254112 -191.089111 37204.324219
2.920000 4.920000 3.040000 82.258301 -149.963425 29255.457031
2.920000 4.920000 3.080000 121.229797 -47.927338 16993.693359
2.920000 4.920000 3.120000 74.747818 36.256020 6901.735352
2.920000 4.920000 3.160000 -3.857309 48.276627 2345.511475
2.920000 4.920000 3.200000 -45.906540 1.900251 2111.021240
2.920000 4.960000 2.800000 -9.670464 7.837257 154.940475
2.920000 4.960000 2.840000 -70.145729 24.346056 5513.153809
2.920000 4.960000 2.880000 -136.560989 -31.509129 19641.730469
2.920000 4.960000 2.920000 -135.256714 -141.585999 38340.976562
2.920000 4.960000 2.960000 -38.335800 -225.794113 52452.613281
2.920000 4.960000 3.000000 99.520493 -210.368896 54159.402344
2.920000 4.960000 3.040000 182.268036 -97.992111 42824.089844
2.920000 4.960000 3.080000 156.170349 30.494562 25319.095703
2.920000 4.960000 3.120000 55.677593 86.843254 10641.745117
2.920000 4.960000 3.160000 -32.142014 50.658302 3599.372559
2.920000 4.960000 3.200000 -47.663811 -21.963186 2754.220459
2.920000 5.000000 2.800000 -18.712999 1.809242 353.449677
2.920000 5.000000 2.840000 -79.331924 -21.633579 6761.565918
2.920000 5.000000 2.880000 -102.282661 -108.721573 22282.125000
2.920000 5.000000 2.920000 -36.676659 -202.112732 42194.730469
2.920000 5.000000 2.960000 95.340393 -218.542877 56850.781250
2.920000 5.000000 3.000000 205.661499 -126.369843 58265.988281
2.920000 5.000000 3.040000 213.772217 18.187250 46029.339844
2.920000 5.000000 3.080000 118.563805 115.736984 27452.425781
2.920000 5.000000 3.120000 -1.440639 109.116180 11908.416016
2.920000 5.000000 3.160000 -59.520302 28.288183 4342.887695
2.920000 5.000000 3.200000 -34.103733 -45.612640 3243.577637
2.920000 5.040000 2.800000 -18.716713 -13.736460 539.005676
2.920000 5.040000 2.840000 -49.146343 -62.340118 6301.653320
2.920000 5.040000 2.880000 -20.582521 -137.175827 19240.847656
2.920000 5.040000 2.920000 75.188988 -172.113678 35276.500000
2.920000 5.040000 2.960000 181.239044 -117.581284 46672.949219
2.920000 5.040000 3.000000 217.405167 6.604122 47308.621094
2.920000 5.040000 3.040000 151.319397 119.558121 37191.703125
2.920000 5.040000 3.080000 30.277645 146.331268 22329.576172
2.920000 5.040000 3.120000 -58.875179 81.513428 10110.725586
2.920000 5.040000 3.160000 -64.332138 -10.633616 4251.697754
2.920000 5.040000 3.200000 -7.828737 -57.530582 3371.056885
2.920000 5.080000 2.800000 -3.837750 -26.045191 693.080322
2.920000 5.080000 2.840000 1.379686 -67.556961 4565.846191
2.920000 5.080000 2.880000 52.164871 -98.815002 12485.578125
2.920000 5.080000 2.920000 125.913971 -77.352280 21837.703125
2.920000 5.080000 2.960000 167.647430 3.154419 28115.611328
2.920000 5.080000 3.000000 136.157669 97.259140 27998.250000
2.920000 5.080000 3.040000 44.577869 140.818008 21816.896484
2.920000 5.080000 3.080000 -46.027695 105.461685 13240.715820
2.920000 5.080000 3.120000 -77.082077 23.262861 6482.807129
2.920000 5.080000 3.160000 -40.514500 -42.341728 3434.246582
2.920000 5.080000 3.200000 19.985910 -51.411209 3042.548828
2.920000 5.120000 2.800000 17.194416 -22.821308 816.460083
2.920000 5.120000 2.840000 36.323986 -35.900818 2608.300781
2.920000 5.120000 2.880000 69.897400 -28.705481 5709.651367
2.920000 5.120000 2.920000 94.672241 9.197166 9047.420898
2.920000 5.120000 2.960000 84.179688 62.675602 11014.451172
2.920000 5.120000 3.000000 34.065880 97.097954 10588.497070
2.920000 5.120000 3.040000 -28.369705 85.558762 8125.142090
2.920000 5.120000 3.080000 -63.060959 33.567307 5103.448730
2.920000 5.120000 3.120000 -49.674564 -23.189100 3005.296631
2.920000 5.120000 3.160000 -4.045376 -47.751213 2296.543457
2.920000 5.120000 3.200000 36.870392 -31.363016 2343.064453
2.920000 5.160000 2.800000 28.684933 -5.255479 850.445435
2.920000 5.160000 2.840000 35.003994 4.399317 1244.633545
2.920000 5.160000 2.880000 35.428795 18.514809 1597.997559
2.920000 5.160000 2.920000 26.638279 33.252968 1815.357788
2.920000 5.160000 2.960000 7.993820 41.613506 1795.585083
2.920000 5.160000 3.000000 -14.855087 36.100742 1523.937134
2.920000 5.160000 3.040000 -30.247452 15.190289 1145.653198
2.920000 5.160000 3.080000 -27.533802 -12.188667 906.673828
2.920000 5.160000 3.120000 -6.330366 -30.482344 969.246826
2.920000 5.160000 3.160000 21.003479 -28.602016 1259.221436
2.920000 5.160000 3.200000 37.702080 -9.032351 1503.030151
2.920000 5.200000 2.800000 23.455740 12.426507 704.589844
2.920000 5.200000 2.840000 9.084548 22.408554 584.672302
2.920000 5.200000 2.880000 -7.928324 17.547928 370.788086
2.920000 5.200000 2.920000 -14.928913 2.208382 227.749405
2.920000 5.200000 2.960000 -8.928051 -11.596020 214.177765
2.920000 5.200000 3.000000 2.594875 -15.980186 262.099731
2.920000 5.200000 3.040000 10.885615 -12.945557 286.084045
2.920000 5.200000 3.080000 14.345209 -9.243404 291.225525
2.920000 5.200000 3.120000 17.492893 -7.511339 362.421539
2.920000 5.200000 3.160000 23.080540 -4.047644 549.094727
2.920000 5.200000 3.200000 27.417223 5.011351 776.817749
2.960000 4.800000 2.800000 -30.232090 8.987269 994.750244
2.960000 4.800000 2.840000 -20.559891 -4.491934 442.886566
2.960000 4.800000 2.880000 -7.178162 -5.789587 85.045319
2.960000 4.800000 2.920000 -0.516533 0.952301 1.173683
2.960000 4.800000 2.960000 -1.530539 5.823219 36.252430
2.960000 4.800000 3.000000 -2.338795 4.719688 27.745420
2.960000 4.800000 3.040000 3.110794 3.716705 23.490938
2.960000 4.800000 3.080000 10.537376 11.058459 233.325821
2.960000 4.800000 3.120000 9.223866 25.735310 747.385864
2.960000 4.800000 3.160000 -5.345625 36.095516 1331.461914
2.960000 4.800000 3.200000 -24.226175 31.227140 1562.041870
2.960000 4.840000 2.800000 -26.757795 -4.401875 735.356140
2.960000 4.840000 2.840000 -17.097702 10.390026 400.284058
2.960000 4.840000 2.880000 -33.333580 27.107353 1845.936157
2.960000 4.840000 2.920000 -64.521225 18.017548 4487.620117
2.960000 4.840000 2.960000 -78.316788 -20.875290 6569.296875
2.960000 4.840000 3.000000 -53.307198 -61.352470 6605.783203
2.960000 4.840000 3.040000 -3.224510 -68.217316 4663.999512
2.960000 4.840000 3.080000 33.322189 -33.936199 2262.033936
2.960000 4.840000 3.120000 28.814936 12.703533 991.680298
2.960000 4.840000 3.160000 -7.419046 33.574112 1182.263184
2.960000 4.840000 3.200000 -39.489796 16.849030 1843.333740
2.960000 4.880000 2.800000 -18.275312 -9.660271 427.307861
2.960000 4.880000 2.840000 -37.373829 23.823647 1964.369263
2.960000 4.880000 2.880000 -93.096146 21.444645 9126.765625
2.960000 4.880000 2.920000 -134.290070 -40.181267 19648.355469
2.960000 4.880000 2.960000 -109.485542 -125.879074 27832.625000
2.960000 4.880000 3.000000 -20.723579 -168.195023 28719.033203
2.960000 4.880000 3.040000 71.759659 -129.690506 21969.076172
2.960000 4.880000 3.080000 102.115341 -39.794891 12011.176758
2.960000 4.880000 3.120000 58.082554 31.585537 4371.229004
2.960000 4.880000 3.160000 -11.204147 37.896904 1561.708252
2.960000 4.880000 3.200000 -44.828007 -5.677847 2041.788086
2.960000 4.920000 2.800000 -13.756695 -9.031395 270.812744
2.960000 4.920000 2.840000 -70.310471 10.261742 5048.865723
2.960000 4.920000 2.880000 -136.232620 -44.003735 20495.654297
2.960000 4.920000 2.920000 -134.123108 -154.899857 41982.972656
2.960000 4.920000 2.960000 -34.108910 -239.633118 58587.449219
2.960000 4.920000 3.000000 107.169312 -221.947021 60745.742188
2.960000 4.920000 3.040000 190.615784 -105.660286 47498.476562
2.960000 4.920000 3.080000 162.476822 24.948917 27021.166016
2.960000 4.920000 3.120000 60.587933 80.232788 10108.197266
2.960000 4.920000 3.160000 -25.166561 42.575768 2446.051758
2.960000 4.920000 3.200000 -36.694466 -27.807190 2119.723633
2.960000 4.960000 2.800000 -14.099947 -11.145321 323.026672
2.960000 4.960000 2.840000 -84.055283 -34.059864 8225.365234
2.960000 4.960000 2.880000 -112.012871 -134.478226 30631.275391
2.960000 4.960000 2.920000 -35.060783 -244.244308 60884.539062
2.960000 4.960000 2.960000 121.016090 -263.426086 84038.203125
2.960000 4.960000 3.000000 251.402695 -154.611893 87108.156250
2.960000 4.960000 3.040000 261.718506 14.939640 68719.773438
2.960000 4.960000 3.080000 152.609299 128.819794 39884.136719
2.960000 4.960000 3.120000 16.832602 122.895462 15386.631836
2.960000 4.960000 3.160000 -47.094997 35.003098 3443.155518
2.960000 4.960000 3.200000 -18.972403 -41.345867 2069.432861
2.960000 5.000000 2.800000 -11.027296 -19.529522 503.003479
2.960000 5.000000 2.840000 -55.952026 -81.083359 9705.140625
2.960000 5.000000 2.880000 -20.867012 -182.880142 33880.578125
2.960000 5.000000 2.920000 107.968475 -232.599274 65759.609375
2.960000 5.000000 2.960000 252.899384 -160.852982 89831.781250
2.960000 5.000000 3.000000 304.683594 5.775031 92865.445312
2.960000 5.000000 3.040000 220.208862 158.405014 73584.093750
2.960000 5.000000 3.080000 63.261375 198.281036 43317.371094
2.960000 5.000000 3.120000 -52.502403 120.461487 17267.472656
2.960000 5.000000 3.160000 -62.859970 9.546665 4042.514648
2.960000 5.000000 3.200000 0.638154 -43.868629 1924.863892
2.960000 5.040000 2.800000 2.517963 -26.612118 714.544983
2.960000 5.040000 2.840000 2.204285 -93.360428 8721.028320
2.960000 5.040000 2.880000 78.983437 -149.193909 28497.205078
2.960000 5.040000 2.920000 198.031204 -121.336014 53938.789062
2.960000 5.040000 2.960000 269.786896 3.132488 72794.781250
2.960000 5.040000 3.000000 227.119019 152.718445 74905.968750
2.960000 5.040000 3.040000 89.739044 226.859161 59518.175781
2.960000 5.040000 3.080000 -48.789097 182.138824 35554.925781
2.960000 5.040000 3.120000 -101.258316 67.482788 14807.172852
2.960000 5.040000 3.160000 -57.986668 -24.175091 3946.888672
2.960000 5.040000 3.200000 16.543087 -38.496418 1755.647949
2.960000 5.080000 2.800000 21.986517 -21.038649 926.031616
2.960000 5.080000 2.840000 50.941467 -58.906212 6064.975098
2.960000 5.080000 2.880000 120.307106 -58.281483 17870.531250
2.960000 5.080000 2.920000 180.184631 9.766579 32561.888672
2.960000 5.080000 2.960000 171.532303 117.105591 43137.050781
2.960000 5.080000 3.000000 81.754074 193.295792 44046.992188
2.960000 5.080000 3.040000 -37.242085 183.639069 35110.281250
2.960000 5.080000 3.080000 -109.512054 97.242401 21448.974609
2.960000 5.080000 3.120000 -98.033157 -1.066658 9611.637695
2.960000 5.080000 3.160000 -31.539360 -47.303135 3232.317871
2.960000 5.080000 3.200000 27.630968 -29.356016 1625.246094
2.960000 5.120000 2.800000 33.406822 -0.994276 1117.004272
2.960000 5.120000 2.840000 57.571056 -3.748096 3328.474854
2.960000 5.120000 2.880000 85.221565 22.021156 7747.646484
2.960000 5.120000 2.920000 86.851173 73.238075 12906.941406
2.960000 5.120000 2.960000 45.147247 119.859322 16404.531250
2.960000 5.120000 3.000000 -24.662102 125.983162 16479.976562
2.960000 5.120000 3.040000 -81.864235 80.850014 13238.477539
2.960000 5.120000 3.080000 -91.576797 10.775356 8502.417969
2.960000 5.120000 3.120000 -52.938381 -40.693676 4458.447266
2.960000 5.120000 3.160000 1.631534 -47.298004 2239.763184
2.960000 5.120000 3.200000 34.830696 -18.179960 1543.688354
2.960000 5.160000 2.800000 27.099018 21.417591 1193.070068
2.960000 5.160000 2.840000 25.135418 31.365828 1615.604370
2.960000 5.160000 2.880000 17.040087 41.508228 2013.297607
2.960000 5.160000 2.920000 2.167290 48.044827 2313.002686
2.960000 5.160000 2.960000 -17.658134 45.883392 2417.095459
2.960000 5.160000 3.000000 -36.026009 30.942749 2255.327148
2.960000 5.160000 3.040000 -43.084538 5.007248 1881.349854
2.960000 5.160000 3.080000 -31.846313 -21.763432 1487.834595
2.960000 5.160000 3.120000 -5.315659 -35.441910 1284.385254
2.960000 5.160000 3.160000 23.031765 -28.197355 1325.552979
2.960000 5.160000 3.200000 37.818317 -5.122368 1456.463745
2.960000 5.200000 2.800000 8.478458 30.839111 1022.935059
2.960000 5.200000 2.840000 -12.539202 27.579746 917.873962
2.960000 5.200000 2.880000 -23.985802 8.048963 640.104492
2.960000 5.200000 2.920000 -16.556023 -12.740414 436.420044
2.960000 5.200000 2.960000 1.817593 -19.508987 383.904236
2.960000 5.200000 3.000000 14.955276 -11.560410 357.303345
2.960000 5.200000 3.040000 15.377617 -1.678795 239.289459
2.960000 5.200000 3.080000 10.767750 -0.928658 116.806839
2.960000 5.200000 3.120000 13.487022 -6.501408 224.168091
2.960000 5.200000 3.160000 25.387882 -5.789934 678.067871
2.960000 5.200000 3.200000 34.956673 8.309880 1291.023071
3.000000 4.800000 2.800000 -38.113647 -3.291595 1463.484741
3.000000 4.800000 2.840000 -23.793839 -12.997112 735.071655
3.000000 4.800000 2.880000 -10.833481 -10.325329 223.976715
3.000000 4.800000 2.920000 -6.449768 -3.364914 52.922153
3.000000 4.800000 2.960000 -6.978256 -0.759750 49.273281
3.000000 4.800000 3.000000 -4.006424 -1.872375 19.557224
3.000000 4.800000 3.040000 4.082321 1.759624 19.761625
3.000000 4.800000 3.080000 8.617180 15.045975 300.637146
3.000000 4.800000 3.120000 -0.029499 31.055210 964.426941
3.000000 4.800000 3.160000 -20.238958 36.138161 1715.582153
3.000000 4.800000 3.200000 -38.107246 23.999084 2028.118286
3.000000 4.840000 2.800000 -31.635328 -17.943279 1322.755249
3.000000 4.840000 2.840000 -31.550209 -3.665543 1008.851929
3.000000 4.840000 2.880000 -53.046356 -1.901535 2817.531738
3.000000 4.840000 2.920000 -71.439064 -29.567726 5977.790527
3.000000 4.840000 2.960000 -57.330124 -71.275986 8367.009766
3.000000 4.840000 3.000000 -9.148407 -90.432129 8261.663086
3.000000 4.840000 3.040000 40.348015 -64.766914 5822.715820
3.000000 4.840000 3.080000 52.843468 -10.521469 2903.133545
3.000000 4.840000 3.120000 20.765297 30.641129 1370.076416
3.000000 4.840000 3.160000 -25.570576 29.962633 1551.613770
3.000000 4.840000 3.200000 -47.267006 -2.896191 2242.557861
3.000000 4.880000 2.800000 -20.860632 -25.241039 1072.276001
3.000000 4.880000 2.840000 -54.362652 -10.350201 3062.424561
3.000000 4.880000 2.880000 -97.979103 -46.412655 11754.039062
3.000000 4.880000 2.920000 -94.460693 -123.949417 24286.281250
3.000000 4.880000 2.960000 -20.143913 -182.754547 33805.000000
3.000000 4.880000 3.000000 83.603073 -165.833771 34490.312500
3.000000 4.880000 3.040000 142.516541 -76.151855 26110.070312
3.000000 4.880000 3.080000 116.526566 21.977097 14061.433594
3.000000 4.880000 3.120000 35.828205 60.320381 4922.208496
3.000000 4.880000 3.160000 -29.548256 26.771343 1589.804199
3.000000 4.880000 3.200000 -35.217381 -30.185356 2151.419678
3.000000 4.920000 2.800000 -11.211414 -27.782707 897.574646
3.000000 4.920000 2.840000 -68.062706 -44.542183 6616.538086
3.000000 4.920000 2.880000 -90.698875 -129.550278 25009.562500
3.000000 4.920000 2.920000 -21.875824 -223.464279 50414.835938
3.000000 4.920000 2.960000 116.142471 -237.278915 69790.359375
3.000000 4.920000 3.000000 229.851807 -137.966431 71866.585938
3.000000 4.920000 3.040000 235.605057 13.377853 55688.710938
3.000000 4.920000 3.080000 135.897125 112.454254 31113.988281
3.000000 4.920000 3.120000 15.490253 103.704216 10994.512695
3.000000 4.920000 3.160000 -37.961494 23.996197 2016.892578
3.000000 4.920000 3.200000 -9.520338 -41.471649 1810.534546
3.000000 4.960000 2.800000 -1.646585 -29.531115 874.797974
3.000000 4.960000 2.840000 -46.716660 -88.355637 9989.165039
3.000000 4.960000 2.880000 -11.149490 -190.174423 36290.625000
3.000000 4.960000 2.920000 120.597931 -239.356995 71835.632812
3.000000 4.960000 2.960000 268.344055 -164.027512 98913.554688
3.000000 4.960000 3.000000 319.613770 7.580864 102210.429688
3.000000 4.960000 3.040000 231.669922 162.773346 80166.117188
3.000000 4.960000 3.080000 72.145386 201.605438 45849.710938
3.000000 4.960000 3.120000 -42.581474 122.347549 16782.105469
3.000000 4.960000 3.160000 -50.284050 13.654181 2714.922363
3.000000 4.960000 3.200000 12.513755 -34.010155 1313.284668
3.000000 5.000000 2.800000 11.612974 -28.710936 959.178955
3.000000 5.000000 2.840000 8.306702 -105.795990 11261.791992
3.000000 5.000000 2.880000 97.589462 -172.468826 39269.199219
3.000000 5.000000 2.920000 238.473007 -140.088821 76494.250000
3.000000 5.000000 2.960000 323.533051 7.045115 104723.265625
3.000000 5.000000 3.000000 273.461395 183.226624 108353.125000
3.000000 5.000000 3.040000 113.376297 269.974304 85740.312500
3.000000 5.000000 3.080000 -45.863194 218.984833 50057.789062
3.000000 5.000000 3.120000 -104.819969 90.375031 19154.871094
3.000000 5.000000 3.160000 -57.081612 -8.459995 3329.881836
3.000000 5.000000 3.200000 20.202412 -19.988863 807.692139
3.000000 5.040000 2.800000 26.853577 -19.003834 1082.260254
3.000000 5.040000 2.840000 63.288540 -75.933861 9771.390625
3.000000 5.040000 2.880000 161.163605 -79.853653 32350.312500
3.000000 5.040000 2.920000 248.337189 13.130150 61843.761719
3.000000 5.040000 2.960000 239.609726 163.156952 84033.015625
3.000000 5.040000 3.000000 117.647736 270.416626 86966.140625
3.000000 5.040000 3.040000 -43.940556 259.859680 69457.828125
3.000000 5.040000 3.080000 -141.355194 146.890350 41558.066406
3.000000 5.040000 3.120000 -128.282013 20.952837 16895.296875
3.000000 5.040000 3.160000 -47.628590 -35.453205 3525.412598
3.000000 5.040000 3.200000 18.393738 -13.035295 508.248474
3.000000 5.080000 2.800000 34.867157 1.538913 1218.086914
3.000000 5.080000 2.840000 79.646927 -15.409063 6581.072266
3.000000 5.080000 2.880000 138.632202 24.015377 19795.625000
3.000000 5.080000 2.920000 151.652145 116.815811 36644.304688
3.000000 5.080000 2.960000 83.506973 205.373413 49151.652344
3.000000 5.080000 3.000000 -37.274315 222.376282 50840.585938
3.000000 5.080000 3.040000 -136.562286 150.056808 41166.304688
3.000000 5.080000 3.080000 -155.589340 37.214817 25592.986328
3.000000 5.080000 3.120000 -98.145103 -42.746960 11459.763672
3.000000 5.080000 3.160000 -20.980095 -52.591568 3206.037354
3.000000 5.080000 3.200000 19.928125 -14.411808 604.830383
3.000000 5.120000 2.800000 27.255962 24.425356 1339.485596
3.000000 5.120000 2.840000 48.689957 33.919827 3521.266602
3.000000 5.120000 2.880000 57.809978 70.405685 8298.954102
3.000000 5.120000 2.920000 30.750519 114.629105 14085.426758
3.000000 5.120000 2.960000 -30.627609 131.605713 18258.115234
3.000000 5.120000 3.000000 -94.384857 99.588097 18826.289062
3.000000 5.120000 3.040000 -121.401398 30.892075 15692.620117
3.000000 5.120000 3.080000 -96.472626 -35.557407 10571.296875
3.000000 5.120000 3.120000 -39.799408 -64.281311 5716.080078
3.000000 5.120000 3.160000 10.902350 -49.175270 2537.068604
3.000000 5.120000 3.200000 30.421711 -13.325958 1103.061646
3.000000 5.160000 2.800000 6.636604 36.120041 1348.701904
3.000000 5.160000 2.840000 -0.705624 41.713062 1740.477539
3.000000 5.160000 2.880000 -12.890720 44.056583 2107.153320
3.000000 5.160000 2.920000 -27.822067 40.060410 2378.903809
3.000000 5.160000 2.960000 -41.839302 27.658443 2515.516602
3.000000 5.160000 3.000000 -49.430618 6.777023 2489.313965
3.000000 5.160000 3.040000 -44.441093 -18.367531 2312.376953
3.000000 5.160000 3.080000 -24.302746 -38.431252 2067.584473
3.000000 5.160000 3.120000 5.469444 -42.934074 1873.249512
3.000000 5.160000 3.160000 31.855383 -27.816349 1788.514648
3.000000 5.160000 3.200000 41.828453 -0.271959 1749.693481
3.000000 5.200000 2.800000 -13.354057 30.755499 1124.231567
3.000000 5.200000 2.840000 -29.462582 14.720579 1084.739136
3.000000 5.200000 2.880000 -27.249615 -10.491041 852.603455
3.000000 5.200000 2.920000 -6.571854 -25.131695 674.791382
3.000000 5.200000 2.960000 15.363016 -19.124077 601.752563
3.000000 5.200000 3.000000 21.730536 -2.368362 477.825317
3.000000 5.200000 3.040000 13.486912 6.425941 223.189514
3.000000 5.200000 3.080000 7.294144 0.340874 53.320728
3.000000 5.200000 3.120000 16.145664 -8.315474 329.829559
3.000000 5.200000 3.160000 33.960396 -2.077339 1157.623779
3.000000 5.200000 3.200000 41.224388 21.438061 2159.040527
3.040000 4.800000 2.800000 -37.912067 -17.350763 1738.373779
3.040000 4.800000 2.840000 -22.146799 -23.279085 1032.396484
3.040000 4.800000 2.880000 -9.879852 -18.975292 457.673187
3.040000 4.800000 2.920000 -4.897816 -12.164436 171.962112
3.040000 4.800000 2.960000 -2.877861 -8.147331 74.661087
3.040000 4.800000 3.000000 1.260231 -4.434206 21.250366
3.040000 4.800000 3.040000 5.548248 4.691223 52.790634
3.040000 4.800000 3.080000 2.186565 18.915543 362.578827
3.040000 4.800000 3.120000 -12.893508 29.152498 1016.110718
3.040000 4.800000 3.160000 -32.948807 25.608631 1741.425903
3.040000 4.800000 3.200000 -44.685341 8.615835 2071.012207
3.040000 4.840000 2.800000 -28.276743 -33.317753 1909.646851
3.040000 4.840000 2.840000 -31.993437 -27.757500 1794.058838
3.040000 4.840000 2.880000 -43.458290 -39.203163 3425.510986
3.040000 4.840000 2.920000 -38.389450 -67.714653 6059.024414
3.040000 4.840000 2.960000 -4.145996 -88.644890 7875.105957
3.040000 4.840000 3.000000 42.226097 -75.612755 7500.332031
3.040000 4.840000 3.040000 66.049965 -29.012718 5204.335449
3.040000 4.840000 3.080000 47.251259 20.095528 2636.511719
3.040000 4.840000 3.120000 0.696548 36.767403 1352.327148
3.040000 4.840000 3.160000 -36.684158 13.846180 1537.444092
3.040000 4.840000 3.200000 -39.693169 -22.887625 2099.391113
3.040000 4.880000 2.800000 -12.209686 -42.004105 1913.421265
3.040000 4.880000 2.840000 -39.328060 -50.049168 4051.615479
3.040000 4.880000 2.880000 -48.512993 -98.149002 11986.737305
3.040000 4.880000 2.920000 -3.305328 -151.551971 22978.925781
3.040000 4.880000 2.960000 83.468536 -154.848862 30945.166016
3.040000 4.880000 3.000000 152.828918 -87.068085 30937.529297
3.040000 4.880000 3.040000 151.273590 12.141815 23031.123047
3.040000 4.880000 3.080000 81.230835 74.555542 12156.977539
3.040000 4.880000 3.120000 -0.416134 63.974895 4092.960449
3.040000 4.880000 3.160000 -34.737743 6.088936 1243.786011
3.040000 4.880000 3.200000 -12.087817 -40.526432 1788.507080
3.040000 4.920000 2.800000 5.915584 -42.385586 1831.531982
3.040000 4.920000 2.840000 -23.198009 -82.435684 7333.789551
3.040000 4.920000 2.880000 6.143250 -154.725891 23977.841797
3.040000 4.920000 2.920000 106.814087 -187.189606 46449.199219
3.040000 4.920000 2.960000 217.825226 -125.035042 63081.589844
3.040000 4.920000 3.000000 252.971130 9.297195 64080.832031
3.040000 4.920000 3.040000 180.483810 128.018997 48963.269531
3.040000 4.920000 3.080000 54.702953 154.185715 26765.648438
3.040000 4.920000 3.120000 -32.875908 88.624939 8935.205078
3.040000 4.920000 3.160000 -34.948639 2.853936 1229.552246
3.040000 4.920000 3.200000 17.077183 -31.924145 1310.781128
3.040000 4.960000 2.800000 23.080643 -34.495926 1722.684937
3.040000 4.960000 2.840000 21.434109 -98.117661 10086.496094
3.040000 4.960000 2.880000 100.536880 -153.448059 33653.968750
3.040000 4.960000 2.920000 224.528351 -121.227562 65109.101562
3.040000 4.960000 2.960000 297.433167 12.232746 88616.132812
3.040000 4.960000 3.000000 249.138107 169.302673 90733.187500
3.040000 4.960000 3.040000 104.211136 244.036362 70413.703125
3.040000 4.960000 3.080000 -36.575657 195.485687 39552.429688
3.040000 4.960000 3.120000 -85.405014 80.598160 13790.080078
3.040000 4.960000 3.160000 -40.303986 -3.608471 1637.432373
3.040000 4.960000 3.200000 26.492369 -8.591642 775.661926
3.040000 5.000000 2.800000 35.657471 -18.215368 1603.254883
3.040000 5.000000 2.840000 71.700668 -74.856674 10744.507812
3.040000 5.000000 2.880000 171.802979 -77.848259 35576.617188
3.040000 5.000000 2.920000 260.859192 19.290379 68419.632812
3.040000 5.000000 2.960000 250.157440 174.601135 93064.304688
3.040000 5.000000 3.000000 123.104889 283.950928 95782.945312
3.040000 5.000000 3.040000 -42.168182 271.175140 75314.109375
3.040000 5.000000 3.080000 -138.842957 155.564651 43477.726562
3.040000 5.000000 3.120000 -123.067413 31.162361 16116.680664
3.040000 5.000000 3.160000 -43.391815 -19.879425 2278.041016
3.040000 5.000000 3.200000 15.542965 5.997496 277.553711
3.040000 5.040000 2.800000 38.269913 4.133973 1481.675903
3.040000 5.040000 2.840000 92.649643 -19.261339 8954.955078
3.040000 5.040000 2.880000 167.171967 27.803881 28719.523438
3.040000 5.040000 2.920000 185.111084 142.507812 54574.589844
3.040000 5.040000 2.960000 102.236839 252.068726 73991.015625
3.040000 5.040000 3.000000 -44.461628 272.981567 76495.773438
3.040000 5.040000 3.040000 -162.698410 186.009888 61070.453125
3.040000 5.040000 3.080000 -183.283295 53.974865 36506.050781
3.040000 5.040000 3.120000 -116.225342 -34.781464 14718.080078
3.040000 5.040000 3.160000 -32.840202 -41.460583 2797.458984
3.040000 5.040000 3.200000 3.845804 0.636753 15.195664
3.040000 5.080000 2.800000 27.247154 25.174597 1376.167725
3.040000 5.080000 2.840000 68.216888 34.374535 5835.152344
3.040000 5.080000 2.880000 91.971260 93.513504 17203.488281
3.040000 5.080000 2.920000 54.316792 169.835541 31794.425781
3.040000 5.080000 2.960000 -42.081741 202.347870 42715.531250
3.040000 5.080000 3.000000 -142.320862 155.336960 44384.796875
3.040000 5.080000 3.040000 -183.073639 52.458759 36267.878906
3.040000 5.080000 3.080000 -145.394241 -42.099686 22911.869141
3.040000 5.080000 3.120000 -67.187302 -77.444763 10511.824219
3.040000 5.080000 3.160000 -5.988821 -53.939873 2945.375732
3.040000 5.080000 3.200000 9.775475 -12.529008 252.535950
3.040000 5.120000 2.800000 5.977957 35.284710 1280.746704
3.040000 5.120000 2.840000 17.118256 52.336731 3032.167969
3.040000 5.120000 2.880000 5.123993 83.711273 7033.832520
3.040000 5.120000 2.920000 -37.756432 102.388367 11908.925781
3.040000 5.120000 2.960000 -92.100441 83.751587 15496.819336
3.040000 5.120000 3.000000 -124.073624 28.282631 16194.170898
3.040000 5.120000 3.040000 -112.091217 -36.297752 13881.968750
3.040000 5.120000 3.080000 -63.752434 -75.858002 9818.809570
3.040000 5.120000 3.120000 -8.582577 -75.055267 5706.953613
3.040000 5.120000 3.160000 25.500477 -45.385750 2710.140625
3.040000 5.120000 3.200000 30.638584 -11.636561 1074.132446
3.040000 5.160000 2.800000 -14.829523 30.228024 1133.648193
3.040000 5.160000 2.840000 -23.219137 30.484222 1468.416260
3.040000 5.160000 2.880000 -33.981697 24.931515 1776.336182
3.040000 5.160000 2.920000 -42.416710 12.726143 1961.131958
3.040000 5.160000 2.960000 -44.934311 -4.028252 2035.319092
3.040000 5.160000 3.000000 -39.525040 -22.318382 2060.338867
3.040000 5.160000 3.040000 -24.902515 -38.294518 2086.605469
3.040000 5.160000 3.080000 -1.643509 -46.181896 2135.468750
3.040000 5.160000 3.120000 24.796362 -39.848537 2202.765381
3.040000 5.160000 3.160000 43.813301 -18.073969 2246.273682
3.040000 5.160000 3.200000 45.312881 11.181180 2178.276123
3.040000 5.200000 2.800000 -24.708307 16.081800 869.124756
3.040000 5.200000 2.840000 -29.767181 -4.264135 904.267944
3.040000 5.200000 2.880000 -15.480497 -24.191372 824.868286
3.040000 5.200000 2.920000 9.739860 -26.479164 796.010986
3.040000 5.200000 2.960000 26.065895 -10.051544 780.464478
3.040000 5.200000 3.000000 23.008934 8.122833 595.391479
3.040000 5.200000 3.040000 10.743370 11.191643 240.672867
3.040000 5.200000 3.080000 8.699627 1.058359 76.803635
3.040000 5.200000 3.120000 23.337486 -3.445528 556.509888
3.040000 5.200000 3.160000 39.587456 12.269569 1717.708984
3.040000 5.200000 3.200000 36.134880 40.911522 2979.482422
3.080000 4.800000 2.800000 -31.142307 -28.303627 1770.938599
3.080000 4.800000 2.840000 -14.729532 -31.791220 1227.640747
3.080000 4.800000 2.880000 -1.650091 -25.823479 669.574829
3.080000 4.800000 2.920000 4.608181 -16.223625 284.441345
3.080000 4.800000 2.960000 6.071793 -7.427926 92.040749
3.080000 4.800000 3.000000 5.504379 0.690598 30.775116
3.080000 4.800000 3.040000 2.035236 9.746284 99.132248
3.080000 4.800000 3.080000 -7.366517 17.824844 371.990631
3.080000 4.800000 3.120000 -22.278427 19.168861 863.773560
3.080000 4.800000 3.160000 -36.130638 9.886961 1403.174927
3.080000 4.800000 3.200000 -40.658405 -6.526302 1695.698608
3.080000 4.840000 2.800000 -16.672007 -45.330330 2332.794678
3.080000 4.840000 2.840000 -13.966885 -47.167091 2419.808594
3.080000 4.840000 2.880000 -8.674557 -57.531830 3385.159424
3.080000 4.840000 2.920000 10.901093 -67.987717 4741.163574
3.080000 4.840000 2.960000 41.495338 -61.151562 5461.376465
3.080000 4.840000 3.000000 63.067162 -29.872009 4869.803711
3.080000 4.840000 3.040000 56.072044 11.096405 3267.204346
3.080000 4.840000 3.080000 21.517935 34.962517 1685.399048
3.080000 4.840000 3.120000 -17.205475 26.330057 989.300293
3.080000 4.840000 3.160000 -34.020836 -4.659933 1179.132202
3.080000 4.840000 3.200000 -22.676792 -31.892170 1531.347412
3.080000 4.880000 2.800000 7.013348 -51.470203 2698.368896
3.080000 4.880000 2.840000 1.543024 -67.264786 4526.932129
3.080000 4.880000 2.880000 21.880047 -96.598358 9809.979492
3.080000 4.880000 2.920000 74.829735 -104.973404 16618.906250
3.080000 4.880000 2.960000 129.749298 -65.358238 21106.580078
3.080000 4.880000 3.000000 142.370514 9.765564 20364.730469
3.080000 4.880000 3.040000 96.825302 73.261475 14742.382812
3.080000 4.880000 3.080000 23.663349 83.605026 7549.754395
3.080000 4.880000 3.120000 -25.850540 41.932976 2426.625000
3.080000 4.880000 3.160000 -24.814177 -10.737619 731.039795
3.080000 4.880000 3.200000 8.803553 -32.780666 1152.074707
3.080000 4.920000 2.800000 31.447140 -42.401016 2786.768799
3.080000 4.920000 2.840000 35.874981 -75.357727 6965.801270
3.080000 4.920000 2.880000 87.483803 -102.378532 18134.779297
3.080000 4.920000 2.920000 164.313049 -74.594246 32563.078125
3.080000 4.920000 2.960000 205.882904 15.812695 42637.812500
3.080000 4.920000 3.000000 168.260040 118.136200 42267.601562
3.080000 4.920000 3.040000 69.108971 163.672623 31564.777344
3.080000 4.920000 3.080000 -24.239517 126.991234 16714.328125
3.080000 4.920000 3.120000 -53.910347 47.681339 5179.835449
3.080000 4.920000 3.160000 -20.150234 -8.471334 477.795471
3.080000 4.920000 3.200000 26.740808 -9.354702 802.581299
3.080000 4.960000 2.800000 46.826031 -20.131084 2597.937744
3.080000 4.960000 2.840000 74.521362 -55.179035 8598.159180
3.080000 4.960000 2.880000 147.374176 -51.266453 24347.398438
3.080000 4.960000 2.920000 209.990936 25.946236 44769.398438
3.080000 4.960000 2.960000 196.466492 144.301102 59421.890625
3.080000 4.960000 3.000000 95.826073 224.874374 59751.121094
3.080000 4.960000 3.040000 -30.887892 211.106003 45519.808594
3.080000 4.960000 3.080000 -102.106125 120.257332 24887.488281
3.080000 4.960000 3.120000 -86.474388 26.167049 8162.534180
3.080000 4.960000 3.160000 -24.364311 -8.852139 671.980042
3.080000 4.960000 3.200000 17.805286 14.709633 533.401550
3.080000 5.000000 2.800000 46.466362 7.175685 2210.613281
3.080000 5.000000 2.840000 91.793411 -9.130943 8509.404297
3.080000 5.000000 2.880000 154.117111 34.755375 24960.019531
3.080000 5.000000 2.920000 166.297333 136.569458 46306.019531
3.080000 5.000000 2.960000 90.072968 231.840271 61863.050781
3.080000 5.000000 3.000000 -40.338375 247.383240 62825.652344
3.080000 5.000000 3.040000 -142.571686 168.514313 48723.757812
3.080000 5.000000 3.080000 -157.300140 53.404400 27595.363281
3.080000 5.000000 3.120000 -97.281433 -19.856163 9857.944336
3.080000 5.000000 3.160000 -28.158712 -20.755241 1223.693115
3.080000 5.000000 3.200000 -3.770906 16.391176 282.890381
3.080000 5.040000 2.800000 30.571682 28.505299 1747.179810
3.080000 5.040000 2.840000 72.467392 38.349247 6722.187500
3.080000 5.040000 2.880000 97.117416 101.074837 19647.916016
3.080000 5.040000 2.920000 56.695808 182.022797 36346.710938
3.080000 5.040000 2.960000 -45.495117 215.783478 48632.312500
3.080000 5.040000 3.000000 -149.832336 165.461945 49827.382812
3.080000 5.040000 3.040000 -189.772400 58.855839 39477.570312
3.080000 5.040000 3.080000 -149.033234 -34.869621 23426.794922
3.080000 5.040000 3.120000 -71.674026 -65.207970 9389.245117
3.080000 5.040000 3.160000 -17.824615 -38.845947 1826.724487
3.080000 5.040000 3.200000 -11.052811 -2.584530 128.844421
3.080000 5.080000 2.800000 6.896830 35.613426 1315.882446
3.080000 5.080000 2.840000 27.282631 58.728432 4193.370605
3.080000 5.080000 2.880000 15.078854 106.132767 11491.536133
3.080000 5.080000 2.920000 -43.546844 137.339996 20758.603516
3.080000 5.080000 2.960000 -119.925720 114.960739 27598.150391
3.080000 5.080000 3.000000 -163.965118 40.858711 28553.994141
3.080000 5.080000 3.040000 -146.821167 -42.666664 23376.898438
3.080000 5.080000 3.080000 -84.584381 -88.278862 14947.675781
3.080000 5.080000 3.120000 -21.503511 -81.486244 7102.408691
3.080000 5.080000 3.160000 8.886813 -46.301834 2222.835205
3.080000 5.080000 3.200000 7.050056 -17.371395 351.468689
3.080000 5.120000 2.800000 -13.251372 28.065145 963.251282
3.080000 5.120000 2.840000 -14.285419 43.296394 2078.650879
3.080000 5.120000 2.880000 -36.768242 56.856998 4584.622070
3.080000 5.120000 2.920000 -72.504242 47.983917 7559.321289
3.080000 5.120000 2.960000 -97.926971 10.945129 9709.487305
3.080000 5.120000 3.000000 -93.250015 -38.252899 10158.849609
3.080000 5.120000 3.040000 -58.440735 -73.995232 8890.614258
3.080000 5.120000 3.080000 -12.244644 -80.375092 6610.086426
3.080000 5.120000 3.120000 23.200392 -60.676849 4219.937988
3.080000 5.120000 3.160000 37.256523 -30.908924 2343.410156
3.080000 5.120000 3.200000 33.496414 -6.063402 1158.774658
3.080000 5.160000 2.800000 -22.136539 13.602976 675.067322
3.080000 5.160000 2.840000 -28.699223 10.009726 923.839966
3.080000 5.160000 2.880000 -33.871120 -0.352413 1147.376953
3.080000 5.160000 2.920000 -32.280567 -14.279789 1245.947388
3.080000 5.160000 2.960000 -23.577263 -26.286736 1246.879883
3.080000 5.160000 3.000000 -10.748383 -33.681915 1249.999146
3.080000 5.160000 3.040000 4.377243 -36.480621 1349.995972
3.080000 5.160000 3.080000 21.693394 -33.444107 1589.111572
3.080000 5.160000 3.120000 38.576340 -21.040081 1930.819092
3.080000 5.160000 3.160000 47.362377 1.558849 2245.624756
3.080000 5.160000 3.200000 40.173828 26.989124 2342.349365
3.080000 5.200000 2.800000 -20.751734 2.422417 436.502563
3.080000 5.200000 2.840000 -17.237879 -13.788733 487.273621
3.080000 5.200000 2.880000 1.048907 -23.435720 550.333191
3.080000 5.200000 2.920000 21.812647 -15.367229 711.943298
3.080000 5.200000 2.960000 28.559555 4.483498 835.749939
3.080000 5.200000 3.000000 18.816711 18.361374 691.208679
3.080000 5.200000 3.040000 7.442574 16.079987 313.957886
3.080000 5.200000 3.080000 10.115156 6.908916 150.049515
3.080000 5.200000 3.120000 24.739262 9.641878 704.996887
3.080000 5.200000 3.160000 32.109650 30.763996 1977.453003
3.080000 5.200000 3.200000 16.465265 54.855240 3280.202393
3.120000 4.800000 2.800000 -21.398605 -33.776478 1598.750732
3.120000 4.800000 2.840000 -3.906090 -34.555611 1209.347778
3.120000 4.800000 2.880000 9.457680 -24.802763 704.624756
3.120000 4.800000 2.920000 13.590736 -10.658074 298.302673
3.120000 4.800000 2.960000 9.580048 1.120869 93.033661
3.120000 4.800000 3.000000 1.904041 7.779751 64.149895
3.120000 4.800000 3.040000 -6.282041 10.427727 148.201523
3.120000 4.800000 3.080000 -14.737799 10.329508 323.901428
3.120000 4.800000 3.120000 -23.554438 6.535486 597.524109
3.120000 4.800000 3.160000 -30.324644 -2.348972 925.101746
3.120000 4.800000 3.200000 -31.068926 -14.705703 1181.535889
3.120000 4.840000 2.800000 -0.272338 -49.225739 2423.247559
3.120000 4.840000 2.840000 12.527357 -48.619850 2520.824463
3.120000 4.840000 2.880000 25.942020 -44.784763 2678.663574
3.120000 4.840000 2.920000 39.862198 -34.461235 2776.571533
3.120000 4.840000 2.960000 48.568619 -14.971077 2583.043701
3.120000 4.840000 3.000000 43.847569 9.247238 2008.120605
3.120000 4.840000 3.040000 23.536793 26.436024 1252.843994
3.120000 4.840000 3.080000 -3.361641 25.958160 685.126770
3.120000 4.840000 3.120000 -21.727612 8.054981 536.971802
3.120000 4.840000 3.160000 -22.068840 -15.060505 713.852478
3.120000 4.840000 3.200000 -8.092738 -28.847248 897.656128
3.120000 4.880000 2.800000 29.326643 -47.146889 3082.881104
3.120000 4.880000 2.840000 41.081211 -50.097260 4197.401367
3.120000 4.880000 2.880000 63.815975 -47.823460 6359.562012
3.120000 4.880000 2.920000 89.752823 -26.052391 8734.296875
3.120000 4.880000 2.960000 98.152664 15.849178 9885.141602
3.120000 4.880000 3.000000 74.465759 57.726173 8877.460938
3.120000 4.880000 3.040000 27.498802 73.013214 6087.113281
3.120000 4.880000 3.080000 -14.451530 52.402031 2954.819580
3.120000 4.880000 3.120000 -26.774172 13.328167 894.496277
3.120000 4.880000 3.160000 -9.224897 -15.038244 311.247528
3.120000 4.880000 3.200000 16.037224 -17.162022 551.727539
3.120000 4.920000 2.800000 52.267647 -24.890120 3351.425049
3.120000 4.920000 2.840000 69.221786 -29.548893 5664.792969
3.120000 4.920000 2.880000 101.494308 -16.293419 10566.570312
3.120000 4.920000 2.920000 124.533913 28.775578 16336.729492
3.120000 4.920000 2.960000 108.900810 89.215416 19818.777344
3.120000 4.920000 3.000000 51.402138 126.734589 18703.835938
3.120000 4.920000 3.040000 -16.129387 114.551529 13382.209961
3.120000 4.920000 3.080000 -52.100559 63.159607 6703.604492
3.120000 4.920000 3.120000 -41.139114 11.894344 1833.902222
3.120000 4.920000 3.160000 -5.558204 -6.211147 69.471977
3.120000 4.920000 3.200000 18.380980 8.232996 405.642639
3.120000 4.960000 2.800000 55.524010 7.676981 3141.851807
3.120000 4.960000 2.840000 78.617302 8.753306 6257.300781
3.120000 4.960000 2.880000 107.607712 41.032677 13263.100586
3.120000 4.960000 2.920000 106.217224 102.534142 21795.347656
3.120000 4.960000 2.960000 54.253551 156.237671 27353.656250
3.120000 4.960000 3.000000 -26.697924 160.548462 26488.587891
3.120000 4.960000 3.040000 -87.408348 108.813705 19480.642578
3.120000 4.960000 3.080000 -93.505920 37.681061 10163.219727
3.120000 4.960000 3.120000 -54.884033 -5.286383 3040.202881
3.120000 4.960000 3.160000 -13.227334 -3.011708 184.032761
3.120000 4.960000 3.200000 -1.385545 21.100758 447.161713
3.120000 5.000000 2.800000 37.496304 33.843605 2551.362305
3.120000 5.000000 2.840000 59.648556 45.819160 5657.345703
3.120000 5.000000 2.880000 69.380074 90.188622 12947.582031
3.120000 5.000000 2.920000 35.506332 143.954483 21983.591797
3.120000 5.000000 2.960000 -38.598629 163.145203 28106.210938
3.120000 5.000000 3.000000 -111.058472 123.910767 27687.863281
3.120000 5.000000 3.040000 -136.353439 47.672867 20864.960938
3.120000 5.000000 3.080000 -105.583237 -16.249577 11411.869141
3.120000 5.000000 3.120000 -52.327122 -33.993183 3893.664062
3.120000 5.000000 3.160000 -19.251549 -13.796725 560.971741
3.120000 5.000000 3.200000 -19.966831 8.682642 474.062622
3.120000 5.040000 2.800000 9.427532 41.359138 1799.456787
3.120000 5.040000 2.840000 21.419361 60.721043 4145.833984
3.120000 5.040000 2.880000 7.652403 98.657951 9791.951172
3.120000 5.040000 2.920000 -43.380119 122.204086 16815.673828
3.120000 5.040000 2.960000 -107.375000 100.744141 21678.773438
3.120000 5.040000 3.000000 -142.343765 37.334404 21655.605469
3.120000 5.040000 3.040000 -125.832085 -30.968756 16792.777344
3.120000 5.040000 3.080000 -74.486893 -65.069122 9782.288086
3.120000 5.040000 3.120000 -27.091021 -56.526333 3929.149658
3.120000 5.040000 3.160000 -9.235331 -29.703224 967.572876
3.120000 5.040000 3.200000 -14.811201 -14.072313 417.401672
3.120000 5.080000 2.800000 -12.802870 30.658848 1103.878418
3.120000 5.080000 2.840000 -13.659304 47.214348 2415.771240
3.120000 5.080000 2.880000 -38.345062 63.656288 5522.466797
3.120000 5.080000 2.920000 -79.016655 55.337364 9305.855469
3.120000 5.080000 2.960000 -108.226883 14.855621 11933.748047
3.120000 5.080000 3.000000 -102.972183 -38.437347 12080.700195
3.120000 5.080000 3.040000 -65.331200 -74.273071 9784.654297
3.120000 5.080000 3.080000 -19.738567 -76.913979 6305.371094
3.120000 5.080000 3.120000 9.173082 -55.627289 3178.540771
3.120000 5.080000 3.160000 15.604594 -32.044792 1270.372070
3.120000 5.080000 3.200000 11.384980 -19.490015 509.478455
3.120000 5.120000 2.800000 -20.237286 13.296284 586.338867
3.120000 5.120000 2.840000 -27.368715 18.705772 1098.952515
3.120000 5.120000 2.880000 -43.802956 14.457783 2127.726562
3.120000 5.120000 2.920000 -56.720867 -5.654781 3249.233398
3.120000 5.120000 2.960000 -53.174526 -34.010216 3984.225098
3.120000 5.120000 3.000000 -31.614889 -55.510498 4080.916504
3.120000 5.120000 3.040000 -2.391525 -60.043053 3610.887695
3.120000 5.120000 3.080000 21.704018 -48.821236 2854.577393
3.120000 5.120000 3.120000 34.433979 -30.217472 2098.794434
3.120000 5.120000 3.160000 36.877472 -11.658379 1495.865723
3.120000 5.120000 3.200000 32.227463 3.712795 1052.394165
3.120000 5.160000 2.800000 -16.292643 1.856915 268.898315
3.120000 5.160000 2.840000 -19.664345 -3.809546 401.199097
3.120000 5.160000 2.880000 -17.719185 -14.118320 513.296509
3.120000 5.160000 2.920000 -8.119617 -22.239376 560.518005
3.120000 5.160000 2.960000 4.349220 -23.159548 555.280396
3.120000 5.160000 3.000000 13.884293 -18.631918 539.921936
3.120000 5.160000 3.040000 20.168346 -13.384939 585.918823
3.120000 5.160000 3.080000 26.923634 -7.887033 787.087341
3.120000 5.160000 3.120000 34.384315 2.483068 1188.446777
3.120000 5.160000 3.160000 35.841759 19.955988 1682.873169
3.120000 5.160000 3.200000 24.175150 37.704594 2006.074219
3.120000 5.200000 2.800000 -11.811483 -0.063529 139.515167
3.120000 5.200000 2.840000 -6.016277 -9.807139 132.375580
3.120000 5.200000 2.880000 9.186164 -11.446927 215.417740
3.120000 5.200000 2.920000 21.677687 0.692505 470.401642
3.120000 5.200000 2.960000 20.338688 17.758692 729.033325
3.120000 5.200000 3.000000 8.231853 25.403370 713.094604
3.120000 5.200000 3.040000 -0.151827 20.174585 407.036926
3.120000 5.200000 3.080000 4.429705 14.158484 220.084946
3.120000 5.200000 3.120000 14.179748 21.276302 653.746277
3.120000 5.200000 3.160000 11.866016 40.034126 1743.533691
3.120000 5.200000 3.200000 -9.419317 52.686577 2864.599121
3.160000 4.800000 2.800000 -12.411407 -34.031845 1312.209473
3.160000 4.800000 2.840000 4.889990 -30.719112 967.575867
3.160000 4.800000 2.880000 15.134085 -16.880144 513.979797
3.160000 4.800000 2.920000 13.418971 -1.212896 181.539902
3.160000 4.800000 2.960000 3.340236 7.671991 70.016624
3.160000 4.800000 3.000000 -7.142335 7.794010 111.759552
3.160000 4.800000 3.040000 -13.051201 3.654165 183.686768
3.160000 4.800000 3.080000 -15.596958 0.177658 243.296661
3.160000 4.800000 3.120000 -18.535402 -2.433102 349.481110
3.160000 4.800000 3.160000 -22.361012 -7.636315 558.328125
3.160000 4.800000 3.200000 -23.015629 -17.013948 819.193604
3.160000 4.840000 2.800000 14.385735 -43.604729 2108.321777
3.160000 4.840000 2.840000 30.255932 -32.670902 1982.809204
3.160000 4.840000 2.880000 36.637917 -15.375943 1578.756592
3.160000 4.840000 2.920000 32.774246 0.994362 1075.140015
3.160000 4.840000 2.960000 22.300383 11.561771 630.981628
3.160000 4.840000 3.000000 9.696201 15.168070 324.086670
3.160000 4.840000 3.040000 -1.932976 12.684315 164.628235
3.160000 4.840000 3.080000 -10.486469 5.296250 138.016296
3.160000 4.840000 3.120000 -13.891706 -5.306551 221.138992
3.160000 4.840000 3.160000 -10.726017 -15.927126 368.720764
3.160000 4.840000 3.200000 -1.987237 -22.460190 508.409241
3.160000 4.880000 2.800000 43.733124 -30.299328 2830.635254
3.160000 4.880000 2.840000 53.835899 -13.735286 3086.961914
3.160000 4.880000 2.880000 55.299225 5.552500 3088.834473
3.160000 4.880000 2.920000 47.926003 23.688032 2858.024414
3.160000 4.880000 2.960000 32.527622 36.560619 2394.725098
3.160000 4.880000 3.000000 12.374659 39.760773 1734.051270
3.160000 4.880000 3.040000 -5.822954 31.219334 1008.553589
3.160000 4.880000 3.080000 -14.548512 14.450964 420.489532
3.160000 4.880000 3.120000 -10.776428 -1.954453 119.951294
3.160000 4.880000 3.160000 1.029711 -9.811981 97.335281
3.160000 4.880000 3.200000 12.068089 -7.358628 199.788177
3.160000 4.920000 2.800000 56.625946 1.709236 3209.419189
3.160000 4.920000 2.840000 58.811790 19.715321 3847.520508
3.160000 4.920000 2.880000 54.175312 39.208916 4472.303711
3.160000 4.920000 2.920000 39.909908 57.411720 4888.906250
3.160000 4.920000 2.960000 15.733021 67.143730 4755.808105
3.160000 4.920000 3.000000 -11.239896 61.288551 3882.621826
3.160000 4.920000 3.040000 -28.760475 40.659344 2480.347168
3.160000 4.920000 3.080000 -28.760372 16.274986 1092.034180
3.160000 4.920000 3.120000 -14.923522 1.794399 225.931366
3.160000 4.920000 3.160000 -0.066849 2.374968 5.644940
3.160000 4.920000 3.200000 5.080479 10.964859 146.039398
3.160000 4.960000 2.800000 43.776649 34.138699 3081.845703
3.160000 4.960000 2.840000 38.834518 49.119789 3920.873535
3.160000 4.960000 2.880000 27.479397 65.606567 5059.338867
3.160000 4.960000 2.920000 5.220453 78.057617 6120.244629
3.160000 4.960000 2.960000 -24.650841 76.323853 6432.994629
3.160000 4.960000 3.000000 -49.214096 56.046787 5563.269531
3.160000 4.960000 3.040000 -55.426010 25.993799 3747.720215
3.160000 4.960000 3.080000 -42.314495 2.871808 1798.763794
3.160000 4.960000 3.120000 -22.770443 -2.683460 525.694092
3.160000 4.960000 3.160000 -12.008928 4.962117 168.836960
3.160000 4.960000 3.200000 -13.951962 11.919455 336.730652
3.160000 5.000000 2.800000 13.678585 47.987019 2489.857666
3.160000 5.000000 2.840000 4.695388 57.020401 3273.372803
3.160000 5.000000 2.880000 -11.484161 66.378830 4538.034668
3.160000 5.000000 2.920000 -36.759628 66.993668 5839.421875
3.160000 5.000000 2.960000 -61.977882 50.600628 6401.681641
3.160000 5.000000 3.000000 -72.722755 20.646637 5714.882812
3.160000 5.000000 3.040000 -62.760357 -7.734783 3998.689209
3.160000 5.000000 3.080000 -40.941261 -20.243685 2085.993652
3.160000 5.000000 3.120000 -23.496727 -16.023046 808.834229
3.160000 5.000000 3.160000 -19.124649 -7.196172 417.537079
3.160000 5.000000 3.200000 -22.224396 -5.799754 527.560913
3.160000 5.040000 2.800000 -13.937111 38.283669 1659.882324
3.160000 5.040000 2.840000 -23.153004 40.881096 2207.325684
3.160000 5.040000 2.880000 -39.063503 40.755867 3186.998047
3.160000 5.040000 2.920000 -57.988609 29.259808 4218.814941
3.160000 5.040000 2.960000 -68.368019 5.089296 4700.086914
3.160000 5.040000 3.000000 -61.649925 -21.548603 4265.055664
3.160000 5.040000 3.040000 -41.479786 -37.009235 3090.256104
3.160000 5.040000 3.080000 -20.955997 -36.490906 1770.739990
3.160000 5.040000 3.120000 -10.508469 -27.593534 871.831055
3.160000 5.040000 3.160000 -9.137542 -21.559851 548.321838
3.160000 5.040000 3.200000 -7.890822 -21.873671 540.722534
3.160000 5.080000 2.800000 -24.130924 17.030899 872.353027
3.160000 5.080000 2.840000 -30.701355 14.762219 1160.496338
3.160000 5.080000 2.880000 -40.336609 7.106840 1677.549194
3.160000 5.080000 2.920000 -45.889442 -8.939573 2185.756836
3.160000 5.080000 2.960000 -40.252411 -27.829807 2394.754883
3.160000 5.080000 3.000000 -24.265219 -39.822819 2174.657715
3.160000 5.080000 3.040000 -6.440744 -40.085033 1648.293091
3.160000 5.080000 3.080000 5.123562 -32.591026 1088.425903
3.160000 5.080000 3.120000 9.641446 -24.923073 714.117004
3.160000 5.080000 3.160000 12.130033 -20.275591 558.237305
3.160000 5.080000 3.200000 16.031607 -15.594641 500.205261
3.160000 5.120000 2.800000 -18.004709 1.682730 327.001129
3.160000 5.120000 2.840000 -20.776861 -3.181707 441.801208
3.160000 5.120000 2.880000 -21.055069 -12.590527 601.837280
3.160000 5.120000 2.920000 -14.367659 -22.629269 718.513428
3.160000 5.120000 2.960000 -2.206993 -27.015156 734.689453
3.160000 5.120000 3.000000 9.243937 -23.844938 654.031433
3.160000 5.120000 3.040000 15.671560 -17.140099 539.380798
3.160000 5.120000 3.080000 18.518417 -11.542940 476.171265
3.160000 5.120000 3.120000 21.626060 -6.910111 515.436157
3.160000 5.120000 3.160000 25.046646 0.457896 627.544128
3.160000 5.120000 3.200000 24.105309 11.463360 712.474548
3.160000 5.160000 2.800000 -9.226803 -0.242027 85.192467
3.160000 5.160000 2.840000 -8.269494 -6.009976 104.504349
3.160000 5.160000 2.880000 -0.968500 -11.159739 125.477783
3.160000 5.160000 2.920000 9.481081 -9.384990 177.968933
3.160000 5.160000 2.960000 15.561768 -0.909463 242.995728
3.160000 5.160000 3.000000 14.197823 7.291259 254.740631
3.160000 5.160000 3.040000 10.459949 9.713595 203.764481
3.160000 5.160000 3.080000 11.178775 9.178630 209.212250
3.160000 5.160000 3.120000 15.790377 13.437757 429.909332
3.160000 5.160000 3.160000 15.823496 24.891708 869.980225
3.160000 5.160000 3.200000 4.714142 35.645164 1292.800903
3.160000 5.200000 2.800000 -9.600269 3.866517 107.115120
3.160000 5.200000 2.840000 -5.034676 -1.892686 28.930218
3.160000 5.200000 2.880000 4.993498 -0.136210 24.953573
3.160000 5.200000 2.920000 10.215274 10.883765 222.808167
3.160000 5.200000 2.960000 4.420914 22.122753 508.960663
3.160000 5.200000 3.000000 -6.656661 23.812908 611.365723
3.160000 5.200000 3.040000 -11.544159 17.178299 428.361572
3.160000 5.200000 3.080000 -6.796228 13.515091 228.846405
3.160000 5.200000 3.120000 -1.971390 20.709211 432.757812
3.160000 5.200000 3.160000 -9.026614 32.630566 1146.233521
3.160000 5.200000 3.200000 -27.455193 34.501862 1944.166016
3.200000 4.800000 2.800000 -6.750807 -31.416691 1032.581909
3.200000 4.800000 2.840000 7.268299 -24.727051 664.255249
3.200000 4.800000 2.880000 11.964655 -10.617141 255.876648
3.200000 4.800000 2.920000 5.601825 1.055996 32.495567
3.200000 4.800000 2.960000 -5.108785 3.592424 39.005199
3.200000 4.800000 3.000000 -11.739189 -1.233628 139.330399
3.200000 4.800000 3.040000 -11.953083 -6.260715 182.072739
3.200000 4.800000 3.080000 -10.484716 -7.044663 159.556549
3.200000 4.800000 3.120000 -12.565069 -6.268212 197.171448
3.200000 4.800000 3.160000 -17.182999 -9.860613 392.487122
3.200000 4.800000 3.200000 -17.658745 -19.213171 680.977173
3.200000 4.840000 2.800000 21.263241 -32.689030 1520.697998
3.200000 4.840000 2.840000 30.057404 -14.023750 1100.113037
3.200000 4.840000 2.880000 23.114819 3.868007 549.256348
3.200000 4.840000 2.920000 7.711929 10.026045 159.995422
3.200000 4.840000 2.960000 -4.100295 4.191551 34.381516
3.200000 4.840000 3.000000 -6.345628 -4.889408 64.173302
3.200000 4.840000 3.040000 -2.859904 -9.118654 91.328911
3.200000 4.840000 3.080000 -1.084579 -8.420862 72.087227
3.200000 4.840000 3.120000 -3.310773 -8.778560 88.024330
3.200000 4.840000 3.160000 -4.707405 -14.003837 218.267105
3.200000 4.840000 3.200000 0.368650 -20.628569 425.673737
3.200000 4.880000 2.800000 43.683174 -10.842444 2025.778320
3.200000 4.880000 2.840000 38.003906 13.117059 1616.354126
3.200000 4.880000 2.880000 18.514248 24.409740 938.612793
3.200000 4.880000 2.920000 0.293300 18.734686 351.074493
3.200000 4.880000 2.960000 -5.635905 5.121345 57.991600
3.200000 4.880000 3.000000 -0.557906 -4.040368 16.635828
3.200000 4.880000 3.040000 6.006051 -4.232660 53.988064
3.200000 4.880000 3.080000 7.054865 -0.661202 50.208305
3.200000 4.880000 3.120000 4.176908 -0.424765 17.626986
3.200000 4.880000 3.160000 3.744322 -4.415633 33.517761
3.200000 4.880000 3.200000 8.697536 -7.193541 127.394165
3.200000 4.920000 2.800000 43.318901 22.357452 2376.382812
3.200000 4.920000 2.840000 22.201445 39.075874 2019.828125
3.200000 4.920000 2.880000 -2.018843 35.608246 1272.022827
3.200000 4.920000 2.920000 -13.557407 18.536325 527.398682
3.200000 4.920000 2.960000 -9.012405 3.113643 90.918221
3.200000 4.920000 3.000000 2.170377 -0.585259 5.053065
3.200000 4.920000 3.040000 8.309081 5.328118 97.429672
3.200000 4.920000 3.080000 5.855163 11.525313 167.115784
3.200000 4.920000 3.120000 0.154073 11.675685 136.345367
3.200000 4.920000 3.160000 -2.063663 7.351555 58.304062
3.200000 4.920000 3.200000 0.466104 4.278425 18.522175
3.200000 4.960000 2.800000 19.052898 45.161121 2402.539795
3.200000 4.960000 2.840000 -8.163076 45.279663 2116.883545
3.200000 4.960000 2.880000 -25.394882 27.471264 1399.570312
3.200000 4.960000 2.920000 -23.972767 6.488955 616.800049
3.200000 4.960000 2.960000 -10.188336 -3.103505 113.433945
3.200000 4.960000 3.000000 1.979630 1.725924 6.897748
3.200000 4.960000 3.040000 3.268580 12.396122 164.347458
3.200000 4.960000 3.080000 -4.677426 18.084526 348.928406
3.200000 4.960000 3.120000 -13.382977 14.833212 399.128235
3.200000 4.960000 3.160000 -16.103785 6.756742 304.985443
3.200000 4.960000 3.200000 -12.544772 0.421244 157.548752
3.200000 5.000000 2.800000 -12.252551 43.497723 2042.176880
3.200000 5.000000 2.840000 -32.376247 27.996309 1832.014771
3.200000 5.000000 2.880000 -35.188606 4.748137 1260.782837
3.200000 5.000000 2.920000 -21.951584 -10.638756 595.055176
3.200000 5.000000 2.960000 -5.132024 -10.070115 127.744888
3.200000 5.000000 3.000000 2.258896 1.780431 8.272546
3.200000 5.000000 3.040000 -3.491575 12.811847 176.334518
3.200000 5.000000 3.080000 -15.584316 13.783913 432.867157
3.200000 5.000000 3.120000 -23.694588 4.647418 583.031982
3.200000 5.000000 3.160000 -22.208080 -7.243277 545.663879
3.200000 5.000000 3.200000 -13.224714 -13.913491 368.478302
3.200000 5.040000 2.800000 -29.863159 22.569244 1401.179077
3.200000 5.040000 2.840000 -35.536934 1.592634 1265.410156
3.200000 5.040000 2.880000 -25.509483 -16.346188 917.931641
3.200000 5.040000 2.920000 -7.602036 -20.828541 491.619080
3.200000 5.040000 2.960000 5.324545 -11.327868 156.671371
3.200000 5.040000 3.000000 5.051489 2.717823 32.904099
3.200000 5.040000 3.040000 -6.143581 9.477450 127.565659
3.200000 5.040000 3.080000 -17.959604 3.787024 336.888947
3.200000 5.040000 3.120000 -20.540531 -9.513713 512.424133
3.200000 5.040000 3.160000 -11.880421 -20.180054 548.378967
3.200000 5.040000 3.200000 1.481122 -20.831711 436.153900
3.200000 5.080000 2.800000 -26.706146 1.199024 714.655945
3.200000 5.080000 2.840000 -20.819187 -14.439671 641.942627
3.200000 5.080000 2.880000 -6.005955 -21.871647 514.440430
3.200000 5.080000 2.920000 8.885312 -16.774757 360.341248
3.200000 5.080000 2.960000 14.298903 -3.345770 215.652802
3.200000 5.080000 3.000000 7.396269 7.962688 118.109200
3.200000 5.080000 3.040000 -5.130049 8.355171 96.126282
3.200000 5.080000 3.080000 -12.142574 -2.019311 151.519730
3.200000 5.080000 3.120000 -7.290847 -14.034391 250.120605
3.200000 5.080000 3.160000 5.657753 -17.366236 333.596313
3.200000 5.080000 3.200000 16.322245 -9.262322 352.206299
3.200000 5.120000 2.800000 -13.778179 -5.856343 224.134979
3.200000 5.120000 2.840000 -5.044630 -12.688861 186.455475
3.200000 5.120000 2.880000 7.052919 -11.988565 193.469376
3.200000 5.120000 2.920000 15.402567 -2.599550 243.996735
3.200000 5.120000 2.960000 13.892131 9.700805 287.096924
3.200000 5.120000 3.000000 3.753313 15.655075 259.168732
3.200000 5.120000 3.040000 -6.109177 10.743354 152.741699
3.200000 5.120000 3.080000 -6.655711 0.149087 44.320721
3.200000 5.120000 3.120000 2.573825 -5.455954 36.392006
3.200000 5.120000 3.160000 12.626496 -0.005369 159.428436
3.200000 5.120000 3.200000 13.668773 12.020473 331.327118
3.200000 5.160000 2.800000 -7.592072 -0.549080 57.941036
3.200000 5.160000 2.840000 -1.965772 -2.939267 12.503550
3.200000 5.160000 2.880000 5.500207 0.285405 30.333733
3.200000 5.160000 2.920000 8.400573 9.381618 158.584381
3.200000 5.160000 2.960000 2.841429 17.878593 327.717834
3.200000 5.160000 3.000000 -7.023870 18.435053 389.185913
3.200000 5.160000 3.040000 -12.117981 11.095185 269.948608
3.200000 5.160000 3.080000 -7.953908 4.257668 81.392387
3.200000 5.160000 3.120000 -0.054980 6.115621 37.403843
3.200000 5.160000 3.160000 1.413392 15.504501 242.387238
3.200000 5.160000 3.200000 -7.326718 22.577219 563.411621
3.200000 5.200000 2.800000 -13.395269 2.852279 187.568741
3.200000 5.200000 2.840000 -9.664083 -0.671136 93.844917
3.200000 5.200000 2.880000 -4.097122 2.064284 21.047680
3.200000 5.200000 2.920000 -3.951160 9.456316 105.033577
3.200000 5.200000 2.960000 -10.755610 13.842839 307.307343
3.200000 5.200000 3.000000 -17.887461 10.529631 430.834351
3.200000 5.200000 3.040000 -18.161911 3.817046 344.424866
3.200000 5.200000 3.080000 -12.741410 2.306101 167.661636
3.200000 5.200000 3.120000 -10.430604 8.414071 179.594086
3.200000 5.200000 3.160000 -17.388353 14.546749 513.962769
3.200000 5.200000 3.200000 -28.973719 11.234934 965.700134
