#kx 	ky 	kz 	real 	imag 	intensity
2.800000 4.800000 2.983333 -69.846428 -72.260422 10100.091797
2.800000 4.800000 2.991667 26.169758 -35.227268 1925.816650
2.800000 4.800000 3.000000 -51.630478 7.188244 2717.377197
2.800000 4.800000 3.008333 -55.509533 -120.855370 17687.328125
2.800000 4.800000 3.016667 105.658691 -72.037018 16353.090820
2.800000 4.900000 2.983333 -23.704834 -67.379379 5101.899902
2.800000 4.900000 2.991667 42.314434 -11.960735 1933.570557
2.800000 4.900000 3.000000 -26.543724 -25.815178 1370.992676
2.800000 4.900000 3.008333 40.551899 -75.179405 7296.399414
2.800000 4.900000 3.016667 83.768463 -15.152847 7246.764160
2.800000 5.000000 2.983333 15.984557 -79.533707 6581.116211
2.800000 5.000000 2.991667 110.416130 -34.626831 13390.739258
2.800000 5.000000 3.000000 44.453491 78.116623 8078.319336
2.800000 5.000000 3.008333 22.086744 -43.621155 2390.629395
2.800000 5.000000 3.016667 135.667191 114.189499 31444.828125
2.800000 5.100000 2.983333 24.013672 -26.833393 1296.687500
2.800000 5.100000 2.991667 146.293030 135.385971 39731.011719
2.800000 5.100000 3.000000 -184.755173 119.553978 48427.625000
2.800000 5.100000 3.008333 36.082581 -46.406044 3455.473633
2.800000 5.100000 3.016667 -160.371674 125.534950 41478.097656
2.800000 5.200000 2.983333 22.486534 -46.318550 2651.052490
2.800000 5.200000 2.991667 -40.851936 171.495346 31079.535156
2.800000 5.200000 3.000000 -143.741989 -149.375000 42974.648438
2.800000 5.200000 3.008333 67.143364 -11.449493 4639.322266
2.800000 5.200000 3.016667 -24.349464 -151.512405 23548.906250
2.900000 4.800000 2.983333 -43.395908 -13.608780 2068.403809
2.900000 4.800000 2.991667 -11.744854 -132.057388 17577.095703
2.900000 4.800000 3.000000 38.430164 24.619164 2082.980713
2.900000 4.800000 3.008333 -30.023651 -139.608734 20392.019531
2.900000 4.800000 3.016667 182.194458 31.502064 34187.199219
2.900000 4.900000 2.983333 372.435791 -805.941223 788249.687500
2.900000 4.900000 2.991667 -2.630325 632.097534 399554.187500
2.900000 4.900000 3.000000 -750.520996 -448.679810 764595.312500
2.900000 4.900000 3.008333 -40.472229 -619.953430 385980.250000
2.900000 4.900000 3.016667 292.109009 -733.339478 623114.500000
2.900000 5.000000 2.983333 1289.913452 336.237823 1776932.625000
2.900000 5.000000 2.991667 -933.941467 90.234543 880388.937500
2.900000 5.000000 3.000000 485.767761 -1154.403076 1568616.750000
2.900000 5.000000 3.008333 829.487427 -352.829834 812538.250000
2.900000 5.000000 3.016667 1354.437744 263.329529 1903844.000000
2.900000 5.100000 2.983333 19.321167 823.257935 678126.937500
2.900000 5.100000 2.991667 -188.918396 -423.866882 215353.296875
2.900000 5.100000 3.000000 630.204163 119.920059 411538.093750
2.900000 5.100000 3.008333 350.869141 421.846313 301063.468750
2.900000 5.100000 3.016667 -43.995705 879.024170 774619.125000
2.900000 5.200000 2.983333 42.548225 178.092773 33527.386719
2.900000 5.200000 2.991667 -257.245544 -27.837975 66950.226562
2.900000 5.200000 3.000000 75.714149 -173.459122 35820.699219
2.900000 5.200000 3.008333 19.174162 41.055889 2053.234619
2.900000 5.200000 3.016667 29.544853 -41.097412 2561.895752
3.000000 4.800000 2.983333 -78.329666 -130.424927 23146.199219
3.000000 4.800000 2.991667 184.822235 -103.417709 44854.480469
3.000000 4.800000 3.000000 -16.089760 59.566502 3807.048584
3.000000 4.800000 3.008333 94.497719 -156.998825 33578.449219
3.000000 4.800000 3.016667 153.000214 124.501198 38909.613281
3.000000 4.900000 2.983333 1347.629761 311.389862 1913069.625000
3.000000 4.900000 2.991667 -923.172119 129.043335 868898.937500
3.000000 4.900000 3.000000 509.336182 -1265.009766 1859673.125000
3.000000 4.900000 3.008333 978.463501 -292.391907 1042883.812500
3.000000 4.900000 3.016667 1315.018433 287.772675 1812086.625000
3.000000 5.000000 2.983333 -219.897415 2033.984985 4185450.000000
3.000000 5.000000 2.991667 -306.008698 -1458.968140 2222229.250000
3.000000 5.000000 3.000000 1963.618896 517.447021 4123550.750000
3.000000 5.000000 3.008333 733.242676 1179.144043 1928025.500000
3.000000 5.000000 3.016667 58.369232 2175.787109 4737456.500000
3.000000 5.100000 2.983333 -1265.029663 155.890625 1624601.875000
3.000000 5.100000 2.991667 775.631042 -339.787659 717059.125000
3.000000 5.100000 3.000000 -143.624817 1151.471924 1346515.750000
3.000000 5.100000 3.008333 -562.154419 564.519043 634699.375000
3.000000 5.100000 3.016667 -1403.149536 269.773651 2041606.500000
3.000000 5.200000 2.983333 -203.986450 48.742596 43986.312500
3.000000 5.200000 2.991667 6.608082 -202.465698 41036.027344
3.000000 5.200000 3.000000 130.096237 -25.984402 17600.220703
3.000000 5.200000 3.008333 25.116493 20.877991 1066.728760
3.000000 5.200000 3.016667 57.886189 -74.068848 8837.004883
3.100000 4.800000 2.983333 108.371735 -91.684502 20150.480469
3.100000 4.800000 2.991667 91.049202 84.504745 15431.009766
3.100000 4.800000 3.000000 -36.412693 55.303955 4384.411621
3.100000 4.800000 3.008333 74.627762 -50.721024 8141.924805
3.100000 4.800000 3.016667 82.553864 184.124802 40717.082031
3.100000 4.900000 2.983333 -67.615906 957.934753 922210.937500
3.100000 4.900000 2.991667 -179.189743 -587.671448 377466.687500
3.100000 4.900000 3.000000 837.946777 212.088470 747136.312500
3.100000 4.900000 3.008333 329.229523 576.527283 440775.812500
3.100000 4.900000 3.016667 -85.949806 951.492615 912725.562500
3.100000 5.000000 2.983333 -1382.193848 5.904190 1910494.750000
3.100000 5.000000 2.991667 902.521423 -378.792908 958029.000000
3.100000 5.000000 3.000000 -136.655777 1295.535645 1697087.375000
3.100000 5.000000 3.008333 -686.060608 549.410034 772530.500000
3.100000 5.000000 3.016667 -1336.609375 238.158157 1843243.875000
3.100000 5.100000 2.983333 -144.303726 -847.321960 738778.062500
3.100000 5.100000 2.991667 328.789001 460.949280 320576.437500
3.100000 5.100000 3.000000 -727.785034 4.244791 529689.062500
3.100000 5.100000 3.008333 -349.050415 -324.582947 227190.281250
3.100000 5.100000 3.016667 -260.835724 -803.714661 713992.500000
3.100000 5.200000 2.983333 12.598587 -65.279099 4420.085449
3.100000 5.200000 2.991667 96.722580 12.053368 9500.541016
3.100000 5.200000 3.000000 70.191017 97.845978 14500.613281
3.100000 5.200000 3.008333 -11.842228 60.601212 3812.745117
3.100000 5.200000 3.016667 72.345169 89.589127 13260.035156
3.200000 4.800000 2.983333 28.979794 46.098450 2964.895508
3.200000 4.800000 2.991667 11.861217 -28.925402 977.367310
3.200000 4.800000 3.000000 -55.936703 -16.825678 3412.018311
3.200000 4.800000 3.008333 127.270523 -79.710777 22551.593750
3.200000 4.800000 3.016667 -24.959080 179.152283 32718.496094
3.200000 4.900000 2.983333 -133.867264 -43.902470 19847.871094
3.200000 4.900000 2.991667 91.410233 -36.664974 9700.151367
3.200000 4.900000 3.000000 -0.359807 15.624161 244.243851
3.200000 4.900000 3.008333 44.203804 68.555328 6653.809570
3.200000 4.900000 3.016667 -110.821838 -11.401440 12411.472656
3.200000 5.000000 2.983333 102.627220 -174.594849 41015.707031
3.200000 5.000000 2.991667 103.395760 31.132774 11659.932617
3.200000 5.000000 3.000000 10.086273 2.383959 107.416168
3.200000 5.000000 3.008333 41.496460 -14.821281 1941.626587
3.200000 5.000000 3.016667 66.011887 31.903141 5375.379883
3.200000 5.100000 2.983333 148.070618 98.872070 31700.593750
3.200000 5.100000 2.991667 59.999249 75.062828 9234.337891
3.200000 5.100000 3.000000 37.207970 87.495461 9039.888672
3.200000 5.100000 3.008333 42.869171 83.227974 8764.661133
3.200000 5.100000 3.016667 -48.941845 141.530624 22426.222656
3.200000 5.200000 2.983333 -54.005482 111.884384 15434.707031
3.200000 5.200000 2.991667 -22.651390 39.737446 2092.149902
3.200000 5.200000 3.000000 -92.308365 68.704834 13241.187500
3.200000 5.200000 3.008333 -44.010025 0.021935 1936.882812
3.200000 5.200000 3.016667 -118.808044 32.716007 15185.688477
