#kx 	ky 	kz 	real 	imag 	intensity
0.800000 4.800000 0.800000 10.410259 -16.783005 390.042755
0.800000 4.800000 0.840000 9.623156 -7.807157 153.556824
0.800000 4.800000 0.880000 2.564775 -4.933012 30.912682
0.800000 4.800000 0.920000 -2.256841 -10.436914 114.022514
0.800000 4.800000 0.960000 1.427794 -18.189253 332.887512
0.800000 4.800000 1.000000 11.655382 -19.761976 526.383667
0.800000 4.800000 1.040000 20.472519 -12.441151 573.906250
0.800000 4.800000 1.080000 21.694283 -1.175658 472.024078
0.800000 4.800000 1.120000 16.089283 6.911247 306.630371
0.800000 4.800000 1.160000 9.221790 9.218262 170.017761
0.800000 4.800000 1.200000 5.031623 8.709152 101.166565
0.800000 4.840000 0.800000 10.619831 -12.115907 259.576019
0.800000 4.840000 0.840000 7.999732 -7.502042 120.276337
0.800000 4.840000 0.880000 3.216430 -8.964003 90.698761
0.800000 4.840000 0.920000 3.442343 -15.486509 251.681702
0.800000 4.840000 0.960000 11.436968 -19.835104 524.235596
0.800000 4.840000 1.000000 22.093319 -15.588205 731.106873
0.800000 4.840000 1.040000 26.948597 -3.693655 739.869934
0.800000 4.840000 1.080000 22.196182 8.204454 559.983582
0.800000 4.840000 1.120000 11.999069 13.021461 313.536102
0.800000 4.840000 1.160000 3.909810 10.531700 126.203323
0.800000 4.840000 1.200000 1.405826 6.382610 42.714054
0.800000 4.880000 0.800000 10.761231 -12.366735 268.740234
0.800000 4.880000 0.840000 10.611565 -10.751626 228.202759
0.800000 4.880000 0.880000 10.438951 -12.599405 267.716736
0.800000 4.880000 0.920000 14.650075 -15.672907 460.264709
0.800000 4.880000 0.960000 23.012901 -14.296322 733.978455
0.800000 4.880000 1.000000 29.700077 -5.617268 913.648315
0.800000 4.880000 1.040000 28.726009 6.512922 867.601746
0.800000 4.880000 1.080000 20.112501 14.636119 618.728638
0.800000 4.880000 1.120000 10.126078 14.783990 321.103821
0.800000 4.880000 1.160000 5.072090 10.067227 127.075165
0.800000 4.880000 1.200000 5.232896 6.890502 74.862221
0.800000 4.920000 0.800000 16.262829 -12.943651 432.017700
0.800000 4.920000 0.840000 19.156555 -9.908536 465.152679
0.800000 4.920000 0.880000 21.158527 -8.124228 513.686340
0.800000 4.920000 0.920000 24.784853 -6.261921 653.500610
0.800000 4.920000 0.960000 29.204855 -1.220257 854.412598
0.800000 4.920000 1.000000 30.536736 7.454649 988.063965
0.800000 4.920000 1.040000 26.184187 16.039944 942.891418
0.800000 4.920000 1.080000 18.151320 20.072935 732.393127
0.800000 4.920000 1.120000 11.299992 18.980030 487.931366
0.800000 4.920000 1.160000 8.303030 16.521460 341.898926
0.800000 4.920000 1.200000 7.008475 16.341854 316.174896
0.800000 4.960000 0.800000 24.561062 -6.498583 645.477356
0.800000 4.960000 0.840000 26.509724 0.389059 702.916809
0.800000 4.960000 0.880000 25.771170 5.477666 694.158020
0.800000 4.960000 0.920000 25.083967 8.951372 709.332458
0.800000 4.960000 0.960000 24.993471 12.833370 789.368958
0.800000 4.960000 1.000000 23.872480 18.023394 894.738037
0.800000 4.960000 1.040000 20.328310 23.247269 953.675659
0.800000 4.960000 1.080000 14.890983 26.741568 936.852783
0.800000 4.960000 1.120000 9.047845 28.197010 876.934814
0.800000 4.960000 1.160000 3.296331 28.434326 819.376709
0.800000 4.960000 1.200000 -3.061044 27.430027 761.776367
0.800000 5.000000 0.800000 26.790873 7.955129 781.034912
0.800000 5.000000 0.840000 23.387575 15.911871 800.166321
0.800000 5.000000 0.880000 17.739491 19.458260 693.313354
0.800000 5.000000 0.920000 13.834697 19.416111 568.384155
0.800000 5.000000 0.960000 13.162104 19.159950 540.344666
0.800000 5.000000 1.000000 13.940484 21.633888 662.362183
0.800000 5.000000 1.040000 12.831826 27.135113 900.970093
0.800000 5.000000 1.080000 7.470408 33.262547 1162.203979
0.800000 5.000000 1.120000 -2.021413 36.559765 1340.702515
0.800000 5.000000 1.160000 -13.138128 34.502136 1363.007812
0.800000 5.000000 1.200000 -22.193398 26.748970 1208.054321
0.800000 5.040000 0.800000 16.958771 22.262053 783.198853
0.800000 5.040000 0.840000 8.427814 25.429012 717.662659
0.800000 5.040000 0.880000 1.276280 22.694828 516.684143
0.800000 5.040000 0.920000 -0.522019 17.416483 303.606354
0.800000 5.040000 0.960000 2.914288 15.048935 234.963516
0.800000 5.040000 1.000000 6.956388 19.084391 412.605286
0.800000 5.040000 1.040000 5.568742 27.963520 812.969299
0.800000 5.040000 1.080000 -4.046405 35.581497 1282.416382
0.800000 5.040000 1.120000 -18.838482 35.461685 1612.419556
0.800000 5.040000 1.160000 -31.615820 25.544102 1652.061279
0.800000 5.040000 1.200000 -35.899311 9.841991 1385.625244
0.800000 5.080000 0.800000 -0.974188 26.137663 684.126465
0.800000 5.080000 0.840000 -9.149224 21.183731 532.458740
0.800000 5.080000 0.880000 -11.480364 12.514134 288.402313
0.800000 5.080000 0.920000 -6.598353 5.905190 78.409531
0.800000 5.080000 0.960000 1.598484 6.838880 49.325432
0.800000 5.080000 1.000000 5.551625 15.915004 284.107880
0.800000 5.080000 1.040000 -0.597411 27.063862 732.809509
0.800000 5.080000 1.080000 -15.776991 31.114445 1217.022095
0.800000 5.080000 1.120000 -31.671610 22.706364 1518.669922
0.800000 5.080000 1.160000 -38.430042 4.933834 1501.210938
0.800000 5.080000 1.200000 -32.047890 -12.552990 1184.644775
0.800000 5.120000 0.800000 -15.863770 17.037333 541.929871
0.800000 5.120000 0.840000 -17.544052 6.592097 351.249512
0.800000 5.120000 0.880000 -11.568592 -2.328068 139.252228
0.800000 5.120000 0.920000 -0.788787 -3.922951 16.011726
0.800000 5.120000 0.960000 7.590895 4.005716 73.667450
0.800000 5.120000 1.000000 6.227633 16.939350 325.725006
0.800000 5.120000 1.040000 -6.356100 25.332670 682.144226
0.800000 5.120000 1.080000 -23.161943 21.269814 988.880615
0.800000 5.120000 1.120000 -32.956375 5.156493 1112.712158
0.800000 5.120000 1.160000 -28.690613 -13.730329 1011.673157
0.800000 5.120000 1.200000 -13.127693 -23.991417 747.924438
0.800000 5.160000 0.800000 -19.463966 2.679626 386.026367
0.800000 5.160000 0.840000 -13.163626 -6.876322 220.564850
0.800000 5.160000 0.880000 -1.467395 -9.866066 99.492500
0.800000 5.160000 0.920000 9.375781 -3.355941 99.167610
0.800000 5.160000 0.960000 11.948024 9.760342 238.019547
0.800000 5.160000 1.000000 3.078719 21.065260 453.223694
0.800000 5.160000 1.040000 -12.494243 21.848270 633.453003
0.800000 5.160000 1.080000 -24.306955 9.983622 690.500732
0.800000 5.160000 1.120000 -23.666965 -7.456285 615.721436
0.800000 5.160000 1.160000 -10.588133 -19.018753 473.821533
0.800000 5.160000 1.200000 6.037052 -17.557827 344.723267
0.800000 5.200000 0.800000 -13.638142 -6.409928 227.086090
0.800000 5.200000 0.840000 -3.307728 -10.558600 122.425110
0.800000 5.200000 0.880000 7.886718 -6.139956 99.899384
0.800000 5.200000 0.920000 12.914888 5.570738 197.827454
0.800000 5.200000 0.960000 7.571951 17.754303 372.549713
0.800000 5.200000 1.000000 -5.519789 22.041843 516.310913
0.800000 5.200000 1.040000 -17.682957 14.809409 532.005554
0.800000 5.200000 1.080000 -20.223892 0.651893 409.430786
0.800000 5.200000 1.120000 -11.197565 -10.550589 236.700378
0.800000 5.200000 1.160000 2.906171 -11.098103 131.613708
0.800000 5.200000 1.200000 12.241551 -1.221719 151.348175
0.840000 4.800000 0.800000 22.550018 -1.063689 509.634766
0.840000 4.800000 0.840000 13.715042 4.712479 210.309845
0.840000 4.800000 0.880000 5.498960 1.571225 32.707306
0.840000 4.800000 0.920000 4.481936 -5.692373 52.490860
0.840000 4.800000 0.960000 10.201262 -9.515144 194.603699
0.840000 4.800000 1.000000 16.660664 -6.633166 321.576599
0.840000 4.800000 1.040000 18.761732 0.015341 352.002838
0.840000 4.800000 1.080000 16.497807 5.639717 303.984009
0.840000 4.800000 1.120000 13.077148 8.659225 245.993988
0.840000 4.800000 1.160000 10.129980 10.887895 221.162750
0.840000 4.800000 1.200000 6.070148 13.512731 219.440582
0.840000 4.840000 0.800000 14.777889 5.535072 249.023041
0.840000 4.840000 0.840000 12.654440 3.078303 169.610809
0.840000 4.840000 0.880000 15.620416 1.786079 247.187469
0.840000 4.840000 0.920000 19.569813 6.112080 420.335083
0.840000 4.840000 0.960000 18.355175 14.348998 542.806213
0.840000 4.840000 1.000000 10.484472 19.954592 508.109894
0.840000 4.840000 1.040000 1.086265 18.265856 334.821442
0.840000 4.840000 1.080000 -3.158632 11.436127 140.761948
0.840000 4.840000 1.120000 -0.869851 6.262681 39.977814
0.840000 4.840000 1.160000 2.752746 7.089879 57.843994
0.840000 4.840000 1.200000 1.585600 11.337303 131.048569
0.840000 4.880000 0.800000 9.144213 3.257671 94.229050
0.840000 4.880000 0.840000 18.440348 3.380564 351.474640
0.840000 4.880000 0.880000 25.586353 14.925215 877.423523
0.840000 4.880000 0.920000 20.043133 31.708084 1407.129761
0.840000 4.880000 0.960000 1.302481 40.239063 1620.878662
0.840000 4.880000 1.000000 -18.873346 32.042793 1382.943848
0.840000 4.880000 1.040000 -26.304663 12.283009 842.807617
0.840000 4.880000 1.080000 -17.214420 -4.296232 314.793884
0.840000 4.880000 1.120000 -1.484211 -6.540759 44.984409
0.840000 4.880000 1.160000 6.795397 3.537464 58.691071
0.840000 4.880000 1.200000 2.116509 13.807023 195.113495
0.840000 4.920000 0.800000 11.468544 0.277966 131.604767
0.840000 4.920000 0.840000 24.521601 13.272680 777.472961
0.840000 4.920000 0.880000 21.158953 37.195309 1831.192261
0.840000 4.920000 0.920000 -3.494357 52.848656 2805.190918
0.840000 4.920000 0.960000 -34.902908 44.032215 3157.048828
0.840000 4.920000 1.000000 -50.018215 13.699389 2689.495117
0.840000 4.920000 1.040000 -37.658108 -16.886444 1703.285034
0.840000 4.920000 1.080000 -8.812122 -26.269480 767.739075
0.840000 4.920000 1.120000 13.247470 -11.268660 302.478149
0.840000 4.920000 1.160000 13.560380 11.622559 318.967773
0.840000 4.920000 1.200000 -2.857582 22.398193 509.844849
0.840000 4.960000 0.800000 16.629488 5.078859 302.334656
0.840000 4.960000 0.840000 19.598095 29.638611 1262.532593
0.840000 4.960000 0.880000 -2.659164 51.940895 2704.927734
0.840000 4.960000 0.920000 -39.815292 49.021500 3988.364746
0.840000 4.960000 0.960000 -64.489288 16.097719 4418.004883
0.840000 4.960000 1.000000 -55.738037 -25.684603 3766.427490
0.840000 4.960000 1.040000 -18.987782 -45.914154 2468.645508
0.840000 4.960000 1.080000 17.596132 -31.361012 1293.136963
0.840000 4.960000 1.120000 27.578323 2.859899 768.742920
0.840000 4.960000 1.160000 8.461592 27.863052 847.948181
0.840000 4.960000 1.200000 -18.841576 26.698067 1067.791748
0.840000 5.000000 0.800000 14.399489 16.340311 474.351074
0.840000 5.000000 0.840000 0.462193 39.318790 1546.180908
0.840000 5.000000 0.880000 -33.339054 44.003128 3047.767822
0.840000 5.000000 0.920000 -63.470852 17.368881 4330.227051
0.840000 5.000000 0.960000 -63.134541 -27.027229 4716.441406
0.840000 5.000000 1.000000 -27.812988 -57.024914 4025.403076
0.840000 5.000000 1.040000 17.677816 -49.325394 2745.499512
0.840000 5.000000 1.080000 39.425926 -10.844605 1672.009155
0.840000 5.000000 1.120000 23.719286 27.084568 1296.178467
0.840000 5.000000 1.160000 -12.238263 36.449184 1478.318115
0.840000 5.000000 1.200000 -37.691532 15.779288 1669.637573
0.840000 5.040000 0.800000 1.216138 23.584225 557.694641
0.840000 5.040000 0.840000 -22.303978 31.498459 1489.620361
0.840000 5.040000 0.880000 -49.644188 15.117916 2693.096680
0.840000 5.040000 0.920000 -56.374634 -22.092813 3666.191895
0.840000 5.040000 0.960000 -30.086493 -54.929062 3922.398926
0.840000 5.040000 1.000000 14.301689 -56.337860 3378.492920
0.840000 5.040000 1.040000 44.122459 -22.663990 2460.447754
0.840000 5.040000 1.080000 36.797623 20.792336 1786.386230
0.840000 5.040000 1.120000 -0.041709 40.936035 1675.760742
0.840000 5.040000 1.160000 -35.717285 25.376919 1919.712524
0.840000 5.040000 1.200000 -44.055225 -8.575299 2014.398682
0.840000 5.080000 0.800000 -14.916275 18.091227 549.787720
0.840000 5.080000 0.840000 -32.764893 9.255420 1159.201050
0.840000 5.080000 0.880000 -40.268394 -15.679514 1867.390747
0.840000 5.080000 0.920000 -24.264656 -42.565243 2400.573486
0.840000 5.080000 0.960000 10.367063 -49.204262 2528.535400
0.840000 5.080000 1.000000 39.998737 -25.629314 2256.760742
0.840000 5.080000 1.040000 40.843723 13.557419 1852.013306
0.840000 5.080000 1.080000 10.802355 39.064758 1642.746216
0.840000 5.080000 1.120000 -27.061478 31.758686 1740.937744
0.840000 5.080000 1.160000 -44.070114 -0.670624 1942.624634
0.840000 5.080000 1.200000 -30.464420 -31.311769 1908.507812
0.840000 5.120000 0.800000 -21.926197 2.427622 486.651459
0.840000 5.120000 0.840000 -24.384495 -12.068702 740.257141
0.840000 5.120000 0.880000 -14.204325 -28.163601 994.951294
0.840000 5.120000 0.920000 8.197784 -33.312859 1176.950195
0.840000 5.120000 0.960000 29.977570 -18.672224 1247.306641
0.840000 5.120000 1.000000 33.802460 9.832523 1239.284790
0.840000 5.120000 1.040000 13.393919 32.584023 1241.115601
0.840000 5.120000 1.080000 -18.222834 31.502857 1324.501709
0.840000 5.120000 1.120000 -37.758801 6.354539 1466.107178
0.840000 5.120000 1.160000 -31.128963 -23.928345 1541.578125
0.840000 5.120000 1.200000 -5.370857 -37.210793 1413.489136
0.840000 5.160000 0.800000 -15.721587 -11.662040 383.171478
0.840000 5.160000 0.840000 -6.164085 -18.668015 386.490723
0.840000 5.160000 0.880000 7.569194 -18.328032 393.209442
0.840000 5.160000 0.920000 19.196415 -7.673927 427.391510
0.840000 5.160000 0.960000 20.252886 10.077946 511.744385
0.840000 5.160000 1.000000 6.854580 24.513872 647.915222
0.840000 5.160000 1.040000 -14.561718 24.365316 805.712280
0.840000 5.160000 1.080000 -29.669529 7.310577 933.725464
0.840000 5.160000 1.120000 -26.948769 -16.084227 984.938477
0.840000 5.160000 1.160000 -7.734754 -29.595318 935.709229
0.840000 5.160000 1.200000 14.124808 -24.363991 793.114258
0.840000 5.200000 0.800000 -4.054647 -14.880071 237.856674
0.840000 5.200000 0.840000 6.154848 -10.588490 149.998291
0.840000 5.200000 0.880000 10.992807 -0.410300 121.010155
0.840000 5.200000 0.920000 7.596091 10.720512 172.629974
0.840000 5.200000 0.960000 -3.048594 16.817726 292.129822
0.840000 5.200000 1.000000 -15.785633 13.604113 434.258118
0.840000 5.200000 1.040000 -23.170855 1.552821 539.299744
0.840000 5.200000 1.080000 -19.784794 -13.118471 563.532349
0.840000 5.200000 1.120000 -6.525109 -21.517460 505.578125
0.840000 5.200000 1.160000 8.973564 -18.053522 406.454529
0.840000 5.200000 1.200000 17.172010 -4.848617 318.387024
0.880000 4.800000 0.800000 19.335859 21.824474 850.183105
0.880000 4.800000 0.840000 6.799908 18.447582 386.552032
0.880000 4.800000 0.880000 2.477598 9.484035 96.085419
0.880000 4.800000 0.920000 5.865627 3.613449 47.462597
0.880000 4.800000 0.960000 10.180038 4.123959 120.640221
0.880000 4.800000 1.000000 10.532669 7.084904 161.132980
0.880000 4.800000 1.040000 8.666895 7.602348 132.910767
0.880000 4.800000 1.080000 9.214449 6.278713 124.328308
0.880000 4.800000 1.120000 12.466724 8.046926 220.172241
0.880000 4.800000 1.160000 12.889778 14.915362 388.614410
0.880000 4.800000 1.200000 5.632801 21.637543 499.911713
0.880000 4.840000 0.800000 2.228745 22.158180 495.952271
0.880000 4.840000 0.840000 7.779129 16.316185 326.732727
0.880000 4.840000 0.880000 15.329644 24.055611 813.670410
0.880000 4.840000 0.920000 9.579140 40.146709 1703.518188
0.880000 4.840000 0.960000 -12.143974 47.214684 2376.702393
0.880000 4.840000 1.000000 -34.816841 33.524033 2336.073242
0.880000 4.840000 1.040000 -39.525486 6.459053 1603.983398
0.880000 4.840000 1.080000 -22.538019 -13.223835 682.832153
0.880000 4.840000 1.120000 0.309540 -11.288563 127.527466
0.880000 4.840000 1.160000 8.921843 6.289625 119.158661
0.880000 4.840000 1.200000 -1.672025 19.893490 398.546600
0.880000 4.880000 0.800000 -6.003139 11.363208 165.160187
0.880000 4.880000 0.840000 12.371589 22.647335 665.958008
0.880000 4.880000 0.880000 9.061192 53.642563 2959.629883
0.880000 4.880000 0.920000 -27.306358 74.396973 6280.546875
0.880000 4.880000 0.960000 -74.939919 57.050804 8870.785156
0.880000 4.880000 1.000000 -95.836945 5.253014 9212.313477
0.880000 4.880000 1.040000 -71.190338 -45.685055 7155.188477
0.880000 4.880000 1.080000 -20.067886 -59.917007 3992.767822
0.880000 4.880000 1.120000 17.869099 -33.325344 1429.883301
0.880000 4.880000 1.160000 18.556688 4.706423 366.501099
0.880000 4.880000 1.200000 -6.999062 20.757896 479.877136
0.880000 4.920000 0.800000 -2.102531 2.709503 11.762046
0.880000 4.920000 0.840000 7.604362 37.461372 1461.180664
0.880000 4.920000 0.880000 -26.632374 73.719421 6143.836426
0.880000 4.920000 0.920000 -90.301598 67.337830 12688.761719
0.880000 4.920000 0.960000 -133.597168 5.721352 17880.937500
0.880000 4.920000 1.000000 -115.575279 -74.001869 18833.921875
0.880000 4.920000 1.040000 -44.085369 -114.755966 15112.451172
0.880000 4.920000 1.080000 29.073523 -90.283058 8996.300781
0.880000 4.920000 1.120000 54.160328 -27.605238 3695.390137
0.880000 4.920000 1.160000 25.990755 20.126373 1080.590210
0.880000 4.920000 1.200000 -17.264715 22.312078 795.899292
0.880000 4.960000 0.800000 4.246414 4.541364 38.656021
0.880000 4.960000 0.840000 -13.189053 46.986576 2381.689453
0.880000 4.960000 0.880000 -74.295868 58.905495 8989.733398
0.880000 4.960000 0.920000 -133.987961 7.991106 18016.630859
0.880000 4.960000 0.960000 -134.975586 -83.307617 25158.566406
0.880000 4.960000 1.000000 -62.702614 -150.331985 26531.322266
0.880000 4.960000 1.040000 36.132942 -142.163086 21515.933594
0.880000 4.960000 1.080000 92.482010 -67.853691 13157.044922
0.880000 4.960000 1.120000 75.046455 12.410384 5785.988281
0.880000 4.960000 1.160000 13.946088 42.205414 1975.790405
0.880000 4.960000 1.200000 -32.596638 15.998040 1318.478027
0.880000 5.000000 0.800000 1.922817 11.839656 143.874664
0.880000 5.000000 0.840000 -39.922058 36.562374 2930.578125
0.880000 5.000000 0.880000 -99.653114 9.283125 10016.919922
0.880000 5.000000 0.920000 -120.402290 -70.296066 19438.250000
0.880000 5.000000 0.960000 -66.988411 -149.295197 26776.503906
0.880000 5.000000 1.000000 34.866077 -163.969391 28101.603516
0.880000 5.000000 1.040000 115.076317 -98.061188 22858.554688
0.880000 5.000000 1.080000 119.262039 0.059386 14223.437500
0.880000 5.000000 1.120000 55.471405 59.675266 6638.213867
0.880000 5.000000 1.160000 -16.934723 48.982052 2686.026367
0.880000 5.000000 1.200000 -43.399174 -3.008747 1892.540894
0.880000 5.040000 0.800000 -9.068247 12.563478 240.074066
0.880000 5.040000 0.840000 -52.609016 6.969467 2816.281982
0.880000 5.040000 0.880000 -81.577980 -45.259068 8703.349609
0.880000 5.040000 0.920000 -54.635204 -115.162292 16247.359375
0.880000 5.040000 0.960000 26.831760 -145.745102 21961.578125
0.880000 5.040000 1.000000 110.743591 -102.864243 22845.195312
0.880000 5.040000 1.040000 135.966995 -10.593995 18599.255859
0.880000 5.040000 1.080000 86.301239 66.073288 11813.583008
0.880000 5.040000 1.120000 4.725423 77.058075 5960.276367
0.880000 5.040000 1.160000 -46.151917 28.628651 2949.599121
0.880000 5.040000 1.200000 -38.658443 -28.052052 2281.392822
0.880000 5.080000 0.800000 -17.623814 1.526725 312.929718
0.880000 5.080000 0.840000 -40.001930 -23.415907 2148.458984
0.880000 5.080000 0.880000 -32.269196 -69.210632 5831.413086
0.880000 5.080000 0.920000 17.824238 -99.937019 10305.111328
0.880000 5.080000 0.960000 83.830795 -80.736977 13546.061523
0.880000 5.080000 1.000000 117.191246 -13.487438 13915.699219
0.880000 5.080000 1.040000 89.303055 58.346352 11379.332031
0.880000 5.080000 1.080000 19.329830 84.547943 7521.997070
0.880000 5.080000 1.120000 -40.853516 51.422218 4313.254395
0.880000 5.080000 1.160000 -51.531921 -7.752683 2715.642822
0.880000 5.080000 1.200000 -17.266880 -44.687542 2295.121582
0.880000 5.120000 0.800000 -13.879688 -13.469549 374.074524
0.880000 5.120000 0.840000 -11.232800 -34.318413 1303.929199
0.880000 5.120000 0.880000 12.795980 -51.914680 2858.871094
0.880000 5.120000 0.920000 50.416000 -45.252197 4589.534668
0.880000 5.120000 0.960000 75.484993 -7.536858 5754.788574
0.880000 5.120000 1.000000 64.103836 41.419369 5824.865723
0.880000 5.120000 1.040000 18.309771 67.474464 4888.050781
0.880000 5.120000 1.080000 -31.477560 50.911827 3582.851074
0.880000 5.120000 1.120000 -50.638828 4.867971 2587.988281
0.880000 5.120000 1.160000 -29.614912 -35.341461 2126.062012
0.880000 5.120000 1.200000 9.298778 -42.728939 1912.229492
0.880000 5.160000 0.800000 -0.149394 -19.847702 393.953583
0.880000 5.160000 0.840000 11.945101 -21.944336 624.239319
0.880000 5.160000 0.880000 25.907825 -15.150211 900.744263
0.880000 5.160000 0.920000 33.932720 2.302711 1156.731934
0.880000 5.160000 0.960000 27.082647 24.100990 1314.327515
0.880000 5.160000 1.000000 4.182037 36.495243 1349.392090
0.880000 5.160000 1.040000 -23.032379 28.126217 1321.574585
0.880000 5.160000 1.080000 -36.334229 1.318871 1321.915527
0.880000 5.160000 1.120000 -25.563511 -26.931545 1378.801270
0.880000 5.160000 1.160000 1.773865 -37.531860 1411.787109
0.880000 5.160000 1.200000 25.922169 -24.965700 1295.244995
0.880000 5.200000 0.800000 11.459053 -13.670284 318.186584
0.880000 5.200000 0.840000 15.022493 -1.725620 228.653076
0.880000 5.200000 0.880000 9.361259 8.673374 162.860580
0.880000 5.200000 0.920000 -1.394969 12.287178 152.920685
0.880000 5.200000 0.960000 -11.801773 8.186893 206.307068
0.880000 5.200000 1.000000 -17.708481 -1.681448 316.417572
0.880000 5.200000 1.040000 -16.540363 -13.931282 467.664246
0.880000 5.200000 1.080000 -7.539171 -23.927975 629.387085
0.880000 5.200000 1.120000 6.855714 -26.536650 751.194580
0.880000 5.200000 1.160000 20.388914 -19.037811 778.146118
0.880000 5.200000 1.200000 25.789066 -4.307561 683.630981
0.920000 4.800000 0.800000 -0.847799 38.069565 1450.010498
0.920000 4.800000 0.840000 -9.832375 24.964632 719.908447
0.920000 4.800000 0.880000 -7.364548 13.962406 249.185364
0.920000 4.800000 0.920000 -1.729858 11.445868 134.000305
0.920000 4.800000 0.960000 -0.985107 13.230671 176.021103
0.920000 4.800000 1.000000 -3.940895 11.346573 144.275375
0.920000 4.800000 1.040000 -2.757227 4.918823 31.797123
0.920000 4.800000 1.080000 5.958157 1.999363 39.497082
0.920000 4.800000 1.120000 14.909946 9.695424 316.307739
0.920000 4.800000 1.160000 13.011076 23.960314 743.384705
0.920000 4.800000 1.200000 -1.639014 31.631577 1003.242981
0.920000 4.840000 0.800000 -21.155222 25.024139 1073.750977
0.920000 4.840000 0.840000 -7.981560 24.227207 650.662903
0.920000 4.840000 0.880000 -6.718376 42.413670 1844.055908
0.920000 4.840000 0.920000 -31.248955 56.946892 4219.445801
0.920000 4.840000 0.960000 -66.710258 42.706917 6274.139648
0.920000 4.840000 1.000000 -81.166351 0.194939 6588.014648
0.920000 4.840000 1.040000 -57.303745 -40.976326 4962.778320
0.920000 4.840000 1.080000 -11.686676 -49.041924 2541.688721
0.920000 4.840000 1.120000 19.521172 -20.862305 816.311890
0.920000 4.840000 1.160000 14.694960 15.116119 444.438904
0.920000 4.840000 1.200000 -13.781596 26.895565 913.303772
0.920000 4.880000 0.800000 -24.020020 4.070740 593.532288
0.920000 4.880000 0.840000 -10.230040 33.457127 1224.032959
0.920000 4.880000 0.880000 -41.642231 69.123756 6512.168945
0.920000 4.880000 0.920000 -106.296112 61.936615 15135.007812
0.920000 4.880000 0.960000 -150.658264 -4.664108 22719.666016
0.920000 4.880000 1.000000 -128.466415 -91.277588 24835.216797
0.920000 4.880000 1.040000 -47.483284 -134.391632 20315.773438
0.920000 4.880000 1.080000 34.196175 -104.391251 12066.912109
0.920000 4.880000 1.120000 60.391922 -32.425262 4698.582031
0.920000 4.880000 1.160000 26.295223 20.447454 1109.537109
0.920000 4.880000 1.200000 -22.809990 20.033251 921.626831
0.920000 4.920000 0.800000 -12.585945 -8.041108 223.065430
0.920000 4.920000 0.840000 -27.652973 41.852577 2516.325195
0.920000 4.920000 0.880000 -99.783218 57.553577 13269.104492
0.920000 4.920000 0.920000 -173.312164 -5.698490 30069.578125
0.920000 4.920000 0.960000 -173.449463 -121.881248 44939.757812
0.920000 4.920000 1.000000 -79.232117 -208.116638 49590.265625
0.920000 4.920000 1.040000 50.052673 -197.500854 41511.855469
0.920000 4.920000 1.080000 124.734558 -100.866844 25732.830078
0.920000 4.920000 1.120000 103.860489 3.770000 10801.213867
0.920000 4.920000 1.160000 26.767847 43.213963 2583.964111
0.920000 4.920000 1.200000 -30.839149 11.145461 1075.274414
0.920000 4.960000 0.800000 -1.496531 -6.194135 40.606911
0.920000 4.960000 0.840000 -54.422989 31.870140 3977.567627
0.920000 4.960000 0.880000 -138.184723 -3.201572 19105.267578
0.920000 4.960000 0.920000 -169.083527 -116.291489 42112.949219
0.920000 4.960000 0.960000 -92.410339 -232.025818 62375.652344
0.920000 4.960000 1.000000 57.276546 -256.061340 68848.007812
0.920000 4.960000 1.040000 178.482971 -161.985245 58095.390625
0.920000 4.960000 1.080000 190.696136 -18.252401 36698.164062
0.920000 4.960000 1.120000 103.643539 72.813835 16043.837891
0.920000 4.960000 1.160000 1.816474 64.462830 4158.756348
0.920000 4.960000 1.200000 -36.988670 -2.511947 1374.471680
0.920000 5.000000 0.800000 -0.856133 0.034132 0.734128
0.920000 5.000000 0.840000 -69.251602 -0.825672 4796.465820
0.920000 5.000000 0.880000 -119.988831 -80.835968 20931.773438
0.920000 5.000000 0.920000 -80.633102 -195.707184 44803.000000
0.920000 5.000000 0.960000 51.498375 -250.779053 65542.218750
0.920000 5.000000 1.000000 193.446243 -186.003296 72018.671875
0.920000 5.000000 1.040000 244.054489 -36.370495 60885.406250
0.920000 5.000000 1.080000 173.101181 94.461792 38887.050781
0.920000 5.000000 1.120000 46.047195 124.284180 17566.902344
0.920000 5.000000 1.160000 -38.574760 59.727379 5055.372070
0.920000 5.000000 1.200000 -36.077606 -21.314077 1755.883545
0.920000 5.040000 0.800000 -6.510908 -1.295462 44.070148
0.920000 5.040000 0.840000 -55.040546 -38.568764 4517.011230
0.920000 5.040000 0.880000 -50.430775 -123.533463 17803.779297
0.920000 5.040000 0.920000 37.439232 -188.113602 36788.421875
0.920000 5.040000 0.960000 163.371368 -161.900269 52901.898438
0.920000 5.040000 1.000000 236.393997 -41.869564 57635.179688
0.920000 5.040000 1.040000 198.675323 95.840729 48657.328125
0.920000 5.040000 1.080000 78.802444 158.678635 31388.734375
0.920000 5.040000 1.120000 -33.352905 116.843018 14764.707031
0.920000 5.040000 1.160000 -66.137093 23.656574 4933.748535
0.920000 5.040000 1.200000 -23.226948 -39.470898 2097.442871
0.920000 5.080000 0.800000 -6.532670 -10.844767 160.284744
0.920000 5.080000 0.840000 -17.291489 -55.304024 3357.530762
0.920000 5.080000 0.880000 24.481167 -104.667267 11554.563477
0.920000 5.080000 0.920000 108.013565 -104.990807 22690.000000
0.920000 5.080000 0.960000 175.336197 -32.189449 31778.941406
0.920000 5.080000 1.000000 168.108459 76.655579 34136.531250
0.920000 5.080000 1.040000 82.164886 148.268829 28734.714844
0.920000 5.080000 1.080000 -24.343967 135.137589 18854.796875
0.920000 5.080000 1.120000 -79.799698 56.240067 9530.936523
0.920000 5.080000 1.160000 -59.378845 -22.411827 4028.137207
0.920000 5.080000 1.200000 -0.077750 -47.539574 2260.017090
0.920000 5.120000 0.800000 4.204602 -17.928467 339.108612
0.920000 5.120000 0.840000 18.511539 -40.397373 1974.624878
0.920000 5.120000 0.880000 57.172508 -45.660213 5353.550781
0.920000 5.120000 0.920000 96.861099 -13.031437 9551.890625
0.920000 5.120000 0.960000 101.734413 48.754112 12726.853516
0.920000 5.120000 1.000000 56.056492 100.934982 13330.201172
0.920000 5.120000 1.040000 -16.418213 104.670319 11225.433594
0.920000 5.120000 1.080000 -68.237862 55.603214 7748.123047
0.920000 5.120000 1.120000 -67.362045 -10.556213 4649.078613
0.920000 5.120000 1.160000 -23.318718 -48.202774 2867.270020
0.920000 5.120000 1.200000 23.945702 -39.739140 2152.595703
0.920000 5.160000 0.800000 17.879805 -13.336536 497.550598
0.920000 5.160000 0.840000 29.288713 -8.789724 935.088013
0.920000 5.160000 0.880000 38.337505 5.005459 1494.818848
0.920000 5.160000 0.920000 36.523857 26.342575 2027.923462
0.920000 5.160000 0.960000 17.777611 44.887779 2330.956055
0.920000 5.160000 1.000000 -12.908501 46.257240 2306.361572
0.920000 5.160000 1.040000 -38.569199 24.087473 2067.789551
0.920000 5.160000 1.080000 -41.547298 -11.373657 1855.538086
0.920000 5.160000 1.120000 -18.480146 -38.430374 1818.409424
0.920000 5.160000 1.160000 15.285707 -40.481350 1872.392578
0.920000 5.160000 1.200000 37.484436 -19.432619 1782.709595
0.920000 5.200000 0.800000 22.581614 -0.188139 509.964661
0.920000 5.200000 0.840000 14.689395 13.105480 387.531921
0.920000 5.200000 0.880000 0.002459 15.427795 238.016876
0.920000 5.200000 0.920000 -10.942631 6.793346 165.890717
0.920000 5.200000 0.960000 -12.924629 -5.694336 199.471497
0.920000 5.200000 1.000000 -7.834564 -15.608410 305.002838
0.920000 5.200000 1.040000 0.369658 -21.344757 455.735321
0.920000 5.200000 1.080000 10.209826 -23.623489 662.309814
0.920000 5.200000 1.120000 21.598478 -21.401798 924.531250
0.920000 5.200000 1.160000 31.859335 -12.353277 1167.620605
0.920000 5.200000 1.200000 35.352722 2.592899 1256.538086
0.960000 4.800000 0.800000 -28.525707 36.839493 2170.864258
0.960000 4.800000 0.840000 -28.926807 18.532276 1180.205444
0.960000 4.800000 0.880000 -20.323654 9.485458 503.024841
0.960000 4.800000 0.920000 -14.550468 9.623764 304.332947
0.960000 4.800000 0.960000 -15.524464 9.294449 327.395752
0.960000 4.800000 1.000000 -15.622335 2.394524 249.791107
0.960000 4.800000 1.040000 -6.388718 -4.968887 65.505554
0.960000 4.800000 1.080000 8.836243 -1.097803 79.284355
0.960000 4.800000 1.120000 15.923584 16.277929 518.531494
0.960000 4.800000 1.160000 4.922455 34.184612 1192.818359
0.960000 4.800000 1.200000 -17.289539 35.974602 1593.100098
0.960000 4.840000 0.800000 -41.967186 10.165552 1864.583252
0.960000 4.840000 0.840000 -28.781719 18.445446 1168.621826
0.960000 4.840000 0.880000 -41.298607 37.230705 3091.700195
0.960000 4.840000 0.920000 -77.391693 33.196854 7091.505371
0.960000 4.840000 0.960000 -103.256165 -8.849289 10740.145508
0.960000 4.840000 1.000000 -85.744133 -64.862595 11559.212891
0.960000 4.840000 1.040000 -28.299171 -90.663567 9020.724609
0.960000 4.840000 1.080000 27.963974 -64.348419 4922.703125
0.960000 4.840000 1.120000 41.585167 -8.927193 1809.020874
0.960000 4.840000 1.160000 9.537893 28.881636 925.120239
0.960000 4.840000 1.200000 -31.707508 22.792288 1524.854492
0.960000 4.880000 0.800000 -32.513771 -15.602100 1300.570801
0.960000 4.880000 0.840000 -38.492622 22.783131 2000.753052
0.960000 4.880000 0.880000 -95.266388 36.504795 10408.285156
0.960000 4.880000 0.920000 -156.349213 -17.317581 24744.974609
0.960000 4.880000 0.960000 -154.274033 -118.575424 37860.609375
0.960000 4.880000 1.000000 -68.199715 -193.449570 42073.937500
0.960000 4.880000 1.040000 48.893417 -180.487457 34966.289062
0.960000 4.880000 1.080000 114.600494 -89.386749 21123.263672
0.960000 4.880000 1.120000 91.204437 7.051109 8367.966797
0.960000 4.880000 1.160000 16.690300 40.286579 1901.574463
0.960000 4.880000 1.200000 -36.396919 5.665770 1356.836670
0.960000 4.920000 0.800000 -11.383467 -24.654533 737.429321
0.960000 4.920000 0.840000 -59.241505 15.248857 3742.083496
0.960000 4.920000 0.880000 -142.903961 -18.566425 20766.255859
0.960000 4.920000 0.920000 -174.001587 -134.961472 48491.152344
0.960000 4.920000 0.960000 -92.324417 -255.693176 73902.796875
0.960000 4.920000 1.000000 67.116341 -279.777954 82780.304688
0.960000 4.920000 1.040000 196.170456 -177.992691 70164.250000
0.960000 4.920000 1.080000 208.237640 -23.524170 43916.300781
0.960000 4.920000 1.120000 114.101707 73.424561 18410.365234
0.960000 4.920000 1.160000 5.585209 63.057037 4007.384521
0.960000 4.920000 1.200000 -33.431961 -9.040192 1199.421143
0.960000 4.960000 0.800000 4.060915 -17.909912 337.255981
0.960000 4.960000 0.840000 -73.708725 -14.098965 5631.756836
0.960000 4.960000 0.880000 -134.711288 -106.328117 29452.800781
0.960000 4.960000 0.920000 -88.529121 -243.612457 67184.437500
0.960000 4.960000 0.960000 71.011215 -310.718719 101588.718750
0.960000 4.960000 1.000000 244.258286 -232.801132 113858.476562
0.960000 4.960000 1.040000 307.710571 -50.937389 97280.414062
0.960000 4.960000 1.080000 223.761047 109.236771 62001.679688
0.960000 4.960000 1.120000 71.509018 147.841248 26970.574219
0.960000 4.960000 1.160000 -29.876431 73.194267 6250.001953
0.960000 4.960000 1.200000 -27.355995 -20.200287 1156.402100
0.960000 5.000000 0.800000 7.077710 -8.733448 126.367096
0.960000 5.000000 0.840000 -61.235523 -53.316860 6592.476562
0.960000 5.000000 0.880000 -59.316757 -168.173157 31800.689453
0.960000 5.000000 0.920000 58.814888 -259.281982 70686.335938
0.960000 5.000000 0.960000 233.115540 -226.682129 105727.640625
0.960000 5.000000 1.000000 337.787170 -63.244465 118100.031250
0.960000 5.000000 1.040000 291.349304 127.783890 101213.140625
0.960000 5.000000 1.080000 131.049362 219.367416 65296.000000
0.960000 5.000000 1.120000 -21.642723 169.850235 29317.509766
0.960000 5.000000 1.160000 -70.003326 50.477543 7448.448242
0.960000 5.000000 1.200000 -19.239141 -30.282694 1287.186157
0.960000 5.040000 0.800000 5.330063 -7.147429 79.495308
0.960000 5.040000 0.840000 -20.425047 -75.123825 6060.771484
0.960000 5.040000 0.880000 39.656300 -158.134842 26579.250000
0.960000 5.040000 0.920000 172.344315 -165.888306 57221.492188
0.960000 5.040000 0.960000 285.030090 -55.177139 84286.671875
0.960000 5.040000 1.000000 282.112854 117.941849 93497.945312
0.960000 5.040000 1.040000 153.495239 237.900848 80157.601562
0.960000 5.040000 1.080000 -12.127731 228.384369 52306.503906
0.960000 5.040000 1.120000 -104.274658 116.245453 24386.208984
0.960000 5.040000 1.160000 -84.064812 0.594707 7067.246094
0.960000 5.040000 1.200000 -6.007467 -39.291008 1579.873047
0.960000 5.080000 0.800000 9.251855 -10.090464 187.414276
0.960000 5.080000 0.840000 25.004982 -61.438492 4399.937500
0.960000 5.080000 0.880000 98.162109 -84.789436 16825.048828
0.960000 5.080000 0.920000 183.119781 -31.400749 34518.863281
0.960000 5.080000 0.960000 205.262543 86.537079 49621.375000
0.960000 5.080000 1.000000 128.589279 194.516174 54371.746094
0.960000 5.080000 1.040000 -5.410362 215.708633 46559.488281
0.960000 5.080000 1.080000 -108.858124 138.047028 30907.074219
0.960000 5.080000 1.120000 -121.533295 23.963020 15344.568359
0.960000 5.080000 1.160000 -58.115402 -46.197899 5511.645508
0.960000 5.080000 1.200000 13.921077 -41.808624 1941.757446
0.960000 5.120000 0.800000 19.152960 -7.423676 421.946838
0.960000 5.120000 0.840000 45.457253 -21.706810 2537.547363
0.960000 5.120000 0.880000 86.380791 -4.013195 7477.747070
0.960000 5.120000 0.920000 105.731583 52.343369 13918.996094
0.960000 5.120000 0.960000 72.994110 117.103325 19041.328125
0.960000 5.120000 1.000000 -4.482353 142.604294 20356.076172
0.960000 5.120000 1.040000 -80.786850 104.435356 17433.257812
0.960000 5.120000 1.080000 -107.046707 25.247295 12096.422852
0.960000 5.120000 1.120000 -71.836021 -42.555855 6971.415039
0.960000 5.120000 1.160000 -8.752518 -60.143734 3693.875488
0.960000 5.120000 1.200000 35.113892 -31.429947 2220.826904
0.960000 5.160000 0.800000 25.423521 4.538418 666.952637
0.960000 5.160000 0.840000 31.816465 14.432711 1220.590576
0.960000 5.160000 0.880000 31.311775 30.815811 1930.041504
0.960000 5.160000 0.920000 17.725471 47.878006 2606.495850
0.960000 5.160000 0.960000 -8.970016 53.980263 2994.329834
0.960000 5.160000 1.000000 -37.776207 39.198196 2963.540527
0.960000 5.160000 1.040000 -51.131641 5.640198 2646.256592
0.960000 5.160000 1.080000 -37.883377 -30.117424 2342.209473
0.960000 5.160000 1.120000 -3.831417 -47.365692 2258.188477
0.960000 5.160000 1.160000 30.898262 -36.997528 2323.519775
0.960000 5.160000 1.200000 46.828568 -8.584435 2266.607422
0.960000 5.200000 0.800000 20.634830 17.976860 748.963745
0.960000 5.200000 0.840000 2.785307 23.807531 574.556458
0.960000 5.200000 0.880000 -12.822475 12.938557 331.822144
0.960000 5.200000 0.920000 -14.487259 -5.424248 239.303146
0.960000 5.200000 0.960000 -3.476501 -17.940269 333.939331
0.960000 5.200000 1.000000 10.010807 -19.571182 483.247437
0.960000 5.200000 1.040000 18.618088 -15.440491 585.041931
0.960000 5.200000 1.080000 23.882702 -11.942684 713.011108
0.960000 5.200000 1.120000 30.880566 -8.489679 1025.683960
0.960000 5.200000 1.160000 39.192146 0.548235 1536.324829
0.960000 5.200000 1.200000 41.526100 16.817123 2007.232666
1.000000 4.800000 0.800000 -49.185814 17.750645 2734.329834
1.000000 4.800000 0.840000 -40.522591 0.098423 1642.089966
1.000000 4.800000 0.880000 -28.082981 -5.075722 814.416748
1.000000 4.800000 0.920000 -22.032158 -3.659317 498.806580
1.000000 4.800000 0.960000 -20.712141 -5.709435 461.590454
1.000000 4.800000 1.000000 -14.441910 -12.012405 352.866638
1.000000 4.800000 1.040000 0.342697 -12.263813 150.518555
1.000000 4.800000 1.080000 13.497673 2.056686 186.417145
1.000000 4.800000 1.120000 10.445061 24.649536 716.698914
1.000000 4.800000 1.160000 -10.846668 37.397755 1516.242310
1.000000 4.800000 1.200000 -34.504387 28.089735 1979.585938
1.000000 4.840000 0.800000 -48.531799 -15.371235 2591.610352
1.000000 4.840000 0.840000 -42.451645 -2.729637 1809.593140
1.000000 4.840000 0.880000 -63.847542 4.126617 4093.537598
1.000000 4.840000 0.920000 -91.655853 -22.385651 8901.913086
1.000000 4.840000 0.960000 -87.451492 -75.608604 13364.424805
1.000000 4.840000 1.000000 -36.306717 -114.560547 14442.296875
1.000000 4.840000 1.040000 32.198891 -101.817482 11403.568359
1.000000 4.840000 1.080000 67.740692 -42.250801 6373.931641
1.000000 4.840000 1.120000 46.208553 18.276848 2469.273682
1.000000 4.840000 1.160000 -7.356005 34.890350 1271.447388
1.000000 4.840000 1.200000 -43.527077 4.721556 1916.899536
1.000000 4.880000 0.800000 -25.907616 -37.050892 2043.973145
1.000000 4.880000 0.840000 -52.671421 -9.026178 2855.750488
1.000000 4.880000 0.880000 -109.198891 -31.854965 12939.136719
1.000000 4.880000 0.920000 -129.537323 -116.350464 30317.347656
1.000000 4.880000 0.960000 -65.661140 -205.065094 46363.078125
1.000000 4.880000 1.000000 57.379913 -219.852097 51627.398438
1.000000 4.880000 1.040000 155.633133 -137.004044 42991.781250
1.000000 4.880000 1.080000 160.537323 -14.207916 25974.097656
1.000000 4.880000 1.120000 81.175888 60.168537 10209.777344
1.000000 4.880000 1.160000 -7.198784 46.310318 2196.468018
1.000000 4.880000 1.200000 -35.571014 -17.001770 1554.357300
1.000000 4.920000 0.800000 1.373013 -36.907318 1364.035278
1.000000 4.920000 0.840000 -62.105686 -30.652992 4796.722168
1.000000 4.920000 0.880000 -114.370461 -109.996765 25179.890625
1.000000 4.920000 0.920000 -71.652367 -231.522980 58736.953125
1.000000 4.920000 0.960000 74.015274 -290.277863 89739.492188
1.000000 4.920000 1.000000 232.094299 -216.501236 100740.546875
1.000000 4.920000 1.040000 288.430511 -47.547005 85452.875000
1.000000 4.920000 1.080000 208.223846 99.880768 53333.339844
1.000000 4.920000 1.120000 65.984108 132.900284 22016.388672
1.000000 4.920000 1.160000 -26.244465 60.609833 4362.323730
1.000000 4.920000 1.200000 -19.644058 -26.530029 1089.731445
1.000000 4.960000 0.800000 16.992611 -22.398697 790.450439
1.000000 4.960000 0.840000 -52.130539 -63.692631 6774.344238
1.000000 4.960000 0.880000 -50.932308 -180.444122 35154.183594
1.000000 4.960000 0.920000 71.824158 -274.751953 80647.343750
1.000000 4.960000 0.960000 254.677765 -240.062927 122490.976562
1.000000 4.960000 1.000000 364.908813 -67.469849 137710.625000
1.000000 4.960000 1.040000 315.905182 134.318207 117837.468750
1.000000 4.960000 1.080000 147.100220 230.932266 74968.187500
1.000000 4.960000 1.120000 -12.683632 178.938477 32179.853516
1.000000 4.960000 1.160000 -61.779179 54.913429 6832.151367
1.000000 4.960000 1.200000 -7.703766 -26.146938 743.010376
1.000000 5.000000 0.800000 18.865965 -8.434410 427.063904
1.000000 5.000000 0.840000 -15.188618 -86.028564 7631.608398
1.000000 5.000000 0.880000 53.681309 -185.872437 37430.246094
1.000000 5.000000 0.920000 212.388687 -197.300995 84036.640625
1.000000 5.000000 0.960000 349.517151 -65.675743 126475.546875
1.000000 5.000000 1.000000 348.624725 142.703903 141903.593750
1.000000 5.000000 1.040000 196.541595 288.748108 122004.062500
1.000000 5.000000 1.080000 -0.552521 280.680511 78781.851562
1.000000 5.000000 1.120000 -110.839584 150.997849 35085.761719
1.000000 5.000000 1.160000 -89.269722 17.928101 8290.500000
1.000000 5.000000 1.200000 -2.056980 -25.944187 677.331970
1.000000 5.040000 0.800000 16.600586 -2.150108 280.202423
1.000000 5.040000 0.840000 32.168781 -76.075203 6822.267090
1.000000 5.040000 0.880000 132.961777 -114.498528 30788.746094
1.000000 5.040000 0.920000 255.351807 -44.235241 67161.304688
1.000000 5.040000 0.960000 292.020935 120.165718 99716.023438
1.000000 5.040000 1.000000 189.987411 274.244202 111305.093750
1.000000 5.040000 1.040000 5.993217 309.750610 95981.359375
1.000000 5.040000 1.080000 -138.406738 209.273758 62951.929688
1.000000 5.040000 1.120000 -160.932190 58.395145 29309.162109
1.000000 5.040000 1.160000 -82.597961 -34.470947 8010.669434
1.000000 5.040000 1.200000 5.561234 -30.484758 960.247803
1.000000 5.080000 0.800000 18.123577 1.295502 330.142365
1.000000 5.080000 0.840000 59.993668 -35.080521 4829.883301
1.000000 5.080000 0.880000 137.326401 -14.185455 19059.767578
1.000000 5.080000 0.920000 181.833160 81.452835 39697.859375
1.000000 5.080000 0.960000 134.390350 198.885071 57616.035156
1.000000 5.080000 1.000000 5.102493 252.292755 63677.667969
1.000000 5.080000 1.040000 -126.941948 197.358368 55064.582031
1.000000 5.080000 1.080000 -178.362381 71.797951 36968.085938
1.000000 5.080000 1.120000 -130.649323 -37.533932 18478.042969
1.000000 5.080000 1.160000 -39.255798 -69.179527 6326.824707
1.000000 5.080000 1.200000 22.236805 -32.293282 1537.331543
1.000000 5.120000 0.800000 21.146969 9.305647 533.789368
1.000000 5.120000 0.840000 51.111973 10.698334 2726.888184
1.000000 5.120000 0.880000 76.435486 48.191322 8164.787109
1.000000 5.120000 0.920000 61.851246 107.473572 15376.144531
1.000000 5.120000 0.960000 -2.366638 145.702026 21234.681641
1.000000 5.120000 1.000000 -84.196671 125.999939 22965.062500
1.000000 5.120000 1.040000 -131.553543 51.866859 19996.505859
1.000000 5.120000 1.080000 -114.652725 -32.174690 14180.458008
1.000000 5.120000 1.120000 -50.211788 -76.079865 8309.369141
1.000000 5.120000 1.160000 14.660070 -63.592976 4258.984375
1.000000 5.120000 1.200000 42.659527 -19.972614 2218.740479
1.000000 5.160000 0.800000 18.028431 21.285622 778.102051
1.000000 5.160000 0.840000 17.004448 32.084183 1318.546021
1.000000 5.160000 0.880000 7.185925 43.807121 1970.701416
1.000000 5.160000 0.920000 -12.557457 49.002480 2558.932617
1.000000 5.160000 0.960000 -36.444550 39.452244 2884.684570
1.000000 5.160000 1.000000 -51.990818 13.089188 2874.372070
1.000000 5.160000 1.040000 -47.113762 -21.015564 2661.360352
1.000000 5.160000 1.080000 -19.948090 -45.812489 2496.710449
1.000000 5.160000 1.120000 17.332336 -47.278698 2535.685303
1.000000 5.160000 1.160000 45.545280 -24.936249 2696.188965
1.000000 5.160000 1.200000 51.657600 7.480654 2724.467773
1.000000 5.200000 0.800000 6.771278 29.160240 896.169800
1.000000 5.200000 0.840000 -13.037077 22.347824 669.390625
1.000000 5.200000 0.880000 -19.648296 1.098776 387.262848
1.000000 5.200000 0.920000 -7.283707 -17.536335 360.575439
1.000000 5.200000 0.960000 13.201118 -20.473465 593.432312
1.000000 5.200000 1.000000 26.629799 -10.138809 811.941650
1.000000 5.200000 1.040000 28.647121 0.884262 821.439514
1.000000 5.200000 1.080000 27.567780 4.954069 784.525269
1.000000 5.200000 1.120000 32.084339 7.064165 1079.307251
1.000000 5.200000 1.160000 39.646126 17.068161 1863.137451
1.000000 5.200000 1.200000 38.770126 36.068565 2804.063965
1.040000 4.800000 0.800000 -52.817276 -9.025795 2871.129639
1.040000 4.800000 0.840000 -37.778851 -22.084076 1914.947998
1.040000 4.800000 0.880000 -23.319897 -22.958000 1070.887329
1.040000 4.800000 0.920000 -15.794186 -19.626656 634.661865
1.040000 4.800000 0.960000 -10.842918 -19.144363 484.075531
1.040000 4.800000 1.000000 -1.475540 -18.598383 348.077057
1.040000 4.800000 1.040000 10.324120 -9.285652 192.810791
1.040000 4.800000 1.080000 13.070312 10.262253 276.146912
1.040000 4.800000 1.120000 -1.476768 28.162247 795.292969
1.040000 4.800000 1.160000 -26.320122 28.965179 1531.730469
1.040000 4.800000 1.200000 -42.816879 10.112507 1935.547974
1.040000 4.840000 0.800000 -38.053329 -38.874695 2959.297852
1.040000 4.840000 0.840000 -38.264423 -30.084099 2369.219238
1.040000 4.840000 0.880000 -54.709518 -37.783443 4420.719727
1.040000 4.840000 0.920000 -59.020653 -72.040565 8673.281250
1.040000 4.840000 0.960000 -26.240753 -109.082382 12587.542969
1.040000 4.840000 1.000000 34.174881 -110.793381 13443.095703
1.040000 4.840000 1.040000 80.728699 -63.777779 10584.727539
1.040000 4.840000 1.080000 77.057304 2.512108 5944.138672
1.040000 4.840000 1.120000 27.701920 39.887627 2358.418945
1.040000 4.840000 1.160000 -24.691835 25.549637 1262.470703
1.040000 4.840000 1.200000 -39.149216 -17.804308 1849.654541
1.040000 4.880000 0.800000 -7.795614 -49.899818 2550.763428
1.040000 4.880000 0.840000 -39.354240 -44.541618 3532.711914
1.040000 4.880000 0.880000 -67.488937 -91.334686 12896.782227
1.040000 4.880000 0.920000 -37.064232 -165.622070 28804.427734
1.040000 4.880000 0.960000 59.418472 -199.512329 43335.722656
1.040000 4.880000 1.000000 162.991806 -145.860886 47841.726562
1.040000 4.880000 1.040000 196.677521 -29.272919 39538.949219
1.040000 4.880000 1.080000 136.672806 70.271553 23617.546875
1.040000 4.880000 1.120000 35.344875 88.234711 9034.625000
1.040000 4.880000 1.160000 -27.677294 31.815823 1778.279175
1.040000 4.880000 1.200000 -17.655746 -32.984322 1399.690796
1.040000 4.920000 0.800000 18.960863 -38.951782 1876.755615
1.040000 4.920000 0.840000 -29.503534 -66.817902 5335.090332
1.040000 4.920000 0.880000 -26.344288 -153.645020 24300.814453
1.040000 4.920000 0.920000 70.833893 -223.984100 55186.320312
1.040000 4.920000 0.960000 214.941116 -192.974655 83438.906250
1.040000 4.920000 1.000000 300.398254 -52.773773 93024.179688
1.040000 4.920000 1.040000 257.599670 109.356491 78316.437500
1.040000 4.920000 1.080000 119.005692 184.697388 48275.480469
1.040000 4.920000 1.120000 -9.758896 138.721802 19338.974609
1.040000 4.920000 1.160000 -45.674675 35.747040 3364.026855
1.040000 4.920000 1.200000 3.295187 -28.422373 818.689575
1.040000 4.960000 0.800000 29.925711 -17.873558 1215.012207
1.040000 4.960000 0.840000 0.092087 -83.564087 6982.964844
1.040000 4.960000 0.880000 62.267944 -171.476517 33281.492188
1.040000 4.960000 0.920000 206.652496 -179.982666 75099.015625
1.040000 4.960000 0.960000 331.528351 -57.675407 113237.500000
1.040000 4.960000 1.000000 329.289246 134.874390 126622.507812
1.040000 4.960000 1.040000 187.831131 269.065491 107676.781250
1.040000 4.960000 1.080000 6.091709 260.310303 67798.562500
1.040000 4.960000 1.120000 -93.624741 140.123550 28400.201172
1.040000 4.960000 1.160000 -71.053040 19.531256 5430.004395
1.040000 4.960000 1.200000 9.718516 -16.048145 351.992523
1.040000 5.000000 0.800000 27.203821 -0.668374 740.494629
1.040000 5.000000 0.840000 41.086220 -76.154381 7487.567383
1.040000 5.000000 0.880000 145.725861 -116.806114 34879.695312
1.040000 5.000000 0.920000 274.978821 -43.191612 77478.867188
1.040000 5.000000 0.960000 314.550903 130.695282 116023.531250
1.040000 5.000000 1.000000 207.528793 294.313782 129688.796875
1.040000 5.000000 1.040000 14.008783 332.936096 111042.687500
1.040000 5.000000 1.080000 -137.347260 228.843735 71233.718750
1.040000 5.000000 1.120000 -160.770447 73.380173 31231.787109
1.040000 5.000000 1.160000 -80.632889 -19.704765 6889.940430
1.040000 5.000000 1.200000 6.059458 -12.366232 189.640717
1.040000 5.040000 0.800000 20.708076 8.231159 496.576416
1.040000 5.040000 0.840000 69.721024 -39.952930 6457.257812
1.040000 5.040000 0.880000 166.997086 -17.633148 28198.955078
1.040000 5.040000 0.920000 225.998016 100.024361 61079.976562
1.040000 5.040000 0.960000 170.713318 247.503601 90401.070312
1.040000 5.040000 1.000000 12.697884 317.129456 100732.328125
1.040000 5.040000 1.040000 -149.877731 253.609955 86781.343750
1.040000 5.040000 1.080000 -214.570572 104.073441 56871.812500
1.040000 5.040000 1.120000 -160.474930 -25.057892 26380.101562
1.040000 5.040000 1.160000 -56.778862 -61.279533 6979.020508
1.040000 5.040000 1.200000 8.684906 -19.421284 452.613831
1.040000 5.080000 0.800000 16.361383 13.690407 455.122070
1.040000 5.080000 0.840000 66.193474 6.799024 4427.802734
1.040000 5.080000 0.880000 114.854691 62.096523 17047.578125
1.040000 5.080000 0.920000 100.585594 158.709213 35306.078125
1.040000 5.080000 0.960000 4.359085 226.117752 51148.238281
1.040000 5.080000 1.000000 -123.276520 203.442200 56585.832031
1.040000 5.080000 1.040000 -199.904266 95.825531 49144.246094
1.040000 5.080000 1.080000 -180.396973 -27.292946 33287.972656
1.040000 5.080000 1.120000 -92.492874 -91.196518 16871.736328
1.040000 5.080000 1.160000 -6.932896 -75.855789 5802.165527
1.040000 5.080000 1.200000 25.783319 -22.146935 1155.266235
1.040000 5.120000 0.800000 11.897257 20.514742 562.399353
1.040000 5.120000 0.840000 33.498604 35.991165 2417.520508
1.040000 5.120000 0.880000 33.678665 76.694427 7016.287598
1.040000 5.120000 0.920000 -7.110924 114.093887 13067.980469
1.040000 5.120000 0.960000 -74.962845 111.227753 17991.041016
1.040000 5.120000 1.000000 -128.044250 56.194542 19553.156250
1.040000 5.120000 1.040000 -129.374161 -23.568619 17293.154297
1.040000 5.120000 1.080000 -77.635849 -81.305664 12637.935547
1.040000 5.120000 1.120000 -7.654102 -87.705414 7750.825195
1.040000 5.120000 1.160000 39.068470 -51.230415 4150.900879
1.040000 5.120000 1.200000 45.832130 -5.520172 2131.056641
1.040000 5.160000 0.800000 2.988916 26.932035 734.268127
1.040000 5.160000 0.840000 -3.937977 33.509357 1138.384766
1.040000 5.160000 0.880000 -17.171989 35.604553 1562.561401
1.040000 5.160000 0.920000 -33.070747 28.203304 1889.100708
1.040000 5.160000 0.960000 -44.207230 9.519363 2044.897461
1.040000 5.160000 1.000000 -42.360153 -16.145927 2055.073486
1.040000 5.160000 1.040000 -23.715050 -38.522804 2046.410034
1.040000 5.160000 1.080000 6.979240 -46.025166 2167.025635
1.040000 5.160000 1.120000 37.155159 -32.950882 2466.266602
1.040000 5.160000 1.160000 53.000946 -4.175390 2826.534180
1.040000 5.160000 1.200000 47.910301 26.896145 3018.799561
1.040000 5.200000 0.800000 -9.335649 27.715723 855.315674
1.040000 5.200000 0.840000 -21.746819 10.709415 587.615662
1.040000 5.200000 0.880000 -14.716522 -11.441578 347.485718
1.040000 5.200000 0.920000 7.648649 -20.236019 467.998291
1.040000 5.200000 0.960000 27.834099 -9.769051 870.171387
1.040000 5.200000 1.000000 32.763527 8.554756 1146.632568
1.040000 5.200000 1.040000 25.954475 19.381313 1049.270020
1.040000 5.200000 1.080000 21.254166 19.817070 844.455811
1.040000 5.200000 1.120000 25.769222 20.982073 1104.300171
1.040000 5.200000 1.160000 31.269733 33.477428 2098.534424
1.040000 5.200000 1.200000 23.569361 53.421890 3409.413086
1.080000 4.800000 0.800000 -39.953934 -29.819256 2485.504883
1.080000 4.800000 0.840000 -21.951624 -36.783794 1834.921265
1.080000 4.800000 0.880000 -6.915775 -32.890469 1129.610962
1.080000 4.800000 0.920000 1.243637 -25.371338 645.251404
1.080000 4.800000 0.960000 6.117668 -18.871597 393.563049
1.080000 4.800000 1.000000 11.165970 -11.037134 246.497223
1.080000 4.800000 1.040000 13.050545 1.929367 174.039169
1.080000 4.800000 1.080000 4.846824 16.722855 303.145569
1.080000 4.800000 1.120000 -13.941572 22.854053 716.675171
1.080000 4.800000 1.160000 -32.731686 12.909725 1238.024292
1.080000 4.800000 1.200000 -37.832489 -7.742479 1491.243286
1.080000 4.840000 0.800000 -17.194933 -50.152847 2810.973877
1.080000 4.840000 0.840000 -16.353531 -48.015343 2572.911133
1.080000 4.840000 0.880000 -18.168358 -59.893486 3917.318848
1.080000 4.840000 0.920000 -2.401794 -80.973015 6562.397461
1.080000 4.840000 0.960000 36.109535 -87.109161 8891.904297
1.080000 4.840000 1.000000 75.548439 -59.039017 9193.171875
1.080000 4.840000 1.040000 84.085663 -6.188423 7108.695312
1.080000 4.840000 1.080000 51.039215 36.724770 3953.710205
1.080000 4.840000 1.120000 0.280380 39.943554 1595.566162
1.080000 4.840000 1.160000 -29.783913 6.598074 930.616089
1.080000 4.840000 1.200000 -21.019909 -30.316635 1360.934937
1.080000 4.880000 0.800000 12.994955 -49.845139 2653.406738
1.080000 4.880000 0.840000 -4.319584 -60.969738 3735.967529
1.080000 4.880000 0.880000 2.356640 -101.715622 10351.621094
1.080000 4.880000 0.920000 57.194801 -133.557388 21108.822266
1.080000 4.880000 0.960000 135.817123 -110.206635 30591.792969
1.080000 4.880000 1.000000 179.764648 -26.950882 33041.679688
1.080000 4.880000 1.040000 149.587097 66.487778 26796.923828
1.080000 4.880000 1.080000 64.644547 106.914497 15609.626953
1.080000 4.880000 1.120000 -11.898552 74.325806 5665.900879
1.080000 4.880000 1.160000 -29.760345 8.438673 956.889343
1.080000 4.880000 1.200000 5.636339 -30.913673 987.423523
1.080000 4.920000 0.800000 33.957268 -31.358299 2136.438965
1.080000 4.920000 0.840000 19.105265 -69.145531 5146.115723
1.080000 4.920000 0.880000 62.243397 -121.587875 18657.851562
1.080000 4.920000 0.920000 158.337402 -121.762604 39896.863281
1.080000 4.920000 0.960000 239.818054 -34.907215 58731.210938
1.080000 4.920000 1.000000 233.947754 97.916290 64319.148438
1.080000 4.920000 1.040000 133.000656 188.489380 53217.421875
1.080000 4.920000 1.080000 6.253239 178.800995 32008.898438
1.080000 4.920000 1.120000 -60.671635 92.141014 12171.013672
1.080000 4.920000 1.160000 -40.435246 7.969982 1698.529663
1.080000 4.920000 1.200000 19.527054 -12.971514 549.565979
1.080000 4.960000 0.800000 38.061592 -7.629385 1506.892334
1.080000 4.960000 0.840000 49.880234 -60.880257 6194.443359
1.080000 4.960000 0.880000 130.741943 -88.225716 24877.232422
1.080000 4.960000 0.920000 230.120148 -27.214918 53695.933594
1.080000 4.960000 0.960000 258.468140 111.580421 79255.968750
1.080000 4.960000 1.000000 171.071579 240.868515 87283.125000
1.080000 4.960000 1.040000 16.260492 269.873413 73096.062500
1.080000 4.960000 1.080000 -103.058441 185.586868 45063.527344
1.080000 4.960000 1.120000 -119.177719 62.434624 18101.412109
1.080000 4.960000 1.160000 -53.769436 -8.116089 2957.023193
1.080000 4.960000 1.200000 13.288980 2.663654 183.692047
1.080000 5.000000 0.800000 29.765171 9.615482 978.422913
1.080000 5.000000 0.840000 72.547470 -31.199978 6236.573730
1.080000 5.000000 0.880000 159.458801 -9.439669 25516.216797
1.080000 5.000000 0.920000 212.046280 98.672897 54699.964844
1.080000 5.000000 0.960000 160.596405 233.797729 80452.585938
1.080000 5.000000 1.000000 15.714361 297.522614 88766.640625
1.080000 5.000000 1.040000 -132.471985 239.811676 75058.468750
1.080000 5.000000 1.080000 -190.733444 104.925880 47388.687500
1.080000 5.000000 1.120000 -141.799316 -9.379822 20195.027344
1.080000 5.000000 1.160000 -50.896870 -38.509083 4073.440918
1.080000 5.000000 1.200000 1.908638 0.698276 4.130488
1.080000 5.040000 0.800000 18.303104 17.621231 645.511414
1.080000 5.040000 0.840000 70.987991 9.012566 5120.521484
1.080000 5.040000 0.880000 124.637009 68.051376 20165.373047
1.080000 5.040000 0.920000 110.842850 173.413620 42358.421875
1.080000 5.040000 0.960000 7.813435 248.298141 61713.019531
1.080000 5.040000 1.000000 -129.736084 226.302048 68044.070312
1.080000 5.040000 1.040000 -212.729355 113.466568 58128.437500
1.080000 5.040000 1.080000 -193.827209 -14.862034 37789.867188
1.080000 5.040000 1.120000 -104.802536 -79.768311 17346.554688
1.080000 5.040000 1.160000 -21.544460 -63.210484 4459.729004
1.080000 5.040000 1.200000 5.388903 -11.642077 164.578232
1.080000 5.080000 0.800000 8.809443 20.533045 499.212219
1.080000 5.080000 0.840000 43.551525 38.195415 3355.625000
1.080000 5.080000 0.880000 50.388466 96.342232 11820.822266
1.080000 5.080000 0.920000 -2.445641 154.125092 23760.523438
1.080000 5.080000 0.960000 -96.678497 156.746918 33916.328125
1.080000 5.080000 1.000000 -172.685516 86.174126 37246.265625
1.080000 5.080000 1.040000 -178.756760 -18.815414 32307.998047
1.080000 5.080000 1.080000 -114.919464 -93.876579 22019.296875
1.080000 5.080000 1.120000 -30.220554 -102.203934 11358.926758
1.080000 5.080000 1.160000 21.818130 -59.750351 4046.135254
1.080000 5.080000 1.200000 25.464804 -12.405704 802.357727
1.080000 5.120000 0.800000 0.418451 22.121313 489.527588
1.080000 5.120000 0.840000 6.892012 41.083073 1735.318726
1.080000 5.120000 0.880000 -11.359631 66.927200 4608.291016
1.080000 5.120000 0.920000 -54.377480 72.747017 8249.039062
1.080000 5.120000 0.960000 -97.264091 41.074394 11147.409180
1.080000 5.120000 1.000000 -108.514130 -17.749451 12090.359375
1.080000 5.120000 1.040000 -76.296677 -71.078018 10873.267578
1.080000 5.120000 1.080000 -18.627159 -89.090286 8284.049805
1.080000 5.120000 1.120000 31.448769 -66.944641 5470.609863
1.080000 5.120000 1.160000 51.255798 -25.021019 3253.208496
1.080000 5.120000 1.200000 41.834373 10.332376 1856.872803
1.080000 5.160000 0.800000 -9.012811 21.911510 561.345032
1.080000 5.160000 0.840000 -17.026934 21.630463 757.793396
1.080000 5.160000 0.880000 -25.850929 15.191938 899.065552
1.080000 5.160000 0.920000 -30.765606 2.484352 952.694519
1.080000 5.160000 0.960000 -27.807070 -13.390610 952.541565
1.080000 5.160000 1.000000 -15.412941 -27.258080 980.561646
1.080000 5.160000 1.040000 4.739227 -33.326431 1133.111328
1.080000 5.160000 1.080000 27.312477 -27.042049 1477.243896
1.080000 5.160000 1.120000 44.042740 -7.708773 1999.188110
1.080000 5.160000 1.160000 46.848888 19.306087 2567.543457
1.080000 5.160000 1.200000 32.778629 43.406357 2958.550293
1.080000 5.200000 0.800000 -18.554209 17.689293 657.169739
1.080000 5.200000 0.840000 -19.160614 -1.247253 368.684753
1.080000 5.200000 0.880000 -2.306074 -14.690842 221.138809
1.080000 5.200000 0.920000 19.993660 -9.921684 498.186249
1.080000 5.200000 0.960000 30.641914 9.292908 1025.285034
1.080000 5.200000 1.000000 24.498322 26.889088 1323.190796
1.080000 5.200000 1.040000 12.524857 31.523520 1150.604370
1.080000 5.200000 1.080000 8.586662 27.914076 852.926392
1.080000 5.200000 1.120000 13.516855 30.112885 1089.491211
1.080000 5.200000 1.160000 14.152523 44.207775 2154.621338
1.080000 5.200000 1.200000 -1.399544 59.780983 3575.724609
1.120000 4.800000 0.800000 -20.261772 -36.239052 1723.808350
1.120000 4.800000 0.840000 -2.485985 -37.106083 1383.041626
1.120000 4.800000 0.880000 10.713339 -28.244825 912.545776
1.120000 4.800000 0.920000 15.909344 -16.052219 510.780945
1.120000 4.800000 0.960000 15.277374 -5.323647 261.739380
1.120000 4.800000 1.000000 11.640648 3.527256 147.946213
1.120000 4.800000 1.040000 4.714664 11.192429 147.498520
1.120000 4.800000 1.080000 -6.785925 15.243393 278.409790
1.120000 4.800000 1.120000 -20.224247 11.226021 535.043701
1.120000 4.800000 1.160000 -28.362291 -1.520481 806.731445
1.120000 4.800000 1.200000 -25.367203 -16.384815 911.957153
1.120000 4.840000 0.800000 3.077122 -46.883080 2207.491943
1.120000 4.840000 0.840000 10.337507 -46.215252 2242.713623
1.120000 4.840000 0.880000 19.506115 -48.962975 2777.861328
1.120000 4.840000 0.920000 36.931599 -48.334347 3700.151855
1.120000 4.840000 0.960000 57.334946 -33.175110 4387.883789
1.120000 4.840000 1.000000 64.844658 -2.428177 4210.725586
1.120000 4.840000 1.040000 47.916328 28.492580 3107.801758
1.120000 4.840000 1.080000 13.453575 38.762550 1683.533936
1.120000 4.840000 1.120000 -15.885559 21.428587 711.535278
1.120000 4.840000 1.160000 -20.770903 -8.546545 504.473816
1.120000 4.840000 1.200000 -2.563668 -26.950979 732.927673
1.120000 4.880000 0.800000 28.176590 -39.392944 2345.724365
1.120000 4.880000 0.840000 30.219700 -48.679276 3282.902100
1.120000 4.880000 0.880000 52.041092 -61.906452 6540.684082
1.120000 4.880000 0.920000 92.159935 -53.331997 11337.755859
1.120000 4.880000 0.960000 122.921288 -9.205902 15194.391602
1.120000 4.880000 1.000000 113.699066 52.124374 15644.427734
1.120000 4.880000 1.040000 62.135590 91.241791 12185.896484
1.120000 4.880000 1.080000 0.923374 82.120758 6744.671387
1.120000 4.880000 1.120000 -29.257990 36.700928 2202.988037
1.120000 4.880000 1.160000 -15.464128 -5.693811 271.558746
1.120000 4.880000 1.200000 18.063116 -14.333830 531.734863
1.120000 4.920000 0.800000 42.194618 -18.394974 2118.760986
1.120000 4.920000 0.840000 52.642326 -38.303902 4238.403320
1.120000 4.920000 0.880000 95.365662 -44.379368 11064.137695
1.120000 4.920000 0.920000 144.754669 -5.114094 20980.068359
1.120000 4.920000 0.960000 154.231720 73.205849 29146.519531
1.120000 4.920000 1.000000 100.874557 143.317429 30715.562500
1.120000 4.920000 1.040000 12.305111 156.123627 24526.001953
1.120000 4.920000 1.080000 -53.868629 105.681702 14070.451172
1.120000 4.920000 1.120000 -60.142380 35.148243 4852.504883
1.120000 4.920000 1.160000 -20.264818 -2.879147 418.952332
1.120000 4.920000 1.200000 18.277056 7.425590 389.190155
1.120000 4.960000 0.800000 40.489677 4.493489 1659.605347
1.120000 4.960000 0.840000 67.247711 -13.446196 4703.055176
1.120000 4.960000 0.880000 118.757645 6.330468 14143.453125
1.120000 4.960000 0.920000 147.075897 78.171478 27742.099609
1.120000 4.960000 0.960000 109.318939 164.582001 39037.867188
1.120000 4.960000 1.000000 13.273943 203.485016 41582.351562
1.120000 4.960000 1.040000 -82.758820 163.994843 33743.332031
1.120000 4.960000 1.080000 -119.130562 76.028107 19972.363281
1.120000 4.960000 1.120000 -86.187057 3.630276 7441.387695
1.120000 4.960000 1.160000 -28.176208 -11.982191 937.471680
1.120000 4.960000 1.200000 1.973738 15.935122 257.823730
1.120000 5.000000 0.800000 27.875809 19.536737 1158.744873
1.120000 5.000000 0.840000 63.761894 17.915066 4386.528809
1.120000 5.000000 0.880000 99.475616 64.102608 14004.542969
1.120000 5.000000 0.920000 85.473038 142.732086 27678.089844
1.120000 5.000000 0.960000 6.229522 197.478149 39036.429688
1.120000 5.000000 1.000000 -97.255051 179.871231 41812.203125
1.120000 5.000000 1.040000 -158.990692 95.527161 34403.480469
1.120000 5.000000 1.080000 -144.998871 1.291780 21026.339844
1.120000 5.000000 1.120000 -80.718903 -44.681450 8511.972656
1.120000 5.000000 1.160000 -23.438940 -31.198673 1522.741211
1.120000 5.000000 1.200000 -9.218605 4.716875 107.231583
1.120000 5.040000 0.800000 12.851093 24.349483 758.047974
1.120000 5.040000 0.840000 41.083897 40.904373 3361.054199
1.120000 5.040000 0.880000 45.441895 92.713890 10660.831055
1.120000 5.040000 0.920000 -2.606243 144.183319 20795.623047
1.120000 5.040000 0.960000 -87.063271 146.842941 29142.863281
1.120000 5.040000 1.000000 -155.105972 85.077621 31296.064453
1.120000 5.040000 1.040000 -161.643188 -6.197849 26166.933594
1.120000 5.040000 1.080000 -108.182716 -70.448997 16666.560547
1.120000 5.040000 1.120000 -38.885582 -77.246727 7479.145020
1.120000 5.040000 1.160000 0.588089 -43.255363 1871.372314
1.120000 5.040000 1.200000 0.107176 -9.374800 87.898361
1.120000 5.080000 0.800000 0.952324 22.514603 507.814240
1.120000 5.080000 0.840000 10.468376 44.116772 2055.876465
1.120000 5.080000 0.880000 -8.780369 76.556252 5937.954590
1.120000 5.080000 0.920000 -58.925877 87.147232 11066.899414
1.120000 5.080000 0.960000 -110.880905 53.788692 15187.798828
1.120000 5.080000 1.000000 -127.154655 -11.765030 16306.722656
1.120000 5.080000 1.040000 -94.450851 -71.238106 13995.830078
1.120000 5.080000 1.080000 -34.866779 -91.380836 9566.149414
1.120000 5.080000 1.120000 14.171812 -69.702522 5059.281738
1.120000 5.080000 1.160000 30.762856 -31.513931 1939.481201
1.120000 5.080000 1.200000 21.251921 -4.340082 470.480438
1.120000 5.120000 0.800000 -7.302202 18.374361 390.939331
1.120000 5.120000 0.840000 -11.936070 28.842764 974.374817
1.120000 5.120000 0.880000 -30.887831 33.925606 2105.004883
1.120000 5.120000 0.920000 -54.686790 20.329216 3403.922119
1.120000 5.120000 0.960000 -65.030014 -11.722046 4366.309082
1.120000 5.120000 1.000000 -50.176449 -46.336376 4664.735840
1.120000 5.120000 1.040000 -15.263504 -63.766129 4299.093750
1.120000 5.120000 1.080000 21.612770 -55.299126 3525.105225
1.120000 5.120000 1.120000 43.129623 -28.220877 2656.582275
1.120000 5.120000 1.160000 43.653942 1.781325 1908.839722
1.120000 5.120000 1.200000 29.381655 22.251957 1358.431152
1.120000 5.160000 0.800000 -13.768792 13.489676 371.550964
1.120000 5.160000 0.840000 -17.470455 7.891782 367.497009
1.120000 5.160000 0.880000 -17.495104 -0.470203 306.299744
1.120000 5.160000 0.920000 -12.491126 -8.430748 227.105743
1.120000 5.160000 0.960000 -3.769066 -13.179951 187.916962
1.120000 5.160000 1.000000 6.616699 -13.789858 233.940887
1.120000 5.160000 1.040000 17.483093 -9.980728 405.273468
1.120000 5.160000 1.080000 27.390907 -0.527020 750.539551
1.120000 5.160000 1.120000 32.439129 15.385662 1289.015747
1.120000 5.160000 1.160000 27.178225 34.559032 1932.982666
1.120000 5.160000 1.200000 9.562593 48.646839 2457.958008
1.120000 5.200000 0.800000 -19.259428 7.068876 420.894562
1.120000 5.200000 0.840000 -10.801365 -5.555534 147.533447
1.120000 5.200000 0.880000 6.842430 -6.773201 92.695099
1.120000 5.200000 0.920000 20.022501 6.945244 449.136963
1.120000 5.200000 0.960000 18.434605 25.460354 988.064270
1.120000 5.200000 1.000000 5.624355 34.969048 1254.467651
1.120000 5.200000 1.040000 -5.151424 32.203941 1063.631104
1.120000 5.200000 1.080000 -5.642776 27.240595 773.890930
1.120000 5.200000 1.120000 -1.835861 31.454178 992.735657
1.120000 5.200000 1.160000 -7.140916 43.631248 1954.678467
1.120000 5.200000 1.200000 -26.562269 49.878178 3193.386719
1.160000 4.800000 0.800000 -5.435610 -29.515972 900.738464
1.160000 4.800000 0.840000 9.023268 -25.692162 741.506531
1.160000 4.800000 0.880000 17.426012 -13.862346 495.830505
1.160000 4.800000 0.920000 16.674681 -0.591040 278.394318
1.160000 4.800000 0.960000 9.295235 8.292648 155.169403
1.160000 4.800000 1.000000 0.101729 11.213699 125.757401
1.160000 4.800000 1.040000 -7.869598 9.877975 159.504974
1.160000 4.800000 1.080000 -14.117764 5.996123 235.264771
1.160000 4.800000 1.120000 -18.439327 -0.206982 340.051636
1.160000 4.800000 1.160000 -19.302244 -8.344103 442.200684
1.160000 4.800000 1.200000 -15.246964 -15.948370 486.820404
1.160000 4.840000 0.800000 14.122705 -34.560246 1393.861328
1.160000 4.840000 0.840000 25.310835 -28.685783 1463.512451
1.160000 4.840000 0.880000 32.943405 -18.965294 1444.950317
1.160000 4.840000 0.920000 36.324848 -6.649765 1363.713989
1.160000 4.840000 0.960000 33.877701 7.062641 1197.579468
1.160000 4.840000 1.000000 23.949787 18.722553 924.126282
1.160000 4.840000 1.040000 8.165474 22.824333 587.625183
1.160000 4.840000 1.080000 -6.870382 15.975399 302.415527
1.160000 4.840000 1.120000 -13.034798 1.368753 171.779434
1.160000 4.840000 1.160000 -7.330228 -11.923421 195.900208
1.160000 4.840000 1.200000 4.774506 -15.652147 267.785614
1.160000 4.880000 0.800000 33.672699 -25.017256 1759.713867
1.160000 4.880000 0.840000 43.342983 -19.630684 2263.977783
1.160000 4.880000 0.880000 54.194927 -9.249916 3022.651123
1.160000 4.880000 0.920000 61.040798 9.894096 3823.872070
1.160000 4.880000 0.960000 55.029915 34.295067 4204.443359
1.160000 4.880000 1.000000 33.018463 51.955627 3789.605957
1.160000 4.880000 1.040000 4.044062 51.214203 2639.249023
1.160000 4.880000 1.080000 -15.513016 32.088989 1270.356934
1.160000 4.880000 1.120000 -15.264759 8.285142 301.656433
1.160000 4.880000 1.160000 -0.125235 -3.660216 13.412868
1.160000 4.880000 1.200000 14.076801 1.495735 200.393570
1.160000 4.920000 0.800000 42.912300 -4.758060 1864.104614
1.160000 4.920000 0.840000 53.458370 1.253729 2859.369141
1.160000 4.920000 0.880000 65.871429 18.107632 4666.931641
1.160000 4.920000 0.920000 66.996803 47.758537 6769.449707
1.160000 4.920000 0.960000 45.745567 77.367004 8078.310547
1.160000 4.920000 1.000000 6.985077 87.396515 7686.942383
1.160000 4.920000 1.040000 -28.551031 69.298416 5617.431641
1.160000 4.920000 1.080000 -40.616470 35.248993 2892.188965
1.160000 4.920000 1.120000 -27.107754 8.855693 813.253601
1.160000 4.920000 1.160000 -5.486829 4.819436 53.332253
1.160000 4.920000 1.200000 3.862226 17.089838 306.979340
1.160000 4.960000 0.800000 37.662804 16.221119 1681.611572
1.160000 4.960000 0.840000 48.151573 25.816107 2985.045410
1.160000 4.960000 0.880000 54.570038 50.590889 5537.327148
1.160000 4.960000 0.920000 40.229683 83.554459 8599.775391
1.160000 4.960000 0.960000 1.403241 103.160088 10643.972656
1.160000 4.960000 1.000000 -44.230713 91.840942 10391.115234
1.160000 4.960000 1.040000 -70.145844 53.848480 7820.098633
1.160000 4.960000 1.080000 -63.810623 13.624269 4257.416504
1.160000 4.960000 1.120000 -37.433208 -4.997020 1426.215332
1.160000 4.960000 1.160000 -15.831791 1.185715 252.051514
1.160000 4.960000 1.200000 -13.512373 14.846552 403.004333
1.160000 5.000000 0.800000 22.113644 28.582726 1305.985352
1.160000 5.000000 0.840000 28.355124 41.994404 2567.542969
1.160000 5.000000 0.880000 22.403790 67.842705 5104.562500
1.160000 5.000000 0.920000 -6.970282 90.087265 8164.300293
1.160000 5.000000 0.960000 -51.018990 87.470795 10254.077148
1.160000 5.000000 1.000000 -84.767967 54.415092 10146.610352
1.160000 5.000000 1.040000 -87.957092 8.747627 7812.971191
1.160000 5.000000 1.080000 -62.953873 -22.623543 4475.014648
1.160000 5.000000 1.120000 -31.848736 -26.539230 1718.672729
1.160000 5.000000 1.160000 -15.868063 -12.746889 414.278625
1.160000 5.000000 1.200000 -17.764946 -1.442732 317.674774
1.160000 5.040000 0.800000 4.985791 29.354923 886.569641
1.160000 5.040000 0.840000 4.015821 42.099838 1788.523193
1.160000 5.040000 0.880000 -12.048552 58.571804 3575.823730
1.160000 5.040000 0.920000 -43.771114 61.417427 5688.010742
1.160000 5.040000 0.960000 -74.667076 39.316139 7120.931152
1.160000 5.040000 1.000000 -84.205505 -0.094885 7090.575684
1.160000 5.040000 1.040000 -66.136017 -34.956181 5595.907227
1.160000 5.040000 1.080000 -33.967735 -47.477882 3407.956543
1.160000 5.040000 1.120000 -8.467616 -37.901455 1508.220825
1.160000 5.040000 1.160000 -0.062633 -21.201117 449.491272
1.160000 5.040000 1.200000 -3.129778 -11.454701 141.005692
1.160000 5.080000 0.800000 -6.883531 22.352140 547.001221
1.160000 5.080000 0.840000 -12.683962 28.553444 976.182007
1.160000 5.080000 0.880000 -28.330635 30.992081 1763.134033
1.160000 5.080000 0.920000 -47.340076 19.661348 2627.651367
1.160000 5.080000 0.960000 -56.121315 -5.363728 3178.371582
1.160000 5.080000 1.000000 -46.174698 -32.064007 3160.203369
1.160000 5.080000 1.040000 -21.982981 -46.067616 2605.476562
1.160000 5.080000 1.080000 2.946457 -42.141026 1784.547729
1.160000 5.080000 1.120000 17.261633 -26.770145 1014.604614
1.160000 5.080000 1.160000 19.183397 -10.755348 483.680267
1.160000 5.080000 1.200000 14.262154 -0.315693 203.508682
1.160000 5.120000 0.800000 -12.292575 13.641798 337.206055
1.160000 5.120000 0.840000 -16.206457 11.590255 396.983276
1.160000 5.120000 0.880000 -21.257421 5.844698 486.038452
1.160000 5.120000 0.920000 -22.930405 -4.624203 547.186707
1.160000 5.120000 0.960000 -17.396214 -16.122042 562.548462
1.160000 5.120000 1.000000 -5.198540 -22.967413 554.526917
1.160000 5.120000 1.040000 9.166885 -21.730268 556.236328
1.160000 5.120000 1.080000 20.482536 -12.918281 586.416260
1.160000 5.120000 1.120000 25.361307 0.341982 643.312866
1.160000 5.120000 1.160000 22.582047 14.124375 709.446777
1.160000 5.120000 1.200000 12.735133 24.340488 754.642944
1.160000 5.160000 0.800000 -14.260038 6.490823 245.479477
1.160000 5.160000 0.840000 -10.761765 0.632987 116.216248
1.160000 5.160000 0.880000 -4.042140 -1.971907 20.227312
1.160000 5.160000 0.920000 2.530018 0.178036 6.432687
1.160000 5.160000 0.960000 5.742798 4.999819 57.977917
1.160000 5.160000 1.000000 5.914330 8.851675 113.331444
1.160000 5.160000 1.040000 6.386929 10.856674 158.660233
1.160000 5.160000 1.080000 8.880255 14.315792 283.800842
1.160000 5.160000 1.120000 9.967205 22.594296 609.847351
1.160000 5.160000 1.160000 3.598087 33.465805 1132.906372
1.160000 5.160000 1.200000 -11.813457 38.845184 1648.506104
1.160000 5.200000 0.800000 -15.555377 0.041093 241.971451
1.160000 5.200000 0.840000 -4.907804 -2.829696 32.093716
1.160000 5.200000 0.880000 5.595258 4.576402 52.250362
1.160000 5.200000 0.920000 6.946033 18.404091 386.957947
1.160000 5.200000 0.960000 -2.363314 28.408340 812.619080
1.160000 5.200000 1.000000 -14.170166 28.020020 985.915161
1.160000 5.200000 1.040000 -18.945953 21.216431 809.086060
1.160000 5.200000 1.080000 -16.112041 18.155537 589.221375
1.160000 5.200000 1.120000 -14.879843 23.576160 777.245056
1.160000 5.200000 1.160000 -23.889103 30.553745 1504.220581
1.160000 5.200000 1.200000 -40.511589 27.163925 2379.067627
1.200000 4.800000 0.800000 -1.861979 -18.208424 335.013672
1.200000 4.800000 0.840000 7.212749 -13.211273 226.561478
1.200000 4.800000 0.880000 10.208893 -3.013108 113.300308
1.200000 4.800000 0.920000 5.244517 6.109833 64.835022
1.200000 4.800000 0.960000 -3.930831 8.899302 94.649017
1.200000 4.800000 1.000000 -11.304752 5.234294 155.195267
1.200000 4.800000 1.040000 -13.763952 -0.629846 189.843094
1.200000 4.800000 1.080000 -12.948505 -4.669137 189.464630
1.200000 4.800000 1.120000 -12.255758 -6.706284 195.177856
1.200000 4.800000 1.160000 -12.547488 -9.382956 245.479309
1.200000 4.800000 1.200000 -11.338916 -14.041990 325.748505
1.200000 4.840000 0.800000 13.809586 -22.334221 689.522095
1.200000 4.840000 0.840000 22.014225 -11.092176 607.662476
1.200000 4.840000 0.880000 20.055634 2.358326 407.790131
1.200000 4.840000 0.920000 10.147694 9.842194 199.844452
1.200000 4.840000 0.960000 -0.314376 8.379217 70.310112
1.200000 4.840000 1.000000 -5.272348 1.735477 30.809538
1.200000 4.840000 1.040000 -4.418380 -4.061043 36.014153
1.200000 4.840000 1.080000 -1.695528 -6.246302 41.891102
1.200000 4.840000 1.120000 -0.292027 -6.519614 42.590645
1.200000 4.840000 1.160000 0.260305 -7.509174 56.455452
1.200000 4.840000 1.200000 2.278257 -9.152969 88.967300
1.200000 4.880000 0.800000 30.421402 -13.594803 1110.280273
1.200000 4.880000 0.840000 32.678169 3.014806 1076.951904
1.200000 4.880000 0.880000 23.561768 15.785215 804.329956
1.200000 4.880000 0.920000 10.287337 18.291378 440.403839
1.200000 4.880000 0.960000 1.563527 12.290040 153.489700
1.200000 4.880000 1.000000 0.636936 4.904987 24.464588
1.200000 4.880000 1.040000 4.101472 1.782865 20.000677
1.200000 4.880000 1.080000 6.636642 3.053041 53.366081
1.200000 4.880000 1.120000 6.128489 5.165136 64.237015
1.200000 4.880000 1.160000 4.305802 5.529026 49.110062
1.200000 4.880000 1.200000 3.462022 4.709805 34.167866
1.200000 4.920000 0.800000 37.520103 5.680781 1440.029419
1.200000 4.920000 0.840000 30.350594 22.558643 1430.050903
1.200000 4.920000 0.880000 15.316421 29.569893 1108.971313
1.200000 4.920000 0.920000 2.388839 25.400661 650.900146
1.200000 4.920000 0.960000 -1.999951 16.620316 280.234711
1.200000 4.920000 1.000000 0.739859 11.221451 126.468353
1.200000 4.920000 1.040000 4.247482 12.055088 163.366257
1.200000 4.920000 1.080000 3.598297 15.894143 265.571533
1.200000 4.920000 1.120000 -1.046103 17.810102 318.294067
1.200000 4.920000 1.160000 -6.125752 15.805511 287.339050
1.200000 4.920000 1.200000 -8.723772 11.487562 208.068283
1.200000 4.960000 0.800000 29.795227 25.426365 1534.255615
1.200000 4.960000 0.840000 14.573042 35.688869 1486.068970
1.200000 4.960000 0.880000 -1.461435 33.731644 1139.959473
1.200000 4.960000 0.920000 -9.715879 24.099951 675.205933
1.200000 4.960000 0.960000 -8.767005 15.645045 321.627808
1.200000 4.960000 1.000000 -4.374358 14.024223 215.813843
1.200000 4.960000 1.040000 -3.575712 17.780577 328.934601
1.200000 4.960000 1.080000 -8.682982 20.909565 512.604065
1.200000 4.960000 1.120000 -16.244143 18.721361 614.361511
1.200000 4.960000 1.160000 -20.966120 11.452511 570.738159
1.200000 4.960000 1.200000 -20.238979 3.103541 419.248230
1.200000 5.000000 0.800000 11.547419 34.939968 1354.144287
1.200000 5.000000 0.840000 -5.353294 34.451572 1215.568604
1.200000 5.000000 0.880000 -16.130424 24.672821 868.938721
1.200000 5.000000 0.920000 -17.014425 13.641644 475.585144
1.200000 5.000000 0.960000 -11.889787 8.762307 218.145065
1.200000 5.000000 1.000000 -8.483465 11.060969 194.314224
1.200000 5.000000 1.040000 -11.571602 15.087489 361.534302
1.200000 5.000000 1.080000 -19.275303 14.235028 574.173340
1.200000 5.000000 1.120000 -25.276703 6.550406 681.819519
1.200000 5.000000 1.160000 -24.566872 -3.986418 619.422729
1.200000 5.000000 1.200000 -17.407333 -11.248915 429.553345
1.200000 5.040000 0.800000 -6.642130 30.801674 992.860962
1.200000 5.040000 0.840000 -17.590250 21.299633 763.091309
1.200000 5.040000 0.880000 -19.237114 9.104787 452.963684
1.200000 5.040000 0.920000 -13.477085 1.810875 184.911087
1.200000 5.040000 0.960000 -7.321846 2.460083 59.661438
1.200000 5.040000 1.000000 -7.105527 7.218603 102.596741
1.200000 5.040000 1.040000 -13.150518 8.890591 251.978745
1.200000 5.040000 1.080000 -19.655352 3.343521 397.511993
1.200000 5.040000 1.120000 -19.994186 -6.800229 446.010590
1.200000 5.040000 1.160000 -12.647530 -14.559933 371.951660
1.200000 5.040000 1.200000 -2.445562 -14.746405 223.437225
1.200000 5.080000 0.800000 -16.281492 18.540611 608.841248
1.200000 5.080000 0.840000 -17.324982 6.618573 343.960510
1.200000 5.080000 0.880000 -10.882820 -1.395222 120.382416
1.200000 5.080000 0.920000 -2.665194 -1.542256 9.481813
1.200000 5.080000 0.960000 0.596963 4.066079 16.889364
1.200000 5.080000 1.000000 -3.319491 8.692356 86.576073
1.200000 5.080000 1.040000 -10.026096 6.716180 145.629669
1.200000 5.080000 1.080000 -12.344522 -1.200377 153.828140
1.200000 5.080000 1.120000 -6.925991 -8.498682 120.196945
1.200000 5.080000 1.160000 2.400370 -8.696745 81.395142
1.200000 5.080000 1.200000 8.015907 -1.486231 66.463654
1.200000 5.120000 0.800000 -16.712910 6.790452 325.431580
1.200000 5.120000 0.840000 -9.810281 -0.645307 96.658028
1.200000 5.120000 0.880000 -0.516905 -0.714935 0.778324
1.200000 5.120000 0.920000 4.724894 5.818493 56.179485
1.200000 5.120000 0.960000 2.407274 13.139454 178.440216
1.200000 5.120000 1.000000 -4.711514 14.820684 241.851044
1.200000 5.120000 1.040000 -9.614476 9.594069 184.484314
1.200000 5.120000 1.080000 -7.420462 2.856127 63.220711
1.200000 5.120000 1.120000 -0.322617 1.754727 3.183150
1.200000 5.120000 1.160000 4.144094 8.092302 82.658875
1.200000 5.120000 1.200000 0.360949 16.120949 260.015259
1.200000 5.160000 0.800000 -13.286708 -0.149054 176.558823
1.200000 5.160000 0.840000 -4.119291 -0.276145 17.044813
1.200000 5.160000 0.880000 2.162396 6.489390 46.788143
1.200000 5.160000 0.920000 1.034712 15.596970 244.336090
1.200000 5.160000 0.960000 -6.509030 20.265369 453.052673
1.200000 5.160000 1.000000 -14.078638 17.350164 499.236267
1.200000 5.160000 1.040000 -15.473598 10.643032 352.706390
1.200000 5.160000 1.080000 -10.840538 7.560534 174.678955
1.200000 5.160000 1.120000 -6.970893 11.671395 184.814819
1.200000 5.160000 1.160000 -10.594918 18.505524 454.706696
1.200000 5.160000 1.200000 -21.076981 19.454826 822.729370
1.200000 5.200000 0.800000 -10.610907 -4.265618 130.786835
1.200000 5.200000 0.840000 -4.047602 0.853931 17.112278
1.200000 5.200000 0.880000 -3.512881 9.960732 111.556503
1.200000 5.200000 0.920000 -10.349618 16.667210 384.910461
1.200000 5.200000 0.960000 -19.679314 15.915488 640.578125
1.200000 5.200000 1.000000 -24.347931 9.161699 676.758423
1.200000 5.200000 1.040000 -21.955004 3.466560 494.039215
1.200000 5.200000 1.080000 -17.698994 4.397101 332.588867
1.200000 5.200000 1.120000 -19.237776 9.770213 465.549072
1.200000 5.200000 1.160000 -28.259150 11.198589 923.987915
1.200000 5.200000 1.200000 -37.631413 2.694652 1423.384277
