#kx 	ky 	kz 	real 	imag 	intensity
0.800000 4.800000 -7.200000 -12.633207 -37.978622 1601.973633
0.800000 4.800000 -7.160000 8.882860 -45.664509 2164.152588
0.800000 4.800000 -7.120000 29.281612 -35.910614 2146.984863
0.800000 4.800000 -7.080000 36.435226 -16.703220 1606.523315
0.800000 4.800000 -7.040000 29.596941 -1.304547 877.680786
0.800000 4.800000 -7.000000 17.847630 2.710690 325.885712
0.800000 4.800000 -6.960000 11.136568 -2.207925 128.898087
0.800000 4.800000 -6.920000 12.725908 -8.034168 226.496613
0.800000 4.800000 -6.880000 18.782528 -8.743933 429.239716
0.800000 4.800000 -6.840000 23.590607 -4.077609 573.143616
0.800000 4.800000 -6.800000 24.495747 2.409846 605.848999
0.800000 4.840000 -7.200000 8.768051 -37.915276 1514.446777
0.800000 4.840000 -7.160000 29.531614 -36.278160 2188.221191
0.800000 4.840000 -7.120000 43.065739 -21.567551 2319.817139
0.800000 4.840000 -7.080000 43.540100 -4.239264 1913.711670
0.800000 4.840000 -7.040000 35.250141 6.060997 1279.308228
0.800000 4.840000 -7.000000 27.028187 7.393573 785.187805
0.800000 4.840000 -6.960000 24.495226 4.813199 623.182983
0.800000 4.840000 -6.920000 26.883604 4.509843 743.066833
0.800000 4.840000 -6.880000 29.611713 8.850374 955.182678
0.800000 4.840000 -6.840000 28.882607 15.818745 1084.437622
0.800000 4.840000 -6.800000 24.208801 21.830486 1062.636230
0.800000 4.880000 -7.200000 22.381748 -22.665304 1014.658691
0.800000 4.880000 -7.160000 37.161072 -15.601371 1624.348145
0.800000 4.880000 -7.120000 43.572769 -1.409847 1900.573853
0.800000 4.880000 -7.080000 40.573193 11.507617 1778.609253
0.800000 4.880000 -7.040000 33.381207 18.046413 1439.978027
0.800000 4.880000 -7.000000 28.037537 19.219337 1155.486328
0.800000 4.880000 -6.960000 26.701061 19.666994 1099.737305
0.800000 4.880000 -6.920000 27.006062 23.093864 1262.653931
0.800000 4.880000 -6.880000 24.948935 29.480448 1491.546143
0.800000 4.880000 -6.840000 18.358974 35.580460 1603.020996
0.800000 4.880000 -6.800000 8.560772 37.662018 1491.714478
0.800000 4.920000 -7.200000 19.906740 -4.786262 419.186584
0.800000 4.920000 -7.160000 28.602909 2.116568 822.606262
0.800000 4.920000 -7.120000 31.126770 12.746883 1131.358887
0.800000 4.920000 -7.080000 27.601467 21.644516 1230.326050
0.800000 4.920000 -7.040000 21.988926 25.999603 1159.492188
0.800000 4.920000 -7.000000 18.264870 27.364147 1082.402100
0.800000 4.920000 -6.960000 16.968353 29.580799 1162.948730
0.800000 4.920000 -6.920000 14.901545 34.851555 1436.686890
0.800000 4.920000 -6.880000 8.240816 41.213020 1766.424072
0.800000 4.920000 -6.840000 -3.453542 43.701580 1921.755127
0.800000 4.920000 -6.800000 -15.839193 38.570412 1738.556641
0.800000 4.960000 -7.200000 7.055680 2.600959 56.547611
0.800000 4.960000 -7.160000 13.192099 6.899402 221.633209
0.800000 4.960000 -7.120000 14.758475 14.464005 427.020020
0.800000 4.960000 -7.080000 11.584463 20.496405 554.302368
0.800000 4.960000 -7.040000 7.497883 22.745111 573.558350
0.800000 4.960000 -7.000000 5.900383 23.671597 595.158997
0.800000 4.960000 -6.960000 5.561703 27.457306 784.836182
0.800000 4.960000 -6.920000 1.406802 34.553684 1195.936279
0.800000 4.960000 -6.880000 -9.906755 39.642147 1669.643677
0.800000 4.960000 -6.840000 -25.033751 35.872128 1913.498291
0.800000 4.960000 -6.800000 -35.188114 21.895300 1717.607544
0.800000 5.000000 -7.200000 -3.195528 -2.398657 15.964951
0.800000 5.000000 -7.160000 2.838109 0.815780 8.720364
0.800000 5.000000 -7.120000 3.725749 6.564563 56.974689
0.800000 5.000000 -7.080000 1.069313 9.408852 89.669922
0.800000 5.000000 -7.040000 0.165310 9.106517 82.955978
0.800000 5.000000 -7.000000 2.732437 10.875710 125.747269
0.800000 5.000000 -6.960000 3.563373 18.537546 356.338257
0.800000 5.000000 -6.920000 -4.288970 28.113810 808.781555
0.800000 5.000000 -6.880000 -20.705833 29.809792 1317.355225
0.800000 5.000000 -6.840000 -35.894653 17.580391 1597.496338
0.800000 5.000000 -6.800000 -38.008923 -3.307405 1455.617188
0.800000 5.040000 -7.200000 -3.638833 -10.643008 126.514725
0.800000 5.040000 -7.160000 1.151403 -6.738426 46.732109
0.800000 5.040000 -7.120000 0.708481 -3.741931 14.503993
0.800000 5.040000 -7.080000 0.674236 -5.110818 26.575054
0.800000 5.040000 -7.040000 6.027941 -6.007841 72.430222
0.800000 5.040000 -7.000000 13.109076 0.889441 172.638962
0.800000 5.040000 -6.960000 11.862883 15.037583 366.856873
0.800000 5.040000 -6.920000 -2.892231 25.417091 654.393494
0.800000 5.040000 -6.880000 -23.298166 20.186884 950.314819
0.800000 5.040000 -6.840000 -33.426422 -0.493051 1117.568726
0.800000 5.040000 -6.800000 -23.812222 -22.280113 1063.425293
0.800000 5.080000 -7.200000 1.487910 -12.903961 168.726089
0.800000 5.080000 -7.160000 2.746705 -9.942974 106.407120
0.800000 5.080000 -7.120000 2.832516 -12.028120 152.698822
0.800000 5.080000 -7.080000 9.447481 -16.022446 345.973694
0.800000 5.080000 -7.040000 22.038742 -12.013781 630.037048
0.800000 5.080000 -7.000000 29.307188 4.408251 878.343933
0.800000 5.080000 -6.960000 20.112156 23.920938 976.710083
0.800000 5.080000 -6.920000 -3.024363 29.971584 907.442627
0.800000 5.080000 -6.880000 -23.144863 14.977374 760.006409
0.800000 5.080000 -6.840000 -23.468740 -10.397537 658.890564
0.800000 5.080000 -6.800000 -3.507211 -25.550198 665.113159
0.800000 5.120000 -7.200000 3.242818 -9.353055 97.995506
0.800000 5.120000 -7.160000 1.999212 -11.414006 134.276382
0.800000 5.120000 -7.120000 7.417537 -18.308882 390.234985
0.800000 5.120000 -7.080000 22.828888 -19.125290 886.934814
0.800000 5.120000 -7.040000 38.180531 -4.357429 1476.740112
0.800000 5.120000 -7.000000 37.781868 21.280247 1880.318481
0.800000 5.120000 -6.960000 16.671522 39.739971 1857.204834
0.800000 5.120000 -6.920000 -11.557495 35.581955 1399.651245
0.800000 5.120000 -6.880000 -25.284143 11.667280 775.413330
0.800000 5.120000 -6.840000 -14.563841 -11.933805 354.521179
0.800000 5.120000 -6.800000 9.453424 -15.854495 340.732239
0.800000 5.160000 -7.200000 -1.167635 -7.767798 61.702065
0.800000 5.160000 -7.160000 0.405608 -16.534021 273.538391
0.800000 5.160000 -7.120000 14.833870 -23.003199 749.190857
0.800000 5.160000 -7.080000 35.384346 -13.796797 1442.403564
0.800000 5.160000 -7.040000 44.684700 12.512224 2153.278076
0.800000 5.160000 -7.000000 30.632961 40.383713 2569.222656
0.800000 5.160000 -6.960000 -0.194596 49.365753 2437.015381
0.800000 5.160000 -6.920000 -26.166306 32.869011 1765.047363
0.800000 5.160000 -6.880000 -29.207649 5.168538 879.800598
0.800000 5.160000 -6.840000 -10.856064 -11.039517 239.725067
0.800000 5.160000 -6.800000 9.935202 -4.812995 121.873154
0.800000 5.200000 -7.200000 -5.526211 -13.456976 211.629196
0.800000 5.200000 -7.160000 4.205785 -24.923527 638.870850
0.800000 5.200000 -7.120000 25.592398 -23.643696 1213.995117
0.800000 5.200000 -7.080000 42.609035 -2.363089 1821.114136
0.800000 5.200000 -7.040000 38.578880 28.823307 2319.113037
0.800000 5.200000 -7.000000 11.953723 48.951782 2539.168701
0.800000 5.200000 -6.960000 -20.479753 43.833469 2340.793457
0.800000 5.200000 -6.920000 -37.110683 18.741655 1728.452515
0.800000 5.200000 -6.880000 -29.722462 -6.118094 920.855835
0.800000 5.200000 -6.840000 -9.499577 -13.268707 266.300537
0.800000 5.200000 -6.800000 4.367991 -2.080079 23.406075
0.840000 4.800000 -7.200000 31.891888 -39.739067 2596.286133
0.840000 4.800000 -7.160000 53.194038 -25.476372 3478.651367
0.840000 4.800000 -7.120000 58.409470 -0.189484 3411.702148
0.840000 4.800000 -7.080000 46.291084 19.768770 2533.668701
0.840000 4.800000 -7.040000 28.328045 25.090584 1432.015625
0.840000 4.800000 -7.000000 16.696552 19.448437 657.016602
0.840000 4.800000 -6.960000 14.277668 12.799612 367.681885
0.840000 4.800000 -6.920000 15.570316 10.920622 361.694733
0.840000 4.800000 -6.880000 15.058431 11.997256 370.690491
0.840000 4.800000 -6.840000 12.820047 11.818964 304.041504
0.840000 4.800000 -6.800000 12.328611 9.956428 251.125107
0.840000 4.840000 -7.200000 43.134296 -14.213714 2062.597168
0.840000 4.840000 -7.160000 55.633789 1.556248 3097.540283
0.840000 4.840000 -7.120000 55.737743 22.391594 3608.079590
0.840000 4.840000 -7.080000 44.562119 38.646801 3479.357422
0.840000 4.840000 -7.040000 28.720783 45.701920 2913.548828
0.840000 4.840000 -7.000000 14.257647 44.685852 2200.105713
0.840000 4.840000 -6.960000 3.881426 38.834446 1523.179565
0.840000 4.840000 -6.920000 -1.747292 30.781052 950.526184
0.840000 4.840000 -6.880000 -2.417459 22.846306 527.797791
0.840000 4.840000 -6.840000 1.025867 17.857462 319.941345
0.840000 4.840000 -6.800000 5.533750 17.889168 350.644714
0.840000 4.880000 -7.200000 31.490955 10.078792 1093.262329
0.840000 4.880000 -7.160000 39.552906 21.981804 2047.632080
0.840000 4.880000 -7.120000 39.357433 39.793110 3132.499023
0.840000 4.880000 -7.080000 27.824409 56.722473 3991.636719
0.840000 4.880000 -7.040000 7.345745 65.037643 4283.854980
0.840000 4.880000 -7.000000 -14.551662 60.256172 3842.557373
0.840000 4.880000 -6.960000 -28.726234 44.439560 2800.071045
0.840000 4.880000 -6.920000 -29.997692 25.860962 1568.650879
0.840000 4.880000 -6.880000 -20.909378 14.025234 633.909302
0.840000 4.880000 -6.840000 -10.093255 13.126353 274.174927
0.840000 4.880000 -6.800000 -5.694216 19.305386 405.122009
0.840000 4.920000 -7.200000 7.706657 15.460077 298.406555
0.840000 4.920000 -7.160000 17.112446 24.814587 908.599548
0.840000 4.920000 -7.120000 16.591120 43.737782 2188.258789
0.840000 4.920000 -7.080000 -0.238205 60.820557 3699.196777
0.840000 4.920000 -7.040000 -27.657043 62.638462 4688.488770
0.840000 4.920000 -7.000000 -50.446060 45.071739 4576.266602
0.840000 4.920000 -6.960000 -55.414856 17.899334 3391.192383
0.840000 4.920000 -6.920000 -42.163605 -2.400939 1783.534058
0.840000 4.920000 -6.880000 -23.153093 -5.883554 570.681946
0.840000 4.920000 -6.840000 -12.749731 3.478241 174.653809
0.840000 4.920000 -6.800000 -15.303553 12.894307 400.461884
0.840000 4.960000 -7.200000 -7.907017 1.407967 64.503281
0.840000 4.960000 -7.160000 3.440739 13.722212 200.137787
0.840000 4.960000 -7.120000 -1.922531 34.534286 1196.313110
0.840000 4.960000 -7.080000 -25.873428 45.347027 2725.787109
0.840000 4.960000 -7.040000 -53.126354 33.384209 3936.914795
0.840000 4.960000 -7.000000 -63.617916 4.148734 4064.451172
0.840000 4.960000 -6.960000 -50.218979 -22.495302 3027.984375
0.840000 4.960000 -6.920000 -24.946964 -29.612776 1499.267578
0.840000 4.960000 -6.880000 -7.596756 -17.582758 366.864075
0.840000 4.960000 -6.840000 -7.908229 -1.959225 66.378654
0.840000 4.960000 -6.800000 -18.468933 2.361413 346.677765
0.840000 5.000000 -7.200000 -4.687430 -15.867502 273.749634
0.840000 5.000000 -7.160000 3.059744 2.025463 13.464534
0.840000 5.000000 -7.120000 -10.395304 19.513546 488.840820
0.840000 5.000000 -7.080000 -35.651695 17.502605 1577.384521
0.840000 5.000000 -7.040000 -50.610947 -6.310782 2601.293945
0.840000 5.000000 -7.000000 -41.068558 -34.112144 2850.264893
0.840000 5.000000 -6.960000 -14.313374 -44.222195 2160.475098
0.840000 5.000000 -6.920000 7.906176 -31.170467 1034.105591
0.840000 5.000000 -6.880000 10.063210 -9.785251 197.019318
0.840000 5.000000 -6.840000 -3.490973 0.271838 12.260791
0.840000 5.000000 -6.800000 -14.999771 -6.562972 268.065735
0.840000 5.040000 -7.200000 9.361482 -20.073124 490.567627
0.840000 5.040000 -7.160000 7.765183 -1.192661 61.720512
0.840000 5.040000 -7.120000 -10.339886 5.822257 140.811920
0.840000 5.040000 -7.080000 -26.311073 -8.301464 761.186890
0.840000 5.040000 -7.040000 -22.115480 -31.818081 1501.484741
0.840000 5.040000 -7.000000 1.372681 -42.680660 1823.523071
0.840000 5.040000 -6.960000 24.592236 -30.138447 1513.104004
0.840000 5.040000 -6.920000 28.299454 -5.310338 829.058777
0.840000 5.040000 -6.880000 12.133139 10.075984 248.738510
0.840000 5.040000 -6.840000 -6.070722 5.119626 63.064232
0.840000 5.040000 -6.800000 -8.936501 -10.572889 191.647034
0.840000 5.080000 -7.200000 17.417723 -10.397272 411.480347
0.840000 5.080000 -7.160000 7.464368 0.887569 56.504570
0.840000 5.080000 -7.120000 -6.016582 -4.429199 55.817070
0.840000 5.080000 -7.080000 -5.662775 -21.025164 474.124512
0.840000 5.080000 -7.040000 12.485792 -30.248055 1070.839844
0.840000 5.080000 -7.000000 33.470837 -18.810013 1474.113525
0.840000 5.080000 -6.960000 37.484921 6.859087 1452.166382
0.840000 5.080000 -6.920000 19.701801 25.934404 1060.754272
0.840000 5.080000 -6.880000 -4.490851 23.377563 566.678223
0.840000 5.080000 -6.840000 -14.548791 4.473779 231.682007
0.840000 5.080000 -6.800000 -4.701146 -11.065045 144.535995
0.840000 5.120000 -7.200000 11.603540 -0.386026 134.791168
0.840000 5.120000 -7.160000 1.721712 -1.350877 4.789162
0.840000 5.120000 -7.120000 0.925622 -12.336233 153.039429
0.840000 5.120000 -7.080000 14.786944 -19.115986 584.074646
0.840000 5.120000 -7.040000 32.723778 -8.733685 1147.122803
0.840000 5.120000 -7.000000 36.671490 16.077900 1603.297119
0.840000 5.120000 -6.960000 18.863184 37.269798 1744.857544
0.840000 5.120000 -6.920000 -9.173300 37.719154 1506.884033
0.840000 5.120000 -6.880000 -26.341110 17.710451 1007.514160
0.840000 5.120000 -6.840000 -21.418823 -5.052260 484.291321
0.840000 5.120000 -6.800000 -2.983692 -12.181704 157.296326
0.840000 5.160000 -7.200000 0.047323 -2.393879 5.732895
0.840000 5.160000 -7.160000 -0.502722 -11.504752 132.612061
0.840000 5.160000 -7.120000 11.429021 -17.283157 429.330017
0.840000 5.160000 -7.080000 27.733250 -8.277787 837.654907
0.840000 5.160000 -7.040000 32.639637 14.860558 1286.182129
0.840000 5.160000 -7.000000 16.954060 37.284603 1677.581787
0.840000 5.160000 -6.960000 -11.903934 41.678764 1878.822998
0.840000 5.160000 -6.920000 -34.684864 23.805315 1769.732788
0.840000 5.160000 -6.880000 -36.502304 -3.010407 1341.480713
0.840000 5.160000 -6.840000 -19.537495 -19.279181 753.400513
0.840000 5.160000 -6.800000 -0.178367 -16.112564 259.646545
0.840000 5.200000 -7.200000 -3.182343 -14.702916 226.303055
0.840000 5.200000 -7.160000 8.038153 -22.147293 555.114502
0.840000 5.200000 -7.120000 24.547237 -15.830389 853.168030
0.840000 5.200000 -7.080000 32.136555 4.814443 1055.937012
0.840000 5.200000 -7.040000 20.943626 27.811131 1212.094482
0.840000 5.200000 -7.000000 -5.376825 36.920025 1391.998535
0.840000 5.200000 -6.960000 -31.102207 24.585064 1571.772705
0.840000 5.200000 -6.920000 -40.221954 -1.452636 1619.915771
0.840000 5.200000 -6.880000 -28.873528 -24.033066 1411.268799
0.840000 5.200000 -6.840000 -7.692374 -30.076809 963.787048
0.840000 5.200000 -6.800000 7.678918 -19.990892 458.601562
0.880000 4.800000 -7.200000 65.728180 -0.818086 4320.863281
0.880000 4.800000 -7.160000 68.053055 29.887300 5524.468750
0.880000 4.800000 -7.120000 47.765205 53.967976 5194.057617
0.880000 4.800000 -7.080000 19.480450 57.231304 3654.910156
0.880000 4.800000 -7.040000 1.470909 43.982204 1936.597900
0.880000 4.800000 -7.000000 -1.139061 29.872517 893.664734
0.880000 4.800000 -6.960000 2.223984 24.983059 629.099365
0.880000 4.800000 -6.920000 0.865135 25.703783 661.432922
0.880000 4.800000 -6.880000 -5.248013 22.498392 533.719299
0.880000 4.800000 -6.840000 -7.561977 12.914025 223.955551
0.880000 4.800000 -6.800000 -0.901734 4.548800 21.504711
0.880000 4.840000 -7.200000 45.204353 33.183479 3144.576904
0.880000 4.840000 -7.160000 40.620888 52.154594 4370.158203
0.880000 4.840000 -7.120000 25.575043 66.757904 5110.700684
0.880000 4.840000 -7.080000 5.471087 72.370888 5267.478027
0.880000 4.840000 -7.040000 -14.506317 69.126236 4988.869629
0.880000 4.840000 -7.000000 -31.517582 58.410759 4405.174805
0.880000 4.840000 -6.960000 -42.768299 41.076477 3516.404297
0.880000 4.840000 -6.920000 -44.141819 19.933571 2345.847412
0.880000 4.840000 -6.880000 -33.542709 2.033186 1129.247192
0.880000 4.840000 -6.840000 -15.542617 -4.474669 261.595612
0.880000 4.840000 -6.800000 -0.613853 2.563603 6.948877
0.880000 4.880000 -7.200000 6.871181 39.225197 1585.829224
0.880000 4.880000 -7.160000 8.245052 49.744675 2542.513672
0.880000 4.880000 -7.120000 0.023236 66.726494 4452.425293
0.880000 4.880000 -7.080000 -23.737511 79.864174 6941.755371
0.880000 4.880000 -7.040000 -57.839714 75.396698 9030.094727
0.880000 4.880000 -7.000000 -85.857803 47.446793 9622.760742
0.880000 4.880000 -6.960000 -90.597183 5.778564 8241.241211
0.880000 4.880000 -6.920000 -67.912537 -28.585125 5429.222168
0.880000 4.880000 -6.880000 -31.636944 -38.231140 2462.516357
0.880000 4.880000 -6.840000 -3.915009 -22.668573 529.191467
0.880000 4.880000 -6.800000 1.621305 1.868828 6.121146
0.880000 4.920000 -7.200000 -19.481691 14.615771 593.157043
0.880000 4.920000 -7.160000 -9.311281 29.163004 937.180725
0.880000 4.920000 -7.120000 -20.864155 54.645210 3421.412109
0.880000 4.920000 -7.080000 -58.550388 65.731880 7748.828125
0.880000 4.920000 -7.040000 -101.615738 41.974648 12087.628906
0.880000 4.920000 -7.000000 -118.328850 -11.412407 14131.959961
0.880000 4.920000 -6.960000 -92.749786 -64.023361 12701.513672
0.880000 4.920000 -6.920000 -39.735455 -83.778244 8597.700195
0.880000 4.920000 -6.880000 6.480789 -62.986706 4009.325928
0.880000 4.920000 -6.840000 20.285032 -23.300751 954.407532
0.880000 4.920000 -6.800000 3.756764 4.433104 33.765686
0.880000 4.960000 -7.200000 -15.230787 -17.463284 536.943176
0.880000 4.960000 -7.160000 -6.414305 9.388536 129.287918
0.880000 4.960000 -7.120000 -32.061752 36.174957 2336.583496
0.880000 4.960000 -7.080000 -79.584251 29.521090 7205.147461
0.880000 4.960000 -7.040000 -110.832947 -19.387289 12659.809570
0.880000 4.960000 -7.000000 -94.669785 -82.330078 15740.609375
0.880000 4.960000 -6.960000 -36.116360 -115.749969 14702.447266
0.880000 4.960000 -6.920000 26.250677 -97.859741 10265.626953
0.880000 4.960000 -6.880000 53.062824 -46.582115 4985.556641
0.880000 4.960000 -6.840000 36.398388 -1.912015 1328.498413
0.880000 4.960000 -6.800000 2.018070 9.423661 92.877998
0.880000 5.000000 -7.200000 10.584200 -29.659302 991.699463
0.880000 5.000000 -7.160000 5.042243 4.207474 43.127052
0.880000 5.000000 -7.120000 -33.763721 17.679644 1452.558716
0.880000 5.000000 -7.080000 -73.656395 -12.731338 5587.351562
0.880000 5.000000 -7.040000 -74.350586 -71.823578 10686.636719
0.880000 5.000000 -7.000000 -25.268642 -115.259506 13923.257812
0.880000 5.000000 -6.960000 42.212223 -107.982613 13442.116211
0.880000 5.000000 -6.920000 81.277519 -55.497490 9686.006836
0.880000 5.000000 -6.880000 70.167114 1.948362 4927.219727
0.880000 5.000000 -6.840000 28.311295 26.069065 1481.125488
0.880000 5.000000 -6.800000 -5.587729 12.182802 179.643387
0.880000 5.040000 -7.200000 31.378181 -15.480820 1224.246094
0.880000 5.040000 -7.160000 8.873900 10.505948 189.121063
0.880000 5.040000 -7.120000 -29.198908 2.375744 858.220398
0.880000 5.040000 -7.080000 -44.820274 -40.608616 3657.916504
0.880000 5.040000 -7.040000 -15.179699 -84.612915 7389.768555
0.880000 5.040000 -7.000000 43.338669 -89.913712 9962.715820
0.880000 5.040000 -6.960000 87.452057 -47.525448 9906.530273
0.880000 5.040000 -6.920000 85.228241 11.914152 7405.799805
0.880000 5.040000 -6.880000 43.668209 45.990459 4022.034668
0.880000 5.040000 -6.840000 -0.457174 37.828419 1431.198242
0.880000 5.040000 -6.800000 -15.949887 7.098933 304.793762
0.880000 5.080000 -7.200000 29.139870 6.848099 896.028503
0.880000 5.080000 -7.160000 0.894321 13.818107 191.739883
0.880000 5.080000 -7.120000 -20.682692 -9.584908 519.644226
0.880000 5.080000 -7.080000 -10.197466 -44.733940 2105.113770
0.880000 5.080000 -7.040000 30.271889 -57.837341 4261.545410
0.880000 5.080000 -7.000000 69.668037 -31.124989 5822.400391
0.880000 5.080000 -6.960000 74.858330 18.921791 5961.803711
0.880000 5.080000 -6.920000 40.871475 55.318962 4730.665039
0.880000 5.080000 -6.880000 -5.024326 53.692108 2908.086426
0.880000 5.080000 -6.840000 -29.148045 22.707880 1365.256348
0.880000 5.080000 -6.800000 -21.335680 -7.262019 507.948181
0.880000 5.120000 -7.200000 10.187005 14.357557 309.914520
0.880000 5.120000 -7.160000 -8.160731 4.674496 88.448441
0.880000 5.120000 -7.120000 -8.358176 -17.898243 390.206207
0.880000 5.120000 -7.080000 14.364669 -31.255697 1183.262329
0.880000 5.120000 -7.040000 42.617432 -17.842093 2134.585693
0.880000 5.120000 -7.000000 50.353325 17.201494 2831.348633
0.880000 5.120000 -6.960000 26.704321 48.116474 3028.315918
0.880000 5.120000 -6.920000 -12.814582 50.740070 2738.768066
0.880000 5.120000 -6.880000 -39.549007 24.151081 2147.398682
0.880000 5.120000 -6.840000 -37.115433 -9.255662 1463.222534
0.880000 5.120000 -6.800000 -14.447802 -25.092659 838.380493
0.880000 5.160000 -7.200000 -4.015324 1.813375 19.411154
0.880000 5.160000 -7.160000 -5.229671 -11.361852 156.441132
0.880000 5.160000 -7.120000 7.237773 -20.067032 455.071106
0.880000 5.160000 -7.080000 24.530670 -13.015007 771.144165
0.880000 5.160000 -7.040000 30.454449 9.076107 1009.849182
0.880000 5.160000 -7.000000 15.153986 31.136543 1199.127563
0.880000 5.160000 -6.960000 -14.421825 34.886806 1425.078247
0.880000 5.160000 -6.920000 -38.342979 14.802345 1689.293457
0.880000 5.160000 -6.880000 -39.925861 -16.035843 1851.222656
0.880000 5.160000 -6.840000 -19.814642 -36.620911 1733.711060
0.880000 5.160000 -6.800000 5.358798 -35.678589 1301.678345
0.880000 5.200000 -7.200000 0.265971 -15.627695 244.295593
0.880000 5.200000 -7.160000 10.763200 -19.924870 512.846924
0.880000 5.200000 -7.120000 22.233150 -13.442940 675.025635
0.880000 5.200000 -7.080000 25.426651 1.926839 650.227295
0.880000 5.200000 -7.040000 14.816312 17.105616 512.125183
0.880000 5.200000 -7.000000 -6.151684 20.633905 463.601257
0.880000 5.200000 -6.960000 -25.372307 6.981363 692.493408
0.880000 5.200000 -6.920000 -29.701641 -17.811913 1199.451660
0.880000 5.200000 -6.880000 -14.982903 -39.024902 1747.430420
0.880000 5.200000 -6.840000 9.972908 -43.702824 2009.395630
0.880000 5.200000 -6.800000 29.749702 -30.398138 1809.091553
0.920000 4.800000 -7.200000 58.142723 55.525528 6463.660156
0.920000 4.800000 -7.160000 32.696098 83.423691 8028.546875
0.920000 4.800000 -7.120000 -6.559208 85.509964 7354.977539
0.920000 4.800000 -7.080000 -33.773708 61.759941 4954.953613
0.920000 4.800000 -7.040000 -35.882149 33.033558 2378.744629
0.920000 4.800000 -7.000000 -23.117912 19.291452 906.598022
0.920000 4.800000 -6.960000 -15.216713 20.951324 670.506348
0.920000 4.800000 -6.920000 -19.735775 22.551331 898.063354
0.920000 4.800000 -6.880000 -26.170395 12.686823 845.845093
0.920000 4.800000 -6.840000 -20.743748 -2.913437 438.791199
0.920000 4.800000 -6.800000 -3.659364 -9.073786 95.724533
0.920000 4.840000 -7.200000 6.787903 67.908669 4657.663086
0.920000 4.840000 -7.160000 -12.283674 75.929482 5916.174805
0.920000 4.840000 -7.120000 -33.965771 73.963631 6624.291992
0.920000 4.840000 -7.080000 -52.752518 63.542156 6820.433594
0.920000 4.840000 -7.040000 -66.994431 47.491619 6743.708008
0.920000 4.840000 -7.000000 -75.903778 26.167618 6446.127441
0.920000 4.840000 -6.960000 -75.486053 0.040298 5698.145508
0.920000 4.840000 -6.920000 -60.776482 -24.868755 4312.235840
0.920000 4.840000 -6.880000 -33.452629 -37.419373 2519.287842
0.920000 4.840000 -6.840000 -5.464718 -30.210817 942.556641
0.920000 4.840000 -6.800000 8.132523 -8.485949 138.149246
0.920000 4.880000 -7.200000 -34.839035 36.870544 2573.195312
0.920000 4.880000 -7.160000 -36.054283 42.842361 3135.379395
0.920000 4.880000 -7.120000 -50.694866 54.031296 5489.350586
0.920000 4.880000 -7.080000 -82.124619 53.347336 9590.391602
0.920000 4.880000 -7.040000 -115.497711 25.481949 13989.051758
0.920000 4.880000 -7.000000 -125.729340 -26.454384 16507.701172
0.920000 4.880000 -6.960000 -97.833649 -77.903961 15640.450195
0.920000 4.880000 -6.920000 -42.248932 -99.292816 11644.036133
0.920000 4.880000 -6.880000 10.228613 -79.469658 6420.051270
0.920000 4.880000 -6.840000 31.455523 -35.339417 2238.324219
0.920000 4.880000 -6.800000 17.317036 1.708120 302.797394
0.920000 4.920000 -7.200000 -35.980049 -12.015635 1438.939453
0.920000 4.920000 -7.160000 -29.315989 10.337200 966.284912
0.920000 4.920000 -7.120000 -57.128098 32.920937 4347.407715
0.920000 4.920000 -7.080000 -107.586884 20.069286 11977.713867
0.920000 4.920000 -7.040000 -139.666183 -39.347580 21054.875000
0.920000 4.920000 -7.000000 -117.184555 -115.290016 27024.007812
0.920000 4.920000 -6.960000 -43.126068 -157.368927 26624.835938
0.920000 4.920000 -6.920000 38.908588 -136.586517 20169.755859
0.920000 4.920000 -6.880000 79.433136 -70.067749 11219.112305
0.920000 4.920000 -6.840000 62.811813 -5.808220 3979.059326
0.920000 4.920000 -6.800000 16.215740 17.940567 584.814209
0.920000 4.960000 -7.200000 -0.502970 -39.218937 1538.377930
0.920000 4.960000 -7.160000 -7.332531 -0.274391 53.841301
0.920000 4.960000 -7.120000 -56.725071 13.935781 3411.939697
0.920000 4.960000 -7.080000 -108.604630 -29.207527 12648.045898
0.920000 4.960000 -7.040000 -108.512360 -112.537155 24439.542969
0.920000 4.960000 -7.000000 -38.298752 -177.031525 32806.953125
0.920000 4.960000 -6.960000 62.611324 -171.070557 33185.312500
0.920000 4.960000 -6.920000 128.042236 -96.102325 25630.472656
0.920000 4.960000 -6.880000 120.548584 -5.494606 14562.151367
0.920000 4.960000 -6.840000 60.146332 42.112267 5391.024414
0.920000 4.960000 -6.800000 1.284904 30.448750 928.777344
0.920000 5.000000 -7.200000 37.648994 -26.642433 2127.266113
0.920000 5.000000 -7.160000 5.768862 9.947567 132.233856
0.920000 5.000000 -7.120000 -51.776260 -3.001509 2689.790283
0.920000 5.000000 -7.080000 -77.935158 -71.360191 11166.166016
0.920000 5.000000 -7.040000 -32.999130 -146.573593 22572.761719
0.920000 5.000000 -7.000000 64.141029 -164.204269 31077.115234
0.920000 5.000000 -6.960000 147.225739 -101.699883 32018.285156
0.920000 5.000000 -6.920000 158.706818 -0.239253 25187.910156
0.920000 5.000000 -6.880000 98.397484 70.944427 14715.175781
0.920000 5.000000 -6.840000 19.455193 73.719818 5813.116211
0.920000 5.000000 -6.800000 -21.884569 28.044144 1265.408325
0.920000 5.040000 -7.200000 46.597168 8.021662 2235.643311
0.920000 5.040000 -7.160000 -0.541172 21.641462 468.645782
0.920000 5.040000 -7.120000 -42.033119 -18.058243 2092.883301
0.920000 5.040000 -7.080000 -29.844425 -85.697243 8234.707031
0.920000 5.040000 -7.040000 41.892662 -122.337143 16721.371094
0.920000 5.040000 -7.000000 124.786865 -87.367271 23204.800781
0.920000 5.040000 -6.960000 155.453705 2.162546 24170.529297
0.920000 5.040000 -6.920000 110.939934 84.113190 19382.697266
0.920000 5.040000 -6.880000 27.743111 105.026665 11800.281250
0.920000 5.040000 -6.840000 -33.016033 64.030182 5189.922852
0.920000 5.040000 -6.800000 -39.164719 6.600569 1577.442749
0.920000 5.080000 -7.200000 24.548763 30.860741 1555.027100
0.920000 5.080000 -7.160000 -15.449810 17.663536 550.697144
0.920000 5.080000 -7.120000 -26.712986 -29.176891 1564.874634
0.920000 5.080000 -7.080000 11.494284 -70.484436 5100.174316
0.920000 5.080000 -7.040000 76.167046 -63.548752 9839.863281
0.920000 5.080000 -7.000000 115.710526 -2.849087 13397.042969
0.920000 5.080000 -6.960000 94.618965 70.784904 13963.251953
0.920000 5.080000 -6.920000 25.940544 104.099258 11509.567383
0.920000 5.080000 -6.880000 -40.220634 77.327988 7597.317383
0.920000 5.080000 -6.840000 -61.175861 18.634979 4089.748535
0.920000 5.080000 -6.800000 -36.099800 -25.131563 1934.791016
0.920000 5.120000 -7.200000 -2.664677 24.361198 600.568542
0.920000 5.120000 -7.160000 -19.981476 -0.674300 399.714050
0.920000 5.120000 -7.120000 -7.338893 -32.749001 1126.356445
0.920000 5.120000 -7.080000 31.397068 -41.626900 2718.574707
0.920000 5.120000 -7.040000 66.040054 -11.824245 4501.101562
0.920000 5.120000 -7.000000 64.079193 39.330719 5653.048828
0.920000 5.120000 -6.960000 20.717312 73.158348 5781.351074
0.920000 5.120000 -6.920000 -34.462532 62.583187 5104.321289
0.920000 5.120000 -6.880000 -62.317226 15.941811 4137.578125
0.920000 5.120000 -6.840000 -47.538986 -31.305738 3240.004639
0.920000 5.120000 -6.800000 -9.022106 -48.597923 2443.156494
0.920000 5.160000 -7.200000 -9.478517 0.826422 90.525253
0.920000 5.160000 -7.160000 -6.567242 -16.801558 325.420990
0.920000 5.160000 -7.120000 11.380553 -26.520929 832.876709
0.920000 5.160000 -7.080000 32.818241 -16.572342 1351.679443
0.920000 5.160000 -7.040000 38.619373 10.259678 1596.717041
0.920000 5.160000 -7.000000 18.595757 34.538982 1538.743408
0.920000 5.160000 -6.960000 -16.509052 34.591351 1469.110352
0.920000 5.160000 -6.920000 -41.190460 6.021645 1732.914307
0.920000 5.160000 -6.880000 -36.116039 -32.537170 2363.035645
0.920000 5.160000 -6.840000 -4.854136 -54.431198 2986.318115
0.920000 5.160000 -6.800000 29.824245 -47.248215 3121.879395
0.920000 5.200000 -7.200000 5.678757 -14.176490 233.221146
0.920000 5.200000 -7.160000 14.465016 -16.525604 482.332275
0.920000 5.200000 -7.120000 23.538906 -12.108766 700.702271
0.920000 5.200000 -7.080000 27.354795 -0.905451 749.104675
0.920000 5.200000 -7.040000 20.293859 11.453451 543.022278
0.920000 5.200000 -7.000000 3.300327 14.530396 222.024582
0.920000 5.200000 -6.960000 -12.739071 1.241827 163.826050
0.920000 5.200000 -6.920000 -13.384136 -23.341084 723.941284
0.920000 5.200000 -6.880000 6.757509 -42.818184 1879.060791
0.920000 5.200000 -6.840000 37.217323 -41.744919 3127.767578
0.920000 5.200000 -6.800000 58.713284 -18.900677 3804.485352
0.960000 4.800000 -7.200000 9.938839 89.837418 8169.541992
0.960000 4.800000 -7.160000 -34.287567 94.522583 10110.156250
0.960000 4.800000 -7.120000 -71.126801 65.051437 9290.710938
0.960000 4.800000 -7.080000 -76.263367 20.911121 6253.375977
0.960000 4.800000 -7.040000 -53.075718 -7.635963 2875.339600
0.960000 4.800000 -7.000000 -27.386677 -8.534660 822.870483
0.960000 4.800000 -6.960000 -20.182642 3.218552 417.698120
0.960000 4.800000 -6.920000 -27.887451 4.901207 801.731812
0.960000 4.800000 -6.880000 -30.347477 -8.805721 998.510071
0.960000 4.800000 -6.840000 -15.716890 -22.133968 736.933228
0.960000 4.800000 -6.800000 6.151188 -18.291492 372.415833
0.960000 4.840000 -7.200000 -46.486130 61.939468 5997.458008
0.960000 4.840000 -7.160000 -67.706146 51.562614 7242.825195
0.960000 4.840000 -7.120000 -81.982773 32.174564 7756.377441
0.960000 4.840000 -7.080000 -87.163895 10.017899 7697.902832
0.960000 4.840000 -7.040000 -85.717194 -11.605335 7482.121094
0.960000 4.840000 -7.000000 -78.375366 -33.501671 7265.060059
0.960000 4.840000 -6.960000 -61.447845 -54.506142 6746.756836
0.960000 4.840000 -6.920000 -32.841133 -66.724747 5530.731934
0.960000 4.840000 -6.880000 -0.007107 -60.455708 3654.892578
0.960000 4.840000 -6.840000 21.457130 -35.494343 1720.256836
0.960000 4.840000 -6.800000 20.299879 -5.912856 447.046936
0.960000 4.880000 -7.200000 -60.495579 1.518473 3662.020752
0.960000 4.880000 -7.160000 -60.414970 3.991913 3665.904053
0.960000 4.880000 -7.120000 -76.592606 6.192319 5904.771973
0.960000 4.880000 -7.080000 -103.211823 -11.857353 10793.277344
0.960000 4.880000 -7.040000 -116.205856 -57.256317 16782.085938
0.960000 4.880000 -7.000000 -92.280464 -111.706543 20994.035156
0.960000 4.880000 -6.960000 -31.967438 -141.459869 21032.812500
0.960000 4.880000 -6.920000 35.418262 -124.088005 16652.287109
0.960000 4.880000 -6.880000 72.270874 -68.859016 9964.642578
0.960000 4.880000 -6.840000 62.213779 -11.199543 3995.984131
0.960000 4.880000 -6.800000 22.470423 15.166049 734.928955
0.960000 4.920000 -7.200000 -23.578392 -44.218960 2511.256836
0.960000 4.920000 -7.160000 -27.163563 -16.663542 1015.532715
0.960000 4.920000 -7.120000 -66.919571 -9.290787 4564.547852
0.960000 4.920000 -7.080000 -108.319969 -51.885864 14425.358398
0.960000 4.920000 -7.040000 -102.063568 -130.034363 27325.906250
0.960000 4.920000 -7.000000 -30.350723 -189.825134 36954.750000
0.960000 4.920000 -6.960000 71.024750 -181.828278 38106.039062
0.960000 4.920000 -6.920000 138.597717 -105.246155 30286.082031
0.960000 4.920000 -6.880000 133.397400 -10.482918 17904.757812
0.960000 4.920000 -6.840000 71.785133 42.987247 7001.008789
0.960000 4.920000 -6.800000 7.544950 34.464699 1244.741699
0.960000 4.960000 -7.200000 30.518579 -42.020866 2697.136719
0.960000 4.960000 -7.160000 -0.096447 -5.104099 26.061132
0.960000 4.960000 -7.120000 -59.389221 -20.580421 3950.633301
0.960000 4.960000 -7.080000 -84.973343 -96.881729 16606.539062
0.960000 4.960000 -7.040000 -31.293554 -181.354889 33868.882812
0.960000 4.960000 -7.000000 82.475983 -201.037064 47218.191406
0.960000 4.960000 -6.960000 181.884720 -127.880096 49435.371094
0.960000 4.960000 -6.920000 199.007721 -6.607668 39647.734375
0.960000 4.960000 -6.880000 129.816406 82.512856 23660.669922
0.960000 4.960000 -6.840000 33.927475 91.256462 9478.815430
0.960000 4.960000 -6.800000 -20.586695 38.479160 1904.457764
0.960000 5.000000 -7.200000 57.089233 -0.986183 3260.153320
0.960000 5.000000 -7.160000 0.669884 16.627499 276.922455
0.960000 5.000000 -7.120000 -50.925217 -33.488091 3714.829834
0.960000 5.000000 -7.080000 -34.498802 -121.441345 15938.166992
0.960000 5.000000 -7.040000 60.799274 -171.203278 33007.113281
0.960000 5.000000 -7.000000 174.189682 -126.963982 46461.898438
0.960000 5.000000 -6.960000 221.325195 -7.010372 49033.988281
0.960000 5.000000 -6.920000 167.322647 108.356277 39737.953125
0.960000 5.000000 -6.880000 55.981617 145.205322 24218.527344
0.960000 5.000000 -6.840000 -31.558020 96.380531 10285.115234
0.960000 5.000000 -6.800000 -47.283798 18.851337 2591.130371
0.960000 5.040000 -7.200000 40.176861 39.018967 3136.659912
0.960000 5.040000 -7.160000 -17.341349 22.535276 808.561035
0.960000 5.040000 -7.120000 -35.589870 -45.999805 3382.621094
0.960000 5.040000 -7.080000 20.288626 -110.497192 12621.257812
0.960000 5.040000 -7.040000 120.362465 -104.916725 25494.642578
0.960000 5.040000 -7.000000 188.113068 -15.513231 35627.187500
0.960000 5.040000 -6.960000 165.788452 100.737610 37633.875000
0.960000 5.040000 -6.920000 66.246422 162.715805 30865.021484
0.960000 5.040000 -6.880000 -38.636250 134.213303 19505.970703
0.960000 5.040000 -6.840000 -81.434052 50.675724 9199.534180
0.960000 5.040000 -6.800000 -53.438217 -18.924614 3213.784180
0.960000 5.080000 -7.200000 2.901252 45.809441 2106.922119
0.960000 5.080000 -7.160000 -30.262592 6.688137 960.555725
0.960000 5.080000 -7.120000 -13.186129 -50.717388 2746.127441
0.960000 5.080000 -7.080000 53.648018 -72.972992 8203.167969
0.960000 5.080000 -7.040000 121.070267 -27.349442 15406.001953
0.960000 5.080000 -7.000000 129.919708 62.771790 20819.427734
0.960000 5.080000 -6.960000 64.347794 132.664001 21740.375000
0.960000 5.080000 -6.920000 -31.544357 130.862625 18120.074219
0.960000 5.080000 -6.880000 -91.273033 62.979679 12297.207031
0.960000 5.080000 -6.840000 -82.370277 -16.479919 7056.450684
0.960000 5.080000 -6.800000 -28.590246 -54.492176 3786.799316
0.960000 5.120000 -7.200000 -18.901546 22.008904 841.660278
0.960000 5.120000 -7.160000 -22.633141 -14.492201 722.282898
0.960000 5.120000 -7.120000 9.206269 -42.968365 1931.035767
0.960000 5.120000 -7.080000 57.662727 -32.729721 4396.224609
0.960000 5.120000 -7.040000 82.094955 18.370354 7077.051270
0.960000 5.120000 -7.000000 54.952896 75.267998 8685.091797
0.960000 5.120000 -6.960000 -10.402206 92.430267 8651.560547
0.960000 5.120000 -6.920000 -67.760567 53.534542 7457.441895
0.960000 5.120000 -6.880000 -76.756187 -13.569946 6075.655762
0.960000 5.120000 -6.840000 -36.298630 -61.506699 5100.664551
0.960000 5.120000 -6.800000 18.385330 -63.786728 4406.767090
0.960000 5.160000 -7.200000 -11.042993 -3.563486 134.646118
0.960000 5.160000 -7.160000 -0.698406 -21.111797 446.195740
0.960000 5.160000 -7.120000 23.167425 -25.580622 1191.097900
0.960000 5.160000 -7.080000 44.624702 -7.211527 2043.370117
0.960000 5.160000 -7.040000 43.046722 25.071333 2481.592041
0.960000 5.160000 -7.000000 13.120689 45.923248 2281.097412
0.960000 5.160000 -6.960000 -25.616802 34.175018 1824.152466
0.960000 5.160000 -6.920000 -42.381660 -6.398411 1837.144897
0.960000 5.160000 -6.880000 -21.488358 -47.530266 2720.875732
0.960000 5.160000 -6.840000 23.456095 -59.652828 4108.648438
0.960000 5.160000 -6.800000 61.567818 -36.412201 5116.444336
0.960000 5.200000 -7.200000 10.274193 -7.531162 162.277435
0.960000 5.200000 -7.160000 16.707113 -9.084819 361.661560
0.960000 5.200000 -7.120000 25.399275 -6.355765 685.518921
0.960000 5.200000 -7.080000 30.922531 3.942472 971.746033
0.960000 5.200000 -7.040000 25.306791 16.785267 922.178894
0.960000 5.200000 -7.000000 8.958382 19.694914 468.142212
0.960000 5.200000 -6.960000 -4.766285 4.899849 46.725990
0.960000 5.200000 -6.920000 0.445972 -19.468567 379.223969
0.960000 5.200000 -6.880000 27.424789 -32.964539 1838.779785
0.960000 5.200000 -6.840000 59.798889 -20.202494 3984.047852
0.960000 5.200000 -6.800000 74.501854 14.476830 5760.104980
1.000000 4.800000 -7.200000 -46.991825 79.493111 8527.386719
1.000000 4.800000 -7.160000 -88.382599 53.741085 10699.587891
1.000000 4.800000 -7.120000 -100.537544 2.548941 10114.294922
1.000000 4.800000 -7.080000 -73.932571 -40.791759 7129.992676
1.000000 4.800000 -7.040000 -31.136127 -50.265526 3496.081543
1.000000 4.800000 -7.000000 -4.583988 -30.760796 967.239502
1.000000 4.800000 -6.960000 -5.679756 -10.127914 134.834290
1.000000 4.800000 -6.920000 -17.353508 -9.262209 386.932739
1.000000 4.800000 -6.880000 -16.136379 -22.527313 767.862549
1.000000 4.800000 -6.840000 1.825554 -28.123753 794.278076
1.000000 4.800000 -6.800000 18.811085 -14.638775 568.150635
1.000000 4.840000 -7.200000 -77.421967 19.908846 6390.523438
1.000000 4.840000 -7.160000 -87.293854 -4.828314 7643.529297
1.000000 4.840000 -7.120000 -83.698166 -31.732485 8012.333496
1.000000 4.840000 -7.080000 -69.690628 -52.655067 7629.339844
1.000000 4.840000 -7.040000 -51.673973 -65.879883 7010.358398
1.000000 4.840000 -7.000000 -31.963245 -74.144196 6519.010742
1.000000 4.840000 -6.960000 -8.432961 -77.180695 6027.974121
1.000000 4.840000 -6.920000 17.985222 -69.273834 5122.332520
1.000000 4.840000 -6.880000 38.118320 -46.612961 3625.774414
1.000000 4.840000 -6.840000 40.341713 -16.268707 1892.124756
1.000000 4.840000 -6.800000 23.100895 5.409707 562.916321
1.000000 4.880000 -7.200000 -50.595070 -40.291962 4183.303223
1.000000 4.880000 -7.160000 -48.168777 -38.635841 3812.959473
1.000000 4.880000 -7.120000 -59.573452 -44.465820 5526.205078
1.000000 4.880000 -7.080000 -69.530586 -71.886955 10002.236328
1.000000 4.880000 -7.040000 -54.130692 -114.100212 15948.990234
1.000000 4.880000 -7.000000 -4.082649 -143.283829 20546.923828
1.000000 4.880000 -6.960000 61.361538 -131.995651 21188.089844
1.000000 4.880000 -6.920000 105.386353 -78.493950 17267.583984
1.000000 4.880000 -6.880000 102.476875 -12.135933 10648.791016
1.000000 4.880000 -6.840000 59.956425 28.314472 4396.482422
1.000000 4.880000 -6.800000 12.153028 25.263067 785.918701
1.000000 4.920000 -7.200000 10.140391 -55.301231 3161.053711
1.000000 4.920000 -7.160000 -6.556221 -31.199734 1016.407410
1.000000 4.920000 -7.120000 -44.698181 -44.664936 3992.883789
1.000000 4.920000 -7.080000 -57.104195 -102.900871 13849.478516
1.000000 4.920000 -7.040000 -8.462173 -165.649017 27511.205078
1.000000 4.920000 -7.000000 86.355499 -175.735977 38340.406250
1.000000 4.920000 -6.960000 167.999283 -110.548584 40444.750000
1.000000 4.920000 -6.920000 180.918427 -5.985207 32767.298828
1.000000 4.920000 -6.880000 120.710991 71.548927 19690.392578
1.000000 4.920000 -6.840000 36.606354 80.132889 7761.304688
1.000000 4.920000 -6.800000 -12.344109 33.870136 1299.563232
1.000000 4.960000 -7.200000 54.789371 -18.736301 3352.924316
1.000000 4.960000 -7.160000 6.448517 -1.470293 43.745132
1.000000 4.960000 -7.120000 -38.533199 -47.502716 3741.315430
1.000000 4.960000 -7.080000 -19.345148 -129.313049 17096.099609
1.000000 4.960000 -7.040000 75.184814 -174.012970 35933.269531
1.000000 4.960000 -7.000000 186.639923 -127.179779 51009.156250
1.000000 4.960000 -6.960000 232.599503 -6.077806 54139.468750
1.000000 4.960000 -6.920000 178.045166 110.584534 43929.023438
1.000000 4.960000 -6.880000 65.545258 148.942566 26480.070312
1.000000 4.960000 -6.840000 -23.821192 100.503738 10668.450195
1.000000 4.960000 -6.800000 -40.256256 21.806740 2096.100098
1.000000 5.000000 -7.200000 51.636070 33.161186 3765.947998
1.000000 5.000000 -7.160000 -9.854033 17.437265 401.160187
1.000000 5.000000 -7.120000 -28.989309 -57.034622 4093.328369
1.000000 5.000000 -7.080000 34.794449 -127.846725 17555.439453
1.000000 5.000000 -7.040000 148.845978 -119.939316 36540.562500
1.000000 5.000000 -7.000000 226.766037 -16.643370 51699.835938
1.000000 5.000000 -6.960000 202.185471 118.205612 54851.531250
1.000000 5.000000 -6.920000 88.457230 192.092957 44724.382812
1.000000 5.000000 -6.880000 -33.074448 162.421509 27474.666016
1.000000 5.000000 -6.840000 -84.553818 68.348694 11820.892578
1.000000 5.000000 -6.800000 -54.336823 -11.132599 3076.425049
1.000000 5.040000 -7.200000 12.686998 57.096733 3420.996826
1.000000 5.040000 -7.160000 -30.319742 9.594086 1011.333252
1.000000 5.040000 -7.120000 -8.806652 -63.588623 4121.069824
1.000000 5.040000 -7.080000 78.364006 -92.240997 14649.318359
1.000000 5.040000 -7.040000 167.678070 -32.246590 29155.777344
1.000000 5.040000 -7.000000 181.353516 87.239174 40499.769531
1.000000 5.040000 -6.960000 97.289062 182.295990 42696.992188
1.000000 5.040000 -6.920000 -28.534056 185.101227 35076.656250
1.000000 5.040000 -6.880000 -110.060516 101.202454 22355.253906
1.000000 5.040000 -6.840000 -104.050316 -0.131680 10826.485352
1.000000 5.040000 -6.800000 -39.524651 -50.252785 4087.540283
1.000000 5.080000 -7.200000 -22.847923 41.120506 2212.923584
1.000000 5.080000 -7.160000 -31.371096 -12.581194 1142.432129
1.000000 5.080000 -7.120000 15.640496 -56.302002 3414.540527
1.000000 5.080000 -7.080000 89.878647 -41.265228 9780.990234
1.000000 5.080000 -7.040000 128.850861 37.056686 17975.742188
1.000000 5.080000 -7.000000 89.845100 126.104393 23974.460938
1.000000 5.080000 -6.960000 -8.226582 157.310455 24814.255859
1.000000 5.080000 -6.920000 -97.474823 105.385658 20607.476562
1.000000 5.080000 -6.880000 -118.415527 9.811892 14118.510742
1.000000 5.080000 -6.840000 -68.293320 -61.564407 8454.154297
1.000000 5.080000 -6.800000 3.760700 -70.666855 5007.947266
1.000000 5.120000 -7.200000 -27.599747 9.629810 854.479248
1.000000 5.120000 -7.160000 -12.507744 -25.154219 789.178406
1.000000 5.120000 -7.120000 31.234913 -35.589607 2242.239990
1.000000 5.120000 -7.080000 71.705322 -2.123966 5146.164551
1.000000 5.120000 -7.040000 69.945808 57.981102 8254.224609
1.000000 5.120000 -7.000000 16.773537 98.647568 10012.694336
1.000000 5.120000 -6.960000 -53.464428 83.211792 9782.647461
1.000000 5.120000 -6.920000 -89.111526 18.167770 8270.931641
1.000000 5.120000 -6.880000 -64.822174 -50.828720 6785.472656
1.000000 5.120000 -6.840000 -1.704945 -77.846588 6062.998047
1.000000 5.120000 -6.800000 54.137463 -53.567440 5800.335449
1.000000 5.160000 -7.200000 -8.170578 -5.765595 100.000443
1.000000 5.160000 -7.160000 7.528198 -17.424706 360.294128
1.000000 5.160000 -7.120000 31.367304 -12.581459 1142.200928
1.000000 5.160000 -7.080000 44.737862 12.903700 2167.981689
1.000000 5.160000 -7.040000 30.912338 42.912529 2797.057617
1.000000 5.160000 -7.000000 -5.542717 50.821560 2613.552734
1.000000 5.160000 -6.960000 -37.236366 23.835163 1954.661987
1.000000 5.160000 -6.920000 -35.713329 -21.859753 1753.290649
1.000000 5.160000 -6.880000 2.711281 -52.164650 2728.501709
1.000000 5.160000 -6.840000 52.430916 -43.679398 4656.890625
1.000000 5.160000 -6.800000 80.342667 -2.832003 6462.963867
1.000000 5.200000 -7.200000 8.390116 2.887037 78.729027
1.000000 5.200000 -7.160000 12.254299 0.334647 150.279831
1.000000 5.200000 -7.120000 21.028830 2.002494 446.221649
1.000000 5.200000 -7.080000 26.738106 12.622900 874.263916
1.000000 5.200000 -7.040000 20.220318 25.019110 1034.817139
1.000000 5.200000 -7.000000 4.535404 25.264172 658.848267
1.000000 5.200000 -6.960000 -4.004969 8.643131 90.743492
1.000000 5.200000 -6.920000 8.905544 -11.368652 208.554977
1.000000 5.200000 -6.880000 39.098106 -13.062059 1699.279297
1.000000 5.200000 -6.840000 64.446541 12.997301 4322.286133
1.000000 5.200000 -6.800000 63.516605 53.598938 6907.205078
1.040000 4.800000 -7.200000 -77.064827 35.908569 7228.413086
1.040000 4.800000 -7.160000 -95.875786 -9.389116 9280.321289
1.040000 4.800000 -7.120000 -75.607422 -59.169327 9217.492188
1.040000 4.800000 -7.080000 -26.589668 -79.945671 7098.320801
1.040000 4.800000 -7.040000 17.373587 -61.470463 4080.459229
1.040000 4.800000 -7.000000 30.051617 -25.425293 1549.545166
1.040000 4.800000 -6.960000 15.364151 -3.038297 245.288376
1.040000 4.800000 -6.920000 -0.821438 -5.453091 30.410959
1.040000 4.800000 -6.880000 0.758512 -17.168503 295.332825
1.040000 4.800000 -6.840000 14.897587 -17.021893 511.682922
1.040000 4.800000 -6.800000 22.079369 -1.954462 491.318420
1.040000 4.840000 -7.200000 -69.021225 -26.759134 5479.980957
1.040000 4.840000 -7.160000 -61.620964 -53.832935 6695.127930
1.040000 4.840000 -7.120000 -40.208672 -73.897057 7077.512207
1.040000 4.840000 -7.080000 -13.156679 -80.170090 6600.341309
1.040000 4.840000 -7.040000 10.391174 -74.673264 5684.072754
1.040000 4.840000 -7.000000 27.641144 -63.599861 4808.975098
1.040000 4.840000 -6.960000 40.695915 -49.674065 4123.669922
1.040000 4.840000 -6.920000 49.443146 -31.250244 3421.202637
1.040000 4.840000 -6.880000 48.838623 -8.995575 2466.131592
1.040000 4.840000 -6.840000 35.265095 9.163878 1327.603638
1.040000 4.840000 -6.800000 14.620773 13.036978 383.729797
1.040000 4.880000 -7.200000 -15.933900 -58.777519 3708.686035
1.040000 4.880000 -7.160000 -12.145950 -56.418934 3330.620361
1.040000 4.880000 -7.120000 -14.724194 -64.894379 4428.082031
1.040000 4.880000 -7.080000 -6.519074 -86.885635 7591.612305
1.040000 4.880000 -7.040000 25.579441 -106.354790 11965.648438
1.040000 4.880000 -7.000000 74.302505 -99.791100 15479.125977
1.040000 4.880000 -6.960000 112.775894 -58.069355 16090.452148
1.040000 4.880000 -6.920000 114.858162 1.256065 13193.975586
1.040000 4.880000 -6.880000 78.144554 44.721722 8106.603516
1.040000 4.880000 -6.840000 28.126347 49.261978 3217.833740
1.040000 4.880000 -6.800000 -1.722500 20.921881 440.692108
1.040000 4.920000 -7.200000 38.728001 -37.486977 2905.131348
1.040000 4.920000 -7.160000 14.446260 -25.706181 869.502197
1.040000 4.920000 -7.120000 -8.141859 -53.238499 2900.627441
1.040000 4.920000 -7.080000 10.514585 -102.254730 10566.586914
1.040000 4.920000 -7.040000 77.239578 -124.740646 21526.181641
1.040000 4.920000 -7.000000 152.313583 -84.993721 30423.359375
1.040000 4.920000 -6.960000 179.785187 4.122749 32339.708984
1.040000 4.920000 -6.920000 136.275238 87.494888 26226.296875
1.040000 4.920000 -6.880000 52.626774 113.169357 15576.880859
1.040000 4.920000 -6.840000 -12.491505 75.432617 5846.117188
1.040000 4.920000 -6.800000 -22.254251 16.076050 753.691101
1.040000 4.960000 -7.200000 53.138344 14.418407 3031.573975
1.040000 4.960000 -7.160000 5.701464 4.494560 52.707760
1.040000 4.960000 -7.120000 -7.676323 -53.697304 2942.326416
1.040000 4.960000 -7.080000 46.936401 -108.346924 13942.082031
1.040000 4.960000 -7.040000 142.066925 -96.939026 29580.187500
1.040000 4.960000 -7.000000 205.131989 -6.106817 42116.425781
1.040000 4.960000 -6.960000 180.689758 109.620903 44665.531250
1.040000 4.960000 -6.920000 81.053680 171.678650 36043.257812
1.040000 4.960000 -6.880000 -23.552254 144.389832 21403.132812
1.040000 4.960000 -6.840000 -66.116104 62.473488 8274.276367
1.040000 4.960000 -6.800000 -37.211628 -4.710165 1406.890869
1.040000 5.000000 -7.200000 23.281929 52.120750 3258.620605
1.040000 5.000000 -7.160000 -18.313997 8.582310 409.058533
1.040000 5.000000 -7.120000 2.978722 -60.722191 3696.057373
1.040000 5.000000 -7.080000 88.496841 -86.277725 15275.537109
1.040000 5.000000 -7.040000 175.375458 -24.642862 31363.822266
1.040000 5.000000 -7.000000 186.942551 94.902390 43953.980469
1.040000 5.000000 -6.960000 102.064468 189.195419 46212.062500
1.040000 5.000000 -6.920000 -23.144375 191.682053 37277.671875
1.040000 5.000000 -6.880000 -103.444733 108.905418 22561.203125
1.040000 5.000000 -6.840000 -96.832237 10.335281 9483.300781
1.040000 5.000000 -6.800000 -33.478687 -35.930405 2411.816406
1.040000 5.040000 -7.200000 -18.178476 50.042999 2834.758789
1.040000 5.040000 -7.160000 -28.920368 -9.461842 925.914124
1.040000 5.040000 -7.120000 24.383392 -57.926392 3950.016602
1.040000 5.040000 -7.080000 108.641541 -38.833469 13311.022461
1.040000 5.040000 -7.040000 151.786514 52.375504 25782.339844
1.040000 5.040000 -7.000000 105.655380 154.866364 35146.648438
1.040000 5.040000 -6.960000 -7.046223 190.833527 36467.082031
1.040000 5.040000 -6.920000 -108.911201 132.896149 29523.035156
1.040000 5.040000 -6.880000 -133.730286 26.811283 18602.634766
1.040000 5.040000 -6.840000 -80.105942 -51.257862 9044.330078
1.040000 5.040000 -6.800000 -4.134989 -60.266899 3649.197266
1.040000 5.080000 -7.200000 -36.159740 20.967543 1747.164673
1.040000 5.080000 -7.160000 -17.030674 -25.665052 948.738770
1.040000 5.080000 -7.120000 41.525543 -38.267193 3188.748779
1.040000 5.080000 -7.080000 94.273087 8.909346 8966.791016
1.040000 5.080000 -7.040000 89.049164 90.401413 16102.168945
1.040000 5.080000 -7.000000 15.999241 144.089859 21017.863281
1.040000 5.080000 -6.960000 -77.763611 123.537048 21308.582031
1.040000 5.080000 -6.920000 -125.717667 39.795879 17388.644531
1.040000 5.080000 -6.880000 -97.975105 -47.736664 11877.910156
1.040000 5.080000 -6.840000 -23.436676 -82.819672 7408.375977
1.040000 5.080000 -6.800000 40.712315 -56.895088 4894.543457
1.040000 5.120000 -7.200000 -24.668921 -2.742829 616.078796
1.040000 5.120000 -7.160000 2.162786 -23.074102 537.091858
1.040000 5.120000 -7.120000 41.125767 -12.144361 1838.814209
1.040000 5.120000 -7.080000 58.555683 32.162491 4463.193848
1.040000 5.120000 -7.040000 30.652229 79.310112 7229.652832
1.040000 5.120000 -7.000000 -29.999386 88.238945 8686.074219
1.040000 5.120000 -6.960000 -79.647850 44.273216 8303.897461
1.040000 5.120000 -6.920000 -79.152222 -24.767212 6878.489258
1.040000 5.120000 -6.880000 -27.684975 -70.555023 5744.469238
1.040000 5.120000 -6.840000 37.582191 -64.508461 5573.762695
1.040000 5.120000 -6.800000 74.658684 -18.576145 5918.992188
1.040000 5.160000 -7.200000 -5.906374 -3.040230 44.128250
1.040000 5.160000 -7.160000 9.023634 -7.115901 132.062027
1.040000 5.160000 -7.120000 25.683113 4.041988 675.959961
1.040000 5.160000 -7.080000 27.401228 28.132839 1542.283936
1.040000 5.160000 -7.040000 5.947117 46.243042 2173.787109
1.040000 5.160000 -7.000000 -25.278542 38.251904 2102.212891
1.040000 5.160000 -6.960000 -38.976635 4.061035 1535.670166
1.040000 5.160000 -6.920000 -18.050831 -31.888096 1342.683105
1.040000 5.160000 -6.880000 26.998936 -39.890572 2320.200195
1.040000 5.160000 -6.840000 65.454361 -10.636131 4397.400879
1.040000 5.160000 -6.800000 71.996902 37.313454 6575.848145
1.040000 5.200000 -7.200000 -2.476089 9.754146 101.274376
1.040000 5.200000 -7.160000 0.252958 4.139451 17.199043
1.040000 5.200000 -7.120000 9.605103 4.587725 113.305229
1.040000 5.200000 -7.080000 14.961834 14.557943 435.790192
1.040000 5.200000 -7.040000 8.553284 24.460827 671.490723
1.040000 5.200000 -7.000000 -3.121666 21.967506 492.316162
1.040000 5.200000 -6.960000 -4.190407 7.699883 76.847702
1.040000 5.200000 -6.920000 13.233986 -2.050394 179.342499
1.040000 5.200000 -6.880000 37.900993 9.653761 1529.680420
1.040000 5.200000 -6.840000 47.572586 42.531612 4072.088867
1.040000 5.200000 -6.800000 29.126009 77.182152 6805.408691
1.080000 4.800000 -7.200000 -69.011780 -8.473930 4834.433594
1.080000 4.800000 -7.160000 -60.083748 -52.381126 6353.838867
1.080000 4.800000 -7.120000 -18.836960 -80.190720 6785.382324
1.080000 4.800000 -7.080000 30.739391 -70.852043 5964.922363
1.080000 4.800000 -7.040000 57.008537 -31.992680 4273.504883
1.080000 4.800000 -7.000000 48.389469 6.899809 2389.148193
1.080000 4.800000 -6.960000 21.515839 21.476933 924.189941
1.080000 4.800000 -6.920000 2.697210 12.449585 162.267120
1.080000 4.800000 -6.880000 2.919432 -0.349651 8.645338
1.080000 4.800000 -6.840000 11.595987 -1.042881 135.554520
1.080000 4.800000 -6.800000 12.863919 7.503386 221.781219
1.080000 4.840000 -7.200000 -35.754852 -48.674198 3647.586914
1.080000 4.840000 -7.160000 -15.411890 -66.446701 4652.690430
1.080000 4.840000 -7.120000 13.625284 -70.234802 5118.575684
1.080000 4.840000 -7.080000 39.525856 -57.532745 4872.310059
1.080000 4.840000 -7.040000 53.204762 -35.427292 4085.839600
1.080000 4.840000 -7.000000 54.200150 -13.779171 3127.521729
1.080000 4.840000 -6.960000 47.830589 2.347431 2293.275879
1.080000 4.840000 -6.920000 38.295792 13.279312 1642.907715
1.080000 4.840000 -6.880000 26.283213 19.542271 1072.707520
1.080000 4.840000 -6.840000 12.995537 18.848289 524.141968
1.080000 4.840000 -6.800000 3.910418 9.804831 111.426071
1.080000 4.880000 -7.200000 14.846935 -47.083008 2437.240967
1.080000 4.880000 -7.160000 19.146358 -43.969570 2299.906250
1.080000 4.880000 -7.120000 24.231337 -48.320068 2921.986816
1.080000 4.880000 -7.080000 40.158722 -54.544327 4587.806641
1.080000 4.880000 -7.040000 66.940826 -48.681690 6850.981445
1.080000 4.880000 -7.000000 90.367409 -21.494343 8628.275391
1.080000 4.880000 -6.960000 91.832428 19.789818 8824.832031
1.080000 4.880000 -6.920000 65.085533 53.489182 7097.218750
1.080000 4.880000 -6.880000 24.499195 59.795570 4175.720703
1.080000 4.880000 -6.840000 -4.395199 37.788601 1447.296143
1.080000 4.880000 -6.800000 -5.111732 7.326591 79.808746
1.080000 4.920000 -7.200000 42.251682 -8.475622 1857.040894
1.080000 4.920000 -7.160000 21.409494 -10.450537 567.580200
1.080000 4.920000 -7.120000 18.384304 -37.136940 1717.135010
1.080000 4.920000 -7.080000 50.880112 -60.058537 6195.813477
1.080000 4.920000 -7.040000 102.572739 -45.579365 12598.645508
1.080000 4.920000 -7.000000 132.687622 11.851154 17746.455078
1.080000 4.920000 -6.960000 111.275742 79.607147 18719.589844
1.080000 4.920000 -6.920000 47.853069 112.355782 14913.737305
1.080000 4.920000 -6.880000 -14.685892 90.929108 8483.778320
1.080000 4.920000 -6.840000 -36.366119 38.463768 2801.956055
1.080000 4.920000 -6.800000 -13.060244 -1.110447 171.803055
1.080000 4.960000 -7.200000 28.926281 32.245796 1876.521118
1.080000 4.960000 -7.160000 0.619474 4.602701 21.568607
1.080000 4.960000 -7.120000 16.278151 -40.919182 1939.357544
1.080000 4.960000 -7.080000 76.308632 -54.959126 8843.512695
1.080000 4.960000 -7.040000 135.480087 -7.412701 18409.800781
1.080000 4.960000 -7.000000 139.531036 79.588806 25803.289062
1.080000 4.960000 -6.960000 74.851303 145.893005 26887.488281
1.080000 4.960000 -6.920000 -16.505001 144.516388 21157.402344
1.080000 4.960000 -6.880000 -72.384323 82.273438 12008.408203
1.080000 4.960000 -6.840000 -63.558094 11.687485 4176.228516
1.080000 4.960000 -6.800000 -14.721664 -16.903402 502.452393
1.080000 5.000000 -7.200000 -6.717659 43.739513 1958.271973
1.080000 5.000000 -7.160000 -16.246284 -4.924036 288.187897
1.080000 5.000000 -7.120000 28.489317 -44.088455 2755.433105
1.080000 5.000000 -7.080000 98.739281 -25.820511 10416.144531
1.080000 5.000000 -7.040000 133.168411 52.892059 20531.396484
1.080000 5.000000 -7.000000 91.787689 139.679352 27935.300781
1.080000 5.000000 -6.960000 -4.773753 168.930084 28560.162109
1.080000 5.000000 -6.920000 -90.260628 118.989922 22305.582031
1.080000 5.000000 -6.880000 -109.500824 30.354450 12911.823242
1.080000 5.000000 -6.840000 -63.538578 -31.950653 5057.995117
1.080000 5.000000 -6.800000 -2.076340 -34.644951 1204.583740
1.080000 5.040000 -7.200000 -31.760139 25.088509 1638.139771
1.080000 5.040000 -7.160000 -13.139345 -20.617990 597.743896
1.080000 5.040000 -7.120000 44.710804 -31.610794 2998.298340
1.080000 5.040000 -7.080000 95.581192 16.952055 9423.136719
1.080000 5.040000 -7.040000 88.099663 98.258614 17416.304688
1.080000 5.040000 -7.000000 14.304445 150.528015 22863.300781
1.080000 5.040000 -6.960000 -78.077538 129.563461 22882.792969
1.080000 5.040000 -6.920000 -124.486481 48.376183 17837.138672
1.080000 5.040000 -6.880000 -98.161819 -34.323086 10813.817383
1.080000 5.040000 -6.840000 -29.462063 -65.555038 5165.476074
1.080000 5.040000 -6.800000 26.134277 -40.167019 2296.389893
1.080000 5.080000 -7.200000 -30.689526 0.923692 942.700195
1.080000 5.080000 -7.160000 1.623256 -22.568470 511.970795
1.080000 5.080000 -7.120000 46.814255 -7.105226 2242.058594
1.080000 5.080000 -7.080000 63.905022 46.764137 6270.736328
1.080000 5.080000 -7.040000 27.446672 100.798378 10913.632812
1.080000 5.080000 -7.000000 -44.478573 108.452866 13740.368164
1.080000 5.080000 -6.960000 -100.898987 56.573177 13381.129883
1.080000 5.080000 -6.920000 -100.289421 -20.687311 10485.932617
1.080000 5.080000 -6.880000 -45.558674 -70.337433 7022.947266
1.080000 5.080000 -6.840000 21.009607 -64.774094 4637.086914
1.080000 5.080000 -6.800000 56.313972 -20.473194 3590.415039
1.080000 5.120000 -7.200000 -15.839693 -6.735479 296.262573
1.080000 5.120000 -7.160000 8.690736 -10.183676 179.236145
1.080000 5.120000 -7.120000 30.046974 11.091302 1025.837646
1.080000 5.120000 -7.080000 25.017860 46.552975 2793.072754
1.080000 5.120000 -7.040000 -11.271458 67.018982 4618.589844
1.080000 5.120000 -7.000000 -55.074890 49.370998 5470.738770
1.080000 5.120000 -6.960000 -71.055321 0.023796 5048.858887
1.080000 5.120000 -6.920000 -42.846138 -47.101097 4054.304932
1.080000 5.120000 -6.880000 11.841684 -58.239632 3532.080322
1.080000 5.120000 -6.840000 56.316269 -27.428009 3923.817871
1.080000 5.120000 -6.800000 65.495247 21.359228 4745.844238
1.080000 5.160000 -7.200000 -8.970877 0.817067 81.144226
1.080000 5.160000 -7.160000 0.489507 0.382140 0.385648
1.080000 5.160000 -7.120000 8.488187 10.168435 175.446381
1.080000 5.160000 -7.080000 3.935463 24.817419 631.392151
1.080000 5.160000 -7.040000 -13.733501 29.272839 1045.508179
1.080000 5.160000 -7.000000 -29.478247 13.957954 1063.791504
1.080000 5.160000 -6.960000 -24.813650 -12.402538 769.540161
1.080000 5.160000 -6.920000 3.624481 -27.336382 760.414612
1.080000 5.160000 -6.880000 38.178608 -14.000858 1653.630127
1.080000 5.160000 -6.840000 54.021942 23.223997 3457.724121
1.080000 5.160000 -6.800000 39.726322 62.216812 5449.112305
1.080000 5.200000 -7.200000 -16.558868 5.450765 303.906982
1.080000 5.200000 -7.160000 -11.717421 -3.523540 149.713287
1.080000 5.200000 -7.120000 -0.372549 -3.799942 14.578352
1.080000 5.200000 -7.080000 6.028608 5.273054 64.149216
1.080000 5.200000 -7.040000 2.501654 13.526196 189.216232
1.080000 5.200000 -7.000000 -3.251133 12.429821 165.070328
1.080000 5.200000 -6.960000 0.276871 6.204007 38.566360
1.080000 5.200000 -6.920000 14.049381 8.478834 269.275757
1.080000 5.200000 -6.880000 24.916939 27.424351 1372.948853
1.080000 5.200000 -6.840000 17.490740 55.306381 3364.721924
1.080000 5.200000 -6.800000 -10.705602 73.874321 5572.025391
1.120000 4.800000 -7.200000 -39.768253 -28.629951 2401.187988
1.120000 4.800000 -7.160000 -14.128349 -54.540245 3174.248779
1.120000 4.800000 -7.120000 26.812010 -55.446808 3793.232178
1.120000 4.800000 -7.080000 57.990711 -26.469540 4063.559082
1.120000 4.800000 -7.040000 59.853973 14.662428 3797.484863
1.120000 4.800000 -7.000000 34.809048 42.028542 2978.068115
1.120000 4.800000 -6.960000 3.803045 42.924469 1856.973145
1.120000 4.800000 -6.920000 -12.955626 25.948406 841.168030
1.120000 4.800000 -6.880000 -11.835007 9.470638 229.760376
1.120000 4.800000 -6.840000 -3.944433 3.770212 29.773052
1.120000 4.800000 -6.800000 -0.237083 4.848220 23.561443
1.120000 4.840000 -7.200000 -6.086609 -41.538406 1762.485962
1.120000 4.840000 -7.160000 16.902706 -45.572029 2362.511230
1.120000 4.840000 -7.120000 40.548897 -34.126419 2808.825439
1.120000 4.840000 -7.080000 53.144966 -10.125414 2926.911377
1.120000 4.840000 -7.040000 49.148605 15.425277 2653.524658
1.120000 4.840000 -7.000000 32.865086 31.628702 2080.488770
1.120000 4.840000 -6.960000 13.956188 34.737160 1401.445435
1.120000 4.840000 -6.920000 0.084484 28.247639 797.936218
1.120000 4.840000 -6.880000 -6.308350 17.810694 357.016113
1.120000 4.840000 -6.840000 -5.828744 7.347074 87.953743
1.120000 4.840000 -6.800000 0.714787 -0.420092 0.687397
1.120000 4.880000 -7.200000 22.769295 -23.586399 1074.759033
1.120000 4.880000 -7.160000 27.491793 -19.670916 1142.743530
1.120000 4.880000 -7.120000 34.471050 -16.421402 1457.915771
1.120000 4.880000 -7.080000 44.421783 -8.703133 2049.039307
1.120000 4.880000 -7.040000 51.832520 7.556450 2743.709961
1.120000 4.880000 -7.000000 48.296417 29.437351 3199.101562
1.120000 4.880000 -6.960000 30.365402 46.489838 3083.362549
1.120000 4.880000 -6.920000 5.072329 47.860828 2316.387451
1.120000 4.880000 -6.880000 -13.124004 31.977201 1194.780884
1.120000 4.880000 -6.840000 -13.037205 9.897427 267.927765
1.120000 4.880000 -6.800000 3.627222 -1.943070 16.932259
1.120000 4.920000 -7.200000 25.238586 7.011999 686.154419
1.120000 4.920000 -7.160000 15.787581 -0.962402 250.173950
1.120000 4.920000 -7.120000 23.957010 -14.872286 795.123230
1.120000 4.920000 -7.080000 48.400650 -14.323691 2547.791016
1.120000 4.920000 -7.040000 69.063164 11.604847 4904.393066
1.120000 4.920000 -7.000000 63.637833 51.117378 6662.759766
1.120000 4.920000 -6.960000 28.935823 77.078156 6778.323730
1.120000 4.920000 -6.920000 -13.606518 70.210327 5114.627441
1.120000 4.920000 -6.880000 -35.081139 36.926308 2594.238525
1.120000 4.920000 -6.840000 -23.960552 4.516483 594.506653
1.120000 4.920000 -6.800000 4.397301 -2.470307 25.438673
1.120000 4.960000 -7.200000 4.951545 24.257843 612.960754
1.120000 4.960000 -7.160000 -0.031483 -1.559361 2.432596
1.120000 4.960000 -7.120000 25.276163 -21.227442 1089.488647
1.120000 4.960000 -7.080000 63.750229 -8.088465 4129.515137
1.120000 4.960000 -7.040000 80.499306 38.432713 7957.211426
1.120000 4.960000 -7.000000 53.734566 87.616882 10564.122070
1.120000 4.960000 -6.960000 -3.192642 102.154663 10445.768555
1.120000 4.960000 -6.920000 -51.188198 71.135864 7680.542969
1.120000 4.960000 -6.880000 -58.915180 20.083389 3874.341064
1.120000 4.960000 -6.840000 -29.272278 -11.952028 999.717285
1.120000 4.960000 -6.800000 5.700148 -6.436007 73.913879
1.120000 5.000000 -7.200000 -16.321972 18.749741 617.959534
1.120000 5.000000 -7.160000 -3.057789 -12.038446 154.274261
1.120000 5.000000 -7.120000 36.882401 -18.208828 1691.872925
1.120000 5.000000 -7.080000 71.184250 16.721840 5346.817383
1.120000 5.000000 -7.040000 64.760010 73.574188 9607.019531
1.120000 5.000000 -7.000000 12.914212 109.660446 12192.190430
1.120000 5.000000 -6.960000 -50.868938 95.178513 11646.597656
1.120000 5.000000 -6.920000 -82.269394 40.150352 8380.304688
1.120000 5.000000 -6.880000 -64.003525 -14.236633 4299.132812
1.120000 5.000000 -6.840000 -18.723961 -31.907928 1368.702637
1.120000 5.000000 -6.800000 14.142236 -11.314369 328.017792
1.120000 5.040000 -7.200000 -21.944618 2.994016 490.530426
1.120000 5.040000 -7.160000 5.305455 -15.291122 261.966278
1.120000 5.040000 -7.120000 42.113522 -0.905289 1774.368286
1.120000 5.040000 -7.080000 54.826405 44.436501 4980.537109
1.120000 5.040000 -7.040000 23.715248 88.863930 8459.210938
1.120000 5.040000 -7.000000 -35.468163 95.128433 10307.409180
1.120000 5.040000 -6.960000 -81.452057 53.837624 9532.927734
1.120000 5.040000 -6.920000 -81.942917 -6.736164 6760.017578
1.120000 5.040000 -6.880000 -40.774376 -44.662270 3657.268066
1.120000 5.040000 -6.840000 7.625190 -39.697670 1634.048584
1.120000 5.040000 -6.800000 29.985008 -7.018742 948.363464
1.120000 5.080000 -7.200000 -14.956411 -5.387397 252.718292
1.120000 5.080000 -7.160000 10.093468 -6.705375 146.840149
1.120000 5.080000 -7.120000 29.424446 16.758141 1146.633301
1.120000 5.080000 -7.080000 21.246155 52.009514 3156.388672
1.120000 5.080000 -7.040000 -16.377220 70.284210 5208.083496
1.120000 5.080000 -7.000000 -58.934048 51.566956 6132.373047
1.120000 5.080000 -6.960000 -73.918579 4.482100 5484.045898
1.120000 5.080000 -6.920000 -48.693218 -38.812881 3877.469238
1.120000 5.080000 -6.880000 -1.439104 -49.243214 2426.965088
1.120000 5.080000 -6.840000 35.178112 -24.236353 1824.900391
1.120000 5.080000 -6.800000 41.568832 13.454256 1908.984741
1.120000 5.120000 -7.200000 -10.294199 -2.736935 113.461349
1.120000 5.120000 -7.160000 2.083096 1.808033 7.608273
1.120000 5.120000 -7.120000 6.761228 17.514774 352.481537
1.120000 5.120000 -7.080000 -5.437481 33.243057 1134.666992
1.120000 5.120000 -7.040000 -29.264767 32.581593 1917.986816
1.120000 5.120000 -7.000000 -45.759117 9.970665 2193.310791
1.120000 5.120000 -6.960000 -37.821846 -20.953724 1869.550537
1.120000 5.120000 -6.920000 -6.520367 -36.851372 1400.538696
1.120000 5.120000 -6.880000 28.241383 -24.255846 1385.921753
1.120000 5.120000 -6.840000 43.978004 9.273615 2020.064697
1.120000 5.120000 -6.800000 33.379520 42.647682 2933.017090
1.120000 5.160000 -7.200000 -15.612303 -0.547946 244.044250
1.120000 5.160000 -7.160000 -10.913514 -2.885605 127.431511
1.120000 5.160000 -7.120000 -6.185078 0.401859 38.416676
1.120000 5.160000 -7.080000 -7.496063 5.663275 88.263641
1.120000 5.160000 -7.040000 -13.356000 4.912504 202.515442
1.120000 5.160000 -7.000000 -14.453912 -4.082817 225.584961
1.120000 5.160000 -6.960000 -3.333971 -12.803617 175.047958
1.120000 5.160000 -6.920000 16.021675 -8.767946 333.570953
1.120000 5.160000 -6.880000 29.561405 12.131801 1021.057251
1.120000 5.160000 -6.840000 24.903008 40.389206 2251.447754
1.120000 5.160000 -6.800000 1.920152 60.254639 3634.308594
1.120000 5.200000 -7.200000 -22.640804 -9.491773 602.699768
1.120000 5.200000 -7.160000 -13.038017 -18.834435 524.725830
1.120000 5.200000 -7.120000 0.972281 -17.513269 307.659943
1.120000 5.200000 -7.080000 9.225044 -7.385267 139.643616
1.120000 5.200000 -7.040000 8.941746 2.747431 87.503197
1.120000 5.200000 -7.000000 6.119926 7.594504 95.129990
1.120000 5.200000 -6.960000 6.963905 10.812729 165.411087
1.120000 5.200000 -6.920000 9.567083 19.578581 474.849915
1.120000 5.200000 -6.880000 5.359859 34.811195 1240.547485
1.120000 5.200000 -6.840000 -11.407244 48.203934 2453.744385
1.120000 5.200000 -6.800000 -36.659576 49.300274 3774.441650
1.160000 4.800000 -7.200000 -14.650938 -23.592901 771.274963
1.160000 4.800000 -7.160000 10.054847 -28.855988 933.767944
1.160000 4.800000 -7.120000 34.749802 -14.153427 1407.868164
1.160000 4.800000 -7.080000 43.318443 15.466316 2115.694580
1.160000 4.800000 -7.040000 29.027262 43.382114 2724.589844
1.160000 4.800000 -7.000000 0.472387 53.571594 2870.138916
1.160000 4.800000 -6.960000 -25.090401 42.499557 2435.740723
1.160000 4.800000 -6.920000 -34.976120 20.352816 1637.566040
1.160000 4.800000 -6.880000 -29.077705 1.351241 847.338806
1.160000 4.800000 -6.840000 -16.446001 -7.200624 322.319946
1.160000 4.800000 -6.800000 -5.529517 -7.458889 86.210587
1.160000 4.840000 -7.200000 3.743120 -23.182882 551.456970
1.160000 4.840000 -7.160000 20.241901 -17.335302 710.247253
1.160000 4.840000 -7.120000 31.255856 -0.155788 976.952820
1.160000 4.840000 -7.080000 28.802713 21.808817 1305.220825
1.160000 4.840000 -7.040000 12.540584 37.386269 1554.999268
1.160000 4.840000 -7.000000 -9.240772 38.645145 1578.839111
1.160000 4.840000 -6.960000 -25.354717 26.262074 1332.558228
1.160000 4.840000 -6.920000 -29.041615 8.195380 910.579590
1.160000 4.840000 -6.880000 -21.044159 -6.324229 482.852509
1.160000 4.840000 -6.840000 -7.102449 -11.993931 194.299164
1.160000 4.840000 -6.800000 6.497153 -8.404693 112.851852
1.160000 4.880000 -7.200000 13.071043 -10.557349 282.309784
1.160000 4.880000 -7.160000 17.748688 -5.252926 342.609161
1.160000 4.880000 -7.120000 20.629169 3.335844 436.690491
1.160000 4.880000 -7.080000 18.728050 13.995959 546.626709
1.160000 4.880000 -7.040000 10.547305 22.933626 637.196899
1.160000 4.880000 -7.000000 -2.017303 25.604113 659.640076
1.160000 4.880000 -6.960000 -13.688090 19.672848 574.384766
1.160000 4.880000 -6.920000 -18.229042 7.384057 386.822266
1.160000 4.880000 -6.880000 -12.373510 -4.556499 173.865433
1.160000 4.880000 -6.840000 1.207088 -8.310806 70.526566
1.160000 4.880000 -6.800000 14.370232 0.018059 206.503876
1.160000 4.920000 -7.200000 9.531687 1.221061 92.344040
1.160000 4.920000 -7.160000 10.090066 -2.323997 107.210396
1.160000 4.920000 -7.120000 16.423561 -2.738520 277.232849
1.160000 4.920000 -7.080000 23.209888 4.792179 561.663879
1.160000 4.920000 -7.040000 22.455149 18.270456 838.043274
1.160000 4.920000 -7.000000 10.873928 28.919243 954.564941
1.160000 4.920000 -6.960000 -5.608372 28.079264 819.898926
1.160000 4.920000 -6.920000 -15.463307 15.555653 481.092224
1.160000 4.920000 -6.880000 -11.332015 1.376805 130.310165
1.160000 4.920000 -6.840000 2.626441 -1.930242 10.624022
1.160000 4.920000 -6.800000 13.183460 9.699085 267.875885
1.160000 4.960000 -7.200000 1.386493 3.945098 17.486162
1.160000 4.960000 -7.160000 7.854465 -5.737844 94.615463
1.160000 4.960000 -7.120000 22.769203 -5.654633 550.411438
1.160000 4.960000 -7.080000 34.474617 9.106088 1271.420044
1.160000 4.960000 -7.040000 30.827419 31.107004 1917.975464
1.160000 4.960000 -7.000000 10.661322 44.810394 2121.635254
1.160000 4.960000 -6.960000 -13.303360 39.551270 1741.282349
1.160000 4.960000 -6.920000 -24.383377 19.703094 982.760986
1.160000 4.960000 -6.880000 -16.576059 1.721952 277.730865
1.160000 4.960000 -6.840000 -0.141562 -0.209503 0.063931
1.160000 4.960000 -6.800000 7.622683 13.137054 230.687485
1.160000 5.000000 -7.200000 -2.322945 0.915738 6.234650
1.160000 5.000000 -7.160000 11.776115 -5.459578 168.483887
1.160000 5.000000 -7.120000 29.082474 3.278286 856.537415
1.160000 5.000000 -7.080000 34.885773 26.025478 1894.342529
1.160000 5.000000 -7.040000 20.278904 48.613853 2774.540527
1.160000 5.000000 -7.000000 -8.077605 53.975426 2978.594482
1.160000 5.000000 -6.960000 -31.473824 37.078312 2365.402832
1.160000 5.000000 -6.920000 -34.464630 10.387434 1295.709473
1.160000 5.000000 -6.880000 -18.256668 -6.382256 374.039124
1.160000 5.000000 -6.840000 0.714658 -3.332602 11.616968
1.160000 5.000000 -6.800000 5.961869 11.661321 171.530289
1.160000 5.040000 -7.200000 -1.728391 0.071072 2.992387
1.160000 5.040000 -7.160000 12.520073 2.101300 161.167694
1.160000 5.040000 -7.120000 22.504776 17.161963 800.997925
1.160000 5.040000 -7.080000 17.163462 38.251450 1757.757812
1.160000 5.040000 -7.040000 -4.643457 50.207241 2542.328857
1.160000 5.040000 -7.000000 -30.175251 41.920944 2667.911377
1.160000 5.040000 -6.960000 -41.766209 17.180334 2039.580078
1.160000 5.040000 -6.920000 -31.688105 -7.055617 1053.917725
1.160000 5.040000 -6.880000 -9.024395 -14.597613 294.530029
1.160000 5.040000 -6.840000 8.437174 -3.493385 83.389648
1.160000 5.040000 -6.800000 9.771191 13.613626 280.806946
1.160000 5.080000 -7.200000 -3.858896 2.834844 22.927418
1.160000 5.080000 -7.160000 3.169883 8.536472 82.919518
1.160000 5.080000 -7.120000 4.040616 20.137936 421.863007
1.160000 5.080000 -7.080000 -5.893641 30.476021 963.522827
1.160000 5.080000 -7.040000 -22.788279 29.806980 1407.761719
1.160000 5.080000 -7.000000 -34.875488 15.085337 1443.867065
1.160000 5.080000 -6.960000 -31.705257 -5.221249 1032.484741
1.160000 5.080000 -6.920000 -13.841661 -16.820702 474.527588
1.160000 5.080000 -6.880000 6.683270 -11.421329 175.112869
1.160000 5.080000 -6.840000 16.312101 6.413926 307.223114
1.160000 5.080000 -6.800000 10.938674 23.939959 692.776245
1.160000 5.120000 -7.200000 -11.786133 2.104019 143.339828
1.160000 5.120000 -7.160000 -10.434573 2.901406 117.298477
1.160000 5.120000 -7.120000 -10.424650 5.360992 137.413574
1.160000 5.120000 -7.080000 -13.758894 6.789918 235.410141
1.160000 5.120000 -7.040000 -18.045286 3.248016 336.181976
1.160000 5.120000 -7.000000 -17.330490 -4.943308 324.782166
1.160000 5.120000 -6.960000 -8.077213 -11.389915 194.971558
1.160000 5.120000 -6.920000 5.896821 -8.500813 107.036316
1.160000 5.120000 -6.880000 15.376412 5.285638 264.372009
1.160000 5.120000 -6.840000 13.226690 23.387316 721.911865
1.160000 5.120000 -6.800000 0.091881 36.359093 1321.992065
1.160000 5.160000 -7.200000 -18.624182 -8.346788 416.529022
1.160000 5.160000 -7.160000 -14.173002 -14.391291 407.983246
1.160000 5.160000 -7.120000 -6.279800 -15.757568 287.736847
1.160000 5.160000 -7.080000 0.314501 -12.365377 153.001465
1.160000 5.160000 -7.040000 3.878587 -7.536713 71.845474
1.160000 5.160000 -7.000000 6.373930 -3.176326 50.716030
1.160000 5.160000 -6.960000 9.503181 2.460547 96.364731
1.160000 5.160000 -6.920000 11.255724 11.946520 269.410645
1.160000 5.160000 -6.880000 7.257369 24.351561 645.667908
1.160000 5.160000 -6.840000 -4.654819 34.639206 1221.541992
1.160000 5.160000 -6.800000 -21.759869 37.496952 1879.513184
1.160000 5.200000 -7.200000 -14.035007 -24.272209 786.121582
1.160000 5.200000 -7.160000 -0.799707 -29.404465 865.262085
1.160000 5.200000 -7.120000 13.737467 -24.007940 765.099243
1.160000 5.200000 -7.080000 21.900764 -10.882162 598.064941
1.160000 5.200000 -7.040000 21.585016 3.314684 476.900055
1.160000 5.200000 -7.000000 15.831079 14.218604 452.791779
1.160000 5.200000 -6.960000 7.999432 21.819796 540.094360
1.160000 5.200000 -6.920000 -1.468854 27.498714 758.336853
1.160000 5.200000 -6.880000 -13.657000 30.574636 1121.322021
1.160000 5.200000 -6.840000 -27.904190 28.521267 1592.106445
1.160000 5.200000 -6.800000 -40.990463 19.932884 2077.537842
1.200000 4.800000 -7.200000 -5.913326 -9.228107 120.125389
1.200000 4.800000 -7.160000 5.972929 -3.851647 50.511066
1.200000 4.800000 -7.120000 12.823668 9.678175 258.113525
1.200000 4.800000 -7.080000 8.874650 26.526688 782.424561
1.200000 4.800000 -7.040000 -6.697204 37.876247 1479.462646
1.200000 4.800000 -7.000000 -27.447655 36.139286 2059.421875
1.200000 4.800000 -6.960000 -42.686119 20.666391 2249.204590
1.200000 4.800000 -6.920000 -44.388474 -1.008385 1971.353394
1.200000 4.800000 -6.880000 -32.558311 -18.104713 1387.824341
1.200000 4.800000 -6.840000 -14.525386 -23.808296 777.821777
1.200000 4.800000 -6.800000 1.019657 -18.765079 353.167908
1.200000 4.840000 -7.200000 -1.038775 -12.026098 145.706100
1.200000 4.840000 -7.160000 5.887770 -4.390868 53.945560
1.200000 4.840000 -7.120000 6.459960 8.053024 106.582291
1.200000 4.840000 -7.080000 -2.521098 19.224281 375.928925
1.200000 4.840000 -7.040000 -18.215582 21.640125 800.102417
1.200000 4.840000 -7.000000 -32.350494 12.082636 1192.544556
1.200000 4.840000 -6.960000 -36.465431 -5.283629 1357.644409
1.200000 4.840000 -6.920000 -27.783092 -21.264648 1224.085449
1.200000 4.840000 -6.880000 -10.920306 -27.688141 885.886230
1.200000 4.840000 -6.840000 5.641037 -22.289772 528.655212
1.200000 4.840000 -6.800000 15.098509 -8.892713 307.045288
1.200000 4.880000 -7.200000 4.297858 -12.993062 187.291245
1.200000 4.880000 -7.160000 7.519464 -6.422843 97.795258
1.200000 4.880000 -7.120000 4.794362 1.708494 25.904861
1.200000 4.880000 -7.080000 -3.663026 5.761935 46.617657
1.200000 4.880000 -7.040000 -12.899426 2.154112 171.035370
1.200000 4.880000 -7.000000 -16.701080 -7.542725 335.818787
1.200000 4.880000 -6.960000 -12.068914 -17.574175 454.510315
1.200000 4.880000 -6.920000 -1.045990 -21.895779 480.519196
1.200000 4.880000 -6.880000 10.950499 -17.684553 432.656830
1.200000 4.880000 -6.840000 18.336479 -6.274553 375.596497
1.200000 4.880000 -6.800000 17.744343 8.145369 381.208740
1.200000 4.920000 -7.200000 10.782785 -11.659698 252.217026
1.200000 4.920000 -7.160000 12.829656 -6.462155 206.359512
1.200000 4.920000 -7.120000 10.350389 -2.052384 111.342842
1.200000 4.920000 -7.080000 6.252356 -1.679546 41.912827
1.200000 4.920000 -7.040000 4.601068 -4.633292 42.637230
1.200000 4.920000 -7.000000 6.950988 -7.419867 103.370659
1.200000 4.920000 -6.960000 11.640562 -7.058973 185.331787
1.200000 4.920000 -6.920000 15.887648 -2.889786 260.768219
1.200000 4.920000 -6.880000 17.636091 4.182408 328.524231
1.200000 4.920000 -6.840000 15.486528 12.858506 405.173767
1.200000 4.920000 -6.800000 8.119853 21.102905 511.264618
1.200000 4.960000 -7.200000 16.952412 -5.590947 318.642944
1.200000 4.960000 -7.160000 18.230560 -0.111241 332.365692
1.200000 4.960000 -7.120000 16.683506 2.965864 287.135742
1.200000 4.960000 -7.080000 16.133162 3.682611 273.840515
1.200000 4.960000 -7.040000 17.699125 5.220984 340.517700
1.200000 4.960000 -7.000000 18.899046 9.565477 448.672302
1.200000 4.960000 -6.960000 17.045479 15.214128 522.018066
1.200000 4.960000 -6.920000 12.356340 19.363960 527.642090
1.200000 4.960000 -6.880000 6.973845 21.304304 502.507904
1.200000 4.960000 -6.840000 1.576520 22.460106 506.941772
1.200000 4.960000 -6.800000 -5.556391 23.064686 562.853210
1.200000 5.000000 -7.200000 17.790138 5.217074 343.706879
1.200000 5.000000 -7.160000 16.321783 11.089911 389.386719
1.200000 5.000000 -7.120000 14.151912 13.267569 376.304993
1.200000 5.000000 -7.080000 14.318613 14.784063 423.591187
1.200000 5.000000 -7.040000 14.902260 19.102257 586.973572
1.200000 5.000000 -7.000000 11.876400 25.378223 785.103088
1.200000 5.000000 -6.960000 4.404979 29.269510 876.108032
1.200000 5.000000 -6.920000 -3.889941 28.008789 799.623901
1.200000 5.000000 -6.880000 -9.094796 23.464142 633.281311
1.200000 5.000000 -6.840000 -11.315943 19.439793 505.956116
1.200000 5.000000 -6.800000 -13.743984 16.733950 468.922180
1.200000 5.040000 -7.200000 9.243834 14.894547 307.295990
1.200000 5.040000 -7.160000 4.037321 18.142204 345.439545
1.200000 5.040000 -7.120000 1.202049 17.271442 299.747650
1.200000 5.040000 -7.080000 1.838793 17.405651 306.337860
1.200000 5.040000 -7.040000 1.886936 21.129425 450.013123
1.200000 5.040000 -7.000000 -2.447276 25.555338 659.064453
1.200000 5.040000 -6.960000 -9.963139 25.928410 771.546509
1.200000 5.040000 -6.920000 -15.815242 21.215714 700.228394
1.200000 5.040000 -6.880000 -16.941383 15.110287 515.331238
1.200000 5.040000 -6.840000 -15.093630 11.613005 362.679535
1.200000 5.040000 -6.800000 -14.049048 10.700160 311.869202
1.200000 5.080000 -7.200000 -5.601329 14.873836 252.605881
1.200000 5.080000 -7.160000 -11.502864 12.158938 280.155640
1.200000 5.080000 -7.120000 -11.608269 7.092936 185.061646
1.200000 5.080000 -7.080000 -7.537446 5.678400 89.057312
1.200000 5.080000 -7.040000 -4.817663 9.151914 106.967400
1.200000 5.080000 -7.000000 -6.759004 13.518099 228.423126
1.200000 5.080000 -6.960000 -11.427032 14.438040 339.034058
1.200000 5.080000 -6.920000 -14.500862 11.745449 348.230591
1.200000 5.080000 -6.880000 -14.149187 8.886290 279.165649
1.200000 5.080000 -6.840000 -12.430878 8.657914 229.486206
1.200000 5.080000 -6.800000 -12.320478 10.480204 261.628845
1.200000 5.120000 -7.200000 -16.350517 2.099785 271.748505
1.200000 5.120000 -7.160000 -17.249413 -5.720049 330.261200
1.200000 5.120000 -7.120000 -10.790165 -11.603031 251.057983
1.200000 5.120000 -7.080000 -1.555489 -10.458556 111.800949
1.200000 5.120000 -7.040000 4.090919 -3.065969 26.135784
1.200000 5.120000 -7.000000 3.366678 5.496876 41.550163
1.200000 5.120000 -6.960000 -1.566649 10.755630 118.137955
1.200000 5.120000 -6.920000 -6.729946 12.079165 191.198395
1.200000 5.120000 -6.880000 -10.068703 11.797907 240.569397
1.200000 5.120000 -6.840000 -12.395737 12.107468 300.245056
1.200000 5.120000 -6.800000 -15.583573 13.184759 416.685638
1.200000 5.160000 -7.200000 -13.234796 -16.012827 431.570435
1.200000 5.160000 -7.160000 -6.046645 -22.857977 559.049011
1.200000 5.160000 -7.120000 6.105346 -23.121647 571.885803
1.200000 5.160000 -7.080000 16.841133 -14.702578 499.789551
1.200000 5.160000 -7.040000 20.486597 -0.921139 420.549164
1.200000 5.160000 -7.000000 15.659016 12.204252 394.148560
1.200000 5.160000 -6.960000 5.344460 19.988752 428.113495
1.200000 5.160000 -6.920000 -5.783070 21.365698 489.936951
1.200000 5.160000 -6.880000 -14.368870 18.451736 546.931030
1.200000 5.160000 -6.840000 -19.846029 14.385380 600.804016
1.200000 5.160000 -6.800000 -23.994423 11.019403 697.159607
1.200000 5.200000 -7.200000 3.608046 -26.145391 696.599487
1.200000 5.200000 -7.160000 15.391425 -25.199615 871.916626
1.200000 5.200000 -7.120000 26.440207 -16.343475 966.193726
1.200000 5.200000 -7.080000 31.438324 -1.303665 990.067749
1.200000 5.200000 -7.040000 27.497175 15.115009 984.558167
1.200000 5.200000 -7.000000 15.361628 27.404556 986.989319
1.200000 5.200000 -6.960000 -1.040417 31.712658 1006.775146
1.200000 5.200000 -6.920000 -16.296097 27.487408 1021.120361
1.200000 5.200000 -6.880000 -26.101662 17.796291 998.004761
1.200000 5.200000 -6.840000 -29.654060 7.548767 936.347168
1.200000 5.200000 -6.800000 -29.982033 0.059241 898.925781
