#kx 	ky 	kz 	real 	imag 	intensity
3.800000 1.800000 -8.200000 -31.088161 -10.744366 1081.915161
3.800000 1.800000 -8.160000 -13.749584 -35.521042 1450.795410
3.800000 1.800000 -8.120000 16.828495 -35.086819 1514.283081
3.800000 1.800000 -8.080000 32.888165 -10.279446 1187.298340
3.800000 1.800000 -8.040000 21.250967 14.735689 668.744141
3.800000 1.800000 -8.000000 -4.111540 17.011974 306.312012
3.800000 1.800000 -7.960000 -17.380318 -2.705315 309.394165
3.800000 1.800000 -7.920000 -7.270579 -22.676142 567.068726
3.800000 1.800000 -7.880000 13.297272 -23.964870 751.132446
3.800000 1.800000 -7.840000 23.248657 -9.232038 625.730591
3.800000 1.800000 -7.800000 16.384254 2.907421 276.896881
3.800000 1.840000 -8.200000 -15.850265 -31.589966 1249.156860
3.800000 1.840000 -8.160000 11.710806 -42.594566 1951.440063
3.800000 1.840000 -8.120000 37.696350 -28.206650 2216.629883
3.800000 1.840000 -8.080000 42.430000 -1.092100 1801.497559
3.800000 1.840000 -8.040000 26.195814 16.098158 945.371399
3.800000 1.840000 -8.000000 7.389252 12.419030 208.833359
3.800000 1.840000 -7.960000 3.367790 -2.593211 18.066755
3.800000 1.840000 -7.920000 14.257416 -10.928816 322.712921
3.800000 1.840000 -7.880000 25.767220 -4.983644 688.786316
3.800000 1.840000 -7.840000 26.197874 6.687954 731.057373
3.800000 1.840000 -7.800000 18.376917 11.324696 465.959778
3.800000 1.880000 -8.200000 6.305068 -31.291698 1018.924316
3.800000 1.880000 -8.160000 31.402004 -28.055666 1773.206299
3.800000 1.880000 -8.120000 46.482597 -7.826935 2221.892822
3.800000 1.880000 -8.080000 42.965881 14.898821 2068.041992
3.800000 1.880000 -8.040000 27.483118 25.758175 1418.805420
3.800000 1.880000 -8.000000 14.161575 22.505909 707.066162
3.800000 1.880000 -7.960000 11.237490 14.500366 336.541809
3.800000 1.880000 -7.920000 15.375406 11.715460 373.655121
3.800000 1.880000 -7.880000 18.007147 15.443239 562.750977
3.800000 1.880000 -7.840000 15.387808 19.621469 621.786743
3.800000 1.880000 -7.800000 11.381322 19.604521 513.871704
3.800000 1.920000 -8.200000 15.620375 -16.217125 506.991272
3.800000 1.920000 -8.160000 32.028492 -6.914394 1073.633179
3.800000 1.920000 -8.120000 38.279503 11.396683 1595.204712
3.800000 1.920000 -8.080000 31.574837 28.468624 1807.432861
3.800000 1.920000 -8.040000 17.663532 36.301357 1629.788940
3.800000 1.920000 -8.000000 5.218981 34.398819 1210.516479
3.800000 1.920000 -7.960000 -0.938768 28.151913 793.411499
3.800000 1.920000 -7.920000 -1.848742 23.109879 537.484314
3.800000 1.920000 -7.880000 -1.175813 20.981716 441.614960
3.800000 1.920000 -7.840000 -1.057423 20.385729 416.696075
3.800000 1.920000 -7.800000 -1.234308 20.059612 403.911560
3.800000 1.960000 -8.200000 8.562737 -4.696156 95.374336
3.800000 1.960000 -8.160000 18.936115 3.815777 373.136597
3.800000 1.960000 -8.120000 21.219803 18.475674 791.630554
3.800000 1.960000 -8.080000 13.165415 31.516829 1166.638672
3.800000 1.960000 -8.040000 -0.824819 36.252090 1314.894409
3.800000 1.960000 -8.000000 -13.223560 31.703243 1179.958252
3.800000 1.960000 -7.960000 -18.906567 22.466106 862.184204
3.800000 1.960000 -7.920000 -18.027271 14.498280 535.182617
3.800000 1.960000 -7.880000 -14.459192 10.802765 325.767975
3.800000 1.960000 -7.840000 -11.861368 10.453355 249.964691
3.800000 1.960000 -7.800000 -11.199034 10.930071 244.884796
3.800000 2.000000 -8.200000 -1.770244 -6.909652 50.877052
3.800000 2.000000 -8.160000 6.994048 0.950874 49.820869
3.800000 2.000000 -8.120000 6.553791 13.624531 228.580017
3.800000 2.000000 -8.080000 -3.455483 21.937004 493.172516
3.800000 2.000000 -8.040000 -15.935269 20.416246 670.755920
3.800000 2.000000 -8.000000 -22.831831 11.506787 653.698608
3.800000 2.000000 -7.960000 -21.791105 2.425801 480.736786
3.800000 2.000000 -7.920000 -16.853498 -1.702302 286.938232
3.800000 2.000000 -7.880000 -13.333493 -1.520900 180.095184
3.800000 2.000000 -7.840000 -12.688082 -0.996230 161.979889
3.800000 2.000000 -7.800000 -12.377221 -2.282969 158.407547
3.800000 2.040000 -8.200000 -2.305091 -16.057529 263.157684
3.800000 2.040000 -8.160000 3.933383 -5.790708 49.003796
3.800000 2.040000 -8.120000 -1.093575 3.681546 14.749683
3.800000 2.040000 -8.080000 -10.801165 3.743904 130.681961
3.800000 2.040000 -8.040000 -15.110087 -4.155071 245.579361
3.800000 2.040000 -8.000000 -10.788221 -11.139342 240.470673
3.800000 2.040000 -7.960000 -3.772439 -10.852224 132.002075
3.800000 2.040000 -7.920000 -1.694811 -5.723875 35.635128
3.800000 2.040000 -7.880000 -5.373654 -3.193490 39.074543
3.800000 2.040000 -7.840000 -8.527363 -6.744832 118.208672
3.800000 2.040000 -7.800000 -5.557905 -11.944765 173.567719
3.800000 2.080000 -8.200000 5.759520 -18.849758 388.485443
3.800000 2.080000 -8.160000 4.657777 -7.915623 84.351974
3.800000 2.080000 -8.120000 -3.659775 -6.890052 60.866764
3.800000 2.080000 -8.080000 -5.659822 -15.748072 280.035339
3.800000 2.080000 -8.040000 4.158089 -22.288469 514.065552
3.800000 2.080000 -8.000000 16.930771 -16.292774 552.105469
3.800000 2.080000 -7.960000 19.295147 -1.390001 374.234802
3.800000 2.080000 -7.920000 8.388571 8.569885 143.811050
3.800000 2.080000 -7.880000 -4.704245 4.521153 42.570747
3.800000 2.080000 -7.840000 -6.801537 -7.975077 109.862762
3.800000 2.080000 -7.800000 3.312958 -14.813557 230.417160
3.800000 2.120000 -8.200000 10.263683 -11.888163 246.671600
3.800000 2.120000 -8.160000 1.131895 -8.087444 66.687943
3.800000 2.120000 -8.120000 -2.603159 -18.575451 351.823792
3.800000 2.120000 -8.080000 10.406732 -28.986858 948.538025
3.800000 2.120000 -8.040000 31.458506 -21.997240 1473.516113
3.800000 2.120000 -8.000000 39.847515 2.482105 1593.985352
3.800000 2.120000 -7.960000 25.015030 25.274223 1264.538086
3.800000 2.120000 -7.920000 -1.247662 27.072771 734.491577
3.800000 2.120000 -7.880000 -16.164150 8.329732 330.664185
3.800000 2.120000 -7.840000 -8.882898 -11.390345 208.645828
3.800000 2.120000 -7.800000 9.378228 -13.724176 276.304169
3.800000 2.160000 -8.200000 3.720516 -5.311147 42.050522
3.800000 2.160000 -8.160000 -5.374733 -14.986250 253.475449
3.800000 2.160000 -8.120000 4.900396 -31.341125 1006.280029
3.800000 2.160000 -8.080000 31.783033 -30.616432 1947.527100
3.800000 2.160000 -8.040000 50.962090 -3.534354 2609.626221
3.800000 2.160000 -8.000000 40.896305 32.014610 2697.443115
3.800000 2.160000 -7.960000 6.168957 46.919819 2239.525635
3.800000 2.160000 -7.920000 -25.416660 29.628799 1523.872314
3.800000 2.160000 -7.880000 -29.645237 -2.434562 884.767151
3.800000 2.160000 -7.840000 -8.726316 -20.649569 502.553284
3.800000 2.160000 -7.800000 13.145088 -13.185137 346.641174
3.800000 2.200000 -8.200000 -7.145503 -10.360567 158.399567
3.800000 2.200000 -8.160000 -4.577625 -30.222908 934.378845
3.800000 2.200000 -8.120000 21.476496 -39.718002 2038.759521
3.800000 2.200000 -8.080000 50.477077 -19.561459 2930.585938
3.800000 2.200000 -8.040000 53.051857 21.359074 3270.709473
3.800000 2.200000 -8.000000 20.972103 51.343422 3075.976074
3.800000 2.200000 -7.960000 -22.523743 45.582756 2585.106445
3.800000 2.200000 -7.920000 -43.787449 10.214406 2021.674805
3.800000 2.200000 -7.880000 -30.119606 -23.942423 1480.430298
3.800000 2.200000 -7.840000 0.268600 -31.236462 975.788696
3.800000 2.200000 -7.800000 18.610670 -13.724298 534.713440
3.840000 1.800000 -8.200000 1.174808 -27.569992 761.484680
3.840000 1.800000 -8.160000 27.768541 -27.001385 1500.166626
3.840000 1.800000 -8.120000 43.495407 -3.136832 1901.690186
3.840000 1.800000 -8.080000 33.145496 23.672483 1659.010376
3.840000 1.800000 -8.040000 6.801855 30.064070 950.113525
3.840000 1.800000 -8.000000 -10.693603 13.260681 290.198792
3.840000 1.800000 -7.960000 -5.333035 -7.115142 79.066498
3.840000 1.800000 -7.920000 12.706749 -10.485180 271.400452
3.840000 1.800000 -7.880000 21.694271 3.382195 482.080627
3.840000 1.800000 -7.840000 12.462020 15.943521 409.497803
3.840000 1.800000 -7.800000 -2.421039 11.618651 140.854492
3.840000 1.840000 -8.200000 18.682703 -25.091095 978.606445
3.840000 1.840000 -8.160000 42.913101 -14.124287 2041.029785
3.840000 1.840000 -8.120000 51.324265 12.756121 2796.898682
3.840000 1.840000 -8.080000 37.904312 36.348660 2757.961914
3.840000 1.840000 -8.040000 14.952007 41.891853 1978.489868
3.840000 1.840000 -8.000000 -0.081383 31.713017 1005.722046
3.840000 1.840000 -7.960000 -1.166088 20.038595 402.905060
3.840000 1.840000 -7.920000 3.406738 16.962667 299.337952
3.840000 1.840000 -7.880000 3.182151 19.418968 387.222412
3.840000 1.840000 -7.840000 -2.065812 17.918583 325.343201
3.840000 1.840000 -7.800000 -3.475037 9.836276 108.828209
3.840000 1.880000 -8.200000 24.962561 -9.745446 718.103149
3.840000 1.880000 -8.160000 42.922119 6.333280 1882.418823
3.840000 1.880000 -8.120000 45.542194 33.268738 3180.900391
3.840000 1.880000 -8.080000 29.445414 56.203445 4025.859863
3.840000 1.880000 -8.040000 3.559963 63.607460 4058.582275
3.840000 1.880000 -8.000000 -18.910917 54.819435 3362.793213
3.840000 1.880000 -7.960000 -30.048567 37.842506 2334.971680
3.840000 1.880000 -7.920000 -30.127575 21.542904 1371.767456
3.840000 1.880000 -7.880000 -23.607325 10.401211 665.490967
3.840000 1.880000 -7.840000 -14.394830 5.149477 233.728241
3.840000 1.880000 -7.800000 -5.059915 5.749798 58.662918
3.840000 1.920000 -8.200000 15.341926 1.635535 238.049652
3.840000 1.920000 -8.160000 28.785950 18.847038 1183.841797
3.840000 1.920000 -8.120000 26.614143 46.080090 2831.687500
3.840000 1.920000 -8.080000 4.045931 68.264534 4676.416016
3.840000 1.920000 -8.040000 -30.125965 70.948662 5941.286133
3.840000 1.920000 -8.000000 -58.695610 50.900890 6036.075195
3.840000 1.920000 -7.960000 -67.655457 18.604187 4923.376465
3.840000 1.920000 -7.920000 -55.205193 -9.118534 3130.760986
3.840000 1.920000 -7.880000 -31.688190 -20.302990 1416.352783
3.840000 1.920000 -7.840000 -11.397347 -14.409791 337.541626
3.840000 1.920000 -7.800000 -3.184854 -0.270226 10.216314
3.840000 1.960000 -8.200000 2.388186 -2.289639 10.945879
3.840000 1.960000 -8.160000 13.440436 16.973255 468.736725
3.840000 1.960000 -8.120000 4.197489 44.389652 1988.060181
3.840000 1.960000 -8.080000 -27.425549 59.646656 4309.884277
3.840000 1.960000 -8.040000 -65.226021 47.238335 6485.893555
3.840000 1.960000 -8.000000 -85.581024 10.275667 7429.701172
3.840000 1.960000 -7.960000 -75.611153 -30.480469 6646.105469
3.840000 1.960000 -7.920000 -43.045097 -52.122128 4569.596680
3.840000 1.960000 -7.880000 -9.427013 -46.459015 2247.308838
3.840000 1.960000 -7.840000 6.934512 -24.070438 627.473450
3.840000 1.960000 -7.800000 3.286418 -3.405909 22.400761
3.840000 2.000000 -8.200000 1.361383 -15.418836 239.593857
3.840000 2.000000 -8.160000 7.480743 8.050875 120.778107
3.840000 2.000000 -8.120000 -11.572506 31.022224 1096.301270
3.840000 2.000000 -8.080000 -47.210377 30.882477 3182.546875
3.840000 2.000000 -8.040000 -74.329979 0.836425 5525.645508
3.840000 2.000000 -8.000000 -71.498520 -42.384735 6908.504395
3.840000 2.000000 -7.960000 -38.957047 -71.232224 6591.681152
3.840000 2.000000 -7.920000 1.835844 -69.359055 4814.048340
3.840000 2.000000 -7.880000 26.267643 -43.303200 2565.156250
3.840000 2.000000 -7.840000 25.432646 -14.392904 853.975159
3.840000 2.000000 -7.800000 9.543335 0.036282 91.076561
3.840000 2.040000 -8.200000 13.384858 -21.757744 652.553833
3.840000 2.040000 -8.160000 9.155613 3.060135 93.189674
3.840000 2.040000 -8.120000 -17.039242 13.654730 476.787415
3.840000 2.040000 -8.080000 -44.148064 -4.003658 1965.080811
3.840000 2.040000 -8.040000 -47.669472 -40.145832 3884.066406
3.840000 2.040000 -8.000000 -21.278603 -68.650543 5165.675781
3.840000 2.040000 -7.960000 17.763166 -69.224960 5107.625488
3.840000 2.040000 -7.920000 43.935165 -43.649681 3835.593262
3.840000 2.040000 -7.880000 44.513195 -11.902843 2123.102295
3.840000 2.040000 -7.840000 27.126198 6.417997 777.021301
3.840000 2.040000 -7.800000 9.043389 6.959632 130.219360
3.840000 2.080000 -8.200000 24.751572 -13.492311 794.682739
3.840000 2.080000 -8.160000 9.037771 3.916081 97.016998
3.840000 2.080000 -8.120000 -14.283588 -2.212006 208.913879
3.840000 2.080000 -8.080000 -21.167570 -28.045849 1234.635620
3.840000 2.080000 -8.040000 -1.705825 -50.960365 2599.868652
3.840000 2.080000 -8.000000 30.695210 -50.294209 3471.703125
3.840000 2.080000 -7.960000 52.038101 -25.627514 3364.733398
3.840000 2.080000 -7.920000 49.180687 4.540746 2439.358398
3.840000 2.080000 -7.880000 29.236828 20.807201 1287.731689
3.840000 2.080000 -7.840000 9.676968 18.859961 449.341827
3.840000 2.080000 -7.800000 1.286794 8.915602 81.143791
3.840000 2.120000 -8.200000 22.553749 0.509916 508.931610
3.840000 2.120000 -8.160000 2.975646 2.603046 15.630318
3.840000 2.120000 -8.120000 -5.801908 -15.012544 259.038605
3.840000 2.120000 -8.080000 8.565521 -32.669968 1140.694946
3.840000 2.120000 -8.040000 35.216362 -29.540575 2112.837646
3.840000 2.120000 -8.000000 50.633648 -4.160642 2581.077393
3.840000 2.120000 -7.960000 41.371006 24.564102 2314.955322
3.840000 2.120000 -7.920000 15.818460 36.064560 1550.876221
3.840000 2.120000 -7.880000 -5.815962 26.682343 745.772827
3.840000 2.120000 -7.840000 -11.355604 9.946339 227.879395
3.840000 2.120000 -7.800000 -5.586877 0.511797 31.475130
3.840000 2.160000 -8.200000 9.012109 4.760071 103.876373
3.840000 2.160000 -8.160000 -2.080465 -7.578521 61.762314
3.840000 2.160000 -8.120000 7.993683 -23.494720 615.900879
3.840000 2.160000 -8.080000 31.865913 -20.863510 1450.722534
3.840000 2.160000 -8.040000 45.700920 4.876649 2112.355957
3.840000 2.160000 -8.000000 32.968098 34.897240 2304.712891
3.840000 2.160000 -7.960000 1.150364 44.973404 2023.930420
3.840000 2.160000 -7.920000 -25.692518 28.613482 1478.836792
3.840000 2.160000 -7.880000 -30.137878 1.768866 911.420593
3.840000 2.160000 -7.840000 -16.153885 -14.402916 468.391968
3.840000 2.160000 -7.800000 -1.467377 -13.557335 185.954529
3.840000 2.200000 -8.200000 -1.048097 -5.820632 34.978256
3.840000 2.200000 -8.160000 3.969609 -22.092304 503.827698
3.840000 2.200000 -8.120000 25.843760 -24.096657 1248.548828
3.840000 2.200000 -8.080000 42.763218 -1.756680 1831.778687
3.840000 2.200000 -8.040000 33.729351 30.174442 2048.166016
3.840000 2.200000 -8.000000 0.438603 44.761955 2003.825073
3.840000 2.200000 -7.960000 -32.909081 28.596458 1900.765015
3.840000 2.200000 -7.920000 -42.012062 -5.547511 1795.788208
3.840000 2.200000 -7.880000 -24.251863 -31.537933 1582.794189
3.840000 2.200000 -7.840000 1.556442 -34.303722 1179.167847
3.840000 2.200000 -7.800000 15.423083 -20.907381 674.990112
3.880000 1.800000 -8.200000 34.759415 -8.602889 1282.226562
3.880000 1.800000 -8.160000 46.575455 16.299471 2434.945801
3.880000 1.800000 -8.120000 32.358002 44.056583 2988.022949
3.880000 1.800000 -8.080000 0.952317 50.326355 2533.648926
3.880000 1.800000 -8.040000 -21.591921 30.511831 1397.182861
3.880000 1.800000 -8.000000 -18.402489 4.867890 362.347931
3.880000 1.800000 -7.960000 1.215378 -2.608009 8.278855
3.880000 1.800000 -7.920000 12.551645 10.999147 278.525024
3.880000 1.800000 -7.880000 2.299040 25.553217 658.252502
3.880000 1.800000 -7.840000 -17.497419 20.604841 730.719177
3.880000 1.800000 -7.800000 -23.163639 -2.038851 540.711121
3.880000 1.840000 -8.200000 33.264870 8.851191 1184.895142
3.880000 1.840000 -8.160000 38.407631 31.970171 2497.238037
3.880000 1.840000 -8.120000 24.316704 54.197670 3528.689453
3.880000 1.840000 -8.080000 -0.808676 60.837227 3701.822266
3.880000 1.840000 -8.040000 -21.161282 50.853569 3033.885254
3.880000 1.840000 -8.000000 -28.591545 35.616615 2086.019775
3.880000 1.840000 -7.960000 -28.065180 25.511406 1438.486084
3.880000 1.840000 -7.920000 -28.563269 20.007790 1216.171875
3.880000 1.840000 -7.880000 -31.131596 11.730309 1106.776367
3.880000 1.840000 -7.840000 -28.222406 -1.442637 798.585388
3.880000 1.840000 -7.800000 -14.657179 -11.356256 343.797424
3.880000 1.880000 -8.200000 17.228840 18.429697 636.486694
3.880000 1.880000 -8.160000 21.708427 39.042679 1995.586670
3.880000 1.880000 -8.120000 9.027064 62.865463 4033.554199
3.880000 1.880000 -8.080000 -19.650593 75.565964 6096.360840
3.880000 1.880000 -8.040000 -52.690815 68.126617 7417.557617
3.880000 1.880000 -8.000000 -75.718529 42.481060 7537.936035
3.880000 1.880000 -7.960000 -80.032852 9.331944 6492.342285
3.880000 1.880000 -7.920000 -66.078758 -18.528191 4709.696289
3.880000 1.880000 -7.880000 -41.588299 -32.268776 2770.860352
3.880000 1.880000 -7.840000 -17.166409 -29.830643 1184.552856
3.880000 1.880000 -7.800000 -1.873851 -15.744347 251.395767
3.880000 1.920000 -8.200000 0.315010 10.231626 104.785393
3.880000 1.920000 -8.160000 6.222588 33.964531 1192.309937
3.880000 1.920000 -8.120000 -12.422671 63.028969 4126.973633
3.880000 1.920000 -8.080000 -55.075756 73.644180 8456.804688
3.880000 1.920000 -8.040000 -100.577011 49.722294 12588.041992
3.880000 1.920000 -8.000000 -120.949738 -2.284241 14634.056641
3.880000 1.920000 -7.960000 -102.355576 -55.870804 13598.210938
3.880000 1.920000 -7.920000 -55.757580 -83.111710 10016.463867
3.880000 1.920000 -7.880000 -8.475155 -74.221207 5580.615723
3.880000 1.920000 -7.840000 15.916711 -42.437290 2054.265381
3.880000 1.920000 -7.800000 12.684581 -11.564019 294.625122
3.880000 1.960000 -8.200000 -1.289574 -8.404755 72.302902
3.880000 1.960000 -8.160000 0.162649 23.041981 530.959290
3.880000 1.960000 -8.120000 -32.715393 50.707962 3641.594238
3.880000 1.960000 -8.080000 -86.833778 43.213169 9407.482422
3.880000 1.960000 -8.040000 -125.412399 -8.433304 15799.390625
3.880000 1.960000 -8.000000 -116.592499 -78.684708 19785.093750
3.880000 1.960000 -7.960000 -60.705486 -124.999260 19309.970703
3.880000 1.960000 -7.920000 8.688100 -120.927544 14698.954102
3.880000 1.960000 -7.880000 51.295944 -75.758362 8370.603516
3.880000 1.960000 -7.840000 50.513145 -24.238758 3139.095215
3.880000 1.960000 -7.800000 21.729900 2.760917 479.811218
3.880000 2.000000 -8.200000 14.269991 -19.230259 573.435486
3.880000 2.000000 -8.160000 2.341717 16.013926 261.929443
3.880000 2.000000 -8.120000 -43.536129 28.987238 2735.654541
3.880000 2.000000 -8.080000 -91.809845 -5.077913 8454.833008
3.880000 2.000000 -8.040000 -100.182556 -73.772583 15478.939453
3.880000 2.000000 -8.000000 -52.418301 -132.936188 20419.707031
3.880000 2.000000 -7.960000 25.317715 -141.572250 20683.687500
3.880000 2.000000 -7.920000 84.648422 -95.338333 16254.752930
3.880000 2.000000 -7.880000 93.727028 -28.492409 9596.573242
3.880000 2.000000 -7.840000 59.712868 16.197248 3827.977295
3.880000 2.000000 -7.800000 16.893326 20.879698 721.346252
3.880000 2.040000 -8.200000 32.009949 -11.279035 1151.853516
3.880000 2.040000 -8.160000 4.259763 16.040062 275.429169
3.880000 2.040000 -8.120000 -41.482666 5.810390 1754.572144
3.880000 2.040000 -8.080000 -64.445877 -45.574402 6230.296875
3.880000 2.040000 -8.040000 -36.110504 -104.265640 12175.292969
3.880000 2.040000 -8.000000 32.287987 -124.974548 16661.152344
3.880000 2.040000 -7.960000 96.706543 -89.248268 17317.408203
3.880000 2.040000 -7.920000 116.247437 -20.876534 13949.296875
3.880000 2.040000 -7.880000 85.320053 35.247276 8521.881836
3.880000 2.040000 -7.840000 33.753769 50.064789 3645.800049
3.880000 2.040000 -7.800000 -2.129719 29.382282 867.854187
3.880000 2.080000 -8.200000 34.966980 8.104580 1288.373901
3.880000 2.080000 -8.160000 -0.014079 16.958866 287.603333
3.880000 2.080000 -8.120000 -29.256992 -11.661509 991.962402
3.880000 2.080000 -8.080000 -21.039564 -58.537773 3869.334229
3.880000 2.080000 -8.040000 26.969009 -84.325943 7838.192383
3.880000 2.080000 -8.000000 82.841690 -63.356621 10876.806641
3.880000 2.080000 -7.960000 106.562050 -6.434933 11396.878906
3.880000 2.080000 -7.920000 83.211693 48.600868 9286.230469
3.880000 2.080000 -7.880000 32.973846 68.904121 5835.052246
3.880000 2.080000 -7.840000 -9.183453 51.188129 2704.560303
3.880000 2.080000 -7.800000 -22.791706 18.187901 850.261597
3.880000 2.120000 -8.200000 20.977816 20.927984 878.049316
3.880000 2.120000 -8.160000 -6.899587 10.906881 166.564362
3.880000 2.120000 -8.120000 -12.182234 -20.451576 566.673767
3.880000 2.120000 -8.080000 14.934992 -44.241760 2180.387451
3.880000 2.120000 -8.040000 55.059673 -35.153671 4267.348145
3.880000 2.120000 -8.000000 75.555092 5.169216 5735.292480
3.880000 2.120000 -7.960000 58.849827 49.105141 5874.617188
3.880000 2.120000 -7.920000 16.644402 67.048386 4772.521973
3.880000 2.120000 -7.880000 -22.179615 51.307243 3124.368408
3.880000 2.120000 -7.840000 -36.545776 18.586704 1681.059326
3.880000 2.120000 -7.800000 -27.179272 -8.150584 805.144836
3.880000 2.160000 -8.200000 4.048158 16.669655 294.264954
3.880000 2.160000 -8.160000 -7.073756 -1.933576 53.776745
3.880000 2.160000 -8.120000 5.386833 -20.738428 459.100372
3.880000 2.160000 -8.080000 31.007936 -18.426638 1301.033081
3.880000 2.160000 -8.040000 45.387238 7.765928 2120.310791
3.880000 2.160000 -8.000000 32.468601 38.552307 2540.490479
3.880000 2.160000 -7.960000 -0.846645 49.795738 2480.332275
3.880000 2.160000 -7.920000 -31.507153 33.467297 2112.760742
3.880000 2.160000 -7.880000 -40.783405 2.669220 1670.410889
3.880000 2.160000 -7.840000 -28.226557 -22.194441 1289.331787
3.880000 2.160000 -7.800000 -7.449973 -30.702168 998.125183
3.880000 2.200000 -8.200000 -0.503666 1.960571 4.097519
3.880000 2.200000 -8.160000 3.976176 -12.278778 166.578369
3.880000 2.200000 -8.120000 20.349316 -13.420424 594.202393
3.880000 2.200000 -8.080000 30.704014 3.547843 955.323669
3.880000 2.200000 -8.040000 20.791149 25.281200 1071.411011
3.880000 2.200000 -8.000000 -5.632507 31.848957 1046.081177
3.880000 2.200000 -7.960000 -29.573351 15.164574 1104.547363
3.880000 2.200000 -7.920000 -33.775681 -13.951223 1335.433228
3.880000 2.200000 -7.880000 -17.021023 -36.240860 1603.115112
3.880000 2.200000 -7.840000 7.345707 -40.585396 1701.133789
3.880000 2.200000 -7.800000 25.111855 -30.540550 1563.330444
3.920000 1.800000 -8.200000 38.794724 31.867304 2520.555664
3.920000 1.800000 -8.160000 21.394989 60.828499 4157.851562
3.920000 1.800000 -8.120000 -16.608189 67.150314 4784.996582
3.920000 1.800000 -8.080000 -46.836308 41.784523 3939.585938
3.920000 1.800000 -8.040000 -46.196510 5.223822 2161.406006
3.920000 1.800000 -8.000000 -20.676079 -12.037907 572.411438
3.920000 1.800000 -7.960000 0.695847 -0.261349 0.552506
3.920000 1.800000 -7.920000 -3.951867 20.201355 423.712006
3.920000 1.800000 -7.880000 -26.850658 21.155521 1168.513916
3.920000 1.800000 -7.840000 -39.632111 -3.286963 1581.508301
3.920000 1.800000 -7.800000 -23.963688 -30.648998 1513.619385
3.920000 1.840000 -8.200000 13.310831 41.552589 1903.795898
3.920000 1.840000 -8.160000 -2.977988 58.269173 3404.164795
3.920000 1.840000 -8.120000 -29.338005 60.264221 4492.495117
3.920000 1.840000 -8.080000 -50.582275 45.156654 4597.689941
3.920000 1.840000 -8.040000 -57.189018 23.916191 3842.567871
3.920000 1.840000 -8.000000 -53.275833 8.598038 2912.240723
3.920000 1.840000 -7.960000 -49.236809 0.341118 2424.379883
3.920000 1.840000 -7.920000 -48.315113 -8.853973 2412.742920
3.920000 1.840000 -7.880000 -43.137695 -23.374794 2407.241699
3.920000 1.840000 -7.840000 -26.278004 -35.913803 1980.334717
3.920000 1.840000 -7.800000 -2.218362 -34.345711 1184.548950
3.920000 1.880000 -8.200000 -10.768442 28.032303 901.769348
3.920000 1.880000 -8.160000 -18.223684 43.355553 2211.806641
3.920000 1.880000 -8.120000 -40.944202 54.226032 4616.890625
3.920000 1.880000 -8.080000 -72.613083 48.038689 7580.375000
3.920000 1.880000 -8.040000 -98.477692 20.690372 10125.947266
3.920000 1.880000 -8.000000 -104.572411 -19.795097 11327.234375
3.920000 1.880000 -7.960000 -86.207855 -57.612381 10750.980469
3.920000 1.880000 -7.920000 -50.562637 -77.920311 8628.155273
3.920000 1.880000 -7.880000 -12.586254 -74.506241 5709.593262
3.920000 1.880000 -7.840000 12.882894 -52.476440 2919.745850
3.920000 1.880000 -7.800000 18.610348 -24.975470 970.119141
3.920000 1.920000 -8.200000 -14.451891 1.426216 210.891235
3.920000 1.920000 -8.160000 -19.807354 27.008839 1121.808594
3.920000 1.920000 -8.120000 -54.912167 44.613403 5005.701660
3.920000 1.920000 -8.080000 -104.562424 27.494186 11689.231445
3.920000 1.920000 -8.040000 -134.451355 -28.744488 18903.412109
3.920000 1.920000 -8.000000 -117.639977 -97.812737 23406.496094
3.920000 1.920000 -7.960000 -57.506329 -140.331757 22999.980469
3.920000 1.920000 -7.920000 13.215935 -133.339264 17954.019531
3.920000 1.920000 -7.880000 56.899086 -86.775505 10767.494141
3.920000 1.920000 -7.840000 57.986671 -33.613350 4492.311523
3.920000 1.920000 -7.800000 30.469072 -3.614468 941.428772
3.920000 1.960000 -8.200000 4.543011 -16.118601 280.448242
3.920000 1.960000 -8.160000 -13.309694 18.805950 530.811707
3.920000 1.960000 -8.120000 -66.905571 26.046783 5154.790527
3.920000 1.960000 -8.080000 -119.067078 -20.566986 14599.969727
3.920000 1.960000 -8.040000 -121.954346 -104.325592 25756.691406
3.920000 1.960000 -8.000000 -59.022114 -173.015823 33418.085938
3.920000 1.960000 -7.960000 37.116833 -179.621750 33641.632812
3.920000 1.960000 -7.920000 108.916229 -120.732208 26439.011719
3.920000 1.960000 -7.880000 119.191216 -38.150166 15661.981445
3.920000 1.960000 -7.840000 77.295120 16.697395 6253.338867
3.920000 1.960000 -7.800000 25.059299 22.383743 1129.000488
3.920000 2.000000 -8.200000 29.002909 -10.292077 947.095581
3.920000 2.000000 -8.160000 -8.819116 19.519009 458.768494
3.920000 2.000000 -8.120000 -68.341385 0.282309 4670.624512
3.920000 2.000000 -8.080000 -96.143005 -73.086273 14585.081055
3.920000 2.000000 -8.040000 -53.600624 -155.518494 27059.029297
3.920000 2.000000 -8.000000 44.754349 -184.935486 36204.085938
3.920000 2.000000 -7.960000 138.260071 -134.589813 37230.265625
3.920000 2.000000 -7.920000 168.592743 -36.567238 29760.675781
3.920000 2.000000 -7.880000 126.002136 45.419479 17939.466797
3.920000 2.000000 -7.840000 52.257450 68.131897 7372.796875
3.920000 2.000000 -7.800000 0.871546 38.437019 1478.164062
3.920000 2.040000 -8.200000 37.903915 12.618591 1595.935669
3.920000 2.040000 -8.160000 -11.738987 21.718195 609.483826
3.920000 2.040000 -8.120000 -55.163872 -23.398624 3590.548340
3.920000 2.040000 -8.080000 -43.612858 -99.018066 11706.658203
3.920000 2.040000 -8.040000 32.281937 -146.303070 22446.710938
3.920000 2.040000 -8.000000 127.482147 -120.271629 30716.962891
3.920000 2.040000 -7.960000 176.776505 -30.578583 32184.980469
3.920000 2.040000 -7.920000 148.539505 64.806190 26263.826172
3.920000 2.040000 -7.880000 68.939461 107.648987 16340.954102
3.920000 2.040000 -7.840000 -4.058744 84.741821 7197.649902
3.920000 2.040000 -7.800000 -30.045776 30.734329 1847.347656
3.920000 2.080000 -8.200000 25.263693 32.470634 1692.596313
3.920000 2.080000 -8.160000 -18.474075 17.630648 652.131226
3.920000 2.080000 -8.120000 -32.266537 -35.595772 2308.188477
3.920000 2.080000 -8.080000 9.148689 -86.343391 7538.879883
3.920000 2.080000 -8.040000 84.946152 -86.482033 14694.990234
3.920000 2.080000 -8.000000 140.660522 -24.123165 20367.310547
3.920000 2.080000 -7.960000 133.047760 62.737030 21637.642578
3.920000 2.080000 -7.920000 66.585434 116.701569 18052.875000
3.920000 2.080000 -7.880000 -11.877308 107.769661 11755.370117
3.920000 2.080000 -7.840000 -53.764965 53.897789 5795.643066
3.920000 2.080000 -7.800000 -45.938446 -0.552567 2110.646240
3.920000 2.120000 -8.200000 3.950038 34.393570 1198.520386
3.920000 2.120000 -8.160000 -20.695477 6.737587 473.697815
3.920000 2.120000 -8.120000 -9.446246 -33.967789 1243.042236
3.920000 2.120000 -8.080000 36.754433 -50.217625 3872.698242
3.920000 2.120000 -8.040000 83.909607 -19.725891 7429.933105
3.920000 2.120000 -8.000000 91.936691 41.892097 10207.303711
3.920000 2.120000 -7.960000 49.470673 91.782516 10871.377930
3.920000 2.120000 -7.920000 -15.904945 95.189148 9313.941406
3.920000 2.120000 -7.880000 -61.251221 53.095566 6570.851562
3.920000 2.120000 -7.840000 -62.980892 -2.120705 3971.090088
3.920000 2.120000 -7.800000 -31.268778 -36.128468 2283.002441
3.920000 2.160000 -8.200000 -8.276381 21.249023 520.019470
3.920000 2.160000 -8.160000 -13.811732 -3.897834 205.957062
3.920000 2.160000 -8.120000 6.127481 -23.352882 582.903137
3.920000 2.160000 -8.080000 36.585121 -16.228706 1601.842041
3.920000 2.160000 -8.040000 49.956493 16.801941 2777.956299
3.920000 2.160000 -8.000000 30.135391 51.458729 3556.142578
3.920000 2.160000 -7.960000 -12.217575 59.602184 3701.689453
3.920000 2.160000 -7.920000 -47.974659 33.005852 3390.954102
3.920000 2.160000 -7.880000 -53.539463 -10.570190 2978.203125
3.920000 2.160000 -7.840000 -28.450081 -43.357941 2689.318115
3.920000 2.160000 -7.800000 8.008155 -49.466915 2511.106201
3.920000 2.200000 -8.200000 -5.553748 8.043104 95.535645
3.920000 2.200000 -8.160000 -1.542610 -6.547872 45.254269
3.920000 2.200000 -8.120000 13.211530 -10.243519 279.474213
3.920000 2.200000 -8.080000 24.154669 1.976173 587.353271
3.920000 2.200000 -8.040000 18.322010 19.952414 733.794861
3.920000 2.200000 -8.000000 -2.931107 26.271481 698.782043
3.920000 2.200000 -7.960000 -23.837681 11.698862 705.098389
3.920000 2.200000 -7.920000 -27.211147 -16.294090 1005.943909
3.920000 2.200000 -7.880000 -8.546476 -39.568127 1638.678833
3.920000 2.200000 -7.840000 21.281389 -43.820332 2373.118896
3.920000 2.200000 -7.800000 45.772598 -28.222033 2891.614014
3.960000 1.800000 -8.200000 8.433128 60.294853 3706.586914
3.960000 1.800000 -8.160000 -31.108522 69.317291 5772.626953
3.960000 1.800000 -8.120000 -68.834747 42.780983 6568.435059
3.960000 1.800000 -8.080000 -74.265739 -4.107635 5532.272461
3.960000 1.800000 -8.040000 -44.236294 -35.913223 3246.609375
3.960000 1.800000 -8.000000 -7.685230 -31.276695 1037.294434
3.960000 1.800000 -7.960000 2.735810 -4.123047 24.484173
3.960000 1.800000 -7.920000 -16.736755 11.155605 404.566528
3.960000 1.800000 -7.880000 -38.336754 -4.571418 1490.604492
3.960000 1.800000 -7.840000 -32.713024 -35.947659 2362.375977
3.960000 1.800000 -7.800000 0.362264 -50.164825 2516.641113
3.960000 1.840000 -8.200000 -25.035213 45.297142 2678.593018
3.960000 1.840000 -8.160000 -50.166351 42.435181 4317.407227
3.960000 1.840000 -8.120000 -70.162849 21.752224 5395.984863
3.960000 1.840000 -8.080000 -72.725319 -6.466911 5330.792969
3.960000 1.840000 -8.040000 -60.036678 -26.726135 4318.688965
3.960000 1.840000 -8.000000 -45.338295 -33.699448 3191.213867
3.960000 1.840000 -7.960000 -37.730026 -35.792095 2704.628906
3.960000 1.840000 -7.920000 -32.721561 -43.013504 2920.862061
3.960000 1.840000 -7.880000 -19.391502 -53.482830 3236.443359
3.960000 1.840000 -7.840000 4.142134 -54.580811 2996.222168
3.960000 1.840000 -7.800000 25.320074 -38.015812 2086.308105
3.960000 1.880000 -8.200000 -34.576923 10.877787 1313.889893
3.960000 1.880000 -8.160000 -46.558285 15.762754 2416.138184
3.960000 1.880000 -8.120000 -68.190475 10.247272 4754.947266
3.960000 1.880000 -8.080000 -88.102310 -13.305607 7939.056152
3.960000 1.880000 -8.040000 -91.660248 -50.817814 10984.050781
3.960000 1.880000 -8.000000 -71.223579 -87.827454 12786.459961
3.960000 1.880000 -7.960000 -31.718239 -107.975456 12664.746094
3.960000 1.880000 -7.920000 11.806694 -102.567657 10659.522461
3.960000 1.880000 -7.880000 42.480953 -75.367706 7484.922363
3.960000 1.880000 -7.840000 50.647781 -40.202522 4181.440430
3.960000 1.880000 -7.800000 38.608650 -13.080288 1661.721924
3.960000 1.920000 -8.200000 -14.375418 -15.995903 462.521545
3.960000 1.920000 -8.160000 -31.080505 4.297197 984.463684
3.960000 1.920000 -8.120000 -71.288521 0.209450 5082.097168
3.960000 1.920000 -8.080000 -104.312218 -44.465363 12858.207031
3.960000 1.920000 -8.040000 -95.321136 -112.574303 21759.093750
3.960000 1.920000 -8.000000 -36.055374 -162.763657 27791.998047
3.960000 1.920000 -7.960000 44.986748 -161.172165 28000.273438
3.960000 1.920000 -7.920000 103.044998 -108.428215 22374.949219
3.960000 1.920000 -7.880000 110.857178 -38.535889 13774.328125
3.960000 1.920000 -7.840000 76.815193 8.542774 5973.552734
3.960000 1.920000 -7.800000 33.733841 16.053474 1395.686035
3.960000 1.960000 -8.200000 16.926580 -15.379995 523.053345
3.960000 1.960000 -8.160000 -20.137707 7.716101 465.065430
3.960000 1.960000 -8.120000 -74.281715 -17.801964 5834.683594
3.960000 1.960000 -8.080000 -93.244797 -93.281006 17395.937500
3.960000 1.960000 -8.040000 -42.381344 -172.082947 31408.718750
3.960000 1.960000 -8.000000 59.933884 -194.266418 41331.511719
3.960000 1.960000 -7.960000 152.287827 -137.267990 42034.085938
3.960000 1.960000 -7.920000 178.864166 -36.134182 33298.070312
3.960000 1.960000 -7.880000 133.322433 45.482319 19843.511719
3.960000 1.960000 -7.840000 59.209728 66.593971 7940.548828
3.960000 1.960000 -7.800000 9.592087 36.368820 1414.699219
3.960000 2.000000 -8.200000 33.320343 8.849014 1188.550293
3.960000 2.000000 -8.160000 -21.160925 13.901031 641.023438
3.960000 2.000000 -8.120000 -65.653442 -41.650986 6045.179199
3.960000 2.000000 -8.080000 -45.547115 -128.888977 18686.908203
3.960000 2.000000 -8.040000 47.502048 -179.837677 34598.035156
3.960000 2.000000 -8.000000 159.559326 -144.296295 46280.597656
3.960000 2.000000 -7.960000 215.150635 -36.066833 47590.613281
3.960000 2.000000 -7.920000 179.551880 75.930573 38004.328125
3.960000 2.000000 -7.880000 85.671066 124.440887 22825.066406
3.960000 2.000000 -7.840000 2.255091 96.273376 9273.648438
3.960000 2.000000 -7.800000 -24.482834 34.303474 1776.137573
3.960000 2.040000 -8.200000 24.117546 34.480213 1770.541138
3.960000 2.040000 -8.160000 -28.397631 12.059368 951.853760
3.960000 2.040000 -8.120000 -41.860878 -58.557095 5181.266602
3.960000 2.040000 -8.080000 16.699465 -124.824333 15859.986328
3.960000 2.040000 -8.040000 120.368721 -123.518829 29745.531250
3.960000 2.040000 -8.000000 197.067719 -38.379524 40308.675781
3.960000 2.040000 -7.960000 188.589172 80.274033 42009.796875
3.960000 2.040000 -7.920000 100.324112 155.177383 34144.945312
3.960000 2.040000 -7.880000 -4.594048 145.380264 21156.527344
3.960000 2.040000 -7.840000 -60.062668 75.291275 9276.299805
3.960000 2.040000 -7.800000 -48.636662 5.983410 2401.326172
3.960000 2.080000 -8.200000 0.808843 42.190487 1780.691406
3.960000 2.080000 -8.160000 -31.191595 2.094938 977.304382
3.960000 2.080000 -8.120000 -12.661287 -58.016766 3526.253174
3.960000 2.080000 -8.080000 58.762402 -84.018280 10512.090820
3.960000 2.080000 -8.040000 135.261169 -39.527794 19858.031250
3.960000 2.080000 -8.000000 154.976959 56.435390 27202.810547
3.960000 2.080000 -7.960000 95.690346 140.074112 28777.398438
3.960000 2.080000 -7.920000 -4.372314 154.856293 23999.587891
3.960000 2.080000 -7.880000 -78.706299 97.454636 15692.087891
3.960000 2.080000 -7.840000 -87.289635 16.045036 7876.923828
3.960000 2.080000 -7.800000 -43.615021 -34.380486 3084.287842
3.960000 2.120000 -8.200000 -16.704889 31.334572 1260.908691
3.960000 2.120000 -8.160000 -25.055492 -7.637524 686.109497
3.960000 2.120000 -8.120000 7.673541 -42.120529 1833.022217
3.960000 2.120000 -8.080000 63.615700 -34.960258 5269.176758
3.960000 2.120000 -8.040000 97.445213 20.936287 9933.897461
3.960000 2.120000 -8.000000 74.512741 90.030052 13657.558594
3.960000 2.120000 -7.960000 3.575191 120.939056 14639.037109
3.960000 2.120000 -7.920000 -68.057358 89.629608 12665.270508
3.960000 2.120000 -7.880000 -93.454796 19.111712 9099.056641
3.960000 2.120000 -7.840000 -63.145020 -41.878853 5741.131836
3.960000 2.120000 -7.800000 -7.396687 -59.619843 3609.236572
3.960000 2.160000 -8.200000 -19.121632 16.291794 631.059326
3.960000 2.160000 -8.160000 -14.764726 -9.993683 317.870819
3.960000 2.160000 -8.120000 12.976857 -22.805307 688.480835
3.960000 2.160000 -8.080000 43.178459 -4.789654 1887.320190
3.960000 2.160000 -8.040000 46.729149 35.430687 3438.946777
3.960000 2.160000 -8.000000 13.327477 66.420288 4589.276367
3.960000 2.160000 -7.960000 -36.151409 59.909569 4896.081055
3.960000 2.160000 -7.920000 -65.361847 16.093090 4531.158203
3.960000 2.160000 -7.880000 -52.621548 -35.693165 4043.029297
3.960000 2.160000 -7.840000 -7.793990 -61.463890 3838.556152
3.960000 2.160000 -7.800000 38.414387 -49.049866 3881.554688
3.960000 2.200000 -8.200000 -13.306454 9.707030 271.288147
3.960000 2.200000 -8.160000 -8.089654 -5.669149 97.581757
3.960000 2.200000 -8.120000 8.495925 -10.319563 178.674118
3.960000 2.200000 -8.080000 21.756268 2.005438 477.356964
3.960000 2.200000 -8.040000 17.259850 21.114998 743.745544
3.960000 2.200000 -8.000000 -4.048370 27.741915 786.003113
3.960000 2.200000 -7.960000 -24.261292 11.312546 716.583984
3.960000 2.200000 -7.920000 -23.363205 -18.849545 901.144653
3.960000 2.200000 -7.880000 2.918415 -40.213165 1625.615723
3.960000 2.200000 -7.840000 38.990242 -35.653622 2791.419922
3.960000 2.200000 -7.800000 62.324905 -6.829382 3931.034180
4.000000 1.800000 -8.200000 -31.611013 54.813702 4003.798096
4.000000 1.800000 -8.160000 -70.649963 34.817219 6203.656250
4.000000 1.800000 -8.120000 -84.345413 -13.362684 7292.710449
4.000000 1.800000 -8.080000 -57.313843 -57.394131 6578.962891
4.000000 1.800000 -8.040000 -9.530334 -65.391983 4366.938477
4.000000 1.800000 -8.000000 20.841722 -37.260956 1822.756226
4.000000 1.800000 -7.960000 14.117542 -5.078621 225.097382
4.000000 1.800000 -7.920000 -12.438362 -0.986874 155.686768
4.000000 1.800000 -7.880000 -23.654955 -25.471968 1208.378052
4.000000 1.800000 -7.840000 -3.006593 -48.743797 2384.997314
4.000000 1.800000 -7.800000 31.408834 -42.904945 2827.349121
4.000000 1.840000 -8.200000 -50.608070 18.594509 2906.932617
4.000000 1.840000 -8.160000 -67.456543 -2.418947 4556.236328
4.000000 1.840000 -8.120000 -67.458389 -33.612003 5680.400879
4.000000 1.840000 -8.080000 -47.642036 -58.022842 5636.414062
4.000000 1.840000 -8.040000 -20.852827 -63.794052 4504.521484
4.000000 1.840000 -8.000000 -3.099091 -55.434120 3082.545898
4.000000 1.840000 -7.960000 2.302414 -47.604519 2271.491211
4.000000 1.840000 -7.920000 6.131172 -48.275459 2368.111328
4.000000 1.840000 -7.880000 18.842197 -50.271263 2882.228271
4.000000 1.840000 -7.840000 36.823936 -40.803177 3020.901611
4.000000 1.840000 -7.800000 45.368050 -18.083420 2385.270020
4.000000 1.880000 -8.200000 -34.831223 -17.141459 1507.043701
4.000000 1.880000 -8.160000 -43.688576 -21.160614 2356.463135
4.000000 1.880000 -8.120000 -53.944962 -37.560528 4320.852051
4.000000 1.880000 -8.080000 -52.718887 -65.513496 7071.298828
4.000000 1.880000 -8.040000 -31.924292 -93.344551 9732.365234
4.000000 1.880000 -8.000000 4.917908 -106.321991 11328.551758
4.000000 1.880000 -7.960000 44.426903 -96.430496 11272.590820
4.000000 1.880000 -7.920000 71.418022 -67.118484 9605.424805
4.000000 1.880000 -7.880000 77.251518 -30.853725 6919.749023
4.000000 1.880000 -7.840000 63.734131 -2.050612 4066.244629
4.000000 1.880000 -7.800000 41.291042 10.283575 1810.702148
4.000000 1.920000 -8.200000 0.312668 -25.359650 643.209595
4.000000 1.920000 -8.160000 -22.562248 -16.567894 783.550171
4.000000 1.920000 -8.120000 -51.455383 -40.660351 4300.920898
4.000000 1.920000 -8.080000 -51.959064 -93.200340 11386.047852
4.000000 1.920000 -8.040000 -6.088531 -140.229675 19701.431641
4.000000 1.920000 -8.000000 68.473816 -144.223450 25489.068359
4.000000 1.920000 -7.960000 129.454834 -95.581612 25894.398438
4.000000 1.920000 -7.920000 142.639191 -21.493847 20807.925781
4.000000 1.920000 -7.880000 107.617279 35.596016 12848.554688
4.000000 1.920000 -7.840000 55.034069 50.452660 5574.219727
4.000000 1.920000 -7.800000 19.894510 30.588551 1331.450928
4.000000 1.960000 -8.200000 25.050989 -3.769733 641.762939
4.000000 1.960000 -8.160000 -18.565342 -3.719139 358.503937
4.000000 1.960000 -8.120000 -49.238247 -54.021420 5342.718750
4.000000 1.960000 -8.080000 -22.660408 -125.784561 16335.250000
4.000000 1.960000 -8.040000 62.918522 -160.544540 29733.289062
4.000000 1.960000 -8.000000 157.734543 -119.824615 39238.125000
4.000000 1.960000 -7.960000 198.637421 -21.070587 39900.792969
4.000000 1.960000 -7.920000 161.083405 74.552803 31505.984375
4.000000 1.960000 -7.880000 77.741875 112.060616 18601.380859
4.000000 1.960000 -7.840000 8.072441 84.771469 7251.366211
4.000000 1.960000 -7.800000 -11.168020 32.274811 1166.388184
4.000000 2.000000 -8.200000 22.169006 25.746916 1154.368530
4.000000 2.000000 -8.160000 -26.687717 0.087740 712.241943
4.000000 2.000000 -8.120000 -33.336716 -71.035324 6157.353516
4.000000 2.000000 -8.080000 31.906654 -132.603271 18601.662109
4.000000 2.000000 -8.040000 137.684235 -122.858398 34051.136719
4.000000 2.000000 -8.000000 210.368011 -30.374899 45177.332031
4.000000 2.000000 -7.960000 194.817429 90.219635 46093.414062
4.000000 2.000000 -7.920000 101.783981 161.544113 36456.476562
4.000000 2.000000 -7.880000 -2.317999 146.843704 21568.447266
4.000000 2.000000 -7.840000 -52.750431 75.598099 8497.680664
4.000000 2.000000 -7.800000 -36.834137 10.851881 1474.516968
4.000000 2.040000 -8.200000 -0.324795 39.321449 1546.281860
4.000000 2.040000 -8.160000 -31.853045 -8.191779 1081.721680
4.000000 2.040000 -8.120000 -4.487314 -75.118500 5662.925293
4.000000 2.040000 -8.080000 81.399384 -99.209961 16468.476562
4.000000 2.040000 -8.040000 168.601013 -41.354492 30136.494141
4.000000 2.040000 -8.000000 186.813400 72.864502 40208.480469
4.000000 2.040000 -7.960000 114.123642 168.389404 41379.199219
4.000000 2.040000 -7.920000 -1.848284 182.219971 33207.535156
4.000000 2.040000 -7.880000 -84.098282 114.871094 20267.888672
4.000000 2.040000 -7.840000 -90.007027 24.881985 8720.377930
4.000000 2.040000 -7.800000 -39.980698 -25.380619 2242.632080
4.000000 2.080000 -8.200000 -21.021542 31.727209 1448.520996
4.000000 2.080000 -8.160000 -26.143568 -17.891777 1003.601807
4.000000 2.080000 -8.120000 21.150070 -58.722996 3895.715576
4.000000 2.080000 -8.080000 95.926056 -43.465385 11091.048828
4.000000 2.080000 -8.040000 138.591888 34.984409 20431.619141
4.000000 2.080000 -8.000000 105.235878 128.351395 27548.669922
4.000000 2.080000 -7.960000 9.641083 169.354248 28773.812500
4.000000 2.080000 -7.920000 -84.843109 128.497086 23709.855469
4.000000 2.080000 -7.880000 -117.789917 38.388073 15348.109375
4.000000 2.080000 -7.840000 -79.912193 -36.608635 7726.150391
4.000000 2.080000 -7.800000 -13.610950 -55.066242 3217.549072
4.000000 2.120000 -8.200000 -26.903557 16.298809 989.452576
4.000000 2.120000 -8.160000 -15.430616 -18.816399 592.160767
4.000000 2.120000 -8.120000 28.386124 -32.208130 1843.135742
4.000000 2.120000 -8.080000 73.249580 0.597565 5365.857910
4.000000 2.120000 -8.040000 76.222366 65.730576 10130.357422
4.000000 2.120000 -8.000000 22.671715 115.747528 13911.497070
4.000000 2.120000 -7.960000 -55.490738 108.460358 14842.871094
4.000000 2.120000 -7.920000 -103.712074 44.642128 12749.114258
4.000000 2.120000 -7.880000 -90.190125 -31.610584 9133.488281
4.000000 2.120000 -7.840000 -30.601147 -70.438416 5898.000488
4.000000 2.120000 -7.800000 29.438789 -55.985294 4000.995605
4.000000 2.160000 -8.200000 -22.692772 7.572966 572.311707
4.000000 2.160000 -8.160000 -10.381755 -12.313429 259.401367
4.000000 2.160000 -8.120000 17.925606 -13.516296 504.017578
4.000000 2.160000 -8.080000 38.114979 13.420848 1632.870728
4.000000 2.160000 -8.040000 26.202766 50.949802 3282.467285
4.000000 2.160000 -8.000000 -16.289593 65.990448 4620.089844
4.000000 2.160000 -7.960000 -58.870125 39.578777 5032.171387
4.000000 2.160000 -7.920000 -66.678932 -13.616753 4631.496094
4.000000 2.160000 -7.880000 -30.904438 -55.988510 4089.797607
4.000000 2.160000 -7.840000 23.806919 -58.439358 3981.927734
4.000000 2.160000 -7.800000 61.276840 -23.057121 4286.481934
4.000000 2.200000 -8.200000 -20.782257 6.676747 476.481171
4.000000 2.200000 -8.160000 -13.739896 -8.131157 254.900452
4.000000 2.200000 -8.120000 4.204082 -10.899506 136.473541
4.000000 2.200000 -8.080000 16.667267 3.571144 290.550873
4.000000 2.200000 -8.040000 9.767403 22.321796 593.664734
4.000000 2.200000 -8.000000 -11.895569 25.113590 772.197021
4.000000 2.200000 -7.960000 -26.996819 4.846825 752.319885
4.000000 2.200000 -7.920000 -16.890121 -23.270763 826.804688
4.000000 2.200000 -7.880000 15.994144 -34.058300 1415.780396
4.000000 2.200000 -7.840000 49.064342 -14.725964 2624.163818
4.000000 2.200000 -7.800000 58.823570 24.135567 4042.738037
4.040000 1.800000 -8.200000 -51.087341 23.634872 3168.523682
4.040000 1.800000 -8.160000 -69.697540 -13.905529 5051.110840
4.040000 1.800000 -8.120000 -53.286720 -59.542870 6384.828125
4.040000 1.800000 -8.080000 -6.630623 -79.976250 6440.166016
4.040000 1.800000 -8.040000 37.975594 -59.974247 5039.056152
4.040000 1.800000 -8.000000 49.471691 -18.572905 2792.401123
4.040000 1.800000 -7.960000 27.225700 8.260432 809.473511
4.040000 1.800000 -7.920000 0.520889 1.976507 4.177907
4.040000 1.800000 -7.880000 -1.437410 -22.091303 490.091827
4.040000 1.800000 -7.840000 21.875713 -32.606098 1541.704468
4.040000 1.800000 -7.800000 44.156925 -15.131477 2178.795654
4.040000 1.840000 -8.200000 -46.165676 -14.489904 2341.226807
4.040000 1.840000 -8.160000 -46.017982 -40.645748 3769.731445
4.040000 1.840000 -8.120000 -26.373430 -65.238762 4951.653809
4.040000 1.840000 -8.080000 6.093544 -72.091721 5234.347656
4.040000 1.840000 -8.040000 33.228764 -57.557098 4416.970215
4.040000 1.840000 -8.000000 42.107277 -34.645760 2973.351562
4.040000 1.840000 -7.960000 36.702431 -20.055820 1749.304443
4.040000 1.840000 -7.920000 31.882484 -17.880325 1336.198853
4.040000 1.840000 -7.880000 36.481049 -17.559013 1639.185913
4.040000 1.840000 -7.840000 44.191887 -7.879819 2015.014404
4.040000 1.840000 -7.800000 42.184181 9.053050 1861.462891
4.040000 1.880000 -8.200000 -14.618078 -32.462250 1267.485840
4.040000 1.880000 -8.160000 -16.907940 -39.960770 1882.741577
4.040000 1.880000 -8.120000 -12.728939 -56.436340 3347.086426
4.040000 1.880000 -8.080000 5.987911 -72.815544 5337.958496
4.040000 1.880000 -8.040000 36.302750 -76.291420 7138.270508
4.040000 1.880000 -8.000000 65.927101 -60.802208 8043.291016
4.040000 1.880000 -7.960000 82.189125 -31.387421 7740.222656
4.040000 1.880000 -7.920000 80.083664 0.011791 6413.393066
4.040000 1.880000 -7.880000 63.749187 22.334761 4562.800293
4.040000 1.880000 -7.840000 42.429718 30.595259 2736.350830
4.040000 1.880000 -7.800000 25.260590 26.537043 1342.312012
4.040000 1.920000 -8.200000 15.564476 -18.811718 596.133667
4.040000 1.920000 -8.160000 -4.865934 -22.653366 536.852295
4.040000 1.920000 -8.120000 -12.569427 -53.105049 2978.136719
4.040000 1.920000 -8.080000 14.246864 -88.391914 8016.103516
4.040000 1.920000 -8.040000 69.551178 -95.364410 13931.737305
4.040000 1.920000 -8.000000 120.945862 -58.243225 18020.173828
4.040000 1.920000 -7.960000 134.956207 6.245392 18252.183594
4.040000 1.920000 -7.920000 103.977028 61.334328 14573.122070
4.040000 1.920000 -7.880000 51.237659 79.087708 8880.164062
4.040000 1.920000 -7.840000 10.652683 60.231140 3741.270020
4.040000 1.920000 -7.800000 0.575449 29.262020 856.596924
4.040000 1.960000 -8.200000 21.131767 10.189240 550.372192
4.040000 1.960000 -8.160000 -11.479713 -10.718859 246.677734
4.040000 1.960000 -8.120000 -9.113359 -61.952518 3921.167725
4.040000 1.960000 -8.080000 45.413837 -99.708023 12004.106445
4.040000 1.960000 -8.040000 123.222664 -81.092621 21759.837891
4.040000 1.960000 -8.000000 168.951111 -4.365070 28563.533203
4.040000 1.960000 -7.960000 146.897400 85.334579 28860.835938
4.040000 1.960000 -7.920000 71.714706 132.028900 22574.628906
4.040000 1.960000 -7.880000 -4.646320 114.321808 13091.063477
4.040000 1.960000 -7.840000 -36.928055 59.255852 4874.937012
4.040000 1.960000 -7.800000 -20.807209 14.493526 643.002258
4.040000 2.000000 -8.200000 3.299870 28.753168 837.633850
4.040000 2.000000 -8.160000 -20.461107 -14.178596 619.689514
4.040000 2.000000 -8.120000 9.305061 -69.682358 4942.214844
4.040000 2.000000 -8.080000 87.021088 -82.711288 14413.827148
4.040000 2.000000 -8.040000 159.063354 -23.655979 25860.755859
4.040000 2.000000 -8.000000 165.938354 79.150787 33800.382812
4.040000 2.000000 -7.960000 94.768570 158.230804 34018.070312
4.040000 2.000000 -7.920000 -7.554026 162.598557 26495.353516
4.040000 2.000000 -7.880000 -73.923645 99.344925 15334.119141
4.040000 2.000000 -7.840000 -72.412399 23.371040 5789.761230
4.040000 2.000000 -7.800000 -26.871611 -12.672628 882.678955
4.040000 2.040000 -8.200000 -18.000072 25.978745 998.897766
4.040000 2.040000 -8.160000 -18.018997 -23.802502 891.243347
4.040000 2.040000 -8.120000 34.203766 -59.755074 4740.566406
4.040000 2.040000 -8.080000 108.994049 -36.362667 13201.946289
4.040000 2.040000 -8.040000 145.574814 48.061386 23501.923828
4.040000 2.040000 -8.000000 104.113083 140.961548 30709.691406
4.040000 2.040000 -7.960000 4.478544 176.042908 31011.162109
4.040000 2.040000 -7.920000 -87.248444 129.548584 24395.126953
4.040000 2.040000 -7.880000 -113.873604 39.731522 14545.791016
4.040000 2.040000 -7.840000 -72.738762 -28.377394 6096.203613
4.040000 2.040000 -7.800000 -10.842039 -38.388706 1591.242554
4.040000 2.080000 -8.200000 -26.336460 12.008688 837.817749
4.040000 2.080000 -8.160000 -7.201402 -25.126471 683.199707
4.040000 2.080000 -8.120000 45.642723 -32.781837 3157.906982
4.040000 2.080000 -8.080000 93.397858 12.763641 8886.070312
4.040000 2.080000 -8.040000 88.856194 90.392380 16066.205078
4.040000 2.080000 -8.000000 20.923313 144.352997 21275.572266
4.040000 2.080000 -7.960000 -69.403076 130.320496 21800.218750
4.040000 2.080000 -7.920000 -120.552399 55.226151 17582.808594
4.040000 2.080000 -7.880000 -101.838577 -27.787695 11143.251953
4.040000 2.080000 -7.840000 -36.877819 -65.078308 5595.159668
4.040000 2.080000 -7.800000 21.579374 -45.496986 2535.645264
4.040000 2.120000 -8.200000 -23.116652 2.675951 541.540283
4.040000 2.120000 -8.160000 -1.681384 -16.103743 262.157593
4.040000 2.120000 -8.120000 34.230217 -7.541281 1228.578735
4.040000 2.120000 -8.080000 52.741333 34.656364 3982.711914
4.040000 2.120000 -8.040000 27.353508 83.564423 7731.227051
4.040000 2.120000 -8.000000 -33.892830 97.586525 10671.853516
4.040000 2.120000 -7.960000 -89.205070 57.777771 11295.815430
4.040000 2.120000 -7.920000 -96.902771 -12.068878 9535.805664
4.040000 2.120000 -7.880000 -51.502167 -63.800320 6722.954102
4.040000 2.120000 -7.840000 12.403748 -65.396751 4430.587891
4.040000 2.120000 -7.800000 51.560150 -25.331196 3300.118408
4.040000 2.160000 -8.200000 -20.808762 1.738804 436.027985
4.040000 2.160000 -8.160000 -8.115046 -8.623098 140.211792
4.040000 2.160000 -8.120000 11.716014 -1.815184 140.559875
4.040000 2.160000 -8.080000 17.793022 23.329329 860.849243
4.040000 2.160000 -8.040000 -3.313797 46.332756 2157.705566
4.040000 2.160000 -8.000000 -39.833698 41.922142 3344.189453
4.040000 2.160000 -7.960000 -61.247353 5.728516 3784.054199
4.040000 2.160000 -7.920000 -45.269375 -37.773575 3476.159180
4.040000 2.160000 -7.880000 0.574219 -55.021801 3027.728516
4.040000 2.160000 -7.840000 44.526844 -32.496857 3038.685547
4.040000 2.160000 -7.800000 58.002766 12.753643 3526.976318
4.040000 2.200000 -8.200000 -25.626478 -0.308934 656.811829
4.040000 2.200000 -8.160000 -17.887854 -13.629030 505.725769
4.040000 2.200000 -8.120000 -1.073719 -14.509260 211.671509
4.040000 2.200000 -8.080000 8.568424 -0.519005 73.687256
4.040000 2.200000 -8.040000 0.777908 14.055153 198.152466
4.040000 2.200000 -8.000000 -16.049911 12.366058 410.519073
4.040000 2.200000 -7.960000 -21.755098 -6.349133 513.595764
4.040000 2.200000 -7.920000 -4.866974 -23.808882 590.550293
4.040000 2.200000 -7.880000 24.457516 -19.521027 979.240601
4.040000 2.200000 -7.840000 42.651039 9.323629 1906.041138
4.040000 2.200000 -7.800000 33.901283 44.853706 3161.151855
4.080000 1.800000 -8.200000 -41.097561 -5.646026 1720.887085
4.080000 1.800000 -8.160000 -36.432320 -40.034855 2930.103516
4.080000 1.800000 -8.120000 -3.510942 -64.953667 4231.305664
4.080000 1.800000 -8.080000 40.777321 -58.337162 5066.014160
4.080000 1.800000 -8.040000 66.398376 -21.731514 4881.003418
4.080000 1.800000 -8.000000 57.051308 18.335617 3591.046631
4.080000 1.800000 -7.960000 25.566788 33.633186 1784.851929
4.080000 1.800000 -7.920000 1.517174 19.747845 392.279175
4.080000 1.800000 -7.880000 2.945796 -1.743912 11.718940
4.080000 1.800000 -7.840000 20.718683 -6.359573 469.708008
4.080000 1.800000 -7.800000 30.712692 9.023716 1024.696899
4.080000 1.840000 -8.200000 -21.889086 -28.571753 1295.477051
4.080000 1.840000 -8.160000 -9.070631 -46.789391 2271.523438
4.080000 1.840000 -8.120000 18.240606 -55.074219 3365.889404
4.080000 1.840000 -8.080000 47.709839 -42.517220 4083.942871
4.080000 1.840000 -8.040000 61.659775 -13.637697 3987.914551
4.080000 1.840000 -8.000000 53.494678 13.834300 3053.068604
4.080000 1.840000 -7.960000 33.925659 24.794052 1765.695312
4.080000 1.840000 -7.920000 20.114767 20.027901 805.720703
4.080000 1.840000 -7.880000 19.117039 13.078716 536.514038
4.080000 1.840000 -7.840000 23.107864 14.687441 749.694336
4.080000 1.840000 -7.800000 20.667145 21.969587 909.793640
4.080000 1.880000 -8.200000 5.936352 -26.150522 719.090088
4.080000 1.880000 -8.160000 8.999748 -32.247814 1120.916992
4.080000 1.880000 -8.120000 22.203827 -39.898407 2084.892822
4.080000 1.880000 -8.080000 44.237194 -37.320797 3349.771240
4.080000 1.880000 -8.040000 63.511818 -18.931810 4392.164551
4.080000 1.880000 -8.000000 68.264633 8.829868 4738.026855
4.080000 1.880000 -7.960000 56.359116 32.908363 4259.310059
4.080000 1.880000 -7.920000 35.850971 44.044357 3225.197510
4.080000 1.880000 -7.880000 17.381796 42.202900 2083.211426
4.080000 1.880000 -7.840000 6.823092 33.622093 1176.999756
4.080000 1.880000 -7.800000 4.181069 24.636831 624.454773
4.080000 1.920000 -8.200000 18.327229 -4.302868 354.401978
4.080000 1.920000 -8.160000 7.394381 -15.398186 291.781006
4.080000 1.920000 -8.120000 17.147400 -36.336449 1614.370850
4.080000 1.920000 -8.080000 49.321800 -43.096321 4289.932617
4.080000 1.920000 -8.040000 83.528290 -19.678587 7364.221680
4.080000 1.920000 -8.000000 93.452904 26.247211 9422.361328
4.080000 1.920000 -7.960000 69.146355 68.266876 9441.583984
4.080000 1.920000 -7.920000 25.345404 82.388428 7430.242676
4.080000 1.920000 -7.880000 -10.963688 65.474121 4407.062988
4.080000 1.920000 -7.840000 -21.878040 35.474129 1737.062500
4.080000 1.920000 -7.800000 -10.198958 15.166751 334.049072
4.080000 1.960000 -8.200000 8.673902 15.230555 307.206360
4.080000 1.960000 -8.160000 -3.060787 -12.094202 155.638153
4.080000 1.960000 -8.120000 20.539188 -42.439415 2222.962158
4.080000 1.960000 -8.080000 69.928192 -41.228317 6589.726562
4.080000 1.960000 -8.040000 108.133865 4.420507 11712.473633
4.080000 1.960000 -8.000000 100.998459 70.463722 15165.824219
4.080000 1.960000 -7.960000 47.585289 113.557091 15159.572266
4.080000 1.960000 -7.920000 -17.736069 106.804085 11721.680664
4.080000 1.960000 -7.880000 -53.876534 61.318638 6662.656250
4.080000 1.960000 -7.840000 -46.160198 14.553843 2342.578125
4.080000 1.960000 -7.800000 -14.570432 -2.410023 218.105698
4.080000 2.000000 -8.200000 -9.168177 17.723194 398.167053
4.080000 2.000000 -8.160000 -5.718315 -19.381533 408.342926
4.080000 2.000000 -8.120000 36.267456 -41.330585 3023.545654
4.080000 2.000000 -8.080000 89.890083 -16.596539 8355.671875
4.080000 2.000000 -8.040000 109.418404 50.366783 14509.199219
4.080000 2.000000 -8.000000 69.968063 116.699944 18514.406250
4.080000 2.000000 -7.960000 -7.686723 134.902985 18257.900391
4.080000 2.000000 -7.920000 -72.324005 93.273743 13930.752930
4.080000 2.000000 -7.880000 -84.883072 25.460844 7853.390137
4.080000 2.000000 -7.840000 -49.464836 -19.708744 2835.204590
4.080000 2.000000 -7.800000 -5.070415 -19.414196 402.620117
4.080000 2.040000 -8.200000 -18.394329 7.705311 397.723175
4.080000 2.040000 -8.160000 2.331489 -22.338341 504.437317
4.080000 2.040000 -8.120000 49.125580 -22.869118 2936.319092
4.080000 2.040000 -8.080000 85.847366 22.174381 7861.473633
4.080000 2.040000 -8.040000 74.189064 89.673157 13545.291992
4.080000 2.040000 -8.000000 10.248333 130.789520 17210.927734
4.080000 2.040000 -7.960000 -66.645004 111.663498 16910.292969
4.080000 2.040000 -7.920000 -104.691208 44.177696 12911.917969
4.080000 2.040000 -7.880000 -83.057816 -23.372498 7444.874023
4.080000 2.040000 -7.840000 -27.560217 -47.768295 3041.375488
4.080000 2.040000 -7.800000 15.286782 -25.644283 891.315002
4.080000 2.080000 -8.200000 -16.459246 -0.447820 271.107300
4.080000 2.080000 -8.160000 8.580104 -13.731037 262.159546
4.080000 2.080000 -8.120000 42.316341 2.302926 1795.976196
4.080000 2.080000 -8.080000 53.284119 48.129173 5155.614258
4.080000 2.080000 -8.040000 20.311901 93.823441 9215.411133
4.080000 2.080000 -8.000000 -42.931946 100.629349 11969.417969
4.080000 2.080000 -7.960000 -93.860306 55.980309 11943.551758
4.080000 2.080000 -7.920000 -95.721725 -12.004675 9306.760742
4.080000 2.080000 -7.880000 -49.548161 -56.835037 5685.241699
4.080000 2.080000 -7.840000 7.556376 -52.936283 2859.348877
4.080000 2.080000 -7.800000 36.074768 -14.884722 1522.943848
4.080000 2.120000 -8.200000 -13.946262 -0.522893 194.771652
4.080000 2.120000 -8.160000 1.886073 -3.132103 13.367341
4.080000 2.120000 -8.120000 17.858654 12.792519 482.580048
4.080000 2.120000 -8.080000 13.903318 42.304886 1983.005615
4.080000 2.120000 -8.040000 -17.802147 61.561874 4106.780762
4.080000 2.120000 -8.000000 -59.212250 47.687958 5780.231934
4.080000 2.120000 -7.960000 -77.903366 2.758648 6076.544922
4.080000 2.120000 -7.920000 -55.624367 -43.544273 4990.173828
4.080000 2.120000 -7.880000 -6.292442 -58.077908 3412.638184
4.080000 2.120000 -7.840000 35.332214 -32.875618 2329.171631
4.080000 2.120000 -7.800000 43.894302 9.494055 2016.846924
4.080000 2.160000 -8.200000 -18.794029 -0.239363 353.272827
4.080000 2.160000 -8.160000 -12.670763 -5.353387 189.206985
4.080000 2.160000 -8.120000 -3.470894 -0.432327 12.234011
4.080000 2.160000 -8.080000 -4.353844 12.942355 186.460510
4.080000 2.160000 -8.040000 -20.173944 19.894634 802.784546
4.080000 2.160000 -8.000000 -38.244110 7.315876 1516.134033
4.080000 2.160000 -7.960000 -38.376194 -19.799177 1864.739746
4.080000 2.160000 -7.920000 -13.421700 -39.560524 1745.177002
4.080000 2.160000 -7.880000 21.271503 -32.699287 1521.720215
4.080000 2.160000 -7.840000 40.413765 -1.043777 1634.361816
4.080000 2.160000 -7.800000 31.180162 33.982048 2126.981934
4.080000 2.200000 -8.200000 -25.444798 -9.502172 737.729004
4.080000 2.200000 -8.160000 -18.250074 -22.080032 820.593018
4.080000 2.200000 -8.120000 -3.071995 -23.545330 563.819702
4.080000 2.200000 -8.080000 6.282827 -12.781361 202.837097
4.080000 2.200000 -8.040000 2.739026 -1.681286 10.328983
4.080000 2.200000 -8.000000 -5.951111 -1.741871 38.449837
4.080000 2.200000 -7.960000 -5.820663 -10.702551 148.424713
4.080000 2.200000 -7.920000 7.324444 -14.330372 259.007019
4.080000 2.200000 -7.880000 22.100910 -1.644077 491.153229
4.080000 2.200000 -7.840000 22.428192 22.782333 1022.058533
4.080000 2.200000 -7.800000 3.366186 42.505722 1818.067627
4.120000 1.800000 -8.200000 -18.305389 -12.917786 501.956482
4.120000 1.800000 -8.160000 -3.360188 -31.305088 991.299438
4.120000 1.800000 -8.120000 26.306433 -34.973141 1915.148926
4.120000 1.800000 -8.080000 53.603516 -13.975536 3068.652588
4.120000 1.800000 -8.040000 58.175880 22.452911 3888.566406
4.120000 1.800000 -8.000000 35.280716 50.784149 3823.758789
4.120000 1.800000 -7.960000 1.713147 53.000053 2811.940430
4.120000 1.800000 -7.920000 -18.548578 32.520805 1401.652588
4.120000 1.800000 -7.880000 -15.627462 10.032613 344.870911
4.120000 1.800000 -7.840000 -0.907454 3.211327 11.136092
4.120000 1.800000 -7.800000 6.729197 10.844341 162.881821
4.120000 1.840000 -8.200000 -2.032557 -19.345472 378.378601
4.120000 1.840000 -8.160000 12.346323 -25.931694 824.884460
4.120000 1.840000 -8.120000 34.247410 -20.603827 1597.402832
4.120000 1.840000 -8.080000 50.178875 1.905101 2521.548828
4.120000 1.840000 -8.040000 46.430756 31.831480 3169.058350
4.120000 1.840000 -8.000000 23.224529 50.805672 3120.595215
4.120000 1.840000 -7.960000 -3.842171 48.120163 2330.312256
4.120000 1.840000 -7.920000 -17.532028 30.305428 1225.791016
4.120000 1.840000 -7.880000 -14.040812 13.976289 392.481049
4.120000 1.840000 -7.840000 -4.083559 9.624237 109.301392
4.120000 1.840000 -7.800000 0.277370 13.406987 179.824234
4.120000 1.880000 -8.200000 10.583877 -9.756457 207.206909
4.120000 1.880000 -8.160000 15.725880 -12.641463 407.109894
4.120000 1.880000 -8.120000 28.805559 -9.832501 926.438354
4.120000 1.880000 -8.080000 40.472183 5.786975 1671.486694
4.120000 1.880000 -8.040000 38.737862 29.146862 2350.161621
4.120000 1.880000 -8.000000 21.161798 46.534096 2613.243896
4.120000 1.880000 -7.960000 -2.261661 47.916054 2301.063232
4.120000 1.880000 -7.920000 -18.073238 35.365353 1577.350098
4.120000 1.880000 -7.880000 -20.505564 19.766512 811.193115
4.120000 1.880000 -7.840000 -14.000850 10.486009 305.980164
4.120000 1.880000 -7.800000 -6.358543 9.069547 122.687744
4.120000 1.920000 -8.200000 9.210532 3.899170 100.037430
4.120000 1.920000 -8.160000 8.641426 -5.896128 109.438568
4.120000 1.920000 -8.120000 22.385601 -10.646784 614.469116
4.120000 1.920000 -8.080000 39.443062 1.517702 1558.058594
4.120000 1.920000 -8.040000 42.963108 27.676403 2611.812012
4.120000 1.920000 -8.000000 25.419964 51.615990 3310.385010
4.120000 1.920000 -7.960000 -4.384834 57.365376 3310.013184
4.120000 1.920000 -7.920000 -28.563169 42.231094 2599.320068
4.120000 1.920000 -7.880000 -34.450634 18.138103 1515.836914
4.120000 1.920000 -7.840000 -23.347233 1.274749 546.718262
4.120000 1.920000 -7.800000 -7.402133 -0.005347 54.791599
4.120000 1.960000 -8.200000 -0.823960 8.677209 75.972862
4.120000 1.960000 -8.160000 3.707887 -9.013464 94.990952
4.120000 1.960000 -8.120000 26.060242 -14.426716 887.266296
4.120000 1.960000 -8.080000 48.401100 4.671329 2364.487793
4.120000 1.960000 -8.040000 48.772816 40.103889 3987.109375
4.120000 1.960000 -8.000000 20.471294 67.849632 5022.646484
4.120000 1.960000 -7.960000 -20.613562 67.372589 4963.984863
4.120000 1.960000 -7.920000 -48.154415 38.990364 3839.096191
4.120000 1.960000 -7.880000 -46.697529 3.644502 2193.941650
4.120000 1.960000 -7.840000 -23.465820 -14.650565 765.283752
4.120000 1.960000 -7.800000 -0.732658 -7.949611 63.733101
4.120000 2.000000 -8.200000 -7.392760 4.087654 71.361816
4.120000 2.000000 -8.160000 7.553969 -12.016792 201.465729
4.120000 2.000000 -8.120000 34.988739 -7.748347 1284.248779
4.120000 2.000000 -8.080000 52.031918 22.381332 3208.244629
4.120000 2.000000 -8.040000 38.643806 61.203590 5239.223145
4.120000 2.000000 -8.000000 -3.082771 79.959900 6403.088867
4.120000 2.000000 -7.960000 -47.338909 62.179607 6107.275879
4.120000 2.000000 -7.920000 -64.589348 19.029305 4533.897949
4.120000 2.000000 -7.880000 -46.238396 -19.062450 2501.366211
4.120000 2.000000 -7.840000 -11.373962 -27.911989 908.446167
4.120000 2.000000 -7.800000 10.740036 -9.162374 199.297485
4.120000 2.040000 -8.200000 -6.324099 -0.309772 40.090183
4.120000 2.040000 -8.160000 12.644691 -5.825916 193.829498
4.120000 2.040000 -8.120000 33.627865 9.353348 1218.318359
4.120000 2.040000 -8.080000 36.145214 42.009789 3071.298828
4.120000 2.040000 -8.040000 9.124669 70.467010 5048.859375
4.120000 2.040000 -8.000000 -35.117035 70.130455 6151.486816
4.120000 2.040000 -7.960000 -67.051857 35.836063 5780.174805
4.120000 2.040000 -7.920000 -63.834396 -10.647678 4188.203125
4.120000 2.040000 -7.880000 -29.656712 -37.494461 2285.355225
4.120000 2.040000 -7.840000 7.549636 -29.851954 948.136108
4.120000 2.040000 -7.800000 20.906479 -1.707116 439.995117
4.120000 2.080000 -8.200000 -4.690605 1.480537 24.193764
4.120000 2.080000 -8.160000 7.289872 4.820533 76.379768
4.120000 2.080000 -8.120000 15.146775 20.768032 660.735962
4.120000 2.080000 -8.080000 6.264103 42.866028 1876.735352
4.120000 2.080000 -8.040000 -21.666903 53.306595 3311.047607
4.120000 2.080000 -8.000000 -52.882515 37.576641 4208.564453
4.120000 2.080000 -7.960000 -63.537834 0.620093 4037.440918
4.120000 2.080000 -7.920000 -42.836227 -33.386593 2949.606934
4.120000 2.080000 -7.880000 -4.721988 -40.586563 1669.566284
4.120000 2.080000 -7.840000 23.140963 -18.632427 882.671509
4.120000 2.080000 -7.800000 23.793903 11.606714 700.865662
4.120000 2.120000 -8.200000 -9.895318 4.108631 114.798172
4.120000 2.120000 -8.160000 -8.289537 5.739686 101.660431
4.120000 2.120000 -8.120000 -7.676849 11.596813 193.420105
4.120000 2.120000 -8.080000 -14.784798 19.111012 583.821045
4.120000 2.120000 -8.040000 -30.057463 18.217957 1235.344971
4.120000 2.120000 -8.000000 -42.321125 2.089027 1795.441650
4.120000 2.120000 -7.960000 -37.367073 -22.069828 1883.375366
4.120000 2.120000 -7.920000 -13.188713 -36.066620 1474.743164
4.120000 2.120000 -7.880000 14.982116 -26.968151 951.744995
4.120000 2.120000 -7.840000 27.107826 -0.304696 734.927063
4.120000 2.120000 -7.800000 16.645275 24.387123 871.796936
4.120000 2.160000 -8.200000 -18.513947 -1.909371 346.411896
4.120000 2.160000 -8.160000 -19.394440 -9.606817 468.435242
4.120000 2.160000 -8.120000 -13.784440 -13.733599 378.622528
4.120000 2.160000 -8.080000 -9.216194 -11.601225 219.526657
4.120000 2.160000 -8.040000 -10.228261 -9.312288 191.336029
4.120000 2.160000 -8.000000 -12.004705 -13.081846 315.247650
4.120000 2.160000 -7.960000 -6.197851 -19.912107 434.905396
4.120000 2.160000 -7.920000 7.757397 -19.451614 438.542511
4.120000 2.160000 -7.880000 19.599827 -5.644742 416.016296
4.120000 2.160000 -7.840000 17.871475 15.174485 549.654602
4.120000 2.160000 -7.800000 1.762267 29.461199 871.067810
4.120000 2.200000 -8.200000 -18.832039 -16.906931 640.489990
4.120000 2.200000 -8.160000 -11.957722 -30.123896 1050.436157
4.120000 2.200000 -8.120000 4.004915 -33.484169 1137.228882
4.120000 2.200000 -8.080000 17.123278 -24.220394 879.834106
4.120000 2.200000 -8.040000 19.649296 -10.548025 497.355652
4.120000 2.200000 -8.000000 14.617153 -1.911069 217.313354
4.120000 2.200000 -7.960000 10.322340 0.586098 106.894218
4.120000 2.200000 -7.920000 10.068230 3.248858 111.924332
4.120000 2.200000 -7.880000 9.041034 10.690093 196.018372
4.120000 2.200000 -7.840000 1.024304 19.673473 388.094757
4.120000 2.200000 -7.800000 -13.682160 22.637762 699.669800
4.160000 1.800000 -8.200000 -5.412044 -1.372701 31.174524
4.160000 1.800000 -8.160000 4.582379 -6.491289 63.135033
4.160000 1.800000 -8.120000 20.765608 -1.822047 434.530334
4.160000 1.800000 -8.080000 31.581711 17.624969 1308.044067
4.160000 1.800000 -8.040000 24.104336 43.371468 2462.103271
4.160000 1.800000 -8.000000 -2.196081 57.590912 3321.535889
4.160000 1.800000 -7.960000 -31.827877 48.483936 3363.705811
4.160000 1.800000 -7.920000 -45.509033 21.971031 2553.798340
4.160000 1.800000 -7.880000 -37.079891 -3.041087 1384.166504
4.160000 1.800000 -7.840000 -18.058929 -11.854543 466.655121
4.160000 1.800000 -7.800000 -5.100450 -6.340284 66.213799
4.160000 1.840000 -8.200000 -0.812235 -3.136438 10.496967
4.160000 1.840000 -8.160000 7.372738 -3.893747 69.518532
4.160000 1.840000 -8.120000 18.943636 5.059399 384.458862
4.160000 1.840000 -8.080000 21.699520 25.310108 1111.470703
4.160000 1.840000 -8.040000 6.619533 45.174923 2084.591797
4.160000 1.840000 -8.000000 -20.740395 48.798828 2811.489746
4.160000 1.840000 -7.960000 -42.902912 31.474867 2831.327148
4.160000 1.840000 -7.920000 -45.712811 5.092644 2115.596191
4.160000 1.840000 -7.880000 -30.829279 -12.531974 1107.494873
4.160000 1.840000 -7.840000 -12.679729 -13.618707 346.244720
4.160000 1.840000 -7.800000 -3.515291 -5.260200 40.026970
4.160000 1.880000 -8.200000 1.095428 -0.871145 1.958856
4.160000 1.880000 -8.160000 5.826459 -1.446933 36.041241
4.160000 1.880000 -8.120000 12.699263 6.602992 204.870773
4.160000 1.880000 -8.080000 10.796212 22.306686 614.146484
4.160000 1.880000 -8.040000 -4.831008 34.303814 1200.090332
4.160000 1.880000 -8.000000 -26.442390 31.439697 1687.654541
4.160000 1.880000 -7.960000 -39.795975 13.951987 1778.377563
4.160000 1.880000 -7.920000 -36.956860 -6.370169 1406.388550
4.160000 1.880000 -7.880000 -22.652334 -16.975437 801.293701
4.160000 1.880000 -7.840000 -8.377116 -14.844076 290.522675
4.160000 1.880000 -7.800000 -1.502084 -6.328332 42.304047
4.160000 1.920000 -8.200000 0.108077 0.083455 0.018645
4.160000 1.920000 -8.160000 4.438527 -2.631573 26.625698
4.160000 1.920000 -8.120000 10.283907 2.994815 114.727661
4.160000 1.920000 -8.080000 8.564262 14.625902 287.263611
4.160000 1.920000 -8.040000 -3.548702 22.855183 534.952637
4.160000 1.920000 -8.000000 -19.548891 19.859243 776.548706
4.160000 1.920000 -7.960000 -29.174557 6.373304 891.773804
4.160000 1.920000 -7.920000 -26.893753 -9.198724 807.890442
4.160000 1.920000 -7.880000 -15.556867 -17.791702 558.560791
4.160000 1.920000 -7.840000 -3.108782 -15.976865 264.924744
4.160000 1.920000 -7.800000 3.489297 -6.770144 58.010040
4.160000 1.960000 -8.200000 0.578117 -1.031170 1.397531
4.160000 1.960000 -8.160000 7.243448 -3.345421 63.659386
4.160000 1.960000 -8.120000 13.613595 2.482216 191.491364
4.160000 1.960000 -8.080000 12.664188 13.357183 338.796021
4.160000 1.960000 -8.040000 2.347643 21.477379 466.789215
4.160000 1.960000 -8.000000 -12.372162 19.938196 550.602051
4.160000 1.960000 -7.960000 -22.560154 8.019019 573.265198
4.160000 1.960000 -7.920000 -21.530783 -7.643304 521.994690
4.160000 1.960000 -7.880000 -10.008932 -17.254583 397.899353
4.160000 1.960000 -7.840000 3.754781 -14.816154 233.616806
4.160000 1.960000 -7.800000 9.561583 -2.921715 99.960274
4.160000 2.000000 -8.200000 3.583582 0.162354 12.868422
4.160000 2.000000 -8.160000 10.367456 2.025521 111.586891
4.160000 2.000000 -8.120000 14.394536 9.609460 299.544373
4.160000 2.000000 -8.080000 11.390394 19.898476 525.690430
4.160000 2.000000 -8.040000 0.111894 26.549313 704.878540
4.160000 2.000000 -8.000000 -14.786371 23.156033 754.838623
4.160000 2.000000 -7.960000 -23.935005 8.998595 653.859192
4.160000 2.000000 -7.920000 -19.954834 -8.061768 463.187500
4.160000 2.000000 -7.880000 -4.817969 -16.199894 285.649384
4.160000 2.000000 -7.840000 9.886360 -9.614972 190.187805
4.160000 2.000000 -7.800000 12.106577 5.152927 173.121857
4.160000 2.040000 -8.200000 4.099545 5.899661 51.612267
4.160000 2.040000 -8.160000 5.576809 11.038975 152.959763
4.160000 2.040000 -8.120000 4.293583 16.890980 303.740051
4.160000 2.040000 -8.080000 -1.088518 22.584295 511.235260
4.160000 2.040000 -8.040000 -11.397058 24.279957 719.409241
4.160000 2.040000 -8.000000 -22.519878 17.210327 803.340332
4.160000 2.040000 -7.960000 -25.939133 2.124585 677.352478
4.160000 2.040000 -7.920000 -16.400150 -11.811626 408.479462
4.160000 2.040000 -7.880000 0.740001 -13.619817 186.047012
4.160000 2.040000 -7.840000 12.119761 -1.581511 149.389786
4.160000 2.040000 -7.800000 8.597317 13.241917 249.262207
4.160000 2.080000 -8.200000 -2.581376 11.056868 128.917816
4.160000 2.080000 -8.160000 -8.493294 13.073755 243.059113
4.160000 2.080000 -8.120000 -12.510405 11.540731 289.698700
4.160000 2.080000 -8.080000 -15.013070 10.007751 325.547333
4.160000 2.080000 -8.040000 -18.604496 7.750157 406.192200
4.160000 2.080000 -8.000000 -21.739803 1.364139 474.479919
4.160000 2.080000 -7.960000 -18.777481 -8.278575 421.128601
4.160000 2.080000 -7.920000 -7.466384 -13.731154 244.291489
4.160000 2.080000 -7.880000 5.504191 -8.091355 95.766151
4.160000 2.080000 -7.840000 9.430528 5.969234 124.566612
4.160000 2.080000 -7.800000 0.990089 16.904001 286.725555
4.160000 2.120000 -8.200000 -13.092830 7.708800 230.847794
4.160000 2.120000 -8.160000 -21.266876 0.740665 452.828613
4.160000 2.120000 -8.120000 -20.355476 -9.012842 495.576752
4.160000 2.120000 -8.080000 -13.600557 -13.592510 369.731506
4.160000 2.120000 -8.040000 -7.893774 -12.621351 221.610168
4.160000 2.120000 -8.000000 -5.255754 -10.894264 146.307938
4.160000 2.120000 -7.960000 -2.251895 -10.436045 113.982056
4.160000 2.120000 -7.920000 3.074377 -7.791603 70.160873
4.160000 2.120000 -7.880000 6.775470 0.211944 45.951912
4.160000 2.120000 -7.840000 3.356787 10.300441 117.367104
4.160000 2.120000 -7.800000 -6.466906 15.066558 268.822021
4.160000 2.160000 -8.200000 -17.208311 -4.978997 320.916382
4.160000 2.160000 -8.160000 -19.205284 -19.635893 754.411255
4.160000 2.160000 -8.120000 -7.786176 -30.741489 1005.663696
4.160000 2.160000 -8.080000 8.217823 -29.391895 931.416077
4.160000 2.160000 -8.040000 17.787533 -17.998104 640.328125
4.160000 2.160000 -8.000000 17.608789 -5.526463 340.611237
4.160000 2.160000 -7.960000 12.265358 2.110462 154.893066
4.160000 2.160000 -7.920000 6.937479 5.733282 80.999146
4.160000 2.160000 -7.880000 2.220380 8.453695 76.395050
4.160000 2.160000 -7.840000 -3.809920 10.474691 124.234650
4.160000 2.160000 -7.800000 -10.906076 9.672407 212.497955
4.160000 2.200000 -8.200000 -8.263887 -17.316633 368.157623
4.160000 2.200000 -8.160000 -0.453024 -31.499416 992.418457
4.160000 2.200000 -8.120000 18.605457 -34.858170 1561.255127
4.160000 2.200000 -8.080000 35.718853 -22.116621 1764.981323
4.160000 2.200000 -8.040000 39.370159 -0.746192 1550.566162
4.160000 2.200000 -8.000000 28.775175 16.584953 1103.071289
4.160000 2.200000 -7.960000 12.330343 22.560205 661.000244
4.160000 2.200000 -7.920000 -0.924841 18.914989 358.632141
4.160000 2.200000 -7.880000 -7.718400 11.964266 202.717361
4.160000 2.200000 -7.840000 -10.174092 6.357030 143.923981
4.160000 2.200000 -7.800000 -11.679613 2.882395 144.721558
4.200000 1.800000 -8.200000 -9.976240 10.804644 216.265686
4.200000 1.800000 -8.160000 -9.850965 7.104214 147.511383
4.200000 1.800000 -8.120000 -3.240883 7.493706 66.658951
4.200000 1.800000 -8.080000 1.241674 18.220524 333.529236
4.200000 1.800000 -8.040000 -7.711211 33.110809 1155.788452
4.200000 1.800000 -8.000000 -30.241489 36.948418 2279.733154
4.200000 1.800000 -7.960000 -51.762959 20.513115 3100.191650
4.200000 1.800000 -7.920000 -55.293510 -8.474176 3129.184082
4.200000 1.800000 -7.880000 -37.676773 -31.096090 2386.506104
4.200000 1.800000 -7.840000 -12.532928 -34.544815 1350.418457
4.200000 1.800000 -7.800000 3.383511 -23.021427 541.434204
4.200000 1.840000 -8.200000 -12.147522 2.470476 153.665543
4.200000 1.840000 -8.160000 -9.539714 -0.384312 91.153839
4.200000 1.840000 -8.120000 -4.029339 4.257494 34.361832
4.200000 1.840000 -8.080000 -6.300817 16.181686 301.547302
4.200000 1.840000 -8.040000 -21.671534 24.035969 1047.383179
4.200000 1.840000 -8.000000 -41.841888 16.060349 2008.678467
4.200000 1.840000 -7.960000 -50.937119 -6.872887 2641.826660
4.200000 1.840000 -7.920000 -40.495594 -30.310024 2558.590820
4.200000 1.840000 -7.880000 -17.751858 -39.127136 1846.061157
4.200000 1.840000 -7.840000 1.594261 -31.032799 965.576294
4.200000 1.840000 -7.800000 8.285648 -16.691463 347.256927
4.200000 1.880000 -8.200000 -8.315494 -5.434628 98.682617
4.200000 1.880000 -8.160000 -4.518226 -5.456446 50.187168
4.200000 1.880000 -8.120000 -3.312136 1.139334 12.268328
4.200000 1.880000 -8.080000 -11.134484 8.236493 191.816559
4.200000 1.880000 -8.040000 -25.250601 6.120758 675.056519
4.200000 1.880000 -8.000000 -34.824337 -8.130226 1278.835083
4.200000 1.880000 -7.960000 -30.926777 -26.519211 1659.734131
4.200000 1.880000 -7.920000 -15.148953 -36.920563 1592.618652
4.200000 1.880000 -7.880000 2.061799 -33.868668 1151.337646
4.200000 1.880000 -7.840000 11.234752 -22.257961 621.636475
4.200000 1.880000 -7.800000 11.315012 -10.914701 247.160202
4.200000 1.920000 -8.200000 0.619618 -8.452152 71.822807
4.200000 1.920000 -8.160000 2.849670 -4.738342 30.572510
4.200000 1.920000 -8.120000 -0.909030 0.195323 0.864486
4.200000 1.920000 -8.080000 -9.286963 -0.254441 86.312416
4.200000 1.920000 -8.040000 -15.499560 -8.396777 310.742249
4.200000 1.920000 -8.000000 -13.749313 -19.627209 574.270935
4.200000 1.920000 -7.960000 -4.518275 -26.648899 730.578613
4.200000 1.920000 -7.920000 6.435677 -25.813534 707.756409
4.200000 1.920000 -7.880000 13.569275 -19.148891 550.805298
4.200000 1.920000 -7.840000 15.412449 -10.984583 358.204651
4.200000 1.920000 -7.800000 13.393185 -3.845239 194.163254
4.200000 1.960000 -8.200000 9.600109 -3.193661 102.361565
4.200000 1.960000 -8.160000 6.920437 2.775691 55.596905
4.200000 1.960000 -8.120000 -0.196921 2.939109 8.677137
4.200000 1.960000 -8.080000 -4.404497 -3.629701 32.574322
4.200000 1.960000 -8.040000 -1.515591 -11.195110 127.627510
4.200000 1.960000 -8.000000 5.757030 -13.766869 222.670059
4.200000 1.960000 -7.960000 11.663596 -10.840448 253.554794
4.200000 1.960000 -7.920000 13.678028 -6.334305 227.211884
4.200000 1.960000 -7.880000 13.705725 -3.006053 196.883240
4.200000 1.960000 -7.840000 13.653942 0.251753 186.493515
4.200000 1.960000 -7.800000 11.779818 5.026691 164.031723
4.200000 2.000000 -8.200000 11.422747 8.195229 197.640915
4.200000 2.000000 -8.160000 2.109402 12.244461 154.376404
4.200000 2.000000 -8.120000 -5.321136 5.830576 62.310112
4.200000 2.000000 -8.080000 -3.082612 -3.609486 22.530880
4.200000 2.000000 -8.040000 5.925002 -6.365659 75.627266
4.200000 2.000000 -8.000000 12.502471 -0.827211 156.996063
4.200000 2.000000 -7.960000 11.793316 6.200127 177.523880
4.200000 2.000000 -7.920000 7.545961 8.504613 129.269974
4.200000 2.000000 -7.880000 5.777859 7.368694 87.681305
4.200000 2.000000 -7.840000 6.547186 8.214477 110.343262
4.200000 2.000000 -7.800000 4.406665 11.880414 160.562943
4.200000 2.040000 -8.200000 3.015759 17.527878 316.321320
4.200000 2.040000 -8.160000 -10.898240 14.694489 334.699646
4.200000 2.040000 -8.120000 -14.710848 1.677621 219.223450
4.200000 2.040000 -8.080000 -5.497567 -7.569783 87.524864
4.200000 2.040000 -8.040000 6.481217 -4.535376 62.575813
4.200000 2.040000 -8.000000 10.007593 6.014918 136.331161
4.200000 2.040000 -7.960000 4.427794 13.276501 195.870834
4.200000 2.040000 -7.920000 -2.041480 12.873861 169.903931
4.200000 2.040000 -7.880000 -3.528647 9.884148 110.147728
4.200000 2.040000 -7.840000 -2.851980 10.153234 111.221962
4.200000 2.040000 -7.800000 -5.700026 11.923679 174.664429
4.200000 2.080000 -8.200000 -10.158836 16.710979 382.458801
4.200000 2.080000 -8.160000 -23.090651 4.679428 555.075195
4.200000 2.080000 -8.120000 -19.410404 -12.434394 531.377930
4.200000 2.080000 -8.080000 -3.395508 -18.430374 351.208160
4.200000 2.080000 -8.040000 9.858743 -9.268727 183.104126
4.200000 2.080000 -8.000000 10.413841 5.022214 133.670731
4.200000 2.080000 -7.960000 1.654949 12.645028 162.635590
4.200000 2.080000 -7.920000 -6.505770 11.504531 174.679276
4.200000 2.080000 -7.880000 -9.334044 7.859522 148.896454
4.200000 2.080000 -7.840000 -9.997838 6.394957 140.852234
4.200000 2.080000 -7.800000 -12.052471 5.174043 172.032776
4.200000 2.120000 -8.200000 -17.562218 5.667319 340.549988
4.200000 2.120000 -8.160000 -23.576120 -13.020280 725.361145
4.200000 2.120000 -8.120000 -10.589626 -29.154156 962.104980
4.200000 2.120000 -8.080000 10.582095 -28.284004 911.965637
4.200000 2.120000 -8.040000 22.948374 -11.779846 665.392639
4.200000 2.120000 -8.000000 19.162418 6.680614 411.828888
4.200000 2.120000 -7.960000 5.665591 15.184362 262.663788
4.200000 2.120000 -7.920000 -6.426452 12.755336 203.997879
4.200000 2.120000 -7.880000 -11.819507 6.065944 176.496414
4.200000 2.120000 -7.840000 -12.343856 0.637041 152.776596
4.200000 2.120000 -7.800000 -11.059959 -2.677691 129.492737
4.200000 2.160000 -8.200000 -12.964346 -6.392878 208.943146
4.200000 2.160000 -8.160000 -9.801008 -25.625568 752.729492
4.200000 2.160000 -8.120000 10.291597 -35.177200 1343.352417
4.200000 2.160000 -8.080000 32.204948 -24.734915 1648.974609
4.200000 2.160000 -8.040000 39.365341 -0.828741 1550.316895
4.200000 2.160000 -8.000000 27.724825 20.205702 1176.936279
4.200000 2.160000 -7.960000 7.046138 26.572433 755.742310
4.200000 2.160000 -7.920000 -9.307794 18.774401 439.113159
4.200000 2.160000 -7.880000 -14.723466 5.849064 250.991989
4.200000 2.160000 -7.840000 -11.401057 -3.470402 142.027786
4.200000 2.160000 -7.800000 -5.606780 -5.907442 66.333855
4.200000 2.200000 -8.200000 -0.829876 -8.861712 79.218643
4.200000 2.200000 -8.160000 8.631763 -23.140781 610.003113
4.200000 2.200000 -8.120000 30.062132 -23.486315 1455.338745
4.200000 2.200000 -8.080000 46.657257 -4.509707 2197.237061
4.200000 2.200000 -8.040000 44.148594 22.939999 2475.341797
4.200000 2.200000 -8.000000 22.775829 41.100937 2208.025391
4.200000 2.200000 -7.960000 -3.780969 39.728897 1592.681030
4.200000 2.200000 -7.920000 -20.093410 22.903809 928.329590
4.200000 2.200000 -7.880000 -20.294823 3.876855 426.909821
4.200000 2.200000 -7.840000 -10.325044 -5.929348 141.763702
4.200000 2.200000 -7.800000 -1.329724 -4.397527 21.106409
