#kx 	ky 	kz 	real 	imag 	intensity
1.800000 5.800000 3.983333 -90.747627 -100.065613 18248.257812
1.800000 5.800000 3.991667 64.764336 -54.088570 7119.992188
1.800000 5.800000 4.000000 -70.064354 36.562809 6245.852539
1.800000 5.800000 4.008334 -63.587013 -166.453522 31750.083984
1.800000 5.800000 4.016667 135.150253 -66.008049 22622.654297
1.800000 5.900000 3.983333 -4.118511 -89.424454 8013.694824
1.800000 5.900000 3.991667 66.076065 3.656330 4379.415039
1.800000 5.900000 4.000000 -39.692608 -46.896538 3774.788330
1.800000 5.900000 4.008334 87.843903 -97.737328 17269.136719
1.800000 5.900000 4.016667 117.945839 8.837841 13989.328125
1.800000 6.000000 3.983333 22.723286 -73.518402 5921.303223
1.800000 6.000000 3.991667 124.281830 -16.691963 15724.595703
1.800000 6.000000 4.000000 50.317619 74.717804 8114.612793
1.800000 6.000000 4.008334 65.100868 -23.747673 4802.075195
1.800000 6.000000 4.016667 127.824600 172.811188 46202.835938
1.800000 6.100000 3.983333 21.982216 -32.467037 1537.326294
1.800000 6.100000 3.991667 127.091270 150.416306 38777.257812
1.800000 6.100000 4.000000 -177.957611 93.280975 40370.253906
1.800000 6.100000 4.008334 48.386391 -10.032063 2441.885254
1.800000 6.100000 4.016667 -189.721558 115.175667 49259.703125
1.800000 6.200000 3.983333 33.777214 -50.674980 3708.853760
1.800000 6.200000 3.991667 -43.600975 151.007385 24704.275391
1.800000 6.200000 4.000000 -103.146103 -148.468750 32682.085938
1.800000 6.200000 4.008334 62.847137 5.559082 3980.666016
1.800000 6.200000 4.016667 3.303520 -141.060867 19909.082031
1.900000 5.800000 3.983333 -20.957176 -39.057243 1964.671509
1.900000 5.800000 3.991667 18.242477 -115.229591 13610.646484
1.900000 5.800000 4.000000 29.483486 18.266670 1202.947144
1.900000 5.800000 4.008334 13.617210 -143.885986 20888.605469
1.900000 5.800000 4.016667 183.692810 70.262131 38679.812500
1.900000 5.900000 3.983333 410.482208 -653.292847 595287.187500
1.900000 5.900000 3.991667 -48.434582 550.589478 305494.687500
1.900000 5.900000 4.000000 -559.359131 -387.563171 463087.843750
1.900000 5.900000 4.008334 -72.709839 -444.952637 203269.562500
1.900000 5.900000 4.016667 220.858200 -656.405518 479646.562500
1.900000 6.000000 3.983333 1080.856567 403.802948 1331307.750000
1.900000 6.000000 3.991667 -788.737732 1.416306 622109.187500
1.900000 6.000000 4.000000 451.077881 -859.197021 941690.750000
1.900000 6.000000 4.008334 606.181396 -350.646301 490408.687500
1.900000 6.000000 4.016667 1223.068359 211.354675 1540567.000000
1.900000 6.100000 3.983333 -42.170921 703.304871 496416.125000
1.900000 6.100000 3.991667 -105.716438 -351.376434 134641.359375
1.900000 6.100000 4.000000 464.116211 158.167145 240420.703125
1.900000 6.100000 4.008334 300.883026 304.525757 183266.531250
1.900000 6.100000 4.016667 -27.548140 788.864258 623065.687500
1.900000 6.200000 3.983333 42.084290 171.599670 31217.535156
1.900000 6.200000 3.991667 -225.361816 -11.106434 50911.300781
1.900000 6.200000 4.000000 38.209568 -137.729858 20429.484375
1.900000 6.200000 4.008334 3.360260 4.178902 28.754564
1.900000 6.200000 4.016667 39.095417 -27.022747 2258.680664
2.000000 5.800000 3.983333 -53.542072 -112.259132 15468.867188
2.000000 5.800000 3.991667 184.184448 -85.033112 41154.539062
2.000000 5.800000 4.000000 -14.901596 66.636688 4662.505859
2.000000 5.800000 4.008334 100.534340 -137.740448 29079.585938
2.000000 5.800000 4.016667 130.569672 147.719696 38869.546875
2.000000 5.900000 3.983333 1141.197144 398.631042 1461237.625000
2.000000 5.900000 3.991667 -786.147156 39.814270 619612.562500
2.000000 5.900000 4.000000 458.617554 -970.112549 1151448.500000
2.000000 5.900000 4.008334 741.053833 -322.637939 653256.062500
2.000000 5.900000 4.016667 1215.546631 212.918854 1522888.000000
2.000000 6.000000 3.983333 -375.924255 1747.235229 3194150.000000
2.000000 6.000000 3.991667 -115.607361 -1255.667114 1590064.875000
2.000000 6.000000 4.000000 1517.816650 542.283936 2597839.500000
2.000000 6.000000 4.008334 713.097290 847.567871 1226879.000000
2.000000 6.000000 4.016667 122.867447 2021.927612 4103287.750000
2.000000 6.100000 3.983333 -1106.391235 22.626678 1224613.625000
2.000000 6.100000 3.991667 687.368958 -177.694473 504051.406250
2.000000 6.100000 4.000000 -241.808365 905.823853 878988.187500
2.000000 6.100000 4.008334 -390.225403 490.849030 393208.625000
2.000000 6.100000 4.016667 -1288.924805 277.013855 1738063.750000
2.000000 6.200000 3.983333 -170.393158 33.344048 30145.654297
2.000000 6.200000 3.991667 -11.404545 -152.316071 23330.250000
2.000000 6.200000 4.000000 83.303391 -71.372955 12033.553711
2.000000 6.200000 4.008334 67.932617 -15.398087 4851.941406
2.000000 6.200000 4.016667 73.185799 -48.563251 7714.550781
2.100000 5.800000 3.983333 95.407898 -66.093826 13471.060547
2.100000 5.800000 3.991667 84.396790 73.343140 12502.034180
2.100000 5.800000 4.000000 -30.313213 53.534096 3784.790283
2.100000 5.800000 4.008334 83.121132 -37.707836 8331.003906
2.100000 5.800000 4.016667 51.124107 191.368652 39235.636719
2.100000 5.900000 3.983333 -155.009567 851.605713 749260.250000
2.100000 5.900000 3.991667 -104.078033 -504.387604 265239.093750
2.100000 5.900000 4.000000 646.925964 223.765442 468584.187500
2.100000 5.900000 4.008334 319.476135 437.600891 293559.562500
2.100000 5.900000 4.016667 -59.945702 889.911926 795536.750000
2.100000 6.000000 3.983333 -1228.072510 -122.814911 1523245.625000
2.100000 6.000000 3.991667 794.102051 -232.272430 684548.562500
2.100000 6.000000 4.000000 -206.151901 1027.298462 1097840.750000
2.100000 6.000000 4.008334 -490.390045 506.972961 497503.968750
2.100000 6.000000 4.016667 -1253.351074 266.881165 1642114.375000
2.100000 6.100000 3.983333 -37.170456 -754.580872 570773.937500
2.100000 6.100000 3.991667 212.776123 436.259827 235596.312500
2.100000 6.100000 4.000000 -605.307983 -73.241295 371762.031250
2.100000 6.100000 4.008334 -300.598969 -242.922424 149371.046875
2.100000 6.100000 4.016667 -251.589722 -737.671204 607456.187500
2.100000 6.200000 3.983333 24.870344 -20.268219 1029.334717
2.100000 6.200000 3.991667 43.749981 15.446153 2152.644531
2.100000 6.200000 4.000000 69.877586 48.326046 7218.283691
2.100000 6.200000 4.008334 34.509781 65.065102 5424.392090
2.100000 6.200000 4.016667 49.717896 119.125259 16662.695312
2.200000 5.800000 3.983333 1.587652 43.270065 1874.819214
2.200000 5.800000 3.991667 30.154720 -36.596973 2248.645508
2.200000 5.800000 4.000000 -52.113121 1.611352 2718.373779
2.200000 5.800000 4.008334 117.087616 -64.918762 17923.955078
2.200000 5.800000 4.016667 -41.757977 168.317291 30074.439453
2.200000 5.900000 3.983333 -152.191162 -61.615078 26958.568359
2.200000 5.900000 3.991667 83.472168 -33.338352 8079.048828
2.200000 5.900000 4.000000 -18.542570 5.442038 373.442688
2.200000 5.900000 4.008334 39.130833 57.084385 4789.849121
2.200000 5.900000 4.016667 -116.639572 -20.890598 14041.207031
2.200000 6.000000 3.983333 101.218040 -173.956360 40505.906250
2.200000 6.000000 3.991667 94.353508 20.472649 9321.712891
2.200000 6.000000 4.000000 13.129128 -6.844330 219.218842
2.200000 6.000000 4.008334 41.612129 -23.658485 2291.293213
2.200000 6.000000 4.016667 69.709015 17.662792 5171.320801
2.200000 6.100000 3.983333 121.203140 112.747635 27402.230469
2.200000 6.100000 3.991667 45.111248 63.950073 6124.636719
2.200000 6.100000 4.000000 19.519421 69.262924 5178.360352
2.200000 6.100000 4.008334 66.260101 58.259468 7784.566406
2.200000 6.100000 4.016667 -40.629158 154.776779 25606.580078
2.200000 6.200000 3.983333 -91.730103 101.462814 18709.115234
2.200000 6.200000 3.991667 -36.435532 9.860619 1424.779785
2.200000 6.200000 4.000000 -73.362869 26.465755 6082.546387
2.200000 6.200000 4.008334 -8.912964 21.876741 558.032776
2.200000 6.200000 4.016667 -138.987381 28.147341 20109.765625
