#kx 	ky 	kz 	real 	imag 	intensity
1.800000 5.800000 1.983333 -90.139771 -70.667877 13119.126953
1.800000 5.800000 1.991667 53.748104 -51.116444 5501.749512
1.800000 5.800000 2.000000 -55.667377 50.224041 5621.311523
1.800000 5.800000 2.008333 -91.920822 -132.365860 25970.158203
1.800000 5.800000 2.016667 104.882462 -102.838943 21576.179688
1.800000 5.900000 1.983333 -10.918021 -79.749603 6479.202148
1.800000 5.900000 1.991667 44.152699 -11.848976 2089.859131
1.800000 5.900000 2.000000 -35.719048 -42.481331 3080.513672
1.800000 5.900000 2.008333 57.675747 -106.322052 14630.871094
1.800000 5.900000 2.016667 116.437988 -14.253086 13760.955078
1.800000 6.000000 1.983333 8.313944 -60.290451 3704.060059
1.800000 6.000000 1.991667 128.684357 -60.694817 20243.525391
1.800000 6.000000 2.000000 68.874626 97.321671 14215.222656
1.800000 6.000000 2.008333 37.120548 -35.497543 2638.010742
1.800000 6.000000 2.016667 131.338089 137.032654 36027.640625
1.800000 6.100000 1.983333 11.419693 -40.153942 1742.748535
1.800000 6.100000 1.991667 175.995651 137.384644 49849.007812
1.800000 6.100000 2.000000 -191.780487 137.249359 55617.140625
1.800000 6.100000 2.008333 37.259293 -40.544945 3032.147461
1.800000 6.100000 2.016667 -167.469727 116.585724 41638.339844
1.800000 6.200000 1.983333 19.571598 -42.185204 2162.638916
1.800000 6.200000 1.991667 -27.730507 174.270844 31139.306641
1.800000 6.200000 2.000000 -148.647369 -129.004532 38738.210938
1.800000 6.200000 2.008333 52.412281 -12.008766 2891.257568
1.800000 6.200000 2.016667 -18.521675 -152.468292 23589.632812
1.900000 5.800000 1.983333 -19.609032 -31.834681 1397.961060
1.900000 5.800000 1.991667 13.291430 -92.122772 8663.267578
1.900000 5.800000 2.000000 8.552832 38.352638 1544.075684
1.900000 5.800000 2.008333 -24.615864 -154.067734 24342.808594
1.900000 5.800000 2.016667 199.733765 34.434143 41079.289062
1.900000 5.900000 1.983333 365.642212 -795.728516 766878.125000
1.900000 5.900000 1.991667 29.218262 606.064941 368168.437500
1.900000 5.900000 2.000000 -690.176941 -396.395660 633473.750000
1.900000 5.900000 2.008333 -76.789963 -538.204041 295560.281250
1.900000 5.900000 2.016667 218.161530 -747.356750 606136.562500
1.900000 6.000000 1.983333 1282.043335 294.865845 1730581.000000
1.900000 6.000000 1.991667 -839.995361 147.367401 727309.312500
1.900000 6.000000 2.000000 412.913696 -1030.300293 1232016.500000
1.900000 6.000000 2.008333 709.124390 -388.735901 653973.000000
1.900000 6.000000 2.016667 1363.391968 148.641373 1880931.875000
1.900000 6.100000 1.983333 50.178566 804.901733 650384.687500
1.900000 6.100000 1.991667 -188.674408 -349.814026 157967.875000
1.900000 6.100000 2.000000 545.169495 114.417068 310301.062500
1.900000 6.100000 2.008333 341.876068 352.903015 241419.781250
1.900000 6.100000 2.016667 26.768570 863.595642 746514.000000
1.900000 6.200000 1.983333 53.464340 157.959305 27809.578125
1.900000 6.200000 1.991667 -236.814224 15.233036 56313.023438
1.900000 6.200000 2.000000 26.586515 -161.852951 26903.218750
1.900000 6.200000 2.008333 13.008568 5.356365 197.913483
1.900000 6.200000 2.016667 47.140350 -42.542465 4032.073975
2.000000 5.800000 1.983333 -68.989075 -93.923965 13581.203125
2.000000 5.800000 1.991667 143.587311 -88.964912 28532.072266
2.000000 5.800000 2.000000 -25.213894 54.528606 3609.109375
2.000000 5.800000 2.008333 74.159615 -147.693283 27312.955078
2.000000 5.800000 2.016667 142.344238 116.178375 33759.296875
2.000000 5.900000 1.983333 1368.281250 296.422058 1960059.625000
2.000000 5.900000 1.991667 -866.056213 176.935379 781359.500000
2.000000 5.900000 2.000000 444.385254 -1160.536987 1544324.375000
2.000000 5.900000 2.008333 845.169250 -356.002686 841049.000000
2.000000 5.900000 2.016667 1358.411255 160.046234 1870895.875000
2.000000 6.000000 1.983333 -170.980743 2073.073730 4326869.000000
2.000000 6.000000 1.991667 -373.396851 -1333.237671 1916947.875000
2.000000 6.000000 2.000000 1785.484863 466.187866 3405287.500000
2.000000 6.000000 2.008333 762.993286 988.789734 1559863.875000
2.000000 6.000000 2.016667 245.125443 2196.639160 4885310.000000
2.000000 6.100000 1.983333 -1266.311768 184.379349 1637541.250000
2.000000 6.100000 1.991667 703.522278 -336.757324 608349.062500
2.000000 6.100000 2.000000 -164.467651 1055.249390 1140600.875000
2.000000 6.100000 2.008333 -461.369904 537.709717 501993.937500
2.000000 6.100000 2.016667 -1383.954956 378.520630 2058609.250000
2.000000 6.200000 1.983333 -169.312027 69.338333 33474.367188
2.000000 6.200000 1.991667 -36.862961 -149.776230 23791.796875
2.000000 6.200000 2.000000 87.876274 -66.797234 12184.110352
2.000000 6.200000 2.008333 53.563839 4.782944 2891.961426
2.000000 6.200000 2.016667 57.901711 -54.941193 6371.142578
2.100000 5.800000 1.983333 84.518959 -106.128433 18406.699219
2.100000 5.800000 1.991667 102.165634 44.877140 12451.774414
2.100000 5.800000 2.000000 -22.319443 66.144974 4873.315430
2.100000 5.800000 2.008333 56.822762 -65.734253 7549.818359
2.100000 5.800000 2.016667 97.293228 167.533722 37533.523438
2.100000 5.900000 1.983333 -41.600571 1011.724243 1025316.562500
2.100000 5.900000 1.991667 -209.508331 -527.077637 321704.593750
2.100000 5.900000 2.000000 748.985474 208.991760 604656.812500
2.100000 5.900000 2.008333 342.190186 473.955261 341727.718750
2.100000 5.900000 2.016667 9.944183 983.851807 968063.250000
2.100000 6.000000 1.983333 -1458.931519 49.344467 2130916.250000
2.100000 6.000000 1.991667 813.228455 -427.408142 844018.250000
2.100000 6.000000 2.000000 -149.739746 1179.163086 1412847.625000
2.100000 6.000000 2.008333 -556.465271 529.295410 589807.250000
2.100000 6.000000 2.016667 -1346.832153 370.781311 1951435.625000
2.100000 6.100000 1.983333 -161.812836 -867.242920 778293.687500
2.100000 6.100000 1.991667 333.454102 432.996338 298677.468750
2.100000 6.100000 2.000000 -686.949707 -18.908186 472257.437500
2.100000 6.100000 2.008333 -323.295502 -259.316223 171764.890625
2.100000 6.100000 2.016667 -345.158508 -788.999634 741654.812500
2.100000 6.200000 1.983333 -14.980791 -30.642616 1163.394043
2.100000 6.200000 1.991667 38.261555 -7.586172 1521.496582
2.100000 6.200000 2.000000 65.405777 56.291840 7446.686523
2.100000 6.200000 2.008333 -12.735325 53.416222 3015.481201
2.100000 6.200000 2.016667 60.511055 65.674667 7974.750000
2.200000 5.800000 1.983333 62.536850 39.108101 5440.301270
2.200000 5.800000 1.991667 44.039967 -2.579094 1946.170410
2.200000 5.800000 2.000000 -75.648071 21.223528 6173.068848
2.200000 5.800000 2.008333 109.054390 -95.475235 21008.380859
2.200000 5.800000 2.016667 -14.163457 180.000580 32600.812500
2.200000 5.900000 1.983333 -184.385422 -6.603291 34041.585938
2.200000 5.900000 1.991667 54.835140 -45.094868 5040.439453
2.200000 5.900000 2.000000 -48.658592 -15.659575 2612.880859
2.200000 5.900000 2.008333 71.231346 27.033775 5804.729980
2.200000 5.900000 2.016667 -119.697723 8.826756 14405.457031
2.200000 6.000000 1.983333 68.415703 -234.579849 59708.414062
2.200000 6.000000 1.991667 130.074432 2.006760 16923.384766
2.200000 6.000000 2.000000 29.041496 -31.739025 1850.774170
2.200000 6.000000 2.008333 81.820488 6.024902 6730.891602
2.200000 6.000000 2.016667 44.398434 30.821815 2921.205322
2.200000 6.100000 1.983333 157.752960 95.614052 34028.042969
2.200000 6.100000 1.991667 50.830242 85.556084 9903.556641
2.200000 6.100000 2.000000 30.678169 82.603600 7764.504395
2.200000 6.100000 2.008333 25.575701 82.414719 7446.302734
2.200000 6.100000 2.016667 -55.441696 115.466187 16406.222656
2.200000 6.200000 1.983333 -83.200638 77.843719 12981.990234
2.200000 6.200000 1.991667 -15.043213 4.088196 243.011597
2.200000 6.200000 2.000000 -85.422333 33.151688 8396.009766
2.200000 6.200000 2.008333 -10.143723 -28.620790 922.044739
2.200000 6.200000 2.016667 -80.207481 24.033829 7010.865234
