#kx 	ky 	kz 	real 	imag 	intensity
5.800000 1.800000 -4.200000 -22.561504 -0.185262 509.055817
5.800000 1.800000 -4.160000 -10.849227 -14.438465 326.174988
5.800000 1.800000 -4.120000 4.157486 -9.998954 117.263771
5.800000 1.800000 -4.080000 3.929150 4.493711 35.631660
5.800000 1.800000 -4.040000 -11.468571 8.820072 209.321777
5.800000 1.800000 -4.000000 -23.595478 -5.490011 586.886780
5.800000 1.800000 -3.960000 -16.707436 -25.247801 916.589844
5.800000 1.800000 -3.920000 4.223886 -30.261131 933.577271
5.800000 1.800000 -3.880000 18.817327 -15.895113 606.746460
5.800000 1.800000 -3.840000 13.829794 1.859233 194.719940
5.800000 1.800000 -3.800000 -2.518606 4.325528 25.053570
5.800000 1.840000 -4.200000 -15.068933 -19.069204 590.707275
5.800000 1.840000 -4.160000 2.599319 -26.123806 689.209717
5.800000 1.840000 -4.120000 16.025881 -17.186062 552.189575
5.800000 1.840000 -4.080000 15.152948 -4.661814 251.344360
5.800000 1.840000 -4.040000 5.934198 -1.977108 39.123665
5.800000 1.840000 -4.000000 1.806634 -9.510880 93.720757
5.800000 1.840000 -3.960000 8.107077 -16.103579 325.049957
5.800000 1.840000 -3.920000 17.152298 -13.127871 466.542297
5.800000 1.840000 -3.880000 18.587061 -4.292506 363.904419
5.800000 1.840000 -3.840000 12.070415 -0.282925 145.774979
5.800000 1.840000 -3.800000 7.342142 -5.261200 81.587280
5.800000 1.880000 -4.200000 1.456488 -24.951344 624.690857
5.800000 1.880000 -4.160000 19.931648 -24.188519 982.354980
5.800000 1.880000 -4.120000 31.209591 -11.798663 1113.247070
5.800000 1.880000 -4.080000 30.768423 2.128189 951.225037
5.800000 1.880000 -4.040000 23.302288 9.638193 635.891418
5.800000 1.880000 -4.000000 15.957764 10.122643 357.118103
5.800000 1.880000 -3.960000 11.935696 7.384394 196.990097
5.800000 1.880000 -3.920000 10.549190 4.075115 127.891968
5.800000 1.880000 -3.880000 11.277597 0.467508 127.402771
5.800000 1.880000 -3.840000 15.207402 -2.454265 237.288498
5.800000 1.880000 -3.800000 21.946127 -1.348911 483.452026
5.800000 1.920000 -4.200000 13.870161 -17.871887 511.785706
5.800000 1.920000 -4.160000 29.971249 -10.960491 1018.408142
5.800000 1.920000 -4.120000 37.895226 5.038731 1461.436890
5.800000 1.920000 -4.080000 33.862747 22.177023 1638.505981
5.800000 1.920000 -4.040000 20.320461 32.366295 1460.498169
5.800000 1.920000 -4.000000 4.306576 31.187765 991.223267
5.800000 1.920000 -3.960000 -5.857223 19.955910 432.545410
5.800000 1.920000 -3.920000 -4.681064 5.539512 52.598553
5.800000 1.920000 -3.880000 6.894924 -2.820578 55.495640
5.800000 1.920000 -3.840000 21.096554 0.914343 445.900604
5.800000 1.920000 -3.800000 27.740694 14.871466 990.706543
5.800000 1.960000 -4.200000 15.932049 -6.926075 301.800690
5.800000 1.960000 -4.160000 27.718639 4.532033 788.862305
5.800000 1.960000 -4.120000 29.127125 22.857414 1370.850830
5.800000 1.960000 -4.080000 17.018719 38.682747 1785.991699
5.800000 1.960000 -4.040000 -3.601485 42.169178 1791.210327
5.800000 1.960000 -4.000000 -20.998930 29.912104 1335.688965
5.800000 1.960000 -3.960000 -23.893036 8.949742 650.975037
5.800000 1.960000 -3.920000 -10.092796 -6.686476 146.573502
5.800000 1.960000 -3.880000 10.574091 -5.804633 145.505157
5.800000 1.960000 -3.840000 22.837654 11.003358 642.632324
5.800000 1.960000 -3.800000 17.618153 31.344540 1292.879395
5.800000 2.000000 -4.200000 10.770699 -0.182578 116.041283
5.800000 2.000000 -4.160000 15.933918 13.678044 440.978638
5.800000 2.000000 -4.120000 8.614830 29.027231 916.795410
5.800000 2.000000 -4.080000 -9.346899 35.098637 1319.278809
5.800000 2.000000 -4.040000 -27.447863 25.620014 1409.770264
5.800000 2.000000 -4.000000 -32.984283 5.029130 1113.255127
5.800000 2.000000 -3.960000 -20.962715 -13.076157 610.421265
5.800000 2.000000 -3.920000 0.785830 -15.543225 242.209381
5.800000 2.000000 -3.880000 16.582212 -0.206706 275.012482
5.800000 2.000000 -3.840000 14.851717 21.892672 699.862549
5.800000 2.000000 -3.800000 -2.912585 35.023880 1235.155273
5.800000 2.040000 -4.200000 4.369005 1.083958 20.263172
5.800000 2.040000 -4.160000 1.342355 12.744799 164.231812
5.800000 2.040000 -4.120000 -11.318493 17.881027 447.839417
5.800000 2.040000 -4.080000 -24.750982 10.358167 719.902771
5.800000 2.040000 -4.040000 -27.947681 -6.278516 820.492615
5.800000 2.040000 -4.000000 -16.725014 -20.499161 699.941650
5.800000 2.040000 -3.960000 2.161669 -21.414507 463.253937
5.800000 2.040000 -3.920000 15.639257 -7.457636 300.202728
5.800000 2.040000 -3.880000 14.192838 12.163260 349.381531
5.800000 2.040000 -3.840000 -1.148622 24.482883 600.730896
5.800000 2.040000 -3.800000 -20.245010 22.324970 908.264771
5.800000 2.080000 -4.200000 -0.928270 -0.507097 1.118833
5.800000 2.080000 -4.160000 -9.656130 2.751719 100.812798
5.800000 2.080000 -4.120000 -18.080490 -5.139281 353.316315
5.800000 2.080000 -4.080000 -15.898730 -19.233593 622.700684
5.800000 2.080000 -4.040000 -1.529819 -27.582088 763.111938
5.800000 2.080000 -4.000000 15.727862 -21.791822 722.249146
5.800000 2.080000 -3.960000 23.430723 -4.509468 569.334106
5.800000 2.080000 -3.920000 16.269136 12.910685 431.370605
5.800000 2.080000 -3.880000 -0.390196 19.865829 394.803436
5.800000 2.080000 -3.840000 -16.024069 14.105632 455.739624
5.800000 2.080000 -3.800000 -23.407822 1.345033 549.735229
5.800000 2.120000 -4.200000 -5.955580 -4.132629 52.547554
5.800000 2.120000 -4.160000 -12.749263 -12.525551 319.433105
5.800000 2.120000 -4.120000 -7.169831 -27.233221 793.054810
5.800000 2.120000 -4.080000 12.229682 -33.293076 1257.993896
5.800000 2.120000 -4.040000 32.379509 -20.881971 1484.489380
5.800000 2.120000 -4.000000 36.985249 4.086797 1384.610474
5.800000 2.120000 -3.960000 21.639879 24.406597 1063.966309
5.800000 2.120000 -3.920000 -2.291798 26.812927 724.185364
5.800000 2.120000 -3.880000 -18.472458 12.834871 505.965607
5.800000 2.120000 -3.840000 -19.702021 -4.779412 411.012390
5.800000 2.120000 -3.800000 -11.577687 -15.068640 361.106750
5.800000 2.160000 -4.200000 -9.927299 -11.504355 230.901459
5.800000 2.160000 -4.160000 -6.080112 -27.710491 804.839111
5.800000 2.160000 -4.120000 15.409100 -36.735416 1586.931152
5.800000 2.160000 -4.080000 41.112041 -23.594664 2246.908203
5.800000 2.160000 -4.040000 49.191505 7.926756 2482.637695
5.800000 2.160000 -4.000000 30.201527 36.155354 2219.341797
5.800000 2.160000 -3.960000 -2.899930 40.530178 1651.104858
5.800000 2.160000 -3.920000 -26.125334 20.066265 1085.188110
5.800000 2.160000 -3.880000 -25.843771 -6.997352 716.863464
5.800000 2.160000 -3.840000 -8.987391 -21.182247 529.460815
5.800000 2.160000 -3.800000 6.906420 -18.563635 392.307190
5.800000 2.200000 -4.200000 -8.881762 -22.436115 582.264954
5.800000 2.200000 -4.160000 8.865652 -36.764748 1430.246460
5.800000 2.200000 -4.120000 37.823486 -30.108488 2337.137207
5.800000 2.200000 -4.080000 54.079597 1.018241 2925.639648
5.800000 2.200000 -4.040000 40.212727 36.748360 2967.505371
5.800000 2.200000 -4.000000 3.375542 50.052441 2516.641113
5.800000 2.200000 -3.960000 -29.541925 31.323618 1853.894409
5.800000 2.200000 -3.920000 -35.693501 -3.021366 1283.154663
5.800000 2.200000 -3.880000 -15.696441 -26.289557 937.519043
5.800000 2.200000 -3.840000 9.858823 -25.414738 743.105286
5.800000 2.200000 -3.800000 21.545242 -9.484054 554.144775
5.840000 1.800000 -4.200000 -0.791786 -2.700388 7.919021
5.840000 1.800000 -4.160000 6.412529 -0.617277 41.501560
5.840000 1.800000 -4.120000 4.769745 8.063046 87.763168
5.840000 1.800000 -4.080000 -7.150038 9.761879 146.417328
5.840000 1.800000 -4.040000 -16.404682 -2.572739 275.732574
5.840000 1.800000 -4.000000 -10.184044 -19.361191 478.570465
5.840000 1.800000 -3.960000 8.355022 -23.664303 629.805603
5.840000 1.800000 -3.920000 21.717407 -10.232908 576.358215
5.840000 1.800000 -3.880000 16.538713 7.353211 327.598755
5.840000 1.800000 -3.840000 -1.318607 10.392506 109.742897
5.840000 1.800000 -3.800000 -12.277792 -4.812792 173.907135
5.840000 1.840000 -4.200000 4.850932 -7.079000 73.643791
5.840000 1.840000 -4.160000 15.218658 -5.053644 257.146881
5.840000 1.840000 -4.120000 19.568144 3.941660 398.448944
5.840000 1.840000 -4.080000 15.946314 11.707298 391.345764
5.840000 1.840000 -4.040000 9.798500 13.587196 280.622498
5.840000 1.840000 -4.000000 6.274055 12.050383 184.575485
5.840000 1.840000 -3.960000 4.636513 11.377386 150.942169
5.840000 1.840000 -3.920000 1.216802 11.129520 125.346832
5.840000 1.840000 -3.880000 -3.651215 6.973509 61.961193
5.840000 1.840000 -3.840000 -4.256231 -2.213725 23.016085
5.840000 1.840000 -3.800000 3.757612 -10.391287 122.098495
5.840000 1.880000 -4.200000 9.844549 -5.246729 124.443314
5.840000 1.880000 -4.160000 25.273266 0.746951 639.295898
5.840000 1.880000 -4.120000 32.958660 18.974518 1446.305664
5.840000 1.880000 -4.080000 25.064777 39.908859 2220.959961
5.840000 1.880000 -4.040000 3.596554 50.948601 2608.695312
5.840000 1.880000 -4.000000 -20.644958 44.825859 2435.572021
5.840000 1.880000 -3.960000 -34.871815 24.290209 1806.057617
5.840000 1.880000 -3.920000 -32.124344 0.290401 1032.057861
5.840000 1.880000 -3.880000 -15.222260 -14.783877 450.280212
5.840000 1.880000 -3.840000 5.369754 -14.467308 238.137268
5.840000 1.880000 -3.800000 18.261002 -1.684052 336.300201
5.840000 1.920000 -4.200000 10.336676 -1.593823 109.387138
5.840000 1.920000 -4.160000 27.428738 14.104315 951.267334
5.840000 1.920000 -4.120000 27.080391 44.208191 2687.711670
5.840000 1.920000 -4.080000 0.570538 69.357346 4810.767090
5.840000 1.920000 -4.040000 -41.110527 68.455956 6376.292969
5.840000 1.920000 -4.000000 -72.573502 36.414730 6592.945801
5.840000 1.920000 -3.960000 -72.706024 -9.408758 5374.690918
5.840000 1.920000 -3.920000 -41.545635 -41.042782 3410.549805
5.840000 1.920000 -3.880000 -0.607273 -40.967636 1678.715942
5.840000 1.920000 -3.840000 24.007084 -14.721516 793.063110
5.840000 1.920000 -3.800000 21.264555 15.396234 689.225342
5.840000 1.960000 -4.200000 8.235541 -0.318042 67.925293
5.840000 1.960000 -4.160000 18.118975 26.196438 1014.550598
5.840000 1.960000 -4.120000 -0.685654 58.458561 3417.873535
5.840000 1.960000 -4.080000 -45.908989 68.036552 6736.607910
5.840000 1.960000 -4.040000 -90.220619 37.834782 9571.230469
5.840000 1.960000 -4.000000 -100.570580 -19.713467 10503.062500
5.840000 1.960000 -3.960000 -65.906395 -68.832352 9081.544922
5.840000 1.960000 -3.920000 -8.181925 -77.985962 6148.753906
5.840000 1.960000 -3.880000 34.508667 -45.130989 3227.654297
5.840000 1.960000 -3.840000 38.267006 1.938990 1468.123413
5.840000 1.960000 -3.800000 10.327227 29.914759 1001.544373
5.840000 2.000000 -4.200000 7.012654 -1.071450 50.325325
5.840000 2.000000 -4.160000 1.679199 28.698887 826.445801
5.840000 2.000000 -4.120000 -33.780533 46.588608 3311.622559
5.840000 2.000000 -4.080000 -79.417572 27.561497 7066.787109
5.840000 2.000000 -4.040000 -99.270996 -26.702772 10567.768555
5.840000 2.000000 -4.000000 -71.369362 -83.626953 12087.052734
5.840000 2.000000 -3.960000 -9.103975 -103.870697 10872.004883
5.840000 2.000000 -3.920000 47.217182 -73.793839 7674.993164
5.840000 2.000000 -3.880000 62.567230 -16.825706 4197.762695
5.840000 2.000000 -3.840000 34.441200 26.741390 1901.298218
5.840000 2.000000 -3.800000 -8.718880 32.680096 1144.007568
5.840000 2.040000 -4.200000 6.756811 -1.180158 47.047268
5.840000 2.040000 -4.160000 -13.130791 19.193346 540.802185
5.840000 2.040000 -4.120000 -49.619751 12.885751 2628.162109
5.840000 2.040000 -4.080000 -72.307129 -27.442772 5981.426758
5.840000 2.040000 -4.040000 -54.918854 -78.954620 9249.912109
5.840000 2.040000 -4.000000 -0.553637 -104.068573 10830.574219
5.840000 2.040000 -3.960000 57.265423 -81.640015 9944.419922
5.840000 2.040000 -3.920000 80.697792 -25.727365 7174.031250
5.840000 2.040000 -3.880000 57.993622 25.667488 4022.080078
5.840000 2.040000 -3.840000 11.032122 41.650444 1856.467285
5.840000 2.040000 -3.800000 -25.467649 21.063435 1092.269531
5.840000 2.080000 -4.200000 4.823552 -0.666091 23.710333
5.840000 2.080000 -4.160000 -18.729321 1.915871 354.458008
5.840000 2.080000 -4.120000 -37.767899 -22.403719 1928.340820
5.840000 2.080000 -4.080000 -28.376322 -60.236496 4433.651367
5.840000 2.080000 -4.040000 12.412094 -81.638931 6818.975098
5.840000 2.080000 -4.000000 60.494568 -65.204422 7911.209473
5.840000 2.080000 -3.960000 82.987083 -17.672871 7199.186523
5.840000 2.080000 -3.920000 65.116531 30.467056 5168.404297
5.840000 2.080000 -3.880000 21.523418 49.616440 2925.048584
5.840000 2.080000 -3.840000 -17.415646 33.485939 1424.612793
5.840000 2.080000 -3.800000 -30.389441 0.178678 923.549988
5.840000 2.120000 -4.200000 0.838683 -2.995186 9.674528
5.840000 2.120000 -4.160000 -12.509837 -15.342178 391.878479
5.840000 2.120000 -4.120000 -6.990001 -39.380653 1599.695923
5.840000 2.120000 -4.080000 21.760283 -52.783756 3259.634766
5.840000 2.120000 -4.040000 56.309139 -38.067604 4619.861816
5.840000 2.120000 -4.000000 70.842453 0.429182 5018.837402
5.840000 2.120000 -3.960000 53.158024 38.695633 4323.127441
5.840000 2.120000 -3.920000 14.865442 52.615562 2989.378906
5.840000 2.120000 -3.880000 -19.041698 36.760391 1713.912720
5.840000 2.120000 -3.840000 -30.481880 5.959033 964.655090
5.840000 2.120000 -3.800000 -19.750443 -19.467838 769.076721
5.840000 2.160000 -4.200000 -0.933551 -10.251070 105.955948
5.840000 2.160000 -4.160000 2.620466 -25.341612 649.064087
5.840000 2.160000 -4.120000 23.551086 -32.606529 1617.839478
5.840000 2.160000 -4.080000 47.887478 -17.852980 2611.939453
5.840000 2.160000 -4.040000 54.393551 14.620783 3172.425781
5.840000 2.160000 -4.000000 34.026741 43.764645 3073.163086
5.840000 2.160000 -3.960000 -1.207296 49.501171 2451.823486
5.840000 2.160000 -3.920000 -28.486397 29.495598 1681.465088
5.840000 2.160000 -3.880000 -33.161388 -0.562272 1099.993896
5.840000 2.160000 -3.840000 -18.384609 -21.894686 817.371094
5.840000 2.160000 -3.800000 1.818433 -27.164120 741.196106
5.840000 2.200000 -4.200000 4.327306 -18.784451 371.581177
5.840000 2.200000 -4.160000 20.087936 -24.483173 1002.950928
5.840000 2.200000 -4.120000 39.424774 -11.837098 1694.429810
5.840000 2.200000 -4.080000 43.230186 16.384584 2137.303711
5.840000 2.200000 -4.040000 22.578865 40.980309 2189.190918
5.840000 2.200000 -4.000000 -11.135382 42.608025 1939.440430
5.840000 2.200000 -3.960000 -35.076935 19.248699 1600.903809
5.840000 2.200000 -3.920000 -34.483082 -12.208036 1338.119019
5.840000 2.200000 -3.880000 -13.899487 -31.310875 1173.566650
5.840000 2.200000 -3.840000 9.663978 -30.647984 1032.691406
5.840000 2.200000 -3.800000 23.011797 -18.219009 861.475098
5.880000 1.800000 -4.200000 13.564565 17.663942 496.012268
5.880000 1.800000 -4.160000 3.936106 25.556171 668.610840
5.880000 1.800000 -4.120000 -12.375858 23.044083 684.191589
5.880000 1.800000 -4.080000 -22.509657 6.523174 549.236450
5.880000 1.800000 -4.040000 -15.404659 -13.005157 406.437653
5.880000 1.800000 -4.000000 4.578445 -18.689484 370.258972
5.880000 1.800000 -3.960000 19.380646 -5.357918 404.316711
5.880000 1.800000 -3.920000 14.691626 13.303631 392.830444
5.880000 1.800000 -3.880000 -4.621653 17.324802 321.508453
5.880000 1.800000 -3.840000 -18.300655 0.808725 335.568024
5.880000 1.800000 -3.800000 -10.862234 -21.398434 575.881104
5.880000 1.840000 -4.200000 4.998207 19.134052 391.094055
5.880000 1.840000 -4.160000 4.241880 21.039732 460.663879
5.880000 1.840000 -4.120000 2.020168 23.998692 580.018250
5.880000 1.840000 -4.080000 -2.238182 26.582083 711.616577
5.880000 1.840000 -4.040000 -8.443977 27.791975 843.694580
5.880000 1.840000 -4.000000 -16.600513 26.240082 964.118896
5.880000 1.840000 -3.960000 -25.296467 19.501015 1020.200806
5.880000 1.840000 -3.920000 -30.085838 6.368156 945.711060
5.880000 1.840000 -3.880000 -25.519150 -9.620683 743.784546
5.880000 1.840000 -3.840000 -10.546173 -20.275646 522.323608
5.880000 1.840000 -3.800000 8.210161 -18.567162 412.146240
5.880000 1.880000 -4.200000 -3.324245 14.276592 214.871704
5.880000 1.880000 -4.160000 7.006520 23.433693 598.229248
5.880000 1.880000 -4.120000 4.863354 44.948032 2043.977783
5.880000 1.880000 -4.080000 -18.613628 63.019920 4317.977539
5.880000 1.880000 -4.040000 -54.968834 59.088619 6513.037598
5.880000 1.880000 -4.000000 -82.435669 27.949951 7576.839355
5.880000 1.880000 -3.960000 -82.134094 -15.927887 6999.707031
5.880000 1.880000 -3.920000 -53.067795 -48.152927 5134.895508
5.880000 1.880000 -3.880000 -13.086540 -52.421688 2919.291016
5.880000 1.880000 -3.840000 14.947956 -31.804911 1234.993774
5.880000 1.880000 -3.800000 19.852047 -4.334064 412.887878
5.880000 1.920000 -4.200000 -6.057384 4.710032 58.876305
5.880000 1.920000 -4.160000 3.686871 30.953575 971.716858
5.880000 1.920000 -4.120000 -19.072361 64.769897 4558.894531
5.880000 1.920000 -4.080000 -72.440369 71.825607 10406.525391
5.880000 1.920000 -4.040000 -123.434525 31.566624 16232.534180
5.880000 1.920000 -4.000000 -132.485748 -40.303108 19176.812500
5.880000 1.920000 -3.960000 -87.434830 -100.429878 17731.009766
5.880000 1.920000 -3.920000 -15.632557 -111.936378 12774.129883
5.880000 1.920000 -3.880000 37.830444 -73.815781 6879.912109
5.880000 1.920000 -3.840000 46.224159 -19.332495 2510.418213
5.880000 1.920000 -3.800000 19.234226 13.841841 561.552002
5.880000 1.960000 -4.200000 -1.147655 -3.469025 13.351245
5.880000 1.960000 -4.160000 -8.497320 34.976913 1295.588989
5.880000 1.960000 -4.120000 -58.655319 57.796112 6780.836914
5.880000 1.960000 -4.080000 -123.564964 27.600094 16030.066406
5.880000 1.960000 -4.040000 -150.528641 -53.692017 25541.703125
5.880000 1.960000 -4.000000 -107.398163 -138.267853 30652.365234
5.880000 1.960000 -3.960000 -14.257774 -168.748245 28679.253906
5.880000 1.960000 -3.920000 70.012512 -126.134354 20811.626953
5.880000 1.960000 -3.880000 95.657822 -45.153214 11189.231445
5.880000 1.960000 -3.840000 60.732288 16.884731 3973.505127
5.880000 1.960000 -3.800000 6.362854 27.763653 811.306335
5.880000 2.000000 -4.200000 7.212683 -4.711678 74.222702
5.880000 2.000000 -4.160000 -23.463518 28.125219 1341.564697
5.880000 2.000000 -4.120000 -84.637383 19.121172 7529.105469
5.880000 2.000000 -4.080000 -126.228241 -48.714020 18306.625000
5.880000 2.000000 -4.040000 -100.465973 -139.970230 29685.078125
5.880000 2.000000 -4.000000 -8.148578 -189.861816 36113.906250
5.880000 2.000000 -3.960000 95.448624 -158.407043 34203.230469
5.880000 2.000000 -3.920000 144.082260 -66.034134 25120.203125
5.880000 2.000000 -3.880000 114.644318 23.385750 13690.212891
5.880000 2.000000 -3.840000 42.424168 56.293003 4968.711914
5.880000 2.000000 -3.800000 -14.281754 29.945419 1100.696655
5.880000 2.040000 -4.200000 11.869199 0.415116 141.050201
5.880000 2.040000 -4.160000 -31.253334 11.055256 1098.989502
5.880000 2.040000 -4.120000 -75.685043 -29.372351 6590.960449
5.880000 2.040000 -4.080000 -71.529335 -106.150528 16384.380859
5.880000 2.040000 -4.040000 -0.551605 -163.954681 26881.441406
5.880000 2.040000 -4.000000 100.063385 -151.586365 32991.105469
5.880000 2.040000 -3.960000 163.816223 -68.419197 31516.941406
5.880000 2.040000 -3.920000 149.624222 31.985228 23410.462891
5.880000 2.040000 -3.880000 75.066544 85.928703 13018.728516
5.880000 2.040000 -3.840000 -1.839756 70.604584 4988.392090
5.880000 2.040000 -3.800000 -33.190926 16.159470 1362.765991
5.880000 2.080000 -4.200000 9.641905 5.446751 122.633423
5.880000 2.080000 -4.160000 -26.124794 -7.913170 745.123169
5.880000 2.080000 -4.120000 -36.892853 -57.793419 4701.162109
5.880000 2.080000 -4.080000 4.484308 -108.254807 11739.212891
5.880000 2.080000 -4.040000 82.237274 -111.644699 19227.507812
5.880000 2.080000 -4.000000 144.502472 -51.709145 23554.800781
5.880000 2.080000 -3.960000 145.184921 37.981010 22521.218750
5.880000 2.080000 -3.920000 83.287003 99.609306 16858.738281
5.880000 2.080000 -3.880000 3.204241 98.113892 9636.603516
5.880000 2.080000 -3.840000 -43.440189 46.770782 4074.556152
5.880000 2.080000 -3.800000 -38.152664 -9.862873 1552.901978
5.880000 2.120000 -4.200000 4.648774 4.490312 41.774002
5.880000 2.120000 -4.160000 -10.586028 -19.242531 482.338989
5.880000 2.120000 -4.120000 6.125076 -52.992622 2845.734619
5.880000 2.120000 -4.080000 53.652634 -62.524990 6787.979492
5.880000 2.120000 -4.040000 99.997543 -27.418430 10751.279297
5.880000 2.120000 -4.000000 107.116623 37.078674 12848.798828
5.880000 2.120000 -3.960000 64.084824 89.441093 12106.574219
5.880000 2.120000 -3.920000 -2.315804 95.369217 9100.650391
5.880000 2.120000 -3.880000 -49.558502 55.047466 5486.268555
5.880000 2.120000 -3.840000 -53.165054 0.090856 2826.531250
5.880000 2.120000 -3.800000 -22.010220 -34.596413 1681.361572
5.880000 2.160000 -4.200000 4.065970 -1.517086 18.833666
5.880000 2.160000 -4.160000 7.166311 -18.639545 398.788666
5.880000 2.160000 -4.120000 29.897186 -26.246180 1582.703613
5.880000 2.160000 -4.080000 55.950554 -8.489622 3202.538330
5.880000 2.160000 -4.040000 60.737423 29.443504 4555.954102
5.880000 2.160000 -4.000000 33.470779 62.697021 5051.209473
5.880000 2.160000 -3.960000 -11.710625 66.659821 4580.670410
5.880000 2.160000 -3.920000 -46.334709 37.434422 3548.241211
5.880000 2.160000 -3.880000 -50.148769 -5.611433 2546.387451
5.880000 2.160000 -3.840000 -25.257113 -36.367245 1960.498291
5.880000 2.160000 -3.800000 9.243250 -41.416576 1800.770386
5.880000 2.200000 -4.200000 10.402723 -5.596129 139.533310
5.880000 2.200000 -4.160000 19.193741 -8.730377 444.619171
5.880000 2.200000 -4.120000 30.041828 0.574654 902.841614
5.880000 2.200000 -4.080000 29.462135 19.977766 1267.128540
5.880000 2.200000 -4.040000 11.415844 35.440979 1386.384521
5.880000 2.200000 -4.000000 -15.375530 32.813274 1313.117920
5.880000 2.200000 -3.960000 -33.522781 10.500598 1234.039429
5.880000 2.200000 -3.920000 -30.868179 -18.698660 1302.484375
5.880000 2.200000 -3.880000 -9.481304 -37.864738 1523.633545
5.880000 2.200000 -3.840000 17.616039 -38.301224 1777.308594
5.880000 2.200000 -3.800000 37.277802 -23.350800 1934.894287
5.920000 1.800000 -4.200000 3.064566 44.350933 1976.396851
5.920000 1.800000 -4.160000 -22.181404 41.535545 2217.216309
5.920000 1.800000 -4.120000 -39.597546 19.387299 1943.832886
5.920000 1.800000 -4.080000 -34.856380 -9.018272 1296.296509
5.920000 1.800000 -4.040000 -11.172882 -22.654520 638.060608
5.920000 1.800000 -4.000000 10.956581 -12.272713 270.666138
5.920000 1.800000 -3.960000 12.280347 9.293922 237.183899
5.920000 1.800000 -3.920000 -6.181625 18.605251 384.367859
5.920000 1.800000 -3.880000 -23.558407 4.547891 575.681824
5.920000 1.800000 -3.840000 -19.625999 -20.409950 801.745911
5.920000 1.800000 -3.800000 5.119164 -32.521988 1083.885498
5.920000 1.840000 -4.200000 -19.212866 36.194389 1679.167969
5.920000 1.840000 -4.160000 -26.557962 29.497879 1575.450195
5.920000 1.840000 -4.120000 -29.515041 23.445499 1420.829102
5.920000 1.840000 -4.080000 -31.777695 20.204674 1418.050781
5.920000 1.840000 -4.040000 -37.212387 17.312206 1684.474243
5.920000 1.840000 -4.000000 -45.247490 9.223091 2132.400635
5.920000 1.840000 -3.960000 -49.398937 -7.065819 2490.180664
5.920000 1.840000 -3.920000 -41.916653 -27.066359 2489.593506
5.920000 1.840000 -3.880000 -21.385460 -40.132759 2067.976074
5.920000 1.840000 -3.840000 3.793541 -37.485775 1419.574341
5.920000 1.840000 -3.800000 20.654921 -20.188858 834.215698
5.920000 1.880000 -4.200000 -29.416750 14.966843 1089.351562
5.920000 1.880000 -4.160000 -25.299332 24.030289 1217.510986
5.920000 1.880000 -4.120000 -39.411964 39.770195 3134.971436
5.920000 1.880000 -4.080000 -73.024666 39.815712 6917.893066
5.920000 1.880000 -4.040000 -105.507790 8.937912 11211.780273
5.920000 1.880000 -4.000000 -109.581589 -44.008957 13944.913086
5.920000 1.880000 -3.960000 -75.034012 -89.805969 13695.214844
5.920000 1.880000 -3.920000 -19.103432 -101.362297 10639.256836
5.920000 1.880000 -3.880000 26.446028 -75.228531 6358.724609
5.920000 1.880000 -3.840000 40.175140 -33.029079 2704.961914
5.920000 1.880000 -3.800000 25.611197 -2.352521 661.467773
5.920000 1.920000 -4.200000 -21.939381 -5.875275 515.855286
5.920000 1.920000 -4.160000 -27.841778 23.611469 1332.666016
5.920000 1.920000 -4.120000 -72.358932 39.993996 6835.334473
5.920000 1.920000 -4.080000 -129.882538 7.650574 16928.005859
5.920000 1.920000 -4.040000 -150.758575 -71.705528 27869.832031
5.920000 1.920000 -4.000000 -104.898148 -152.541595 34272.558594
5.920000 1.920000 -3.960000 -12.087242 -180.517105 32732.527344
5.920000 1.920000 -3.920000 71.343567 -138.284851 24212.603516
5.920000 1.920000 -3.880000 98.485336 -59.490604 13238.493164
5.920000 1.920000 -3.840000 68.185020 1.565940 4651.648926
5.920000 1.920000 -3.800000 19.575060 15.170214 613.318359
5.920000 1.960000 -4.200000 -3.806961 -13.735437 203.155197
5.920000 1.960000 -4.160000 -36.159046 19.485538 1687.162842
5.920000 1.960000 -4.120000 -102.826889 6.432053 10614.740234
5.920000 1.960000 -4.080000 -146.700043 -72.913872 26837.335938
5.920000 1.960000 -4.040000 -113.062012 -177.775208 44387.042969
5.920000 1.960000 -4.000000 -3.606804 -233.640915 54601.085938
5.920000 1.960000 -3.960000 117.354729 -195.466003 51979.089844
5.920000 1.960000 -3.920000 174.169830 -88.160446 38107.394531
5.920000 1.960000 -3.880000 142.087860 14.590109 20401.832031
5.920000 1.960000 -3.840000 63.032791 53.041458 6786.529297
5.920000 1.960000 -3.800000 2.968409 26.707058 722.078430
5.920000 2.000000 -4.200000 11.349295 -6.636253 172.846344
5.920000 2.000000 -4.160000 -42.746120 6.280544 1866.676025
5.920000 2.000000 -4.120000 -100.244240 -47.289856 12285.238281
5.920000 2.000000 -4.080000 -94.262016 -149.961685 31373.835938
5.920000 2.000000 -4.040000 1.235290 -228.498672 52213.171875
5.920000 2.000000 -4.000000 137.667252 -213.571899 64565.226562
5.920000 2.000000 -3.960000 226.057922 -103.287216 61770.433594
5.920000 2.000000 -3.920000 211.062149 31.196711 45520.464844
5.920000 2.000000 -3.880000 116.104713 105.141403 24535.019531
5.920000 2.000000 -3.840000 18.298321 89.178596 8287.650391
5.920000 2.000000 -3.800000 -20.294363 24.666100 1020.277588
5.920000 2.040000 -4.200000 14.640587 6.376909 255.011749
5.920000 2.040000 -4.160000 -38.790726 -11.487846 1636.691040
5.920000 2.040000 -4.120000 -58.893436 -86.649017 10976.489258
5.920000 2.040000 -4.080000 0.134020 -168.318542 28331.148438
5.920000 2.040000 -4.040000 120.058975 -181.890198 47498.199219
5.920000 2.040000 -4.000000 223.239380 -96.489944 59146.128906
5.920000 2.040000 -3.960000 235.281097 41.246773 57058.492188
5.920000 2.040000 -3.920000 149.098511 142.614563 42569.281250
5.920000 2.040000 -3.880000 29.938576 150.289337 23483.203125
5.920000 2.040000 -3.840000 -42.438644 81.594963 8458.776367
5.920000 2.040000 -3.800000 -38.612465 4.205750 1508.610840
5.920000 2.080000 -4.200000 8.208500 14.167447 268.096008
5.920000 2.080000 -4.160000 -23.469584 -23.376892 1097.300415
5.920000 2.080000 -4.120000 -3.914965 -87.145706 7609.701172
5.920000 2.080000 -4.080000 76.135216 -118.562363 19853.605469
5.920000 2.080000 -4.040000 168.177246 -72.084061 33479.699219
5.920000 2.080000 -4.000000 201.235870 37.965202 41937.230469
5.920000 2.080000 -3.960000 143.342331 142.428848 40833.000000
5.920000 2.080000 -3.920000 31.383175 173.272079 31008.117188
5.920000 2.080000 -3.880000 -59.691986 119.366684 17811.539062
5.920000 2.080000 -3.840000 -79.201538 31.026491 7235.526855
5.920000 2.080000 -3.800000 -36.703537 -27.777719 2118.751465
5.920000 2.120000 -4.200000 1.251869 13.124950 173.831497
5.920000 2.120000 -4.160000 -4.992878 -22.688204 539.683411
5.920000 2.120000 -4.120000 31.629578 -54.727791 3995.561279
5.920000 2.120000 -4.080000 93.191162 -42.181717 10463.889648
5.920000 2.120000 -4.040000 130.498657 23.895523 17600.896484
5.920000 2.120000 -4.000000 104.628754 105.325752 22040.689453
5.920000 2.120000 -3.960000 23.874203 145.108521 21626.460938
5.920000 2.120000 -3.920000 -60.090393 115.120743 16863.640625
5.920000 2.120000 -3.880000 -94.404419 39.175652 10446.925781
5.920000 2.120000 -3.840000 -66.642990 -29.151627 5291.105469
5.920000 2.120000 -3.800000 -8.860836 -51.376869 2718.097168
5.920000 2.160000 -4.200000 0.388167 8.630958 74.644104
5.920000 2.160000 -4.160000 6.806142 -11.921976 188.457077
5.920000 2.160000 -4.120000 34.658417 -17.002728 1490.298584
5.920000 2.160000 -4.080000 60.888260 9.128498 3790.709717
5.920000 2.160000 -4.040000 56.493534 54.574688 6169.916016
5.920000 2.160000 -4.000000 14.062454 85.765282 7553.436035
5.920000 2.160000 -3.960000 -42.064140 75.270615 7435.057617
5.920000 2.160000 -3.920000 -74.078369 26.191521 6173.600586
5.920000 2.160000 -3.880000 -61.372200 -29.671543 4646.947266
5.920000 2.160000 -3.840000 -15.752293 -57.806351 3589.708984
5.920000 2.160000 -3.800000 31.058327 -46.884689 3162.793701
5.920000 2.200000 -4.200000 3.954690 7.972195 79.195465
5.920000 2.200000 -4.160000 8.299511 0.526719 69.159317
5.920000 2.200000 -4.120000 18.243864 3.206438 343.119812
5.920000 2.200000 -4.080000 20.818222 17.171951 728.274292
5.920000 2.200000 -4.040000 7.379425 30.603798 991.048401
5.920000 2.200000 -4.000000 -16.256699 28.205643 1059.838501
5.920000 2.200000 -3.960000 -32.681324 5.580685 1099.213013
5.920000 2.200000 -3.920000 -26.974186 -25.180115 1361.644897
5.920000 2.200000 -3.880000 0.614561 -44.191929 1953.304321
5.920000 2.200000 -3.840000 34.646820 -38.976807 2719.593506
5.920000 2.200000 -3.800000 56.389080 -12.923752 3346.751709
5.960000 1.800000 -4.200000 -27.381214 53.136536 3573.222412
5.960000 1.800000 -4.160000 -54.347973 30.669069 3894.293945
5.960000 1.800000 -4.120000 -57.771088 -6.202616 3375.970947
5.960000 1.800000 -4.080000 -33.912151 -33.129982 2247.629883
5.960000 1.800000 -4.040000 -1.695599 -32.346951 1049.200195
5.960000 1.800000 -4.000000 13.189571 -9.967712 273.320099
5.960000 1.800000 -3.960000 2.278656 9.163139 89.155396
5.960000 1.800000 -3.920000 -17.755047 5.355789 343.926178
5.960000 1.800000 -3.880000 -21.978832 -16.867805 767.591919
5.960000 1.800000 -3.840000 -2.107250 -33.930344 1155.708740
5.960000 1.800000 -3.800000 25.727100 -27.158611 1399.473877
5.960000 1.840000 -4.200000 -50.146198 26.994974 3243.369629
5.960000 1.840000 -4.160000 -55.179260 9.881388 3142.392578
5.960000 1.840000 -4.120000 -52.489532 -3.695965 2768.811279
5.960000 1.840000 -4.080000 -48.429012 -11.754673 2483.541504
5.960000 1.840000 -4.040000 -47.220337 -18.695595 2579.285645
5.960000 1.840000 -4.000000 -46.104038 -30.203621 3037.841064
5.960000 1.840000 -3.960000 -37.511810 -45.865387 3510.769531
5.960000 1.840000 -3.920000 -17.243469 -57.185928 3567.567627
5.960000 1.840000 -3.880000 9.124672 -54.223152 3023.409668
5.960000 1.840000 -3.840000 28.763824 -35.251911 2070.054932
5.960000 1.840000 -3.800000 31.813480 -9.936806 1110.837646
5.960000 1.880000 -4.200000 -47.591034 -6.566771 2308.029053
5.960000 1.880000 -4.160000 -48.525257 -1.620270 2357.325928
5.960000 1.880000 -4.120000 -67.348099 -0.577400 4536.100098
5.960000 1.880000 -4.080000 -92.650894 -23.319679 9127.996094
5.960000 1.880000 -4.040000 -97.878944 -70.596001 14564.083984
5.960000 1.880000 -4.000000 -65.289337 -118.062431 18201.435547
5.960000 1.880000 -3.960000 -4.706970 -134.308929 18061.044922
5.960000 1.880000 -3.920000 51.600128 -107.346611 14185.868164
5.960000 1.880000 -3.880000 74.237610 -55.094074 8546.580078
5.960000 1.880000 -3.840000 59.330776 -10.204176 3624.266357
5.960000 1.880000 -3.800000 28.428478 6.384456 848.939636
5.960000 1.920000 -4.200000 -23.809929 -26.360149 1261.770264
5.960000 1.920000 -4.160000 -44.698086 -6.684506 2042.601440
5.960000 1.920000 -4.120000 -91.245361 -21.445099 8785.608398
5.960000 1.920000 -4.080000 -118.731674 -86.527840 21584.277344
5.960000 1.920000 -4.040000 -84.321007 -169.163696 35726.386719
5.960000 1.920000 -4.000000 9.402328 -209.969238 44175.484375
5.960000 1.920000 -3.960000 109.902351 -173.926102 42328.816406
5.960000 1.920000 -3.920000 156.443420 -82.544075 31288.066406
5.960000 1.920000 -3.880000 130.143799 3.992546 16953.347656
5.960000 1.920000 -3.840000 65.902008 37.778221 5770.268555
5.960000 1.920000 -3.800000 17.238796 19.337645 671.120605
5.960000 1.960000 -4.200000 3.021015 -23.172935 546.111450
5.960000 1.960000 -4.160000 -44.313644 -13.973015 2158.944336
5.960000 1.960000 -4.120000 -94.104172 -67.376923 13395.244141
5.960000 1.960000 -4.080000 -81.844582 -165.976517 34246.742188
5.960000 1.960000 -4.040000 16.294113 -238.196167 57002.914062
5.960000 1.960000 -4.000000 151.207703 -217.774704 70289.593750
5.960000 1.960000 -3.960000 235.985886 -105.488251 66817.109375
5.960000 1.960000 -3.920000 218.855133 27.369576 48646.664062
5.960000 1.960000 -3.880000 125.657280 98.923935 25575.697266
5.960000 1.960000 -3.840000 32.675480 83.667503 8067.937988
5.960000 1.960000 -3.800000 -1.781033 24.768064 616.629089
5.960000 2.000000 -4.200000 16.208061 -5.007198 287.773285
5.960000 2.000000 -4.160000 -39.696091 -25.953537 2249.365723
5.960000 2.000000 -4.120000 -58.285454 -110.083015 15515.464844
5.960000 2.000000 -4.080000 11.935179 -200.087006 40177.257812
5.960000 2.000000 -4.040000 149.497314 -211.848022 67229.031250
5.960000 2.000000 -4.000000 265.933105 -111.770615 83213.085938
5.960000 2.000000 -3.960000 278.009705 45.636490 79372.085938
5.960000 2.000000 -3.920000 180.142105 159.824493 57995.046875
5.960000 2.000000 -3.880000 47.942146 168.337585 30635.992188
5.960000 2.000000 -3.840000 -29.661705 94.233032 9759.680664
5.960000 2.000000 -3.800000 -23.729046 15.183168 793.596252
5.960000 2.040000 -4.200000 12.602882 12.323139 310.692383
5.960000 2.040000 -4.160000 -25.816296 -35.453827 1923.455078
5.960000 2.040000 -4.120000 0.826611 -117.362312 13774.595703
5.960000 2.040000 -4.080000 105.885361 -157.937515 36155.968750
5.960000 2.040000 -4.040000 227.134232 -97.338829 61064.808594
5.960000 2.040000 -4.000000 272.186401 46.486423 76246.421875
5.960000 2.040000 -3.960000 199.250595 183.795380 73481.546875
5.960000 2.040000 -3.920000 56.416019 226.537308 54501.917969
5.960000 2.040000 -3.880000 -59.337990 161.479919 29596.761719
5.960000 2.040000 -3.840000 -84.420540 54.935909 10144.781250
5.960000 2.040000 -3.800000 -34.664177 -11.603588 1336.248291
5.960000 2.080000 -4.200000 1.365137 18.999491 362.844238
5.960000 2.080000 -4.160000 -7.642004 -33.940010 1210.324585
5.960000 2.080000 -4.120000 47.110825 -83.765381 9236.068359
5.960000 2.080000 -4.080000 142.098969 -68.160286 24837.941406
5.960000 2.080000 -4.040000 204.143463 29.901787 42568.671875
5.960000 2.080000 -4.000000 172.113159 155.658829 53852.609375
5.960000 2.080000 -3.960000 54.972839 222.974182 52739.496094
5.960000 2.080000 -3.920000 -71.318069 187.182037 40123.378906
5.960000 2.080000 -3.880000 -127.270584 82.044327 22929.074219
5.960000 2.080000 -3.840000 -94.150497 -13.175522 9037.911133
5.960000 2.080000 -3.800000 -20.439419 -42.745209 2244.922607
5.960000 2.120000 -4.200000 -7.015606 16.737352 329.357697
5.960000 2.120000 -4.160000 4.139392 -21.485531 478.762573
5.960000 2.120000 -4.120000 56.160385 -35.173347 4391.153320
5.960000 2.120000 -4.080000 110.919258 8.283779 12371.703125
5.960000 2.120000 -4.040000 113.912415 93.245277 21670.718750
5.960000 2.120000 -4.000000 45.158524 160.784821 27891.050781
5.960000 2.120000 -3.960000 -56.931179 157.146759 27936.261719
5.960000 2.120000 -3.920000 -124.577972 81.378258 22142.091797
5.960000 2.120000 -3.880000 -116.988052 -13.318031 13863.574219
5.960000 2.120000 -3.840000 -51.548325 -65.518677 6949.926758
5.960000 2.120000 -3.800000 17.082802 -54.663502 3279.920410
5.960000 2.160000 -4.200000 -9.690737 13.003295 262.996063
5.960000 2.160000 -4.160000 3.810980 -7.315599 68.041565
5.960000 2.160000 -4.120000 34.882046 -3.783836 1231.074463
5.960000 2.160000 -4.080000 52.912090 32.428806 3851.316650
5.960000 2.160000 -4.040000 30.952339 77.477264 6960.773926
5.960000 2.160000 -4.000000 -25.710144 91.980049 9121.340820
5.960000 2.160000 -3.960000 -79.178123 56.288330 9437.551758
5.960000 2.160000 -3.920000 -89.677856 -9.690483 8136.023438
5.960000 2.160000 -3.880000 -49.348045 -61.840233 6259.443848
5.960000 2.160000 -3.840000 12.274534 -68.187904 4800.254395
5.960000 2.160000 -3.800000 54.738983 -32.516113 4053.653809
5.960000 2.200000 -4.200000 -10.795895 11.873590 257.533478
5.960000 2.200000 -4.160000 -4.205347 -0.801977 18.328112
5.960000 2.200000 -4.120000 10.213341 -0.182198 104.345528
5.960000 2.200000 -4.080000 15.797993 14.846397 469.992065
5.960000 2.200000 -4.040000 2.407677 29.016142 847.733398
5.960000 2.200000 -4.000000 -21.340878 24.156380 1038.963745
5.960000 2.200000 -3.960000 -33.699207 -2.501244 1141.892822
5.960000 2.200000 -3.920000 -19.082500 -33.335789 1475.416626
5.960000 2.200000 -3.880000 17.084896 -44.318153 2255.992432
5.960000 2.200000 -3.840000 52.027420 -25.126827 3338.209961
5.960000 2.200000 -3.800000 64.020767 12.997873 4267.603516
6.000000 1.800000 -4.200000 -54.585335 35.009457 4205.220703
6.000000 1.800000 -4.160000 -68.242447 -1.745464 4660.078613
6.000000 1.800000 -4.120000 -51.771683 -39.381912 4231.242188
6.000000 1.800000 -4.080000 -14.792326 -53.349430 3064.974609
6.000000 1.800000 -4.040000 16.124226 -37.249084 1647.484863
6.000000 1.800000 -4.000000 20.894073 -9.528976 527.363708
6.000000 1.800000 -3.960000 4.170364 3.738148 31.365688
6.000000 1.800000 -3.920000 -10.310074 -6.398966 147.244385
6.000000 1.800000 -3.880000 -3.934952 -24.315847 606.744263
6.000000 1.800000 -3.840000 18.603060 -26.957672 1072.789917
6.000000 1.800000 -3.800000 35.277348 -7.600886 1302.264648
6.000000 1.840000 -4.200000 -63.619156 -3.207169 4057.682861
6.000000 1.840000 -4.160000 -59.797909 -25.555229 4228.859375
6.000000 1.840000 -4.120000 -47.487686 -41.382488 3967.590820
6.000000 1.840000 -4.080000 -33.325069 -49.146332 3525.922119
6.000000 1.840000 -4.040000 -21.369843 -52.630821 3226.673584
6.000000 1.840000 -4.000000 -9.991455 -55.866516 3220.896729
6.000000 1.840000 -3.960000 4.974731 -57.737392 3358.354492
6.000000 1.840000 -3.920000 23.601334 -52.429436 3305.868652
6.000000 1.840000 -3.880000 39.032166 -36.029022 2821.600342
6.000000 1.840000 -3.840000 42.427540 -12.707882 1961.586426
6.000000 1.840000 -3.800000 31.466324 6.689035 1034.872681
6.000000 1.880000 -4.200000 -43.238899 -35.059307 3098.757324
6.000000 1.880000 -4.160000 -45.086845 -36.852158 3390.905273
6.000000 1.880000 -4.120000 -55.512554 -50.279137 5609.635254
6.000000 1.880000 -4.080000 -56.150845 -82.277397 9922.487305
6.000000 1.880000 -4.040000 -28.890350 -118.311691 14832.308594
6.000000 1.880000 -4.000000 24.184921 -131.660522 17919.404297
6.000000 1.880000 -3.960000 77.984680 -106.525658 17429.326172
6.000000 1.880000 -3.920000 103.090347 -53.516273 13491.611328
6.000000 1.880000 -3.880000 89.450378 -2.408489 8007.170898
6.000000 1.880000 -3.840000 53.483196 21.551680 3324.927246
6.000000 1.880000 -3.800000 22.679733 16.215712 777.319580
6.000000 1.920000 -4.200000 -9.515022 -41.992100 1853.872070
6.000000 1.920000 -4.160000 -33.734310 -40.550266 2782.327637
6.000000 1.920000 -4.120000 -57.774269 -78.598495 9515.589844
6.000000 1.920000 -4.080000 -39.058929 -143.104141 22004.394531
6.000000 1.920000 -4.040000 36.141132 -185.069534 35556.914062
6.000000 1.920000 -4.000000 131.869751 -161.069931 43333.156250
6.000000 1.920000 -3.960000 188.132721 -74.860306 40997.988281
6.000000 1.920000 -3.920000 171.324173 22.064541 29838.816406
6.000000 1.920000 -3.880000 102.133087 73.056007 15768.347656
6.000000 1.920000 -3.840000 35.048027 62.225250 5100.345703
6.000000 1.920000 -3.800000 10.269539 21.543480 569.584961
6.000000 1.960000 -4.200000 15.098889 -25.322769 869.219055
6.000000 1.960000 -4.160000 -24.812946 -44.145412 2564.499756
6.000000 1.960000 -4.120000 -32.413612 -112.940445 13806.186523
6.000000 1.960000 -4.080000 33.542770 -182.467529 34419.515625
6.000000 1.960000 -4.040000 151.983368 -183.045944 56604.757812
6.000000 1.960000 -4.000000 246.987900 -89.998947 69102.835938
6.000000 1.960000 -3.960000 250.459045 46.939396 64933.042969
6.000000 1.960000 -3.920000 162.131653 142.137878 46489.847656
6.000000 1.960000 -3.880000 49.214233 145.964188 23727.585938
6.000000 1.960000 -3.840000 -13.688713 82.432053 6982.424316
6.000000 1.960000 -3.800000 -6.131022 19.406000 414.182281
6.000000 2.000000 -4.200000 19.514301 -1.340857 382.605835
6.000000 2.000000 -4.160000 -12.450842 -47.264282 2388.935791
6.000000 2.000000 -4.120000 19.122608 -123.693031 15665.639648
6.000000 2.000000 -4.080000 125.084206 -156.600906 40169.902344
6.000000 2.000000 -4.040000 242.335526 -89.611328 66756.695312
6.000000 2.000000 -4.000000 280.823914 55.921543 81989.289062
6.000000 2.000000 -3.960000 203.335754 189.838760 77384.187500
6.000000 2.000000 -3.920000 61.409069 227.728668 55631.421875
6.000000 2.000000 -3.880000 -48.845287 161.702118 28533.435547
6.000000 2.000000 -3.840000 -68.956772 60.830692 8455.410156
6.000000 2.000000 -3.800000 -20.500336 4.106136 437.124115
6.000000 2.040000 -4.200000 8.891993 14.426147 287.181274
6.000000 2.040000 -4.160000 3.251480 -43.095909 1867.829468
6.000000 2.040000 -4.120000 68.107307 -94.795898 13624.868164
6.000000 2.040000 -4.080000 175.330383 -71.478966 35849.988281
6.000000 2.040000 -4.040000 242.002884 43.515495 60458.992188
6.000000 2.040000 -4.000000 201.302200 186.107330 75158.515625
6.000000 2.040000 -3.960000 66.989426 259.576111 71867.343750
6.000000 2.040000 -3.920000 -73.320892 217.312256 52600.570312
6.000000 2.040000 -3.880000 -132.373444 101.699081 27865.431641
6.000000 2.040000 -3.840000 -94.795555 2.677780 8993.368164
6.000000 2.040000 -3.800000 -19.717047 -21.943911 870.297119
6.000000 2.080000 -4.200000 -4.721378 17.955248 344.682343
6.000000 2.080000 -4.160000 13.867035 -28.894341 1027.177612
6.000000 2.080000 -4.120000 83.629822 -42.027340 8760.244141
6.000000 2.080000 -4.080000 154.083069 19.436874 24119.384766
6.000000 2.080000 -4.040000 154.957382 133.069046 41719.164062
6.000000 2.080000 -4.000000 62.616726 221.361023 52921.558594
6.000000 2.080000 -3.960000 -70.696152 216.175140 51729.636719
6.000000 2.080000 -3.920000 -157.349426 119.686096 39083.601562
6.000000 2.080000 -3.880000 -148.282166 2.720402 21995.001953
6.000000 2.080000 -3.840000 -70.663483 -57.915192 8347.497070
6.000000 2.080000 -3.800000 4.099642 -42.326065 1808.302734
6.000000 2.120000 -4.200000 -14.069248 14.507985 408.425354
6.000000 2.120000 -4.160000 11.728409 -12.121574 284.488159
6.000000 2.120000 -4.120000 61.236668 0.170509 3749.958496
6.000000 2.120000 -4.080000 86.696815 62.372528 11406.669922
6.000000 2.120000 -4.040000 48.192867 135.489334 20679.912109
6.000000 2.120000 -4.000000 -43.401989 158.863281 27121.275391
6.000000 2.120000 -3.960000 -128.463333 104.627907 27449.828125
6.000000 2.120000 -3.920000 -147.731720 5.761230 21857.851562
6.000000 2.120000 -3.880000 -92.930214 -70.910797 13664.365234
6.000000 2.120000 -3.840000 -10.981968 -81.382431 6743.703613
6.000000 2.120000 -3.800000 40.184998 -37.085705 2990.183594
6.000000 2.160000 -4.200000 -19.513584 9.481882 470.686066
6.000000 2.160000 -4.160000 -0.442156 -4.290086 18.600338
6.000000 2.160000 -4.120000 25.662926 9.888863 756.375366
6.000000 2.160000 -4.080000 27.320908 48.191551 3068.857422
6.000000 2.160000 -4.040000 -10.269264 77.898651 6173.657715
6.000000 2.160000 -4.000000 -65.561913 65.538513 8593.661133
6.000000 2.160000 -3.960000 -95.608192 10.066139 9242.253906
6.000000 2.160000 -3.920000 -73.622284 -52.413246 8167.389160
6.000000 2.160000 -3.880000 -13.317253 -78.547211 6347.013672
6.000000 2.160000 -3.840000 43.340054 -54.078194 4802.811035
6.000000 2.160000 -3.800000 62.282024 -2.687752 3886.274658
6.000000 2.200000 -4.200000 -23.366268 3.413840 557.636780
6.000000 2.200000 -4.160000 -11.056750 -9.257289 207.949127
6.000000 2.200000 -4.120000 5.821663 -4.919796 58.096153
6.000000 2.200000 -4.080000 9.116711 12.234488 232.797089
6.000000 2.200000 -4.040000 -6.721966 22.984409 573.467896
6.000000 2.200000 -4.000000 -26.740749 11.811707 854.584106
6.000000 2.200000 -3.960000 -28.356037 -16.177551 1065.777954
6.000000 2.200000 -3.920000 -3.157791 -37.843018 1442.065674
6.000000 2.200000 -3.880000 33.845047 -32.349373 2191.969238
6.000000 2.200000 -3.840000 56.640564 0.233665 3208.208252
6.000000 2.200000 -3.800000 50.053223 39.520229 4067.173828
6.040000 1.800000 -4.200000 -58.715698 4.216833 3465.314941
6.040000 1.800000 -4.160000 -54.415779 -32.771793 4035.067383
6.040000 1.800000 -4.120000 -23.980846 -58.721809 4023.332031
6.040000 1.800000 -4.080000 15.370219 -56.061424 3379.126953
6.040000 1.800000 -4.040000 38.304459 -28.705696 2291.248535
6.040000 1.800000 -4.000000 33.628235 0.390505 1131.010620
6.040000 1.800000 -3.960000 13.829857 10.111624 293.509888
6.040000 1.800000 -3.920000 1.905651 0.091694 3.639914
6.040000 1.800000 -3.880000 8.623239 -11.207581 199.970108
6.040000 1.800000 -3.840000 23.298443 -6.813885 589.246460
6.040000 1.800000 -3.800000 26.751842 11.408216 845.808472
6.040000 1.840000 -4.200000 -50.703430 -31.839739 3584.606934
6.040000 1.840000 -4.160000 -37.736763 -52.012535 4129.367188
6.040000 1.840000 -4.120000 -16.188847 -63.442646 4287.047852
6.040000 1.840000 -4.080000 6.891024 -62.906265 4004.684570
6.040000 1.840000 -4.040000 24.604404 -53.134209 3428.620850
6.040000 1.840000 -4.000000 34.790321 -40.018814 2811.872070
6.040000 1.840000 -3.960000 39.821922 -27.363968 2334.572266
6.040000 1.840000 -3.920000 42.086834 -14.833530 1991.335205
6.040000 1.840000 -3.880000 40.516083 -1.184967 1642.957153
6.040000 1.840000 -3.840000 32.438278 11.397303 1182.140503
6.040000 1.840000 -3.800000 18.615545 17.550829 654.570068
6.040000 1.880000 -4.200000 -20.471634 -50.386726 2957.910156
6.040000 1.880000 -4.160000 -17.967928 -57.674988 3649.250732
6.040000 1.880000 -4.120000 -11.520624 -74.375946 5664.505859
6.040000 1.880000 -4.080000 11.297977 -93.252899 8823.748047
6.040000 1.880000 -4.040000 50.845463 -96.715210 11939.092773
6.040000 1.880000 -4.000000 90.555687 -72.394356 13441.275391
6.040000 1.880000 -3.960000 108.199486 -26.369888 12402.500000
6.040000 1.880000 -3.920000 93.933235 19.082222 9187.583984
6.040000 1.880000 -3.880000 58.704319 42.106339 5219.140625
6.040000 1.880000 -3.840000 25.340425 37.565140 2053.276855
6.040000 1.880000 -3.800000 10.503066 18.888678 467.096527
6.040000 1.920000 -4.200000 10.834163 -42.885796 1956.570435
6.040000 1.920000 -4.160000 -2.376628 -55.626083 3099.909668
6.040000 1.920000 -4.120000 4.977234 -92.289665 8542.154297
6.040000 1.920000 -4.080000 52.952900 -122.849998 17896.130859
6.040000 1.920000 -4.040000 124.862976 -109.131454 27500.437500
6.040000 1.920000 -4.000000 175.092651 -42.080658 32428.218750
6.040000 1.920000 -3.960000 166.914581 44.560501 29846.115234
6.040000 1.920000 -3.920000 105.455597 99.798431 21080.609375
6.040000 1.920000 -3.880000 33.906853 97.520348 10659.892578
6.040000 1.920000 -3.840000 -3.640274 55.989380 3148.062256
6.040000 1.920000 -3.800000 2.394295 17.581787 314.851868
6.040000 1.960000 -4.200000 25.739338 -19.542435 1044.420288
6.040000 1.960000 -4.160000 10.450300 -50.972130 2707.366699
6.040000 1.960000 -4.120000 40.842361 -99.720642 11612.304688
6.040000 1.960000 -4.080000 120.867386 -112.544540 27275.199219
6.040000 1.960000 -4.040000 202.010910 -52.472321 43561.750000
6.040000 1.960000 -4.000000 220.210587 59.745056 52062.175781
6.040000 1.960000 -3.960000 153.547836 156.005692 47914.710938
6.040000 1.960000 -3.920000 44.881653 177.191879 33411.324219
6.040000 1.960000 -3.880000 -34.184334 123.066116 16313.836914
6.040000 1.960000 -3.840000 -44.226292 48.507610 4308.953125
6.040000 1.960000 -3.800000 -6.305334 11.410143 169.948593
6.040000 2.000000 -4.200000 21.866064 2.831079 486.139771
6.040000 2.000000 -4.160000 22.753843 -42.062347 2286.978516
6.040000 2.000000 -4.120000 81.268616 -78.248276 12727.380859
6.040000 2.000000 -4.080000 170.583084 -49.019859 31501.535156
6.040000 2.000000 -4.040000 219.777405 55.406094 51371.945312
6.040000 2.000000 -4.000000 175.528839 176.895416 62102.359375
6.040000 2.000000 -3.960000 55.065605 233.569153 57586.773438
6.040000 2.000000 -3.920000 -63.703842 190.624268 40395.792969
6.040000 2.000000 -3.880000 -108.386459 90.019897 19851.207031
6.040000 2.000000 -3.840000 -71.958397 10.473677 5287.708496
6.040000 2.000000 -3.800000 -10.371652 -2.496340 113.802872
6.040000 2.040000 -4.200000 8.222160 14.528677 278.686371
6.040000 2.040000 -4.160000 30.318977 -25.995926 1595.028564
6.040000 2.040000 -4.120000 98.803650 -31.143417 10732.073242
6.040000 2.040000 -4.080000 162.835403 35.843483 27800.125000
6.040000 2.040000 -4.040000 155.446808 149.144073 46407.664062
6.040000 2.040000 -4.000000 58.209175 231.662582 57055.859375
6.040000 2.040000 -3.960000 -73.423004 219.942291 53765.550781
6.040000 2.040000 -3.920000 -153.662292 122.014671 38499.679688
6.040000 2.040000 -3.880000 -139.682953 11.006912 19632.480469
6.040000 2.040000 -3.840000 -64.767822 -40.061249 5799.774414
6.040000 2.040000 -3.800000 -1.268883 -19.031651 363.813812
6.040000 2.080000 -4.200000 -5.923073 15.944921 289.323273
6.040000 2.080000 -4.160000 25.968315 -7.296705 727.595276
6.040000 2.080000 -4.120000 79.583961 14.539822 6545.013184
6.040000 2.080000 -4.080000 101.152435 89.634659 18266.187500
6.040000 2.080000 -4.040000 49.439491 171.016571 31690.931641
6.040000 2.080000 -4.000000 -58.134289 191.543640 40068.558594
6.040000 2.080000 -3.960000 -152.150391 125.132004 38807.761719
6.040000 2.080000 -3.920000 -169.218872 14.201126 28836.699219
6.040000 2.080000 -3.880000 -106.893517 -65.828583 15759.625977
6.040000 2.080000 -3.840000 -22.478817 -71.650360 5639.071289
6.040000 2.080000 -3.800000 21.601183 -24.297848 1056.996460
6.040000 2.120000 -4.200000 -16.998690 11.057538 411.224609
6.040000 2.120000 -4.160000 9.860422 2.736080 104.714066
6.040000 2.120000 -4.120000 38.586617 31.003412 2450.138672
6.040000 2.120000 -4.080000 29.838482 85.084305 8129.673828
6.040000 2.120000 -4.040000 -29.621620 119.866936 15245.522461
6.040000 2.120000 -4.000000 -105.839882 95.281799 20280.703125
6.040000 2.120000 -3.960000 -142.477737 16.977379 20588.136719
6.040000 2.120000 -3.920000 -110.538666 -63.858231 16296.669922
6.040000 2.120000 -3.880000 -34.827065 -93.905106 10031.093750
6.040000 2.120000 -3.840000 29.066565 -62.928246 4804.829102
6.040000 2.120000 -3.800000 44.112015 -7.694450 2005.074463
6.040000 2.160000 -4.200000 -24.301682 1.723150 593.540955
6.040000 2.160000 -4.160000 -6.766783 -3.029296 54.965981
6.040000 2.160000 -4.120000 6.806850 14.988867 270.999329
6.040000 2.160000 -4.080000 -5.944763 41.705460 1774.685547
6.040000 2.160000 -4.040000 -43.692917 47.082851 4125.866211
6.040000 2.160000 -4.000000 -77.073822 14.831093 6160.335449
6.040000 2.160000 -3.960000 -73.799484 -37.951782 6886.701660
6.040000 2.160000 -3.920000 -29.611061 -72.981766 6203.152832
6.040000 2.160000 -3.880000 26.072342 -64.364662 4822.576660
6.040000 2.160000 -3.840000 55.911453 -20.864014 3561.397705
6.040000 2.160000 -3.800000 46.305019 24.227104 2731.107422
6.040000 2.200000 -4.200000 -25.582785 -11.010755 775.715576
6.040000 2.200000 -4.160000 -10.710758 -18.618286 461.360901
6.040000 2.200000 -4.120000 2.899754 -10.758170 124.146797
6.040000 2.200000 -4.080000 1.989815 3.262619 14.604046
6.040000 2.200000 -4.040000 -11.302795 6.575584 170.991486
6.040000 2.200000 -4.000000 -20.189411 -7.293701 460.810425
6.040000 2.200000 -3.960000 -9.862068 -26.167557 782.001404
6.040000 2.200000 -3.920000 16.735367 -29.917320 1175.118652
6.040000 2.200000 -3.880000 40.312035 -9.708630 1719.317627
6.040000 2.200000 -3.840000 42.419231 23.446970 2349.151611
6.040000 2.200000 -3.800000 21.224432 48.742306 2826.288818
6.080000 1.800000 -4.200000 -40.810173 -15.932239 1919.306396
6.080000 1.800000 -4.160000 -25.898737 -42.290764 2459.253174
6.080000 1.800000 -4.120000 7.138584 -53.190971 2880.239014
6.080000 1.800000 -4.080000 40.181152 -37.510166 3021.537598
6.080000 1.800000 -4.040000 52.105972 -4.081685 2731.692383
6.080000 1.800000 -4.000000 37.680775 24.267336 2008.744385
6.080000 1.800000 -3.960000 12.319096 30.617561 1089.195190
6.080000 1.800000 -3.920000 -2.756068 18.356602 344.560730
6.080000 1.800000 -3.880000 -0.179567 5.646362 31.913651
6.080000 1.800000 -3.840000 8.806952 6.119877 115.015289
6.080000 1.800000 -3.800000 8.521701 15.932554 326.465668
6.080000 1.840000 -4.200000 -24.541924 -39.835617 2189.182373
6.080000 1.840000 -4.160000 -7.053785 -53.519775 2914.122314
6.080000 1.840000 -4.120000 19.079720 -55.828056 3480.807617
6.080000 1.840000 -4.080000 43.307907 -41.627296 3608.406738
6.080000 1.840000 -4.040000 54.023258 -16.460335 3189.455078
6.080000 1.840000 -4.000000 48.244850 7.029713 2376.982422
6.080000 1.840000 -3.960000 33.513878 19.332027 1496.907349
6.080000 1.840000 -3.920000 20.272734 20.742966 841.254395
6.080000 1.840000 -3.880000 12.886850 18.204964 497.491638
6.080000 1.840000 -3.840000 8.371816 16.714981 349.477905
6.080000 1.840000 -3.800000 2.940228 14.987778 233.278427
6.080000 1.880000 -4.200000 2.883490 -44.930794 2027.090698
6.080000 1.880000 -4.160000 12.433752 -52.743031 2936.425537
6.080000 1.880000 -4.120000 31.999992 -58.948097 4498.877930
6.080000 1.880000 -4.080000 59.477226 -52.313297 6274.221680
6.080000 1.880000 -4.040000 82.283813 -27.041836 7501.886719
6.080000 1.880000 -4.000000 86.274796 9.747093 7538.346191
6.080000 1.880000 -3.960000 67.484123 41.459145 6272.967773
6.080000 1.880000 -3.920000 36.021248 53.921120 4205.017578
6.080000 1.880000 -3.880000 8.715420 45.427299 2139.598145
6.080000 1.880000 -3.840000 -2.975603 26.689373 721.176819
6.080000 1.880000 -3.800000 0.329962 11.645233 135.720322
6.080000 1.920000 -4.200000 24.478306 -31.169083 1570.699219
6.080000 1.920000 -4.160000 27.713108 -44.471611 2745.740723
6.080000 1.920000 -4.120000 52.572571 -58.442524 6179.403809
6.080000 1.920000 -4.080000 94.306976 -48.826797 11277.861328
6.080000 1.920000 -4.040000 126.116730 -4.638359 15926.944336
6.080000 1.920000 -4.000000 120.320435 56.739735 17696.404297
6.080000 1.920000 -3.960000 74.011322 100.096092 15496.903320
6.080000 1.920000 -3.920000 14.284412 100.911629 10387.201172
6.080000 1.920000 -3.880000 -23.212669 65.763710 4863.693848
6.080000 1.920000 -3.840000 -23.132528 25.631111 1192.067749
6.080000 1.920000 -3.800000 -0.391926 8.657545 75.106689
6.080000 1.960000 -4.200000 31.040642 -9.593417 1055.555054
6.080000 1.960000 -4.160000 38.564156 -31.311356 2467.595215
6.080000 1.960000 -4.120000 77.519714 -42.639423 7827.426758
6.080000 1.960000 -4.080000 127.867455 -12.773214 16513.240234
6.080000 1.960000 -4.040000 146.860535 58.354897 24973.312500
6.080000 1.960000 -4.000000 107.020538 131.493866 28744.031250
6.080000 1.960000 -3.960000 25.204399 157.908752 25570.435547
6.080000 1.960000 -3.920000 -47.712204 121.817093 17115.859375
6.080000 1.960000 -3.880000 -69.282074 54.761494 7798.827148
6.080000 1.960000 -3.840000 -40.531879 7.342562 1696.746460
6.080000 1.960000 -3.800000 -0.771358 5.174183 27.367163
6.080000 2.000000 -4.200000 24.174135 8.588967 658.159180
6.080000 2.000000 -4.160000 43.064800 -13.191529 2028.593506
6.080000 2.000000 -4.120000 90.282852 -7.796614 8211.780273
6.080000 2.000000 -4.080000 128.701965 47.148308 18787.158203
6.080000 2.000000 -4.040000 112.941055 129.445358 29511.783203
6.080000 2.000000 -4.000000 34.669876 183.042206 34706.449219
6.080000 2.000000 -3.960000 -62.126358 165.617798 31288.939453
6.080000 2.000000 -3.920000 -115.343597 88.486725 21134.046875
6.080000 2.000000 -3.880000 -98.200607 8.436300 9714.530273
6.080000 2.000000 -3.840000 -40.711311 -22.334078 2156.221924
6.080000 2.000000 -3.800000 1.261969 -0.192446 1.629600
6.080000 2.040000 -4.200000 10.187292 18.291649 438.365326
6.080000 2.040000 -4.160000 36.285091 6.538146 1359.355225
6.080000 2.040000 -4.120000 75.533104 31.183575 6677.665527
6.080000 2.040000 -4.080000 84.879456 95.723824 16367.572266
6.080000 2.040000 -4.040000 33.840279 159.712158 26653.136719
6.080000 2.040000 -4.000000 -59.051613 169.151657 32099.376953
6.080000 2.040000 -3.960000 -134.453384 106.919014 29509.388672
6.080000 2.040000 -3.920000 -142.167755 12.956988 20379.552734
6.080000 2.040000 -3.880000 -85.848602 -48.798557 9751.281250
6.080000 2.040000 -3.840000 -18.149292 -46.344574 2477.216309
6.080000 2.040000 -3.800000 9.064045 -4.265387 100.350433
6.080000 2.080000 -4.200000 -5.638934 18.770096 384.114075
6.080000 2.080000 -4.160000 17.239050 18.233345 629.639709
6.080000 2.080000 -4.120000 37.308018 49.811546 3873.078369
6.080000 2.080000 -4.080000 19.961164 100.434357 10485.507812
6.080000 2.080000 -4.040000 -42.936249 127.171707 18016.164062
6.080000 2.080000 -4.000000 -115.710815 95.498589 22508.972656
6.080000 2.080000 -3.960000 -145.308411 16.163708 21375.800781
6.080000 2.080000 -3.920000 -109.104706 -58.905994 15373.752930
6.080000 2.080000 -3.880000 -36.833279 -81.165924 7944.597656
6.080000 2.080000 -3.840000 16.529564 -47.793808 2557.474609
6.080000 2.080000 -3.800000 20.583416 -0.239283 423.734253
6.080000 2.120000 -4.200000 -18.983135 10.160601 463.597229
6.080000 2.120000 -4.160000 -4.801117 13.050213 193.358780
6.080000 2.120000 -4.120000 -0.117046 36.269413 1315.484009
6.080000 2.120000 -4.080000 -24.769733 61.435131 4387.814941
6.080000 2.120000 -4.040000 -71.427185 57.322815 8387.748047
6.080000 2.120000 -4.000000 -105.270187 12.117218 11228.639648
6.080000 2.120000 -3.960000 -94.234154 -49.342094 11314.718750
6.080000 2.120000 -3.920000 -40.892963 -84.185608 8759.451172
6.080000 2.120000 -3.880000 17.418736 -69.814430 5177.466797
6.080000 2.120000 -3.840000 41.955090 -23.855452 2329.312012
6.080000 2.120000 -3.800000 26.434885 14.290442 903.019897
6.080000 2.160000 -4.200000 -24.382856 -5.606572 625.957336
6.080000 2.160000 -4.160000 -14.891397 -6.441029 263.240570
6.080000 2.160000 -4.120000 -12.391586 4.055949 170.002136
6.080000 2.160000 -4.080000 -25.937210 11.820656 812.466797
6.080000 2.160000 -4.040000 -45.548943 0.302250 2074.797363
6.080000 2.160000 -4.000000 -49.113712 -29.662300 3292.008789
6.080000 2.160000 -3.960000 -24.649445 -56.471790 3796.658203
6.080000 2.160000 -3.920000 15.264893 -56.646919 3441.890381
6.080000 2.160000 -3.880000 43.174538 -27.484188 2619.421387
6.080000 2.160000 -3.840000 41.566013 10.021936 1828.172729
6.080000 2.160000 -3.800000 17.635431 31.045681 1274.842773
6.080000 2.200000 -4.200000 -17.467720 -21.790785 779.959595
6.080000 2.200000 -4.160000 -5.760589 -25.158710 666.145081
6.080000 2.200000 -4.120000 2.996181 -19.480089 388.450989
6.080000 2.200000 -4.080000 3.343833 -12.621437 170.481903
6.080000 2.200000 -4.040000 0.222565 -12.675625 160.720993
6.080000 2.200000 -4.000000 3.279251 -18.221783 342.786835
6.080000 2.200000 -3.960000 15.409271 -19.179897 605.314087
6.080000 2.200000 -3.920000 28.296740 -7.656641 859.329590
6.080000 2.200000 -3.880000 30.079401 12.998407 1073.729004
6.080000 2.200000 -3.840000 16.942585 30.686699 1228.724609
6.080000 2.200000 -3.800000 -3.612638 35.670380 1285.427124
6.120000 1.800000 -4.200000 -19.637218 -14.455114 594.570679
6.120000 1.800000 -4.160000 -5.167674 -29.746090 911.534729
6.120000 1.800000 -4.120000 22.380333 -30.593624 1436.849121
6.120000 1.800000 -4.080000 45.578690 -8.295135 2146.226318
6.120000 1.800000 -4.040000 45.469196 26.210245 2754.424805
6.120000 1.800000 -4.000000 20.240505 49.604996 2870.333496
6.120000 1.800000 -3.960000 -11.600147 46.861389 2330.553223
6.120000 1.800000 -3.920000 -27.825912 24.715117 1385.118408
6.120000 1.800000 -3.880000 -22.438101 4.019794 519.627075
6.120000 1.800000 -3.840000 -8.823221 -0.908643 78.674866
6.120000 1.800000 -3.800000 -3.743896 5.419269 43.385235
6.120000 1.840000 -4.200000 -6.648374 -27.597269 805.810120
6.120000 1.840000 -4.160000 10.238435 -35.424370 1359.711548
6.120000 1.840000 -4.120000 34.513287 -28.314838 1992.897095
6.120000 1.840000 -4.080000 49.948837 -2.860080 2503.066406
6.120000 1.840000 -4.040000 43.354023 28.002687 2663.721680
6.120000 1.840000 -4.000000 17.917957 45.057083 2351.193848
6.120000 1.840000 -3.960000 -8.881973 39.768028 1660.385498
6.120000 1.840000 -3.920000 -20.945137 21.035280 881.181763
6.120000 1.840000 -3.880000 -16.850853 5.270956 311.734222
6.120000 1.840000 -3.840000 -7.827672 0.796958 61.907600
6.120000 1.840000 -3.800000 -4.070637 2.678091 23.742256
6.120000 1.880000 -4.200000 11.866539 -28.246346 938.670776
6.120000 1.880000 -4.160000 26.341595 -31.399174 1679.787720
6.120000 1.880000 -4.120000 46.181667 -22.062969 2619.520996
6.120000 1.880000 -4.080000 58.123226 2.436190 3384.244385
6.120000 1.880000 -4.040000 51.130653 31.761515 3623.137695
6.120000 1.880000 -4.000000 26.782494 49.936081 3210.914062
6.120000 1.880000 -3.960000 -1.359831 48.167679 2321.974365
6.120000 1.880000 -3.920000 -18.602776 31.175213 1317.957153
6.120000 1.880000 -3.880000 -19.787312 11.950541 534.353088
6.120000 1.880000 -3.840000 -10.687909 0.969799 115.171913
6.120000 1.880000 -3.800000 -0.772224 -0.007163 0.596381
6.120000 1.920000 -4.200000 26.341974 -16.983177 982.327881
6.120000 1.920000 -4.160000 38.700851 -19.139650 1864.082031
6.120000 1.920000 -4.120000 57.514748 -9.226421 3393.073242
6.120000 1.920000 -4.080000 69.233597 17.479815 5098.834961
6.120000 1.920000 -4.040000 59.903343 51.376724 6227.978516
6.120000 1.920000 -4.000000 28.374256 73.360649 6186.882812
6.120000 1.920000 -3.960000 -10.071476 69.492310 4930.615723
6.120000 1.920000 -3.920000 -34.207291 42.900990 3010.633789
6.120000 1.920000 -3.880000 -33.107246 12.002178 1240.141968
6.120000 1.920000 -3.840000 -14.102999 -3.893736 214.055756
6.120000 1.920000 -3.800000 4.284305 0.806595 19.005861
6.120000 1.960000 -4.200000 31.005795 0.622002 961.746216
6.120000 1.960000 -4.160000 43.499256 -0.545666 1892.483032
6.120000 1.960000 -4.120000 62.233784 13.167826 4046.435547
6.120000 1.960000 -4.080000 69.681107 46.205997 6990.450684
6.120000 1.960000 -4.040000 49.201767 83.896164 9459.380859
6.120000 1.960000 -4.000000 3.211443 100.444061 10099.323242
6.120000 1.960000 -3.960000 -43.696682 80.753510 8430.529297
6.120000 1.960000 -3.920000 -62.888046 36.047901 5254.357422
6.120000 1.960000 -3.880000 -46.041107 -3.289413 2130.603760
6.120000 1.960000 -3.840000 -12.658248 -12.958426 328.152069
6.120000 1.960000 -3.800000 7.344720 4.963213 78.578400
6.120000 2.000000 -4.200000 24.304356 17.765255 906.306030
6.120000 2.000000 -4.160000 36.336044 19.910227 1716.725220
6.120000 2.000000 -4.120000 50.454201 39.340626 4093.311279
6.120000 2.000000 -4.080000 45.966431 75.379372 7794.962891
6.120000 2.000000 -4.040000 9.756081 105.697472 11267.135742
6.120000 2.000000 -4.000000 -45.122116 102.541046 12550.671875
6.120000 2.000000 -3.960000 -84.674843 59.793381 10745.077148
6.120000 2.000000 -3.920000 -82.248497 3.316441 6775.813965
6.120000 2.000000 -3.880000 -43.701530 -29.033865 2752.789062
6.120000 2.000000 -3.840000 -3.384573 -20.682775 439.232513
6.120000 2.000000 -3.800000 7.016262 9.370082 137.026367
6.120000 2.040000 -4.200000 8.148668 27.732040 835.466858
6.120000 2.040000 -4.160000 16.149738 33.027374 1351.621582
6.120000 2.040000 -4.120000 20.539793 53.714016 3307.078613
6.120000 2.040000 -4.080000 2.600719 82.058548 6740.369141
6.120000 2.040000 -4.040000 -41.087997 92.578934 10259.083008
6.120000 2.040000 -4.000000 -87.062218 65.248123 11837.146484
6.120000 2.040000 -3.960000 -101.457970 9.340941 10380.972656
6.120000 2.040000 -3.920000 -71.677063 -39.229656 6676.567383
6.120000 2.040000 -3.880000 -21.049767 -48.584965 2803.591553
6.120000 2.040000 -3.840000 10.943851 -20.441975 537.642212
6.120000 2.040000 -3.800000 5.120951 11.933837 168.640594
6.120000 2.080000 -4.200000 -11.423723 25.104090 760.716797
6.120000 2.080000 -4.160000 -9.298464 29.292206 944.494751
6.120000 2.080000 -4.120000 -13.387352 43.165787 2042.506348
6.120000 2.080000 -4.080000 -35.694500 55.250961 4326.766113
6.120000 2.080000 -4.040000 -70.079590 45.029274 6938.784180
6.120000 2.080000 -4.000000 -91.171577 6.072681 8349.134766
6.120000 2.080000 -3.960000 -76.810913 -41.036667 7583.924805
6.120000 2.080000 -3.920000 -32.285477 -63.506721 5075.456055
6.120000 2.080000 -3.880000 10.742235 -46.841354 2309.508057
6.120000 2.080000 -3.840000 22.606647 -9.753435 606.190002
6.120000 2.080000 -3.800000 3.484734 13.543259 195.563232
6.120000 2.120000 -4.200000 -24.550989 9.467494 692.384521
6.120000 2.120000 -4.160000 -25.079845 8.307966 698.020935
6.120000 2.120000 -4.120000 -29.655523 11.644349 1015.040955
6.120000 2.120000 -4.080000 -43.374809 9.832550 1978.053101
6.120000 2.120000 -4.040000 -56.965672 -7.908978 3307.639648
6.120000 2.120000 -4.000000 -52.990334 -37.516838 4215.488281
6.120000 2.120000 -3.960000 -24.938679 -58.690308 4066.489990
6.120000 2.120000 -3.920000 11.866055 -52.974464 2947.097168
6.120000 2.120000 -3.880000 31.963600 -23.330112 1565.965820
6.120000 2.120000 -3.840000 23.842793 6.763669 614.225952
6.120000 2.120000 -3.800000 1.166175 15.587454 244.328690
6.120000 2.160000 -4.200000 -22.589991 -11.253977 636.959656
6.120000 2.160000 -4.160000 -20.198124 -16.907972 693.843750
6.120000 2.160000 -4.120000 -17.831335 -19.481812 697.497498
6.120000 2.160000 -4.080000 -17.393278 -23.607014 859.817200
6.120000 2.160000 -4.040000 -13.518375 -32.199535 1219.556519
6.120000 2.160000 -4.000000 -0.184614 -39.558128 1564.879517
6.120000 2.160000 -3.960000 19.476784 -35.415031 1633.569580
6.120000 2.160000 -3.920000 32.914974 -16.704247 1362.427368
6.120000 2.160000 -3.880000 29.696190 6.541451 924.654297
6.120000 2.160000 -3.840000 12.755128 19.391991 538.742615
6.120000 2.160000 -3.800000 -3.762294 16.481655 285.799805
6.120000 2.200000 -4.200000 -5.757486 -23.655489 592.730774
6.120000 2.200000 -4.160000 1.292761 -28.318819 803.626709
6.120000 2.200000 -4.120000 10.419638 -28.670006 930.538086
6.120000 2.200000 -4.080000 19.221027 -24.966930 992.795532
6.120000 2.200000 -4.040000 26.655453 -17.698406 1023.746765
6.120000 2.200000 -4.000000 31.212639 -6.677720 1018.820740
6.120000 2.200000 -3.960000 29.982763 6.868946 946.148499
6.120000 2.200000 -3.920000 21.220409 18.550817 794.438599
6.120000 2.200000 -3.880000 7.685513 23.161209 595.508728
6.120000 2.200000 -3.840000 -4.204930 19.581398 401.112579
6.120000 2.200000 -3.800000 -9.860729 12.474809 252.854828
6.160000 1.800000 -4.200000 -12.779883 -0.457025 163.534302
6.160000 1.800000 -4.160000 -4.056014 -11.923027 158.609818
6.160000 1.800000 -4.120000 16.902323 -9.687077 379.527954
6.160000 1.800000 -4.080000 30.744175 13.847907 1136.968750
6.160000 1.800000 -4.040000 19.347145 44.080460 2317.398926
6.160000 1.800000 -4.000000 -14.098995 55.912968 3325.041748
6.160000 1.800000 -3.960000 -45.649258 37.952847 3524.273438
6.160000 1.800000 -3.920000 -52.533924 4.161214 2777.128906
6.160000 1.800000 -3.880000 -34.206009 -19.628300 1555.321167
6.160000 1.800000 -3.840000 -10.868179 -20.349691 532.227295
6.160000 1.800000 -3.800000 -1.781938 -7.974068 66.761063
6.160000 1.840000 -4.200000 -7.339403 -11.697433 190.696762
6.160000 1.840000 -4.160000 6.864344 -17.194212 342.760132
6.160000 1.840000 -4.120000 24.856045 -4.767044 640.547668
6.160000 1.840000 -4.080000 26.826767 22.680843 1234.096069
6.160000 1.840000 -4.040000 4.433965 44.756767 2022.828247
6.160000 1.840000 -4.000000 -28.718233 42.335419 2617.024658
6.160000 1.840000 -3.960000 -48.576660 16.325504 2626.213867
6.160000 1.840000 -3.920000 -42.824802 -13.081505 2005.089478
6.160000 1.840000 -3.880000 -21.045891 -25.795027 1108.312988
6.160000 1.840000 -3.840000 -3.142667 -19.578442 393.191711
6.160000 1.840000 -3.800000 0.708225 -8.419575 71.390816
6.160000 1.880000 -4.200000 6.148619 -16.128418 297.931366
6.160000 1.880000 -4.160000 20.492779 -13.335865 597.799255
6.160000 1.880000 -4.120000 29.972191 4.539378 918.938171
6.160000 1.880000 -4.080000 21.612284 27.649982 1231.612305
6.160000 1.880000 -4.040000 -3.240759 38.439957 1488.132812
6.160000 1.880000 -4.000000 -28.683359 27.752262 1592.923096
6.160000 1.880000 -3.960000 -38.069153 3.284909 1460.051025
6.160000 1.880000 -3.920000 -28.101940 -17.751755 1104.843872
6.160000 1.880000 -3.880000 -9.777268 -23.824432 663.198547
6.160000 1.880000 -3.840000 3.352983 -17.005821 300.440460
6.160000 1.880000 -3.800000 6.661134 -7.347717 98.359650
6.160000 1.920000 -4.200000 20.854645 -8.719942 510.953583
6.160000 1.920000 -4.160000 29.846415 0.770676 891.402405
6.160000 1.920000 -4.120000 29.933346 17.851212 1214.670898
6.160000 1.920000 -4.080000 16.685818 32.884651 1359.816772
6.160000 1.920000 -4.040000 -4.783754 35.716343 1298.541382
6.160000 1.920000 -4.000000 -23.025362 23.634602 1088.761719
6.160000 1.920000 -3.960000 -28.452412 3.466319 821.555115
6.160000 1.920000 -3.920000 -19.761900 -13.454288 571.550537
6.160000 1.920000 -3.880000 -3.955094 -18.961872 375.195343
6.160000 1.920000 -3.840000 9.048335 -12.568799 239.847076
6.160000 1.920000 -3.800000 12.666563 -0.457659 160.651276
6.160000 1.960000 -4.200000 27.046923 9.234602 816.813904
6.160000 1.960000 -4.160000 27.339020 20.766977 1178.689331
6.160000 1.960000 -4.120000 20.525475 32.373848 1469.361084
6.160000 1.960000 -4.080000 6.908011 39.678707 1622.120361
6.160000 1.960000 -4.040000 -10.480664 38.340370 1579.828369
6.160000 1.960000 -4.000000 -25.247166 26.199724 1323.844971
6.160000 1.960000 -3.960000 -29.598288 6.601663 919.640625
6.160000 1.960000 -3.920000 -19.863523 -10.929840 514.020996
6.160000 1.960000 -3.880000 -1.456370 -15.929093 255.857025
6.160000 1.960000 -3.840000 12.851568 -5.669256 197.303284
6.160000 1.960000 -3.800000 12.340218 10.772551 268.328827
6.160000 2.000000 -4.200000 17.952913 28.578470 1139.036011
6.160000 2.000000 -4.160000 9.799859 36.265160 1411.198975
6.160000 2.000000 -4.120000 -0.027997 39.944206 1595.540405
6.160000 2.000000 -4.080000 -11.588934 40.651924 1786.882324
6.160000 2.000000 -4.040000 -25.424992 35.622105 1915.364502
6.160000 2.000000 -4.000000 -36.639027 20.966972 1782.032104
6.160000 2.000000 -3.960000 -36.051010 -0.370501 1299.812622
6.160000 2.000000 -3.920000 -19.986488 -16.250687 663.544556
6.160000 2.000000 -3.880000 2.023913 -14.771837 222.303391
6.160000 2.000000 -3.840000 12.769873 2.570515 169.677185
6.160000 2.000000 -3.800000 3.484628 19.136127 378.334015
6.160000 2.040000 -4.200000 -3.833878 36.553516 1350.858154
6.160000 2.040000 -4.160000 -16.363216 35.837063 1552.049927
6.160000 2.040000 -4.120000 -24.764221 31.111959 1581.220703
6.160000 2.040000 -4.080000 -31.850399 25.898468 1685.178589
6.160000 2.040000 -4.040000 -39.724518 16.829277 1861.261963
6.160000 2.040000 -4.000000 -42.789841 0.354234 1831.095947
6.160000 2.040000 -3.960000 -32.750042 -17.732492 1387.006592
6.160000 2.040000 -3.920000 -10.952391 -24.048725 698.296021
6.160000 2.040000 -3.880000 7.885885 -11.649214 197.891357
6.160000 2.040000 -3.840000 8.333256 9.233778 154.705811
6.160000 2.040000 -3.800000 -8.595301 18.387035 411.962280
6.160000 2.080000 -4.200000 -25.606031 26.058224 1334.699829
6.160000 2.080000 -4.160000 -36.262444 16.202463 1577.484619
6.160000 2.080000 -4.120000 -38.809505 5.021163 1531.389771
6.160000 2.080000 -4.080000 -38.050930 -3.881981 1462.943115
6.160000 2.080000 -4.040000 -36.042809 -13.484933 1480.927490
6.160000 2.080000 -4.000000 -28.356590 -24.726458 1415.493896
6.160000 2.080000 -3.960000 -11.862119 -30.596657 1076.865234
6.160000 2.080000 -3.920000 6.387551 -22.667843 554.631897
6.160000 2.080000 -3.880000 12.731888 -3.416543 173.773727
6.160000 2.080000 -3.840000 1.572697 11.920588 144.573776
6.160000 2.080000 -3.800000 -15.529632 9.465300 330.761353
6.160000 2.120000 -4.200000 -32.556835 2.900671 1068.361450
6.160000 2.120000 -4.160000 -36.326096 -12.251842 1469.692871
6.160000 2.120000 -4.120000 -30.361362 -25.262798 1560.021240
6.160000 2.120000 -4.080000 -19.958914 -32.541561 1457.311523
6.160000 2.120000 -4.040000 -8.186218 -35.143322 1302.067261
6.160000 2.120000 -4.000000 4.838106 -32.835567 1101.581665
6.160000 2.120000 -3.960000 16.587271 -22.950047 801.842163
6.160000 2.120000 -3.920000 20.195475 -6.358750 448.290924
6.160000 2.120000 -3.880000 11.164970 8.306070 193.647369
6.160000 2.120000 -3.840000 -4.668468 10.519868 132.462219
6.160000 2.120000 -3.800000 -13.503654 -0.442875 182.544800
6.160000 2.160000 -4.200000 -19.744825 -16.687422 668.328125
6.160000 2.160000 -4.160000 -16.080437 -31.039770 1222.047852
6.160000 2.160000 -4.120000 -2.808090 -40.373444 1637.900269
6.160000 2.160000 -4.080000 14.358383 -40.009445 1806.918945
6.160000 2.160000 -4.040000 28.996834 -29.781143 1727.732910
6.160000 2.160000 -4.000000 35.884174 -12.691168 1448.739746
6.160000 2.160000 -3.960000 31.833605 5.585843 1044.580078
6.160000 2.160000 -3.920000 17.833887 17.434038 621.993164
6.160000 2.160000 -3.880000 0.904649 17.142967 294.699707
6.160000 2.160000 -3.840000 -8.801713 6.402506 118.462234
6.160000 2.160000 -3.800000 -5.981933 -4.833171 59.143059
6.160000 2.200000 -4.200000 2.499218 -18.320370 341.882050
6.160000 2.200000 -4.160000 9.446050 -27.891949 867.188660
6.160000 2.200000 -4.120000 25.235619 -30.740948 1581.842285
6.160000 2.200000 -4.080000 42.441853 -20.669601 2228.543213
6.160000 2.200000 -4.040000 50.406708 0.905093 2541.655273
6.160000 2.200000 -4.000000 42.303135 24.346859 2382.324707
6.160000 2.200000 -3.960000 20.842968 37.195621 1817.943604
6.160000 2.200000 -3.920000 -2.254845 32.888958 1086.767944
6.160000 2.200000 -3.880000 -14.064283 16.278027 462.778198
6.160000 2.200000 -3.840000 -10.344752 0.552997 107.319710
6.160000 2.200000 -3.800000 0.900175 -3.225502 11.214181
6.200000 1.800000 -4.200000 -21.593830 8.398918 536.835327
6.200000 1.800000 -4.160000 -15.736214 -5.889384 282.313263
6.200000 1.800000 -4.120000 1.910452 -4.055307 20.095346
6.200000 1.800000 -4.080000 8.622497 17.409117 377.424774
6.200000 1.800000 -4.040000 -10.264159 38.451141 1583.843262
6.200000 1.800000 -4.000000 -43.582268 34.830166 3112.554688
6.200000 1.800000 -3.960000 -63.368092 3.714304 4029.311279
6.200000 1.800000 -3.920000 -52.230331 -31.982239 3750.871094
6.200000 1.800000 -3.880000 -20.419172 -45.710117 2506.357422
6.200000 1.800000 -3.840000 5.319622 -32.674873 1095.945679
6.200000 1.800000 -3.800000 8.759352 -12.059978 222.169327
6.200000 1.840000 -4.200000 -19.074524 -7.813981 424.895752
6.200000 1.840000 -4.160000 -6.079858 -13.950071 231.569168
6.200000 1.840000 -4.120000 5.817436 -1.596325 36.390812
6.200000 1.840000 -4.080000 -1.524160 18.862061 358.100372
6.200000 1.840000 -4.040000 -27.542603 24.968042 1381.998047
6.200000 1.840000 -4.000000 -51.259315 5.313853 2655.754395
6.200000 1.840000 -3.960000 -51.261524 -27.620399 3390.630371
6.200000 1.840000 -3.920000 -26.777069 -48.944977 3112.622314
6.200000 1.840000 -3.880000 2.193761 -45.199589 2047.815430
6.200000 1.840000 -3.840000 15.237288 -25.705656 892.955688
6.200000 1.840000 -3.800000 10.446707 -10.472125 218.799088
6.200000 1.880000 -4.200000 -2.924922 -16.286695 273.811615
6.200000 1.880000 -4.160000 7.963485 -10.725864 178.461258
6.200000 1.880000 -4.120000 7.239385 4.434860 72.076675
6.200000 1.880000 -4.080000 -9.360283 13.453897 268.622223
6.200000 1.880000 -4.040000 -29.606430 3.915451 891.871460
6.200000 1.880000 -4.000000 -35.715889 -20.152925 1681.765137
6.200000 1.880000 -3.960000 -21.287754 -41.356998 2163.569824
6.200000 1.880000 -3.920000 2.960067 -45.056728 2038.870728
6.200000 1.880000 -3.880000 20.036964 -32.000481 1425.510742
6.200000 1.880000 -3.840000 22.227915 -15.251631 726.692444
6.200000 1.880000 -3.800000 15.567034 -6.128038 279.885376
6.200000 1.920000 -4.200000 15.483630 -7.307577 293.143494
6.200000 1.920000 -4.160000 14.982815 4.751846 247.064789
6.200000 1.920000 -4.120000 2.845579 12.144600 155.588623
6.200000 1.920000 -4.080000 -12.260950 6.330691 190.408554
6.200000 1.920000 -4.040000 -18.134533 -10.208095 433.066498
6.200000 1.920000 -4.000000 -9.826642 -26.176495 781.771729
6.200000 1.920000 -3.960000 6.769710 -31.410124 1032.424805
6.200000 1.920000 -3.920000 21.066528 -24.610535 1049.477051
6.200000 1.920000 -3.880000 26.623800 -12.240108 858.646973
6.200000 1.920000 -3.840000 24.237827 -1.460002 589.603882
6.200000 1.920000 -3.800000 18.091305 4.915427 351.456757
6.200000 1.960000 -4.200000 20.019907 15.227395 632.670227
6.200000 1.960000 -4.160000 5.958711 22.849388 557.600769
6.200000 1.960000 -4.120000 -9.032375 16.146378 342.289307
6.200000 1.960000 -4.080000 -13.385048 0.570251 179.484680
6.200000 1.960000 -4.040000 -5.292990 -12.205008 176.977951
6.200000 1.960000 -4.000000 7.714802 -15.076578 286.821381
6.200000 1.960000 -3.960000 17.395237 -9.759967 397.851227
6.200000 1.960000 -3.920000 21.318396 -1.862438 457.942688
6.200000 1.960000 -3.880000 21.324753 5.612205 486.241943
6.200000 1.960000 -3.840000 18.202433 12.652691 491.419128
6.200000 1.960000 -3.800000 10.658577 17.812626 430.894897
6.200000 2.000000 -4.200000 3.850019 34.641441 1214.852051
6.200000 2.000000 -4.160000 -16.865852 28.844688 1116.473022
6.200000 2.000000 -4.120000 -24.561005 9.683268 697.008606
6.200000 2.000000 -4.080000 -15.406506 -6.703958 282.303467
6.200000 2.000000 -4.040000 0.215251 -9.820387 96.486328
6.200000 2.000000 -4.000000 10.239779 -2.562269 111.418304
6.200000 2.000000 -3.960000 12.023794 5.809576 178.322800
6.200000 2.000000 -3.920000 10.620476 10.970907 233.155304
6.200000 2.000000 -3.880000 9.062413 15.475307 321.612488
6.200000 2.000000 -3.840000 4.341690 20.848854 453.524994
6.200000 2.000000 -3.800000 -5.909376 22.028296 520.166504
6.200000 2.040000 -4.200000 -22.891605 34.672955 1726.239258
6.200000 2.040000 -4.160000 -39.183281 14.626342 1749.259277
6.200000 2.040000 -4.120000 -33.896690 -9.324739 1235.936279
6.200000 2.040000 -4.080000 -14.444707 -19.409803 585.390015
6.200000 2.040000 -4.040000 2.494470 -12.852471 171.408401
6.200000 2.040000 -4.000000 7.797043 -0.200445 60.834053
6.200000 2.040000 -3.960000 5.006810 8.604986 99.113930
6.200000 2.040000 -3.920000 1.072345 12.969393 169.355072
6.200000 2.040000 -3.880000 -3.289129 16.637938 287.639313
6.200000 2.040000 -3.840000 -11.350372 18.311506 464.142212
6.200000 2.040000 -3.800000 -20.897448 11.984356 580.328125
6.200000 2.080000 -4.200000 -40.272789 14.031329 1818.775757
6.200000 2.080000 -4.160000 -44.588673 -13.073437 2159.064453
6.200000 2.080000 -4.120000 -27.256744 -33.357285 1855.638428
6.200000 2.080000 -4.080000 -2.842210 -34.230598 1179.812012
6.200000 2.080000 -4.040000 12.459424 -19.946318 553.092834
6.200000 2.080000 -4.000000 13.970107 -3.238442 205.651398
6.200000 2.080000 -3.960000 7.284296 7.726571 112.760872
6.200000 2.080000 -3.920000 -1.683409 12.716561 164.544800
6.200000 2.080000 -3.880000 -11.478899 12.959169 299.705200
6.200000 2.080000 -3.840000 -20.544594 6.750083 467.643951
6.200000 2.080000 -3.800000 -22.813673 -5.991353 556.359985
6.200000 2.120000 -4.200000 -35.429035 -11.430386 1385.870239
6.200000 2.120000 -4.160000 -28.037035 -36.257984 2100.716797
6.200000 2.120000 -4.120000 -4.042716 -48.039154 2324.103760
6.200000 2.120000 -4.080000 20.821751 -39.787628 2016.600586
6.200000 2.120000 -4.040000 32.917309 -18.521025 1426.577515
6.200000 2.120000 -4.000000 29.086769 3.156071 856.000916
6.200000 2.120000 -3.960000 14.656794 16.248583 478.838043
6.200000 2.120000 -3.920000 -2.690920 17.773684 323.144897
6.200000 2.120000 -3.880000 -15.992634 8.804464 333.282928
6.200000 2.120000 -3.840000 -19.342178 -6.134367 411.750336
6.200000 2.120000 -3.800000 -10.345947 -18.382648 444.960388
6.200000 2.160000 -4.200000 -13.963591 -21.975723 677.914246
6.200000 2.160000 -4.160000 -1.029653 -39.516094 1562.581909
6.200000 2.160000 -4.120000 23.763517 -42.682476 2386.498535
6.200000 2.160000 -4.080000 45.779793 -26.609032 2803.829834
6.200000 2.160000 -4.040000 51.777931 1.122544 2682.214111
6.200000 2.160000 -4.000000 38.186138 25.976351 2132.951904
6.200000 2.160000 -3.960000 12.643597 35.427303 1414.954346
6.200000 2.160000 -3.920000 -10.826096 25.989725 792.670166
6.200000 2.160000 -3.880000 -19.876347 5.088002 420.956909
6.200000 2.160000 -3.840000 -11.330898 -13.111812 300.308838
6.200000 2.160000 -3.800000 6.246513 -16.572857 313.678497
6.200000 2.200000 -4.200000 4.864826 -11.053948 145.856308
6.200000 2.200000 -4.160000 17.078438 -22.714085 807.602661
6.200000 2.200000 -4.120000 39.202927 -20.157257 1943.184570
6.200000 2.200000 -4.080000 55.823467 1.596051 3118.806885
6.200000 2.200000 -4.040000 52.135963 32.705276 3787.793945
6.200000 2.200000 -4.000000 26.310329 54.107941 3619.902588
6.200000 2.200000 -3.960000 -7.296834 51.542095 2709.831543
6.200000 2.200000 -3.920000 -27.895939 27.246571 1520.559082
6.200000 2.200000 -3.880000 -24.183249 -0.919143 585.674377
6.200000 2.200000 -3.840000 -3.368853 -13.255010 187.044449
6.200000 2.200000 -3.800000 14.855093 -4.024752 236.872406
