#kx 	ky 	kz 	real 	imag 	intensity
2.800000 4.800000 6.800000 -6.249924 -11.762172 177.410217
2.800000 4.800000 6.840000 -5.980118 -5.503923 66.054977
2.800000 4.800000 6.880000 -11.757313 -5.793884 171.803497
2.800000 4.800000 6.920000 -13.532497 -14.792539 401.947693
2.800000 4.800000 6.960000 -4.319900 -24.257467 607.086304
2.800000 4.800000 7.000000 11.953549 -23.453419 692.950195
2.800000 4.800000 7.040000 23.623901 -10.070301 659.499695
2.800000 4.800000 7.080000 22.433224 7.244080 555.726196
2.800000 4.800000 7.120000 11.071458 17.340315 423.263702
2.800000 4.800000 7.160000 -0.612543 16.920177 286.667633
2.800000 4.800000 7.200000 -6.049044 11.871830 177.531281
2.800000 4.840000 6.800000 -0.853539 -14.598749 213.852005
2.800000 4.840000 6.840000 -4.834226 -7.935029 86.334419
2.800000 4.840000 6.880000 -11.298603 -11.454600 258.866302
2.800000 4.840000 6.920000 -9.120268 -21.367119 539.733032
2.800000 4.840000 6.960000 3.385276 -25.867130 680.568481
2.800000 4.840000 7.000000 16.331598 -17.808762 583.873047
2.800000 4.840000 7.040000 18.560831 -2.492974 350.719391
2.800000 4.840000 7.080000 9.261884 7.896932 148.144028
2.800000 4.840000 7.120000 -1.696857 7.072556 52.900368
2.800000 4.840000 7.160000 -4.924009 0.546991 24.545069
2.800000 4.840000 7.200000 -1.511244 -1.722845 5.252054
2.800000 4.880000 6.800000 6.391285 -16.381849 309.213501
2.800000 4.880000 6.840000 0.026358 -12.224470 149.438370
2.800000 4.880000 6.880000 -4.017226 -17.876499 335.707336
2.800000 4.880000 6.920000 1.541978 -25.064095 630.586548
2.800000 4.880000 6.960000 12.522426 -24.029207 734.213928
2.800000 4.880000 7.000000 18.603952 -14.385962 553.062988
2.800000 4.880000 7.040000 15.192754 -5.064935 256.473328
2.800000 4.880000 7.080000 8.336216 -3.657851 82.872375
2.800000 4.880000 7.120000 7.098101 -7.576201 107.781868
2.800000 4.880000 7.160000 12.291052 -7.415276 206.056274
2.800000 4.880000 7.200000 14.906361 1.110897 223.433670
2.800000 4.920000 6.800000 16.519789 -13.992352 468.689331
2.800000 4.920000 6.840000 10.309173 -12.013816 250.610809
2.800000 4.920000 6.880000 8.821854 -16.751593 358.440948
2.800000 4.920000 6.920000 14.225410 -19.982143 601.648315
2.800000 4.920000 6.960000 20.757065 -17.113338 723.722107
2.800000 4.920000 7.000000 22.949337 -11.414218 656.956421
2.800000 4.920000 7.040000 22.266193 -8.304602 564.749756
2.800000 4.920000 7.080000 24.143677 -7.350611 636.948608
2.800000 4.920000 7.120000 29.277086 -2.307037 862.470215
2.800000 4.920000 7.160000 30.358456 10.143197 1024.520264
2.800000 4.920000 7.200000 19.567152 23.318893 926.644287
2.800000 4.960000 6.800000 25.582617 -3.681797 668.025879
2.800000 4.960000 6.840000 19.615482 -2.011265 388.812347
2.800000 4.960000 6.880000 17.862877 -4.747106 341.617371
2.800000 4.960000 6.920000 20.359005 -6.678564 459.092285
2.800000 4.960000 6.960000 24.228455 -6.236891 625.916809
2.800000 4.960000 7.000000 28.617207 -4.345537 837.828186
2.800000 4.960000 7.040000 34.475945 0.036887 1188.592041
2.800000 4.960000 7.080000 39.844345 10.328668 1694.253174
2.800000 4.960000 7.120000 37.994568 26.811230 2162.429199
2.800000 4.960000 7.160000 23.042616 41.872612 2284.277832
2.800000 4.960000 7.200000 -1.673664 43.603298 1904.048706
2.800000 5.000000 6.800000 26.366173 12.981464 863.693481
2.800000 5.000000 6.840000 18.601849 14.383135 552.903320
2.800000 5.000000 6.880000 14.404952 11.077125 330.205322
2.800000 5.000000 6.920000 15.269072 6.571727 276.332153
2.800000 5.000000 6.960000 21.211723 4.256025 468.050934
2.800000 5.000000 7.000000 30.438345 8.088076 991.909851
2.800000 5.000000 7.040000 37.471264 21.000074 1845.098633
2.800000 5.000000 7.080000 34.128742 40.544331 2808.613770
2.800000 5.000000 7.120000 15.651526 56.781487 3469.107422
2.800000 5.000000 7.160000 -12.655840 57.379784 3452.609863
2.800000 5.000000 7.200000 -35.936401 37.707169 2713.255371
2.800000 5.040000 6.800000 15.149308 28.009571 1014.037598
2.800000 5.040000 6.840000 4.646980 26.320444 714.360229
2.800000 5.040000 6.880000 -0.274662 18.767521 352.295288
2.800000 5.040000 6.920000 3.468266 10.978319 132.552353
2.800000 5.040000 6.960000 14.187197 10.348611 308.370300
2.800000 5.040000 7.000000 24.016302 21.729317 1048.946045
2.800000 5.040000 7.040000 22.200588 42.007267 2257.476562
2.800000 5.040000 7.080000 3.166522 59.112953 3504.368164
2.800000 5.040000 7.120000 -26.675680 59.130177 4207.969727
2.800000 5.040000 7.160000 -50.860806 37.470871 3990.887695
2.800000 5.040000 7.200000 -54.155773 4.483990 2952.953857
2.800000 5.080000 6.800000 -3.840481 32.849419 1093.833618
2.800000 5.080000 6.840000 -14.527474 24.955574 833.828247
2.800000 5.080000 6.880000 -15.338067 12.630219 394.778748
2.800000 5.080000 6.920000 -5.393507 5.581694 60.245228
2.800000 5.080000 6.960000 7.334635 11.865128 194.578125
2.800000 5.080000 7.000000 9.802067 30.127060 1003.720276
2.800000 5.080000 7.040000 -5.996110 47.704681 2311.689941
2.800000 5.080000 7.080000 -34.451714 48.763245 3564.774414
2.800000 5.080000 7.120000 -58.152428 27.360199 4130.285156
2.800000 5.080000 7.160000 -60.599022 -5.957688 3707.735596
2.800000 5.080000 7.200000 -39.629543 -31.066792 2535.646240
2.800000 5.120000 6.800000 -21.356457 25.356987 1099.075073
2.800000 5.120000 6.840000 -27.397148 11.281628 877.878845
2.800000 5.120000 6.880000 -20.387684 -1.719443 418.614136
2.800000 5.120000 6.920000 -5.862104 -2.425769 40.248627
2.800000 5.120000 6.960000 2.246348 11.530107 137.989456
2.800000 5.120000 7.000000 -7.255416 29.010986 894.278381
2.800000 5.120000 7.040000 -31.568310 32.828392 2074.261475
2.800000 5.120000 7.080000 -53.786148 14.491919 3102.965332
2.800000 5.120000 7.120000 -55.985336 -16.835468 3417.791016
2.800000 5.120000 7.160000 -34.720650 -40.547440 2849.618408
2.800000 5.120000 7.200000 -4.612060 -41.393543 1734.696533
2.800000 5.160000 6.800000 -30.553751 10.775957 1049.652954
2.800000 5.160000 6.840000 -28.451088 -5.655861 841.453186
2.800000 5.160000 6.880000 -14.495519 -13.565877 394.153076
2.800000 5.160000 6.920000 -1.190692 -5.726023 34.205090
2.800000 5.160000 6.960000 -2.678967 10.641344 120.415070
2.800000 5.160000 7.000000 -20.732346 18.338627 766.135376
2.800000 5.160000 7.040000 -40.874168 5.608602 1702.154053
2.800000 5.160000 7.080000 -44.116966 -21.642036 2414.684570
2.800000 5.160000 7.120000 -24.424809 -43.453907 2484.813477
2.800000 5.160000 7.160000 4.774072 -43.091484 1879.667725
2.800000 5.160000 7.200000 21.928352 -22.102976 969.394165
2.800000 5.200000 6.800000 -31.248173 -3.891585 991.592712
2.800000 5.200000 6.840000 -21.176491 -17.695688 761.581177
2.800000 5.200000 6.880000 -5.032109 -17.484966 331.046173
2.800000 5.200000 6.920000 1.761805 -4.280488 21.426537
2.800000 5.200000 6.960000 -8.233482 7.119754 118.481125
2.800000 5.200000 7.000000 -25.421326 1.854590 649.683289
2.800000 5.200000 7.040000 -30.984791 -19.381535 1335.701172
2.800000 5.200000 7.080000 -15.205183 -39.190590 1767.099976
2.800000 5.200000 7.120000 11.824898 -39.282143 1682.914917
2.800000 5.200000 7.160000 28.549591 -18.298857 1149.927246
2.800000 5.200000 7.200000 21.870348 6.053489 514.956848
2.840000 4.800000 6.800000 -4.619238 -6.459758 63.065834
2.840000 4.800000 6.840000 -6.045308 -3.490770 48.731224
2.840000 4.800000 6.880000 -9.642404 -6.249802 132.035980
2.840000 4.800000 6.920000 -8.240943 -14.104263 266.843384
2.840000 4.800000 6.960000 1.523438 -20.004881 402.516113
2.840000 4.800000 7.000000 15.221300 -16.760935 512.616882
2.840000 4.800000 7.040000 23.988041 -3.841185 590.180786
2.840000 4.800000 7.080000 22.019363 11.914630 626.810791
2.840000 4.800000 7.120000 11.032920 22.091412 609.755798
2.840000 4.800000 7.160000 -2.168053 23.104557 538.520996
2.840000 4.800000 7.200000 -11.718896 17.262861 435.338898
2.840000 4.840000 6.800000 1.866955 -10.430471 112.280251
2.840000 4.840000 6.840000 1.455004 -6.683817 46.790443
2.840000 4.840000 6.880000 0.275198 -6.486759 42.153778
2.840000 4.840000 6.920000 1.705641 -7.824052 64.125000
2.840000 4.840000 6.960000 5.435680 -7.118426 80.218605
2.840000 4.840000 7.000000 8.325778 -3.163367 79.325470
2.840000 4.840000 7.040000 8.007580 1.946991 67.912109
2.840000 4.840000 7.080000 5.115143 5.469493 56.080040
2.840000 4.840000 7.120000 1.833187 6.869479 50.550320
2.840000 4.840000 7.160000 -1.051828 7.464294 56.822033
2.840000 4.840000 7.200000 -4.680152 7.584170 79.423462
2.840000 4.880000 6.800000 12.427076 -9.701302 248.547470
2.840000 4.880000 6.840000 12.710630 -2.236899 166.563843
2.840000 4.880000 6.880000 9.179578 3.950853 99.873894
2.840000 4.880000 6.920000 2.609646 6.726170 52.051613
2.840000 4.880000 6.960000 -4.293771 4.079453 35.078407
2.840000 4.880000 7.000000 -7.009798 -3.406437 60.741074
2.840000 4.880000 7.040000 -2.342638 -11.009591 126.699051
2.840000 4.880000 7.080000 7.777390 -12.234058 210.159973
2.840000 4.880000 7.120000 16.103985 -4.251467 277.413300
2.840000 4.880000 7.160000 15.220718 8.408468 302.372620
2.840000 4.880000 7.200000 4.244574 16.270954 282.760376
2.840000 4.920000 6.800000 22.125273 0.200927 489.568054
2.840000 4.920000 6.840000 18.482782 12.698463 502.864227
2.840000 4.920000 6.880000 6.082006 21.054775 480.294373
2.840000 4.920000 6.920000 -10.566909 17.938328 433.443176
2.840000 4.920000 6.960000 -20.520218 1.788004 424.276306
2.840000 4.920000 7.000000 -14.108764 -18.313728 534.449829
2.840000 4.920000 7.040000 7.333893 -27.231504 795.340820
2.840000 4.920000 7.080000 29.685978 -15.892226 1133.820068
2.840000 4.920000 7.120000 36.017281 9.624348 1389.872559
2.840000 4.920000 7.160000 20.647192 31.411751 1413.004639
2.840000 4.920000 7.200000 -5.380297 33.808010 1171.929199
2.840000 4.960000 6.800000 22.317703 17.143543 791.980957
2.840000 4.960000 6.840000 9.773445 30.227798 1009.239990
2.840000 4.960000 6.880000 -11.850436 31.341070 1122.695557
2.840000 4.960000 6.920000 -29.925949 13.990547 1091.297852
2.840000 4.960000 6.960000 -28.575840 -14.341253 1022.250122
2.840000 4.960000 7.000000 -3.504114 -33.530815 1136.594360
2.840000 4.960000 7.040000 30.179756 -26.058384 1589.857056
2.840000 4.960000 7.080000 47.364616 6.456254 2285.090088
2.840000 4.960000 7.120000 33.465443 41.815525 2868.474121
2.840000 4.960000 7.160000 -2.305029 54.335098 2957.616211
2.840000 4.960000 7.200000 -33.834099 35.967949 2438.439453
2.840000 5.000000 6.800000 9.009346 31.227737 1056.339844
2.840000 5.000000 6.840000 -11.630093 36.662319 1479.384644
2.840000 5.000000 6.880000 -33.775570 23.859766 1710.077515
2.840000 5.000000 6.920000 -40.043140 -5.048807 1628.943604
2.840000 5.000000 6.960000 -19.794283 -31.589363 1389.701538
2.840000 5.000000 7.000000 17.194939 -33.032501 1386.812012
2.840000 5.000000 7.040000 44.028313 -2.962703 1947.269897
2.840000 5.000000 7.080000 37.758373 39.424858 2980.014160
2.840000 5.000000 7.120000 0.191368 62.722004 3934.086426
2.840000 5.000000 7.160000 -41.757927 49.271141 4171.369629
2.840000 5.000000 7.200000 -57.983593 10.154819 3465.217529
2.840000 5.040000 6.800000 -11.637262 32.392899 1184.725830
2.840000 5.040000 6.840000 -32.434464 25.141146 1684.071533
2.840000 5.040000 6.880000 -43.559891 1.620403 1900.089844
2.840000 5.040000 6.920000 -31.991220 -25.717386 1684.822144
2.840000 5.040000 6.960000 -0.277740 -35.331741 1248.409058
2.840000 5.040000 7.000000 29.869301 -14.752895 1109.822998
2.840000 5.040000 7.040000 32.907738 24.824659 1699.182861
2.840000 5.040000 7.080000 2.200728 53.999313 2920.769043
2.840000 5.040000 7.120000 -41.468452 48.826916 4103.700195
2.840000 5.040000 7.160000 -65.728622 11.969269 4463.515137
2.840000 5.040000 7.200000 -53.650784 -28.924862 3715.054199
2.840000 5.080000 6.800000 -27.535051 19.554272 1140.548584
2.840000 5.080000 6.840000 -39.114334 2.749958 1537.493408
2.840000 5.080000 6.880000 -34.529953 -20.119209 1597.100220
2.840000 5.080000 6.920000 -12.105015 -32.978214 1234.093994
2.840000 5.080000 6.960000 14.194674 -22.694878 716.546265
2.840000 5.080000 7.000000 22.780210 6.898710 566.530212
2.840000 5.080000 7.040000 2.868332 33.980461 1162.899048
2.840000 5.080000 7.080000 -33.388458 35.229965 2355.939453
2.840000 5.080000 7.120000 -58.590927 6.532534 3475.570801
2.840000 5.080000 7.160000 -52.750652 -31.812096 3794.640625
2.840000 5.080000 7.200000 -20.605339 -51.633778 3090.626953
2.840000 5.120000 6.800000 -31.019371 1.478520 964.387390
2.840000 5.120000 6.840000 -29.914997 -15.913809 1148.156372
2.840000 5.120000 6.880000 -15.421236 -27.824699 1012.028381
2.840000 5.120000 6.920000 3.892417 -24.063297 594.193237
2.840000 5.120000 6.960000 12.748790 -5.350380 191.158218
2.840000 5.120000 7.000000 1.584194 14.074542 200.602402
2.840000 5.120000 7.040000 -23.170269 16.506458 809.324585
2.840000 5.120000 7.080000 -42.020966 -3.612196 1778.809570
2.840000 5.120000 7.120000 -38.187706 -33.045410 2550.300049
2.840000 5.120000 7.160000 -12.645817 -49.746483 2634.629395
2.840000 5.120000 7.200000 15.964558 -41.543533 1980.732178
2.840000 5.160000 6.800000 -24.690062 -11.780867 748.387939
2.840000 5.160000 6.840000 -15.089087 -22.311924 725.502502
2.840000 5.160000 6.880000 -1.133455 -21.716074 472.872589
2.840000 5.160000 6.920000 5.967879 -10.354601 142.833344
2.840000 5.160000 6.960000 -0.568904 1.542587 2.703228
2.840000 5.160000 7.000000 -15.856022 1.581442 253.914398
2.840000 5.160000 7.040000 -25.912498 -13.518871 854.217468
2.840000 5.160000 7.080000 -19.351492 -33.510162 1497.411255
2.840000 5.160000 7.120000 1.878547 -42.390160 1800.454590
2.840000 5.160000 7.160000 23.092293 -32.246445 1573.087158
2.840000 5.160000 7.200000 29.105803 -10.597825 959.461670
2.840000 5.200000 6.800000 -16.779390 -17.863670 600.658691
2.840000 5.200000 6.840000 -5.358203 -20.470423 447.748566
2.840000 5.200000 6.880000 2.021048 -13.510947 186.630341
2.840000 5.200000 6.920000 -1.229115 -5.278541 29.373714
2.840000 5.200000 6.960000 -11.087749 -6.377552 163.611359
2.840000 5.200000 7.000000 -15.513824 -18.978434 600.859680
2.840000 5.200000 7.040000 -5.664166 -33.201042 1134.391968
2.840000 5.200000 7.080000 14.610851 -35.291115 1458.939697
2.840000 5.200000 7.120000 30.838570 -20.579491 1374.532837
2.840000 5.200000 7.160000 30.476416 1.152234 930.139526
2.840000 5.200000 7.200000 14.468732 13.619602 394.837769
2.880000 4.800000 6.800000 -7.629889 -4.933957 82.559128
2.880000 4.800000 6.840000 -6.730083 -4.745037 67.809387
2.880000 4.800000 6.880000 -6.856014 -6.904465 94.676567
2.880000 4.800000 6.920000 -4.144022 -11.621779 152.238663
2.880000 4.800000 6.960000 3.975765 -14.904154 237.940521
2.880000 4.800000 7.000000 15.208208 -11.450647 362.406921
2.880000 4.800000 7.040000 22.963333 0.334911 527.426880
2.880000 4.800000 7.080000 21.168465 15.853986 699.452759
2.880000 4.800000 7.120000 9.316677 26.913147 811.117981
2.880000 4.800000 7.160000 -6.639001 27.478130 799.124023
2.880000 4.800000 7.200000 -18.253422 17.803144 650.139404
2.880000 4.840000 6.800000 3.173486 -8.229412 77.794235
2.880000 4.840000 6.840000 7.581607 -0.151634 57.503754
2.880000 4.840000 6.880000 4.178537 8.773028 94.426201
2.880000 4.840000 6.920000 -4.957111 11.383244 154.151184
2.880000 4.840000 6.960000 -12.063774 5.247545 173.071381
2.880000 4.840000 7.000000 -10.439998 -4.154736 126.255379
2.880000 4.840000 7.040000 -1.055799 -7.827816 62.389416
2.880000 4.840000 7.080000 7.749491 -1.533990 62.407734
2.880000 4.840000 7.120000 7.666466 9.960798 157.992188
2.880000 4.840000 7.160000 -1.940126 16.937094 290.629242
2.880000 4.840000 7.200000 -13.320431 13.398975 356.966431
2.880000 4.880000 6.800000 15.427853 -0.431355 238.204697
2.880000 4.880000 6.840000 14.250136 19.427719 580.502686
2.880000 4.880000 6.880000 -5.076103 34.075935 1186.936157
2.880000 4.880000 6.920000 -32.301758 28.066933 1831.156250
2.880000 4.880000 6.960000 -46.590714 1.058777 2171.815674
2.880000 4.880000 7.000000 -34.643635 -28.696945 2023.696045
2.880000 4.880000 7.040000 -3.979034 -38.746666 1517.136841
2.880000 4.880000 7.080000 22.367188 -22.084869 988.032532
2.880000 4.880000 7.120000 25.586609 6.672258 699.193604
2.880000 4.880000 7.160000 6.877953 24.587236 651.838379
2.880000 4.880000 7.200000 -15.268401 20.378056 648.389221
2.880000 4.920000 6.800000 17.620121 17.249613 608.017822
2.880000 4.920000 6.840000 0.010033 41.781685 1745.709351
2.880000 4.920000 6.880000 -38.104538 45.123642 3488.098877
2.880000 4.920000 6.920000 -70.783844 13.748810 5199.382324
2.880000 4.920000 6.960000 -68.664001 -36.867523 6073.959473
2.880000 4.920000 7.000000 -26.928402 -70.797195 5737.381348
2.880000 4.920000 7.040000 26.691719 -61.768280 4527.768066
2.880000 4.920000 7.080000 53.901302 -16.951313 3192.697266
2.880000 4.920000 7.120000 38.317284 28.771198 2295.996094
2.880000 4.920000 7.160000 -1.869196 43.168396 1867.004272
2.880000 4.920000 7.200000 -32.206810 22.970842 1564.938232
2.880000 4.960000 6.800000 3.344838 32.550926 1070.750732
2.880000 4.960000 6.840000 -31.437965 46.188347 3121.708984
2.880000 4.960000 6.880000 -73.931046 23.948011 6039.306641
2.880000 4.960000 6.920000 -87.745483 -31.702076 8704.291992
2.880000 4.960000 6.960000 -51.486549 -85.089615 9891.107422
2.880000 4.960000 7.000000 16.689966 -94.331558 9176.998047
2.880000 4.960000 7.040000 69.599892 -48.926632 7237.960449
2.880000 4.960000 7.080000 70.092079 18.415882 5252.043945
2.880000 4.960000 7.120000 22.806416 58.794334 3976.906250
2.880000 4.960000 7.160000 -31.350113 48.426407 3327.946533
2.880000 4.960000 7.200000 -52.129105 5.898523 2752.236084
2.880000 5.000000 6.800000 -20.025578 31.700241 1405.928955
2.880000 5.000000 6.840000 -58.595871 23.269402 3974.941162
2.880000 5.000000 6.880000 -83.326813 -21.164705 7391.302734
2.880000 5.000000 6.920000 -63.541214 -78.832993 10252.126953
2.880000 5.000000 6.960000 -0.355732 -105.946045 11224.691406
2.880000 5.000000 7.000000 66.332886 -75.260223 10064.152344
2.880000 5.000000 7.040000 88.078690 -3.977563 7773.676270
2.880000 5.000000 7.080000 49.736198 57.202507 5745.816406
2.880000 5.000000 7.120000 -16.671139 66.307549 4674.617676
2.880000 5.000000 7.160000 -60.014416 24.843573 4218.933105
2.880000 5.000000 7.200000 -53.714108 -26.958231 3611.951660
2.880000 5.040000 6.800000 -35.825043 12.852056 1448.609009
2.880000 5.040000 6.840000 -60.300968 -13.672987 3823.157471
2.880000 5.040000 6.880000 -56.150028 -59.796040 6728.392090
2.880000 5.040000 6.920000 -12.078472 -93.398743 8869.214844
2.880000 5.040000 6.960000 49.365288 -82.305420 9211.113281
2.880000 5.040000 7.000000 84.594032 -25.711147 7817.213379
2.880000 5.040000 7.040000 65.284355 39.277782 5804.791016
2.880000 5.040000 7.080000 5.061127 66.247208 4414.307617
2.880000 5.040000 7.120000 -50.310455 38.793236 4036.057129
2.880000 5.040000 7.160000 -61.719788 -16.127007 4069.412598
2.880000 5.040000 7.200000 -28.678562 -53.323269 3665.831055
2.880000 5.080000 6.800000 -32.895519 -10.946286 1201.936401
2.880000 5.080000 6.840000 -35.602871 -39.142181 2799.674805
2.880000 5.080000 6.880000 -12.036054 -66.069565 4510.054199
2.880000 5.080000 6.920000 30.337809 -67.544434 5482.633301
2.880000 5.080000 6.960000 63.770489 -33.844364 5212.116211
2.880000 5.080000 7.000000 61.024460 16.626827 4000.436035
2.880000 5.080000 7.040000 20.508894 48.416626 2764.784424
2.880000 5.080000 7.080000 -28.953587 38.147697 2293.557129
2.880000 5.080000 7.120000 -50.912159 -4.565186 2612.888672
2.880000 5.080000 7.160000 -32.018089 -44.925907 3043.495117
2.880000 5.080000 7.200000 7.764256 -53.061214 2875.776123
2.880000 5.120000 6.800000 -15.892213 -23.532736 806.352112
2.880000 5.120000 6.840000 -4.752923 -38.536537 1507.655029
2.880000 5.120000 6.880000 17.433363 -41.799561 2051.125488
2.880000 5.120000 6.920000 37.791790 -26.204945 2114.918457
2.880000 5.120000 6.960000 40.523628 1.703362 1645.065918
2.880000 5.120000 7.000000 20.507383 23.387123 967.510254
2.880000 5.120000 7.040000 -9.600040 22.141502 582.406921
2.880000 5.120000 7.080000 -27.591522 -1.971590 765.179260
2.880000 5.120000 7.120000 -19.900337 -30.483234 1325.250977
2.880000 5.120000 7.160000 6.460251 -41.412971 1756.769043
2.880000 5.120000 7.200000 29.858875 -27.818161 1665.402588
2.880000 5.160000 6.800000 -0.072470 -20.647343 426.318024
2.880000 5.160000 6.840000 10.395937 -20.610880 532.883911
2.880000 5.160000 6.880000 17.638037 -12.877338 476.926208
2.880000 5.160000 6.920000 16.694084 -2.430023 284.597443
2.880000 5.160000 6.960000 8.068478 3.376139 76.498650
2.880000 5.160000 7.000000 -1.971237 -0.111653 3.898242
2.880000 5.160000 7.040000 -5.372114 -10.932177 148.372101
2.880000 5.160000 7.080000 1.601709 -21.153858 450.051178
2.880000 5.160000 7.120000 14.863422 -22.540138 728.979126
2.880000 5.160000 7.160000 25.073935 -13.220875 803.493774
2.880000 5.160000 7.200000 24.949768 0.376808 622.632874
2.880000 5.200000 6.800000 4.375082 -12.658763 179.385620
2.880000 5.200000 6.840000 6.718995 -6.730482 90.444275
2.880000 5.200000 6.880000 2.010036 -2.921494 12.575371
2.880000 5.200000 6.920000 -4.183178 -6.900370 65.114075
2.880000 5.200000 6.960000 -3.739742 -16.725519 293.728638
2.880000 5.200000 7.000000 6.262291 -24.063091 618.248657
2.880000 5.200000 7.040000 20.330317 -21.438307 872.922791
2.880000 5.200000 7.080000 28.888145 -8.944126 914.522339
2.880000 5.200000 7.120000 26.223083 5.597549 718.982666
2.880000 5.200000 7.160000 15.057573 13.024408 396.365723
2.880000 5.200000 7.200000 4.005578 9.999626 116.037170
2.920000 4.800000 6.800000 -9.010328 -7.637581 139.518646
2.920000 4.800000 6.840000 -4.800208 -6.327858 63.083786
2.920000 4.800000 6.880000 -3.944092 -5.467216 45.446316
2.920000 4.800000 6.920000 -2.665562 -8.022258 71.461838
2.920000 4.800000 6.960000 3.728512 -11.162704 138.507767
2.920000 4.800000 7.000000 14.592224 -8.254284 281.066193
2.920000 4.800000 7.040000 22.619213 4.108574 528.509216
2.920000 4.800000 7.080000 19.722326 21.069771 832.905396
2.920000 4.800000 7.120000 4.978367 32.095791 1054.923950
2.920000 4.800000 7.160000 -13.191847 29.560604 1047.854126
2.920000 4.800000 7.200000 -23.223072 15.512490 779.948486
2.920000 4.840000 6.800000 4.942595 -5.044147 49.872665
2.920000 4.840000 6.840000 6.588320 11.761948 181.749374
2.920000 4.840000 6.880000 -8.464417 23.656872 631.293945
2.920000 4.840000 6.920000 -28.734877 17.094818 1117.925903
2.920000 4.840000 6.960000 -35.385548 -5.031410 1277.452026
2.920000 4.840000 7.000000 -20.434811 -24.301033 1008.121704
2.920000 4.840000 7.040000 4.517273 -23.530048 574.068909
2.920000 4.840000 7.080000 18.507961 -3.184058 352.682831
2.920000 4.840000 7.120000 10.683457 19.007002 475.402374
2.920000 4.840000 7.160000 -10.091319 24.883968 721.046570
2.920000 4.840000 7.200000 -24.607716 12.381433 758.839600
2.920000 4.880000 6.800000 11.568089 10.914617 252.949524
2.920000 4.880000 6.840000 -5.675629 38.587936 1521.241577
2.920000 4.880000 6.880000 -46.500534 41.855629 3914.193359
2.920000 4.880000 6.920000 -79.600227 6.782555 6382.199219
2.920000 4.880000 6.960000 -73.406273 -46.289215 7531.172363
2.920000 4.880000 7.000000 -27.036888 -77.430504 6726.476074
2.920000 4.880000 7.040000 26.136982 -62.583199 4599.798828
2.920000 4.880000 7.080000 47.414997 -15.508434 2488.693359
2.920000 4.880000 7.120000 26.629147 25.318649 1350.145508
2.920000 4.880000 7.160000 -11.450273 31.809883 1142.977417
2.920000 4.880000 7.200000 -32.839081 9.054405 1160.387573
2.920000 4.920000 6.800000 0.113644 28.312525 801.612000
2.920000 4.920000 6.840000 -42.724678 47.017422 4036.036133
2.920000 4.920000 6.880000 -95.938568 18.348501 9540.876953
2.920000 4.920000 6.920000 -111.046173 -52.425087 15079.642578
2.920000 4.920000 6.960000 -63.039185 -117.478676 17775.177734
2.920000 4.920000 7.000000 21.296963 -125.676613 16248.171875
2.920000 4.920000 7.040000 82.823570 -69.129608 11638.646484
2.920000 4.920000 7.080000 80.936539 8.524113 6623.383789
2.920000 4.920000 7.120000 27.588989 50.923920 3354.397949
2.920000 4.920000 7.160000 -27.371313 37.411575 2148.814697
2.920000 4.920000 7.200000 -43.228783 -4.590180 1889.797363
2.920000 4.960000 6.800000 -24.419771 29.421837 1461.969727
2.920000 4.960000 6.840000 -78.950134 19.428846 6610.603516
2.920000 4.960000 6.880000 -113.800262 -44.253277 14908.852539
2.920000 4.960000 6.920000 -83.768440 -126.513283 23022.761719
2.920000 4.960000 6.960000 7.172075 -163.738647 26861.783203
2.920000 4.960000 7.000000 100.665115 -120.035004 24541.867188
2.920000 4.960000 7.040000 131.184250 -22.884258 17732.996094
2.920000 4.960000 7.080000 82.721848 58.350735 10247.712891
2.920000 4.960000 7.120000 0.981984 72.058929 5193.453613
2.920000 4.960000 7.160000 -49.839584 25.696510 3144.294922
2.920000 4.960000 7.200000 -42.730755 -28.501783 2638.269043
2.920000 5.000000 6.800000 -42.501808 8.227499 1874.095459
2.920000 5.000000 6.840000 -82.527206 -31.256821 7787.728516
2.920000 5.000000 6.880000 -76.438049 -105.165833 16902.628906
2.920000 5.000000 6.920000 -4.876992 -159.593491 25493.867188
2.920000 5.000000 6.960000 94.865242 -142.346634 29261.978516
2.920000 5.000000 7.000000 153.508423 -53.390686 26415.402344
2.920000 5.000000 7.040000 128.596527 48.907104 18928.970703
2.920000 5.000000 7.080000 42.431187 95.467819 10914.509766
2.920000 5.000000 7.120000 -37.837662 64.579880 5602.249512
2.920000 5.000000 7.160000 -59.059586 -3.927509 3503.459961
2.920000 5.000000 7.200000 -23.864128 -49.452354 3015.031982
2.920000 5.040000 6.800000 -37.233521 -21.259846 1838.316162
2.920000 5.040000 6.840000 -45.886276 -69.260651 6902.587891
2.920000 5.040000 6.880000 -5.246431 -119.579514 14326.785156
2.920000 5.040000 6.920000 73.346687 -124.871559 20972.642578
2.920000 5.040000 6.960000 138.921722 -64.707123 23486.255859
2.920000 5.040000 7.000000 140.930099 29.211697 20714.617188
2.920000 5.040000 7.040000 74.625229 94.535217 14505.832031
2.920000 5.040000 7.080000 -12.104414 89.910934 8230.493164
2.920000 5.040000 7.120000 -58.969086 29.260048 4333.503418
2.920000 5.040000 7.160000 -43.414360 -33.305050 2994.032959
2.920000 5.040000 7.200000 5.511598 -52.363602 2772.324463
2.920000 5.080000 6.800000 -11.161694 -36.383209 1448.321289
2.920000 5.080000 6.840000 4.986740 -67.519836 4583.795898
2.920000 5.080000 6.880000 50.077309 -79.588181 8842.015625
2.920000 5.080000 6.920000 99.036118 -50.235367 12331.744141
2.920000 5.080000 6.960000 114.406708 12.665451 13249.308594
2.920000 5.080000 7.000000 78.387878 71.070282 11195.644531
2.920000 5.080000 7.040000 11.683525 85.652863 7472.917969
2.920000 5.080000 7.080000 -40.902977 49.047695 4078.729980
2.920000 5.080000 7.120000 -47.045975 -7.647564 2271.809082
2.920000 5.080000 7.160000 -12.491781 -41.867542 1908.935669
2.920000 5.080000 7.200000 27.397751 -35.036102 1978.165283
2.920000 5.120000 6.800000 15.160238 -26.922720 954.665649
2.920000 5.120000 6.840000 33.525257 -32.453941 2177.201172
2.920000 5.120000 6.880000 55.876228 -20.931786 3560.292480
2.920000 5.120000 6.920000 66.267929 7.841660 4452.930176
2.920000 5.120000 6.960000 52.735748 39.794659 4364.673828
2.920000 5.120000 7.000000 18.930580 54.609821 3340.599609
2.920000 5.120000 7.040000 -15.644291 41.476711 1965.061523
2.920000 5.120000 7.080000 -29.448570 9.209641 952.035767
2.920000 5.120000 7.120000 -16.019241 -19.587582 640.289429
2.920000 5.120000 7.160000 10.931419 -26.414530 817.223267
2.920000 5.120000 7.200000 29.482586 -11.233938 995.424255
2.920000 5.160000 6.800000 22.600697 -4.666194 532.564819
2.920000 5.160000 6.840000 25.806351 3.204723 676.237976
2.920000 5.160000 6.880000 22.821861 11.376232 650.255981
2.920000 5.160000 6.920000 15.854704 15.838116 502.217529
2.920000 5.160000 6.960000 8.293938 15.743381 316.643433
2.920000 5.160000 7.000000 2.369091 12.085310 151.667313
2.920000 5.160000 7.040000 -0.618547 6.123299 37.877388
2.920000 5.160000 7.080000 0.425095 -0.409286 0.348221
2.920000 5.160000 7.120000 5.527330 -4.680833 52.461578
2.920000 5.160000 7.160000 12.194056 -4.000238 164.696899
2.920000 5.160000 7.200000 16.082048 1.510376 260.913544
2.920000 5.200000 6.800000 11.605176 8.807746 212.256500
2.920000 5.200000 6.840000 1.059031 12.392309 154.690872
2.920000 5.200000 6.880000 -8.964451 3.816723 94.928757
2.920000 5.200000 6.920000 -7.089535 -11.009509 171.470795
2.920000 5.200000 6.960000 7.249939 -18.636299 399.873260
2.920000 5.200000 7.000000 22.472582 -11.425426 635.557312
2.920000 5.200000 7.040000 25.924816 4.758556 694.739929
2.920000 5.200000 7.080000 15.913870 16.333824 520.045044
2.920000 5.200000 7.120000 2.641190 15.058342 233.729538
2.920000 5.200000 7.160000 -2.294297 5.068581 30.954308
2.920000 5.200000 7.200000 3.314373 -2.482908 17.149902
2.960000 4.800000 6.800000 -6.638196 -9.502556 134.364212
2.960000 4.800000 6.840000 -2.509159 -4.764456 28.995918
2.960000 4.800000 6.880000 -3.918785 -2.413921 21.183893
2.960000 4.800000 6.920000 -4.146027 -5.799370 50.822227
2.960000 4.800000 6.960000 2.871225 -9.679123 101.929352
2.960000 4.800000 7.000000 14.720833 -5.347946 245.303452
2.960000 4.800000 7.040000 21.397953 9.635625 550.717651
2.960000 4.800000 7.080000 14.622467 27.247150 956.223755
2.960000 4.800000 7.120000 -3.430074 35.215538 1251.899536
2.960000 4.800000 7.160000 -20.992613 28.025507 1226.118774
2.960000 4.800000 7.200000 -26.669289 12.097172 857.592529
2.960000 4.840000 6.800000 3.449055 0.771133 12.490624
2.960000 4.840000 6.840000 -6.340363 20.349730 454.311676
2.960000 4.840000 6.880000 -32.426529 22.069515 1538.543213
2.960000 4.840000 6.920000 -50.973091 -2.038322 2602.410889
2.960000 4.840000 6.960000 -41.420467 -34.617802 2914.047363
2.960000 4.840000 7.000000 -7.678802 -47.632366 2327.806396
2.960000 4.840000 7.040000 23.856903 -28.801823 1398.696777
2.960000 4.840000 7.080000 28.369011 6.457073 846.494568
2.960000 4.840000 7.120000 5.192604 29.569550 901.321411
2.960000 4.840000 7.160000 -23.090271 25.245911 1170.516602
2.960000 4.840000 7.200000 -33.220848 3.787033 1117.966431
2.960000 4.880000 6.800000 -2.076431 17.445517 308.657593
2.960000 4.880000 6.840000 -39.259445 34.760517 2749.597656
2.960000 4.880000 6.880000 -85.021400 8.543007 7301.621582
2.960000 4.880000 6.920000 -94.706810 -53.802452 11864.083984
2.960000 4.880000 6.960000 -48.731133 -107.075325 13839.848633
2.960000 4.880000 7.000000 24.760693 -107.460159 12160.777344
2.960000 4.880000 7.040000 72.433258 -53.387615 8096.814453
2.960000 4.880000 7.080000 63.016392 12.464226 4126.422363
2.960000 4.880000 7.120000 13.472486 42.199234 1962.283325
2.960000 4.880000 7.160000 -30.299976 24.319729 1509.537842
2.960000 4.880000 7.200000 -37.223934 -11.666419 1521.726562
2.960000 4.920000 6.800000 -23.463924 22.148483 1041.111084
2.960000 4.920000 6.840000 -80.267548 12.128290 6589.974609
2.960000 4.920000 6.880000 -114.928429 -55.311195 16267.872070
2.960000 4.920000 6.920000 -79.978012 -139.937988 25979.123047
2.960000 4.920000 6.960000 16.554733 -173.998154 30549.416016
2.960000 4.920000 7.000000 110.616173 -123.753448 27550.853516
2.960000 4.920000 7.040000 136.171188 -23.065811 19074.623047
2.960000 4.920000 7.080000 82.967148 55.336460 9945.671875
2.960000 4.920000 7.120000 2.485069 63.675041 4060.686523
2.960000 4.920000 7.160000 -42.009247 16.617346 2040.913086
2.960000 4.920000 7.200000 -30.749704 -31.015486 1907.504639
2.960000 4.960000 6.800000 -42.979782 3.844934 1862.045288
2.960000 4.960000 6.840000 -91.207779 -43.115520 10177.807617
2.960000 4.960000 6.880000 -82.014854 -132.076523 24170.644531
2.960000 4.960000 6.920000 6.444757 -195.028488 38077.644531
2.960000 4.960000 6.960000 125.542480 -170.122864 44702.703125
2.960000 4.960000 7.000000 191.680588 -61.977657 40582.679688
2.960000 4.960000 7.040000 158.857727 56.807919 28462.917969
2.960000 4.960000 7.080000 59.004524 107.372040 15010.289062
2.960000 4.960000 7.120000 -28.760649 71.124840 5885.917480
2.960000 4.960000 7.160000 -48.931782 -1.461915 2396.456543
2.960000 4.960000 7.200000 -12.002020 -44.129303 2091.443848
2.960000 5.000000 6.800000 -39.760395 -27.267462 2324.403564
2.960000 5.000000 6.840000 -53.028305 -93.047607 11469.858398
2.960000 5.000000 6.880000 4.017965 -162.493958 26420.431641
2.960000 5.000000 6.920000 113.560295 -167.713028 41023.601562
2.960000 5.000000 6.960000 202.564453 -82.407188 47823.304688
2.960000 5.000000 7.000000 202.940460 46.235447 43322.546875
2.960000 5.000000 7.040000 112.854691 133.019363 30430.332031
2.960000 5.000000 7.080000 -0.462826 126.795883 16077.410156
2.960000 5.000000 7.120000 -59.790577 51.242050 6200.661133
2.960000 5.000000 7.160000 -42.215317 -22.693983 2297.149902
2.960000 5.000000 7.200000 10.941027 -42.748695 1947.156982
2.960000 5.040000 6.800000 -10.818316 -46.180054 2249.633301
2.960000 5.040000 6.840000 12.175882 -98.145996 9780.888672
2.960000 5.040000 6.880000 85.952347 -119.633492 21699.978516
2.960000 5.040000 6.920000 167.124390 -71.407646 33029.613281
2.960000 5.040000 6.960000 192.303253 32.240612 38020.000000
2.960000 5.040000 7.000000 133.855530 127.419968 34153.152344
2.960000 5.040000 7.040000 27.785240 151.943542 23858.859375
2.960000 5.040000 7.080000 -54.936333 97.672989 12558.013672
2.960000 5.040000 7.120000 -67.749191 14.818495 4809.541016
2.960000 5.040000 7.160000 -23.375488 -34.571213 1741.582153
2.960000 5.040000 7.200000 26.001146 -28.477070 1487.003174
2.960000 5.080000 6.800000 23.513889 -35.791405 1833.927734
2.960000 5.080000 6.840000 57.981857 -54.159855 6295.185547
2.960000 5.080000 6.880000 108.283592 -35.562370 12990.017578
2.960000 5.080000 6.920000 135.744537 25.149124 19059.058594
2.960000 5.080000 6.960000 110.049850 96.589920 21440.582031
2.960000 5.080000 7.000000 38.365177 132.244232 18960.423828
2.960000 5.080000 7.040000 -36.492485 108.494049 13102.660156
2.960000 5.080000 7.080000 -69.629669 44.781948 6853.713867
2.960000 5.080000 7.120000 -49.641663 -13.122449 2636.493408
2.960000 5.080000 7.160000 -4.257235 -31.251225 994.763062
2.960000 5.080000 7.200000 27.225386 -11.973667 884.590332
2.960000 5.120000 6.800000 37.160454 -3.901579 1396.121582
2.960000 5.120000 6.840000 54.882454 3.157959 3022.056396
2.960000 5.120000 6.880000 66.053215 27.345482 5110.802734
2.960000 5.120000 6.920000 56.831795 59.559494 6777.186035
2.960000 5.120000 6.960000 24.806862 81.246277 7216.337891
2.960000 5.120000 7.000000 -16.415298 77.045959 6205.541992
2.960000 5.120000 7.040000 -45.075821 47.091133 4249.404297
2.960000 5.120000 7.080000 -46.633316 8.275085 2243.143311
2.960000 5.120000 7.120000 -24.364214 -17.613485 903.849792
2.960000 5.120000 7.160000 3.821786 -19.551531 396.868408
2.960000 5.120000 7.200000 19.599436 -3.868736 399.105011
2.960000 5.160000 6.800000 22.555756 23.441442 1058.263306
2.960000 5.160000 6.840000 15.777657 31.086586 1215.310303
2.960000 5.160000 6.880000 5.490391 32.473869 1084.696655
2.960000 5.160000 6.920000 -2.204170 28.563152 820.712036
2.960000 5.160000 6.960000 -6.165733 24.183096 622.838379
2.960000 5.160000 7.000000 -9.903660 21.029716 540.331421
2.960000 5.160000 7.040000 -15.170574 15.725189 477.427887
2.960000 5.160000 7.080000 -17.973755 5.295918 351.102631
2.960000 5.160000 7.120000 -12.552364 -6.818783 204.057648
2.960000 5.160000 7.160000 0.891331 -12.215759 150.019241
2.960000 5.160000 7.200000 13.981568 -5.850614 229.713928
2.960000 5.200000 6.800000 -2.674114 26.553070 712.216431
2.960000 5.200000 6.840000 -19.119228 18.272873 699.442749
2.960000 5.200000 6.880000 -22.474140 -2.632598 512.017517
2.960000 5.200000 6.920000 -6.557449 -18.332703 379.088135
2.960000 5.200000 6.960000 15.322796 -13.902851 428.077332
2.960000 5.200000 7.000000 22.880894 6.360588 563.992371
2.960000 5.200000 7.040000 9.615601 22.395388 594.013184
2.960000 5.200000 7.080000 -10.248260 18.555193 449.322021
2.960000 5.200000 7.120000 -16.227577 -0.525215 263.610107
2.960000 5.200000 7.160000 -2.403772 -14.980970 230.207596
2.960000 5.200000 7.200000 17.057657 -10.185783 394.713867
3.000000 4.800000 6.800000 -4.719246 -7.243126 74.734154
3.000000 4.800000 6.840000 -4.218197 -1.653738 20.528034
3.000000 4.800000 6.880000 -7.509769 -1.663189 59.162834
3.000000 4.800000 6.920000 -6.177738 -6.950722 86.476982
3.000000 4.800000 6.960000 3.139229 -9.272026 95.825226
3.000000 4.800000 7.000000 14.091125 -1.201000 200.002213
3.000000 4.800000 7.040000 16.110840 15.392302 496.482117
3.000000 4.800000 7.080000 4.702181 29.912653 916.877319
3.000000 4.800000 7.120000 -13.730380 32.293945 1231.422241
3.000000 4.800000 7.160000 -27.317467 21.959644 1228.469971
3.000000 4.800000 7.200000 -29.011889 7.883987 903.846924
3.000000 4.840000 6.800000 -4.957939 4.283987 42.933708
3.000000 4.840000 6.840000 -24.994341 14.437338 833.153809
3.000000 4.840000 6.880000 -48.859665 -1.207817 2388.725586
3.000000 4.840000 6.920000 -49.997944 -35.711678 3775.118164
3.000000 4.840000 6.960000 -19.872986 -60.841824 4096.663086
3.000000 4.840000 7.000000 21.332031 -52.938755 3257.567383
3.000000 4.840000 7.040000 41.874649 -15.868420 2005.292969
3.000000 4.840000 7.080000 27.235159 21.910820 1221.837891
3.000000 4.840000 7.120000 -7.559860 33.308342 1166.597168
3.000000 4.840000 7.160000 -33.465775 16.057562 1377.803345
3.000000 4.840000 7.200000 -34.444263 -8.584146 1260.094727
3.000000 4.880000 6.800000 -19.584534 9.879528 481.159027
3.000000 4.880000 6.840000 -61.357441 1.890987 3768.311523
3.000000 4.880000 6.880000 -84.636688 -49.557301 9619.294922
3.000000 4.880000 6.920000 -54.129829 -111.121071 15277.930664
3.000000 4.880000 6.960000 20.461197 -130.872055 17546.154297
3.000000 4.880000 7.000000 87.867691 -86.672867 15232.916992
3.000000 4.880000 7.040000 99.678825 -8.849800 10014.187500
3.000000 4.880000 7.080000 53.223320 46.174904 4964.843750
3.000000 4.880000 7.120000 -8.502819 45.785339 2168.595215
3.000000 4.880000 7.160000 -38.364944 6.287380 1511.400146
3.000000 4.880000 7.200000 -26.034271 -28.791430 1506.729736
3.000000 4.920000 6.800000 -36.343498 -3.308792 1331.797974
3.000000 4.920000 6.840000 -78.256165 -45.935951 8234.138672
3.000000 4.920000 6.880000 -66.627342 -125.450073 20176.923828
3.000000 4.920000 6.920000 16.061432 -178.149857 31995.339844
3.000000 4.920000 6.960000 122.215042 -149.682571 37341.390625
3.000000 4.920000 7.000000 175.895203 -48.960175 33336.222656
3.000000 4.920000 7.040000 139.952332 55.329533 22648.011719
3.000000 4.920000 7.080000 48.568115 94.297180 11250.820312
3.000000 4.920000 7.120000 -25.983917 57.220642 3949.365723
3.000000 4.920000 7.160000 -38.519192 -6.413502 1524.861206
3.000000 4.920000 7.200000 -4.503324 -39.079212 1547.464722
3.000000 4.960000 6.800000 -35.366325 -30.634918 2189.275146
3.000000 4.960000 6.840000 -47.994495 -99.034027 12111.209961
3.000000 4.960000 6.880000 14.129999 -169.701294 28998.185547
3.000000 4.960000 6.920000 129.233551 -170.511444 45775.460938
3.000000 4.960000 6.960000 218.380020 -77.211502 53651.449219
3.000000 4.960000 7.000000 212.645355 56.409042 48400.027344
3.000000 4.960000 7.040000 115.876633 141.221054 33370.781250
3.000000 4.960000 7.080000 1.522282 129.367844 16738.355469
3.000000 4.960000 7.120000 -53.343990 51.605186 5508.676758
3.000000 4.960000 7.160000 -32.333794 -18.097950 1373.010010
3.000000 4.960000 7.200000 17.461113 -32.184742 1340.748169
3.000000 5.000000 6.800000 -9.196653 -50.322754 2616.958008
3.000000 5.000000 6.840000 18.631172 -113.463181 13221.013672
3.000000 5.000000 6.880000 109.288391 -138.040680 30999.179688
3.000000 5.000000 6.920000 206.718643 -76.278954 48551.078125
3.000000 5.000000 6.960000 232.918137 50.624035 56813.652344
3.000000 5.000000 7.000000 158.323990 162.337402 51419.917969
3.000000 5.000000 7.040000 31.561619 186.377594 35732.746094
3.000000 5.000000 7.080000 -61.789680 119.554031 18111.130859
3.000000 5.000000 7.120000 -72.269615 25.811703 5889.141602
3.000000 5.000000 7.160000 -22.096859 -24.778870 1102.263550
3.000000 5.000000 7.200000 26.561993 -14.829316 925.448059
3.000000 5.040000 6.800000 26.637148 -42.382462 2505.810791
3.000000 5.040000 6.840000 76.322311 -72.189163 11036.371094
3.000000 5.040000 6.880000 151.492661 -45.784973 25046.289062
3.000000 5.040000 6.920000 191.586533 44.214466 38660.316406
3.000000 5.040000 6.960000 151.771118 148.012085 44942.050781
3.000000 5.040000 7.000000 46.723194 196.162750 40662.882812
3.000000 5.040000 7.040000 -57.806023 158.483337 28458.503906
3.000000 5.040000 7.080000 -99.612518 68.953957 14677.300781
3.000000 5.040000 7.120000 -69.783821 -6.278051 4909.195801
3.000000 5.040000 7.160000 -12.390408 -25.893585 824.000000
3.000000 5.040000 7.200000 21.221207 -1.533094 452.689972
3.000000 5.080000 6.800000 45.198833 -8.613901 2117.133789
3.000000 5.080000 6.840000 83.966576 -3.505047 7062.670898
3.000000 5.080000 6.880000 114.280197 42.235062 14843.764648
3.000000 5.080000 6.920000 100.691452 109.616882 22154.628906
3.000000 5.080000 6.960000 36.892937 154.932877 25365.283203
3.000000 5.080000 7.000000 -44.384682 144.746613 22921.582031
3.000000 5.080000 7.040000 -95.751114 84.367882 16286.214844
3.000000 5.080000 7.080000 -92.611252 13.477570 8758.488281
3.000000 5.080000 7.120000 -50.126701 -26.782717 3230.000244
3.000000 5.080000 7.160000 -6.019109 -24.806383 651.586304
3.000000 5.080000 7.200000 12.417636 -0.896576 155.001526
3.000000 5.120000 6.800000 32.359486 26.948967 1773.383179
3.000000 5.120000 6.840000 41.329147 42.908955 3549.276855
3.000000 5.120000 6.880000 34.802956 68.673218 5927.256348
3.000000 5.120000 6.920000 7.625137 88.681274 7922.511230
3.000000 5.120000 6.960000 -31.243668 87.691757 8666.010742
3.000000 5.120000 7.000000 -63.613277 61.817947 7868.107910
3.000000 5.120000 7.040000 -73.817604 21.823254 5925.292969
3.000000 5.120000 7.080000 -58.746506 -13.724516 3639.514160
3.000000 5.120000 7.120000 -29.045801 -30.239986 1758.115356
3.000000 5.120000 7.160000 -1.316976 -25.315739 642.621033
3.000000 5.120000 7.200000 12.463087 -8.112907 221.147797
3.000000 5.160000 6.800000 0.124558 39.126709 1530.914917
3.000000 5.160000 6.840000 -12.232460 39.945652 1745.288208
3.000000 5.160000 6.880000 -22.640900 32.089073 1542.318970
3.000000 5.160000 6.920000 -25.509186 21.788261 1125.446899
3.000000 5.160000 6.960000 -24.364891 15.839798 844.547119
3.000000 5.160000 7.000000 -26.283737 12.784157 854.269531
3.000000 5.160000 7.040000 -31.461632 4.900681 1013.850952
3.000000 5.160000 7.080000 -31.070780 -10.831755 1082.720337
3.000000 5.160000 7.120000 -17.170296 -25.970665 969.294556
3.000000 5.160000 7.160000 6.056098 -27.243816 778.901855
3.000000 5.160000 7.200000 23.211063 -10.680483 652.826172
3.000000 5.200000 6.800000 -24.635098 24.217098 1193.355835
3.000000 5.200000 6.840000 -35.420456 4.381110 1273.802734
3.000000 5.200000 6.880000 -24.993755 -19.177402 992.460571
3.000000 5.200000 6.920000 0.838997 -24.828114 617.139160
3.000000 5.200000 6.960000 18.831470 -7.014313 403.824860
3.000000 5.200000 7.000000 12.156126 15.766518 396.354492
3.000000 5.200000 7.040000 -10.836365 19.116577 482.870300
3.000000 5.200000 7.080000 -24.140564 -1.441658 584.845215
3.000000 5.200000 7.120000 -11.025276 -24.809658 737.075806
3.000000 5.200000 7.160000 17.910995 -25.697964 981.189087
3.000000 5.200000 7.200000 35.051826 -0.939257 1229.512695
3.040000 4.800000 6.800000 -8.031529 -4.177944 81.960678
3.040000 4.800000 6.840000 -9.908155 -2.518223 104.512993
3.040000 4.800000 6.880000 -10.808348 -6.034748 153.238571
3.040000 4.800000 6.920000 -5.519409 -10.261112 135.754303
3.040000 4.800000 6.960000 4.130951 -8.062233 82.064362
3.040000 4.800000 7.000000 10.435226 2.733952 116.368439
3.040000 4.800000 7.040000 6.962078 16.582981 323.465790
3.040000 4.800000 7.080000 -5.552316 24.831577 647.435425
3.040000 4.800000 7.120000 -19.967770 22.935476 924.747925
3.040000 4.800000 7.160000 -28.874416 13.480599 1015.458496
3.040000 4.800000 7.200000 -30.010351 2.980992 909.507446
3.040000 4.840000 6.800000 -16.334724 -2.018848 270.898956
3.040000 4.840000 6.840000 -34.178192 -7.191456 1219.865845
3.040000 4.840000 6.880000 -41.320869 -32.161125 2741.752441
3.040000 4.840000 6.920000 -22.188683 -58.713684 3939.634277
3.040000 4.840000 6.960000 15.390656 -61.990425 4079.685059
3.040000 4.840000 7.000000 44.813316 -34.318726 3186.008301
3.040000 4.840000 7.040000 43.967903 6.247803 1972.211548
3.040000 4.840000 7.080000 14.850700 31.323273 1201.690674
3.040000 4.840000 7.120000 -19.143490 26.696772 1079.190796
3.040000 4.840000 7.160000 -34.797264 2.640400 1217.821289
3.040000 4.840000 7.200000 -28.162640 -18.472820 1134.379395
3.040000 4.880000 6.800000 -26.738514 -12.495979 871.097656
3.040000 4.880000 6.840000 -50.146278 -40.808762 4180.003906
3.040000 4.880000 6.880000 -37.941174 -90.581215 9644.488281
3.040000 4.880000 6.920000 18.739532 -119.653549 14668.141602
3.040000 4.880000 6.960000 86.425323 -94.743736 16445.712891
3.040000 4.880000 7.000000 115.880188 -25.308418 14068.733398
3.040000 4.880000 7.040000 86.043304 41.766712 9147.908203
3.040000 4.880000 7.080000 22.703903 62.722191 4449.540527
3.040000 4.880000 7.120000 -25.918036 33.746147 1810.547119
3.040000 4.880000 7.160000 -32.021912 -10.529279 1136.268555
3.040000 4.880000 7.200000 -8.036519 -32.690880 1133.279297
3.040000 4.920000 6.800000 -24.269575 -33.755798 1728.466309
3.040000 4.920000 6.840000 -30.031876 -85.757492 8256.261719
3.040000 4.920000 6.880000 21.945011 -136.756912 19184.037109
3.040000 4.920000 6.920000 111.929176 -131.101242 29715.675781
3.040000 4.920000 6.960000 177.040192 -53.228577 34176.511719
3.040000 4.920000 7.000000 165.803268 51.423225 30135.072266
3.040000 4.920000 7.040000 85.704185 113.131226 20143.880859
3.040000 4.920000 7.080000 -3.158401 98.189667 9651.186523
3.040000 4.920000 7.120000 -42.063122 34.855644 2984.222168
3.040000 4.920000 7.160000 -22.372114 -18.110977 828.519043
3.040000 4.920000 7.200000 16.309587 -26.474289 966.890625
3.040000 4.960000 6.800000 -1.588806 -49.492455 2452.027588
3.040000 4.960000 6.840000 26.183941 -104.092133 11520.770508
3.040000 4.960000 6.880000 109.552307 -121.597824 26787.738281
3.040000 4.960000 6.920000 195.241333 -60.286034 41753.585938
3.040000 4.960000 6.960000 212.782349 56.773533 48499.562500
3.040000 4.960000 7.000000 139.456940 154.546417 43332.835938
3.040000 4.960000 7.040000 23.919481 169.829285 29414.128906
3.040000 4.960000 7.080000 -55.879658 105.313065 14213.377930
3.040000 4.960000 7.120000 -59.825451 22.364885 4079.272461
3.040000 4.960000 7.160000 -13.551482 -17.819576 501.179962
3.040000 4.960000 7.200000 25.763983 -5.510071 694.143738
3.040000 5.000000 6.800000 30.311071 -42.333244 2710.864502
3.040000 5.000000 6.840000 83.514801 -72.164124 12182.382812
3.040000 5.000000 6.880000 162.601715 -41.013580 28121.431641
3.040000 5.000000 6.920000 201.372375 56.883999 43786.621094
3.040000 5.000000 6.960000 153.925156 165.249420 51000.324219
3.040000 5.000000 7.000000 40.635696 210.309021 45881.140625
3.040000 5.000000 7.040000 -65.856262 164.918457 31535.144531
3.040000 5.000000 7.080000 -102.683899 70.754753 15550.218750
3.040000 5.000000 7.120000 -67.456985 -1.800209 4553.685547
3.040000 5.000000 7.160000 -11.051023 -15.308756 356.483093
3.040000 5.000000 7.200000 15.579146 10.620240 355.499329
3.040000 5.040000 6.800000 48.646675 -11.274641 2493.616455
3.040000 5.040000 6.840000 99.737106 -6.154379 9985.366211
3.040000 5.040000 6.880000 139.942719 53.685776 22466.126953
3.040000 5.040000 6.920000 120.922653 141.401764 34616.746094
3.040000 5.040000 6.960000 36.578789 197.147064 40204.972656
3.040000 5.040000 7.000000 -66.054497 178.855759 36352.578125
3.040000 5.040000 7.040000 -124.711090 99.305153 25414.371094
3.040000 5.040000 7.080000 -113.355339 14.099874 13048.239258
3.040000 5.040000 7.120000 -59.204914 -26.943501 4231.174316
3.040000 5.040000 7.160000 -12.162453 -18.067139 474.346771
3.040000 5.040000 7.200000 0.390884 8.128706 66.228653
3.040000 5.080000 6.800000 38.404667 24.551956 2077.717041
3.040000 5.080000 6.840000 63.210445 48.846428 6381.534180
3.040000 5.080000 6.880000 59.907547 98.449921 13281.300781
3.040000 5.080000 6.920000 13.204533 140.055450 19789.888672
3.040000 5.080000 6.960000 -57.647758 139.214676 22703.990234
3.040000 5.080000 7.000000 -112.103271 90.072884 20680.267578
3.040000 5.080000 7.040000 -120.601837 20.780952 14976.650391
3.040000 5.080000 7.080000 -86.585884 -29.906033 8391.486328
3.040000 5.080000 7.120000 -39.579781 -42.565327 3378.366211
3.040000 5.080000 7.160000 -8.438476 -27.031963 801.934937
3.040000 5.080000 7.200000 -0.739418 -6.953046 48.891582
3.040000 5.120000 6.800000 6.480754 41.175781 1737.445068
3.040000 5.120000 6.840000 3.695801 57.527069 3323.022705
3.040000 5.120000 6.880000 -16.198830 71.957787 5440.324707
3.040000 5.120000 6.920000 -47.115395 70.395035 7175.321289
3.040000 5.120000 6.960000 -74.217110 48.282207 7839.350586
3.040000 5.120000 7.000000 -84.318390 13.210129 7284.098145
3.040000 5.120000 7.040000 -73.547256 -20.937183 5847.564453
3.040000 5.120000 7.080000 -47.803055 -42.307564 4075.062012
3.040000 5.120000 7.120000 -17.943476 -46.033516 2441.052734
3.040000 5.120000 7.160000 5.578820 -34.489468 1220.646729
3.040000 5.120000 7.200000 16.196457 -15.065247 489.286865
3.040000 5.160000 6.800000 -23.906967 30.400379 1495.726074
3.040000 5.160000 6.840000 -34.886547 23.887726 1787.694580
3.040000 5.160000 6.880000 -39.277809 10.241648 1647.637695
3.040000 5.160000 6.920000 -34.687485 -1.243080 1204.766846
3.040000 5.160000 6.960000 -28.670143 -5.269745 849.747314
3.040000 5.160000 7.000000 -28.427082 -7.400253 862.862732
3.040000 5.160000 7.040000 -30.246510 -16.730757 1194.769531
3.040000 5.160000 7.080000 -22.485741 -32.552490 1565.273193
3.040000 5.160000 7.120000 -0.064793 -41.513092 1723.340942
3.040000 5.160000 7.160000 25.927011 -30.621885 1609.909668
3.040000 5.160000 7.200000 36.181438 -2.973066 1317.935547
3.040000 5.200000 6.800000 -33.754929 5.980181 1175.157837
3.040000 5.200000 6.840000 -32.951733 -16.390022 1354.449463
3.040000 5.200000 6.880000 -12.067788 -31.599022 1144.129639
3.040000 5.200000 6.920000 13.019016 -23.697132 731.048828
3.040000 5.200000 6.960000 19.239410 0.062672 370.158844
3.040000 5.200000 7.000000 2.028419 14.541796 215.578308
3.040000 5.200000 7.040000 -17.560772 3.308895 319.329498
3.040000 5.200000 7.080000 -14.157469 -22.152082 691.148682
3.040000 5.200000 7.120000 14.043301 -32.826305 1274.780518
3.040000 5.200000 7.160000 41.336327 -12.640902 1868.484253
3.040000 5.200000 7.200000 40.185337 23.255091 2155.660645
3.080000 4.800000 6.800000 -15.141223 -6.825277 275.841064
3.080000 4.800000 6.840000 -13.761026 -10.073460 290.840424
3.080000 4.800000 6.880000 -8.990883 -13.083519 252.014435
3.080000 4.800000 6.920000 -1.802410 -12.143785 150.720215
3.080000 4.800000 6.960000 3.790451 -6.011045 50.500187
3.080000 4.800000 7.000000 4.320503 2.824379 26.643864
3.080000 4.800000 7.040000 -0.610346 10.387020 108.262711
3.080000 4.800000 7.080000 -8.906217 13.979595 274.749756
3.080000 4.800000 7.120000 -17.970852 12.833289 487.644836
3.080000 4.800000 7.160000 -25.587139 7.182039 706.283325
3.080000 4.800000 7.200000 -29.548298 -2.035386 877.244751
3.080000 4.840000 6.800000 -19.995556 -18.714642 750.060059
3.080000 4.840000 6.840000 -23.115845 -31.169512 1505.880737
3.080000 4.840000 6.880000 -12.292957 -47.998398 2454.962891
3.080000 4.840000 6.920000 12.994522 -53.624992 3044.497559
3.080000 4.840000 6.960000 38.520313 -37.905731 2920.659180
3.080000 4.840000 7.000000 46.370098 -6.912094 2197.963135
3.080000 4.840000 7.040000 30.330280 20.681801 1347.662842
3.080000 4.840000 7.080000 1.291758 28.537331 816.047852
3.080000 4.840000 7.120000 -21.999510 15.184752 714.555115
3.080000 4.840000 7.160000 -27.916073 -6.676683 823.885254
3.080000 4.840000 7.200000 -19.101599 -22.210714 858.186890
3.080000 4.880000 6.800000 -12.944622 -36.391300 1491.890015
3.080000 4.880000 6.840000 -8.890875 -62.129444 3939.115479
3.080000 4.880000 6.880000 23.712757 -83.460190 7527.898438
3.080000 4.880000 6.920000 72.191734 -73.042786 10546.894531
3.080000 4.880000 6.960000 103.255157 -25.749531 11324.666016
3.080000 4.880000 7.000000 91.694351 32.328236 9452.969727
3.080000 4.880000 7.040000 43.917488 64.249321 6056.720703
3.080000 4.880000 7.080000 -6.859741 53.361092 2894.462158
3.080000 4.880000 7.120000 -29.197969 15.772901 1101.305786
3.080000 4.880000 7.160000 -18.420990 -16.628107 615.826843
3.080000 4.880000 7.200000 4.608273 -24.804296 636.489258
3.080000 4.920000 6.800000 9.669765 -46.478024 2253.711182
3.080000 4.920000 6.840000 32.960930 -76.151901 6885.535156
3.080000 4.920000 6.880000 88.254906 -79.517281 14111.925781
3.080000 4.920000 6.920000 140.175842 -32.690952 20717.966797
3.080000 4.920000 6.960000 144.829559 46.345261 23123.484375
3.080000 4.920000 7.000000 90.946388 108.144241 19966.421875
3.080000 4.920000 7.040000 12.845295 113.633011 13077.462891
3.080000 4.920000 7.080000 -38.545998 67.543526 6047.921875
3.080000 4.920000 7.120000 -38.951378 11.547277 1650.549438
3.080000 4.920000 7.160000 -7.015033 -14.874067 270.448578
3.080000 4.920000 7.200000 19.488819 -6.789421 425.910278
3.080000 4.960000 6.800000 37.301468 -36.238659 2704.639893
3.080000 4.960000 6.840000 79.066635 -52.067894 8962.598633
3.080000 4.960000 6.880000 136.372101 -21.461636 19057.951172
3.080000 4.960000 6.920000 159.278687 56.895111 28606.753906
3.080000 4.960000 6.960000 115.902939 138.048172 32490.789062
3.080000 4.960000 7.000000 25.755939 166.858337 28505.074219
3.080000 4.960000 7.040000 -54.032711 126.613083 18950.406250
3.080000 4.960000 7.080000 -77.644409 52.915234 8828.675781
3.080000 4.960000 7.120000 -47.506866 -0.078556 2256.908447
3.080000 4.960000 7.160000 -5.071582 -6.990789 74.592087
3.080000 4.960000 7.200000 12.082502 13.434797 326.480652
3.080000 5.000000 6.800000 51.208832 -6.701637 2667.256348
3.080000 5.000000 6.840000 95.199341 2.367672 9068.519531
3.080000 5.000000 6.880000 126.795609 59.253525 19588.105469
3.080000 5.000000 6.920000 103.658043 137.552704 29665.736328
3.080000 5.000000 6.960000 23.756508 182.733246 33955.808594
3.080000 5.000000 7.000000 -67.362305 159.858093 30092.289062
3.080000 5.000000 7.040000 -114.211639 85.412552 20339.603516
3.080000 5.000000 7.080000 -98.214447 12.055941 9791.422852
3.080000 5.000000 7.120000 -49.085705 -18.115831 2737.589844
3.080000 5.000000 7.160000 -12.319021 -6.061567 188.500885
3.080000 5.000000 7.200000 -7.517712 14.934713 279.561646
3.080000 5.040000 6.800000 40.019554 25.333256 2243.338623
3.080000 5.040000 6.840000 66.680412 52.761597 7230.063477
3.080000 5.040000 6.880000 61.402321 108.055267 15446.185547
3.080000 5.040000 6.920000 7.511726 152.399597 23282.062500
3.080000 5.040000 6.960000 -70.696701 147.190414 26663.041016
3.080000 5.040000 7.000000 -125.931549 89.409813 23852.869141
3.080000 5.040000 7.040000 -127.805283 15.071726 16561.347656
3.080000 5.040000 7.080000 -86.578194 -32.274666 8537.437500
3.080000 5.040000 7.120000 -39.548431 -37.002888 2933.291992
3.080000 5.040000 7.160000 -15.969332 -17.853806 573.777954
3.080000 5.040000 7.200000 -15.566008 -3.203655 252.564011
3.080000 5.080000 6.800000 10.359856 40.002193 1707.502197
3.080000 5.080000 6.840000 12.984407 66.298950 4564.145508
3.080000 5.080000 6.880000 -13.886402 94.399490 9104.095703
3.080000 5.080000 6.920000 -62.864872 96.558350 13275.506836
3.080000 5.080000 6.960000 -105.686157 62.096130 15025.493164
3.080000 5.080000 7.000000 -116.493591 7.302269 13624.080078
3.080000 5.080000 7.040000 -92.268265 -38.469727 9993.352539
3.080000 5.080000 7.080000 -52.307674 -56.323528 5908.432617
3.080000 5.080000 7.120000 -19.684299 -49.118317 2800.080811
3.080000 5.080000 7.160000 -3.908583 -32.835167 1093.425171
3.080000 5.080000 7.200000 0.333165 -19.899164 396.087738
3.080000 5.120000 6.800000 -18.222170 30.693247 1274.122803
3.080000 5.120000 6.840000 -28.711597 39.494942 2384.206299
3.080000 5.120000 6.880000 -49.118767 37.419399 3812.864746
3.080000 5.120000 6.920000 -67.050110 19.627552 4880.958008
3.080000 5.120000 6.960000 -71.767242 -7.375843 5204.939941
3.080000 5.120000 7.000000 -61.460701 -32.623215 4841.691895
3.080000 5.120000 7.040000 -41.412502 -48.820671 4098.453125
3.080000 5.120000 7.080000 -17.892736 -54.152565 3252.650391
3.080000 5.120000 7.120000 4.593620 -48.994713 2421.583252
3.080000 5.120000 7.160000 21.502060 -34.180832 1630.667847
3.080000 5.120000 7.200000 27.376881 -13.409158 929.299072
3.080000 5.160000 6.800000 -29.797855 8.542196 960.881287
3.080000 5.160000 6.840000 -35.524521 -1.114811 1263.234375
3.080000 5.160000 6.880000 -32.396584 -14.448917 1258.309814
3.080000 5.160000 6.920000 -21.970749 -21.617455 950.028137
3.080000 5.160000 6.960000 -13.854296 -20.720188 621.267700
3.080000 5.160000 7.000000 -12.805683 -20.340347 577.715271
3.080000 5.160000 7.040000 -11.405209 -27.998514 913.995605
3.080000 5.160000 7.080000 1.474867 -38.290577 1468.343628
3.080000 5.160000 7.120000 25.187195 -36.239815 1947.718994
3.080000 5.160000 7.160000 43.560570 -14.237929 2100.241699
3.080000 5.160000 7.200000 39.669586 16.120117 1833.534180
3.080000 5.200000 6.800000 -24.424509 -8.919144 676.107788
3.080000 5.200000 6.840000 -15.641436 -25.024960 870.903076
3.080000 5.200000 6.880000 5.927010 -28.268536 834.239563
3.080000 5.200000 6.920000 21.604458 -12.309523 618.276978
3.080000 5.200000 6.960000 16.475197 7.645983 329.893158
3.080000 5.200000 7.000000 -1.899059 10.194277 107.529709
3.080000 5.200000 7.040000 -9.585581 -7.506350 148.228638
3.080000 5.200000 7.080000 7.465073 -23.988831 631.191284
3.080000 5.200000 7.120000 35.648293 -15.473557 1510.231812
3.080000 5.200000 7.160000 45.770435 17.111755 2387.745117
3.080000 5.200000 7.200000 23.771658 46.256744 2704.778076
3.120000 4.800000 6.800000 -18.697447 -17.124268 642.835083
3.120000 4.800000 6.840000 -10.056456 -20.069880 503.932373
3.120000 4.800000 6.880000 -1.965790 -17.070480 295.265625
3.120000 4.800000 6.920000 1.729752 -10.858329 120.895348
3.120000 4.800000 6.960000 1.358685 -5.694128 34.269119
3.120000 4.800000 7.000000 0.214992 -2.756580 7.644957
3.120000 4.800000 7.040000 -0.277431 0.429749 0.261652
3.120000 4.800000 7.080000 -2.848703 5.498344 38.346901
3.120000 4.800000 7.120000 -10.699646 9.214472 199.388916
3.120000 4.800000 7.160000 -21.735336 5.622890 504.041748
3.120000 4.800000 7.200000 -28.085320 -6.977481 837.470398
3.120000 4.840000 6.800000 -8.605659 -35.669697 1346.384644
3.120000 4.840000 6.840000 2.909918 -39.855057 1596.893188
3.120000 4.840000 6.880000 17.498341 -37.807281 1735.582397
3.120000 4.840000 6.920000 30.493664 -27.166674 1667.891602
3.120000 4.840000 6.960000 35.912933 -9.791451 1385.611328
3.120000 4.840000 7.000000 30.216774 8.224380 980.693848
3.120000 4.840000 7.040000 14.951511 19.427828 600.988159
3.120000 4.840000 7.080000 -3.500544 19.050671 375.181854
3.120000 4.840000 7.120000 -17.005724 7.767082 349.522217
3.120000 4.840000 7.160000 -19.954042 -8.465362 469.826172
3.120000 4.840000 7.200000 -12.252577 -21.611320 617.174805
3.120000 4.880000 6.800000 16.601688 -43.393520 2158.613525
3.120000 4.880000 6.840000 34.006104 -46.119392 3283.413330
3.120000 4.880000 6.880000 56.816879 -36.383324 4551.903809
3.120000 4.880000 6.920000 72.556305 -9.957916 5363.577637
3.120000 4.880000 6.960000 68.148392 24.362873 5237.752930
3.120000 4.880000 7.000000 41.991154 48.985893 4162.874512
3.120000 4.880000 7.040000 7.301132 50.645313 2618.254395
3.120000 4.880000 7.080000 -17.145805 30.907024 1249.222778
3.120000 4.880000 7.120000 -20.954765 4.527738 459.602600
3.120000 4.880000 7.160000 -8.526687 -12.638830 232.444427
3.120000 4.880000 7.200000 6.998435 -15.081181 276.420105
3.120000 4.920000 6.800000 43.714794 -29.326817 2771.045410
3.120000 4.920000 6.840000 66.176102 -24.708628 4989.792480
3.120000 4.920000 6.880000 88.851547 0.741156 7895.146973
3.120000 4.920000 6.920000 90.915550 43.720524 10177.122070
3.120000 4.920000 6.960000 61.515289 82.290161 10555.800781
3.120000 4.920000 7.000000 12.724585 92.439659 8707.005859
3.120000 4.920000 7.040000 -27.997375 68.827286 5521.048340
3.120000 4.920000 7.080000 -39.850998 29.689318 2469.557617
3.120000 4.920000 7.120000 -24.665878 0.981885 609.369690
3.120000 4.920000 7.160000 -2.228720 -4.946595 29.435995
3.120000 4.920000 7.200000 9.280719 3.756622 100.243958
3.120000 4.960000 6.800000 53.969929 2.169930 2917.461670
3.120000 4.960000 6.840000 74.797844 17.938957 5916.523438
3.120000 4.960000 6.880000 83.444481 56.590309 10165.444336
3.120000 4.960000 6.920000 59.825600 100.895416 13758.987305
3.120000 4.960000 6.960000 7.153477 121.042564 14702.474609
3.120000 4.960000 7.000000 -46.560497 100.922928 12353.317383
3.120000 4.960000 7.040000 -70.957245 53.678783 7916.342773
3.120000 4.960000 7.080000 -58.682076 10.650716 3557.023682
3.120000 4.960000 7.120000 -29.265385 -5.649626 888.381042
3.120000 4.960000 7.160000 -8.826766 1.685196 80.751678
3.120000 4.960000 7.200000 -6.660950 12.448029 199.321671
3.120000 5.000000 6.800000 38.862190 32.333107 2555.699707
3.120000 5.000000 6.840000 49.555714 56.000053 5591.774902
3.120000 5.000000 6.880000 36.757267 93.592834 10110.715820
3.120000 5.000000 6.920000 -7.096892 118.355865 14058.477539
3.120000 5.000000 6.960000 -62.181320 106.744919 15260.994141
3.120000 5.000000 7.000000 -96.078400 61.324791 12991.789062
3.120000 5.000000 7.040000 -91.639626 9.885454 8495.543945
3.120000 5.000000 7.080000 -60.657310 -18.742004 4030.572021
3.120000 5.000000 7.120000 -30.640896 -18.297483 1273.662354
3.120000 5.000000 7.160000 -19.013767 -5.693771 393.942383
3.120000 5.000000 7.200000 -20.711344 -0.343987 429.078064
3.120000 5.040000 6.800000 8.362230 42.638447 1887.963989
3.120000 5.040000 6.840000 5.576058 64.766205 4225.753418
3.120000 5.040000 6.880000 -21.678047 85.560738 7790.577148
3.120000 5.040000 6.920000 -64.914841 81.825287 10909.314453
3.120000 5.040000 6.960000 -98.373062 47.184387 11903.625977
3.120000 5.040000 7.000000 -101.341949 -0.613157 10270.566406
3.120000 5.040000 7.040000 -75.887428 -35.034554 6986.321777
3.120000 5.040000 7.080000 -42.928169 -43.247444 3713.169189
3.120000 5.040000 7.120000 -21.967392 -33.789261 1624.280396
3.120000 5.040000 7.160000 -15.584999 -23.811129 809.862061
3.120000 5.040000 7.200000 -12.894145 -21.095999 611.300171
3.120000 5.080000 6.800000 -17.233347 30.093979 1202.635864
3.120000 5.080000 6.840000 -28.439142 41.677292 2545.781494
3.120000 5.080000 6.880000 -53.290932 41.127022 4531.355469
3.120000 5.080000 6.920000 -76.031265 19.802816 6172.904785
3.120000 5.080000 6.960000 -80.341438 -13.907782 6648.172852
3.120000 5.080000 7.000000 -63.597412 -42.351734 5838.300293
3.120000 5.080000 7.040000 -37.303585 -54.018066 4309.508789
3.120000 5.080000 7.080000 -15.042039 -50.919327 2819.040771
3.120000 5.080000 7.120000 -1.478319 -42.354240 1796.067139
3.120000 5.080000 7.160000 7.063482 -33.971394 1203.948364
3.120000 5.080000 7.200000 13.861849 -24.461308 790.506470
3.120000 5.120000 6.800000 -24.685720 8.475081 681.211792
3.120000 5.120000 6.840000 -34.509190 7.344790 1244.830078
3.120000 5.120000 6.880000 -43.369160 -4.711639 1903.083618
3.120000 5.120000 6.920000 -42.265030 -22.341843 2285.490723
3.120000 5.120000 6.960000 -31.196350 -36.067940 2274.108398
3.120000 5.120000 7.000000 -16.864159 -41.877415 2038.117676
3.120000 5.120000 7.040000 -3.959641 -42.646206 1834.377563
3.120000 5.120000 7.080000 8.675455 -41.218025 1774.189209
3.120000 5.120000 7.120000 22.781193 -35.146294 1754.244629
3.120000 5.120000 7.160000 34.153893 -20.536150 1588.221924
3.120000 5.120000 7.200000 34.578773 -0.213675 1195.737183
3.120000 5.160000 6.800000 -17.774977 -5.587591 347.170959
3.120000 5.160000 6.840000 -18.708553 -14.185540 551.239502
3.120000 5.160000 6.880000 -10.808625 -22.516628 623.824890
3.120000 5.160000 6.920000 0.575890 -22.458866 504.732300
3.120000 5.160000 6.960000 6.003483 -16.337542 302.957062
3.120000 5.160000 7.000000 4.714569 -14.024451 218.912384
3.120000 5.160000 7.040000 6.586796 -19.479414 422.833435
3.120000 5.160000 7.080000 19.621595 -23.485931 936.596008
3.120000 5.160000 7.120000 37.439194 -13.068516 1572.479370
3.120000 5.160000 7.160000 43.036217 11.877432 1993.189331
3.120000 5.160000 7.200000 26.885811 34.468796 1910.944702
3.120000 5.200000 6.800000 -10.587408 -7.744843 172.075806
3.120000 5.200000 6.840000 -1.445997 -16.125803 262.132446
3.120000 5.200000 6.880000 13.389056 -12.151296 326.920837
3.120000 5.200000 6.920000 18.472132 3.115635 350.926849
3.120000 5.200000 6.960000 8.382759 13.995504 266.144806
3.120000 5.200000 7.000000 -3.771019 8.432709 85.331161
3.120000 5.200000 7.040000 -0.329517 -5.946796 35.472969
3.120000 5.200000 7.080000 19.213392 -8.164236 435.809204
3.120000 5.200000 7.120000 34.434723 12.316261 1337.440430
3.120000 5.200000 7.160000 24.901615 40.953735 2297.298828
3.120000 5.200000 7.200000 -6.066910 50.903084 2627.931396
3.160000 4.800000 6.800000 -12.820637 -29.206272 1017.375061
3.160000 4.800000 6.840000 0.291756 -25.088160 629.500916
3.160000 4.800000 6.880000 5.080909 -15.333262 260.924561
3.160000 4.800000 6.920000 2.226248 -9.097691 87.724152
3.160000 4.800000 6.960000 -0.310798 -9.562269 91.533585
3.160000 4.800000 7.000000 3.122337 -10.751642 125.346802
3.160000 4.800000 7.040000 8.613894 -5.078937 99.994751
3.160000 4.800000 7.080000 6.640749 6.418849 85.301170
3.160000 4.800000 7.120000 -6.387300 13.208511 215.262360
3.160000 4.800000 7.160000 -21.759766 5.885130 508.122162
3.160000 4.800000 7.200000 -25.442308 -12.565820 805.210876
3.160000 4.840000 6.800000 13.044097 -40.001076 1770.234497
3.160000 4.840000 6.840000 25.859390 -27.598051 1430.360474
3.160000 4.840000 6.880000 27.842058 -12.811876 939.324341
3.160000 4.840000 6.920000 22.945284 -3.248732 537.040283
3.160000 4.840000 6.960000 18.146158 0.866110 330.033203
3.160000 4.840000 7.000000 15.484227 4.578726 260.726013
3.160000 4.840000 7.040000 10.755012 10.297506 221.708908
3.160000 4.840000 7.080000 0.325945 13.515862 182.784790
3.160000 4.840000 7.120000 -11.994685 7.652216 202.428879
3.160000 4.840000 7.160000 -16.689863 -7.099386 328.952820
3.160000 4.840000 7.200000 -7.968039 -21.219368 513.751221
3.160000 4.880000 6.800000 42.596100 -26.598433 2521.904297
3.160000 4.880000 6.840000 49.141209 -6.983301 2463.625000
3.160000 4.880000 6.880000 44.289478 11.215759 2087.351074
3.160000 4.880000 6.920000 32.946133 22.511984 1592.237061
3.160000 4.880000 6.960000 20.638496 26.946699 1152.072144
3.160000 4.880000 7.000000 9.482000 27.070742 822.733398
3.160000 4.880000 7.040000 -0.836929 23.746754 564.608765
3.160000 4.880000 7.080000 -9.275369 15.877235 338.119080
3.160000 4.880000 7.120000 -12.204618 3.981681 164.806503
3.160000 4.880000 7.160000 -6.815611 -7.299234 99.731377
3.160000 4.880000 7.200000 4.690940 -11.635534 157.390564
3.160000 4.920000 6.800000 54.087357 6.903164 2973.095703
3.160000 4.920000 6.840000 50.379654 28.278160 3337.763916
3.160000 4.920000 6.880000 36.277073 44.733768 3317.135986
3.160000 4.920000 6.920000 16.757923 51.571590 2940.456787
3.160000 4.920000 6.960000 -1.917254 48.251801 2331.912109
3.160000 4.920000 7.000000 -15.017408 37.700886 1646.879395
3.160000 4.920000 7.040000 -20.638344 24.333767 1018.073425
3.160000 4.920000 7.080000 -19.464375 12.182444 527.273804
3.160000 4.920000 7.120000 -13.792998 3.860841 205.152893
3.160000 4.920000 7.160000 -6.440267 0.259892 41.544582
3.160000 4.920000 7.200000 0.199455 0.814535 0.703250
3.160000 4.960000 6.800000 37.169250 39.135086 2913.108154
3.160000 4.960000 6.840000 24.227219 55.210892 3635.200684
3.160000 4.960000 6.880000 3.175047 63.465679 4037.973145
3.160000 4.960000 6.920000 -19.809399 59.409298 3921.876953
3.160000 4.960000 6.960000 -36.366070 44.173401 3273.780273
3.160000 4.960000 7.000000 -41.229683 24.708557 2310.399414
3.160000 4.960000 7.040000 -35.799744 9.347491 1368.997314
3.160000 4.960000 7.080000 -26.597212 2.115168 711.885620
3.160000 4.960000 7.120000 -19.685564 0.781228 388.131744
3.160000 4.960000 7.160000 -16.150671 0.367515 260.979248
3.160000 4.960000 7.200000 -12.758722 -1.376756 164.680450
3.160000 5.000000 6.800000 3.323712 48.471302 2360.514160
3.160000 5.000000 6.840000 -13.179730 54.981659 3196.688232
3.160000 5.000000 6.880000 -34.272064 51.789459 3856.722656
3.160000 5.000000 6.920000 -51.575195 36.283073 3976.462158
3.160000 5.000000 6.960000 -56.773052 14.005027 3419.320312
3.160000 5.000000 7.000000 -48.962410 -4.573015 2418.229980
3.160000 5.000000 7.040000 -35.742050 -12.545873 1434.893066
3.160000 5.000000 7.080000 -26.272934 -11.985867 833.928040
3.160000 5.000000 7.120000 -23.116680 -10.684862 648.547180
3.160000 5.000000 7.160000 -21.067444 -13.509459 626.342651
3.160000 5.000000 7.200000 -14.153852 -17.388412 502.688446
3.160000 5.040000 6.800000 -23.347988 31.736828 1552.354736
3.160000 5.040000 6.840000 -36.918011 29.626547 2240.671875
3.160000 5.040000 6.880000 -50.618019 17.732773 2876.635010
3.160000 5.040000 6.920000 -55.397858 -2.154676 3073.565186
3.160000 5.040000 6.960000 -47.423019 -20.620777 2674.159424
3.160000 5.040000 7.000000 -32.502655 -29.003685 1897.636353
3.160000 5.040000 7.040000 -20.639248 -27.487804 1181.557983
3.160000 5.040000 7.080000 -16.215809 -24.053162 841.507019
3.160000 5.040000 7.120000 -14.432403 -25.286278 847.690125
3.160000 5.040000 7.160000 -7.869756 -29.116613 909.710205
3.160000 5.040000 7.200000 4.093958 -27.480364 771.930908
3.160000 5.080000 6.800000 -27.351286 6.304569 787.840454
3.160000 5.080000 6.840000 -34.756058 0.010544 1207.983643
3.160000 5.080000 6.880000 -37.872215 -13.615995 1619.699951
3.160000 5.080000 6.920000 -30.982374 -27.968737 1742.157715
3.160000 5.080000 6.960000 -17.323217 -34.494305 1489.950928
3.160000 5.080000 7.000000 -5.830046 -31.924757 1053.179565
3.160000 5.080000 7.040000 -1.377318 -27.202528 741.874573
3.160000 5.080000 7.080000 0.189517 -26.997253 728.887573
3.160000 5.080000 7.120000 6.315359 -29.595592 915.782898
3.160000 5.080000 7.160000 17.853872 -26.863661 1040.416992
3.160000 5.080000 7.200000 26.676174 -14.296646 916.012390
3.160000 5.120000 6.800000 -14.660816 -7.044544 264.565125
3.160000 5.120000 6.840000 -16.574339 -13.633745 460.587708
3.160000 5.120000 6.880000 -11.464279 -22.551598 640.004272
3.160000 5.120000 6.920000 -0.532063 -25.747818 663.233215
3.160000 5.120000 6.960000 8.259871 -21.199135 517.628784
3.160000 5.120000 7.000000 10.081640 -15.451161 340.377869
3.160000 5.120000 7.040000 9.396673 -15.256916 321.070953
3.160000 5.120000 7.080000 14.381063 -18.432947 546.588501
3.160000 5.120000 7.120000 25.820007 -15.577255 909.323669
3.160000 5.120000 7.160000 34.121613 -1.572429 1166.756958
3.160000 5.120000 7.200000 29.151123 16.459450 1120.701416
3.160000 5.160000 6.800000 -4.484982 -3.690679 33.736168
3.160000 5.160000 6.840000 -2.594000 -9.459412 96.209305
3.160000 5.160000 6.880000 5.726048 -11.183652 157.861694
3.160000 5.160000 6.920000 12.433177 -5.026556 179.850159
3.160000 5.160000 6.960000 11.082777 2.478478 128.970810
3.160000 5.160000 7.000000 5.949821 2.653203 42.439850
3.160000 5.160000 7.040000 7.493463 -3.281851 66.922523
3.160000 5.160000 7.080000 18.662903 -3.860288 363.205780
3.160000 5.160000 7.120000 28.782646 9.247820 913.962891
3.160000 5.160000 7.160000 24.012560 29.292774 1434.669678
3.160000 5.160000 7.200000 3.783354 39.149826 1547.022583
3.160000 5.200000 6.800000 -8.555967 2.388668 78.910309
3.160000 5.200000 6.840000 -2.722646 -2.581092 14.074835
3.160000 5.200000 6.880000 4.923582 1.887020 27.802505
3.160000 5.200000 6.920000 4.014241 11.241212 142.478973
3.160000 5.200000 6.960000 -4.570954 13.766321 210.405212
3.160000 5.200000 7.000000 -8.708235 6.130822 113.420334
3.160000 5.200000 7.040000 -0.220934 -0.495479 0.294311
3.160000 5.200000 7.080000 12.845808 7.199843 216.852539
3.160000 5.200000 7.120000 13.058438 27.233419 912.181946
3.160000 5.200000 7.160000 -6.273271 41.189857 1735.958252
3.160000 5.200000 7.200000 -30.674797 33.150948 2039.928467
3.200000 4.800000 6.800000 0.568175 -34.698051 1204.277710
3.200000 4.800000 6.840000 10.446750 -22.317972 607.226440
3.200000 4.800000 6.880000 7.703494 -11.547354 192.685211
3.200000 4.800000 6.920000 1.688297 -10.997074 123.785988
3.200000 4.800000 6.960000 3.640636 -15.947832 267.587585
3.200000 4.800000 7.000000 13.506897 -14.123994 381.923462
3.200000 4.800000 7.040000 19.205687 -0.470899 369.080139
3.200000 4.800000 7.080000 10.001389 15.349886 335.646790
3.200000 4.800000 7.120000 -10.210265 17.818832 421.760315
3.200000 4.800000 7.160000 -24.645485 2.193836 612.212830
3.200000 4.800000 7.200000 -19.736481 -18.834011 744.248657
3.200000 4.840000 6.800000 31.046328 -28.436045 1772.483154
3.200000 4.840000 6.840000 31.344936 -6.253169 1021.607178
3.200000 4.840000 6.880000 17.656343 4.838254 335.155151
3.200000 4.840000 6.920000 6.261578 0.635103 39.610710
3.200000 4.840000 6.960000 7.649105 -7.204154 110.408638
3.200000 4.840000 7.000000 16.022392 -5.022918 281.946747
3.200000 4.840000 7.040000 16.793198 7.317392 335.555695
3.200000 4.840000 7.080000 3.800799 16.155363 275.441833
3.200000 4.840000 7.120000 -12.717415 9.424731 250.558197
3.200000 4.840000 7.160000 -16.365564 -9.115165 350.917908
3.200000 4.840000 7.200000 -2.216178 -22.456245 509.194397
3.200000 4.880000 6.800000 47.897812 1.764737 2297.314697
3.200000 4.880000 6.840000 31.966003 23.930134 1594.476685
3.200000 4.880000 6.880000 8.503242 25.540976 724.646545
3.200000 4.880000 6.920000 -3.211465 11.375502 139.715546
3.200000 4.880000 6.960000 2.064402 -0.816036 4.927669
3.200000 4.880000 7.000000 12.222532 1.023236 150.437302
3.200000 4.880000 7.040000 12.209936 11.791277 288.116760
3.200000 4.880000 7.080000 0.359647 16.430788 270.100128
3.200000 4.880000 7.120000 -10.587006 7.223563 164.264557
3.200000 4.880000 7.160000 -8.043800 -7.660373 123.384033
3.200000 4.880000 7.200000 6.452014 -13.050872 211.953735
3.200000 4.920000 6.800000 35.616745 36.282848 2584.997559
3.200000 4.920000 6.840000 6.985619 45.715485 2138.704346
3.200000 4.920000 6.880000 -16.778244 31.586439 1279.212646
3.200000 4.920000 6.920000 -19.958660 8.327748 467.699524
3.200000 4.920000 6.960000 -5.981990 -4.093696 52.542549
3.200000 4.920000 7.000000 7.674467 1.330534 60.667767
3.200000 4.920000 7.040000 7.386453 13.962902 249.522308
3.200000 4.920000 7.080000 -4.290304 18.141041 347.504059
3.200000 4.920000 7.120000 -13.375032 9.232382 264.128357
3.200000 4.920000 7.160000 -9.967189 -3.053496 108.668694
3.200000 4.920000 7.200000 2.090593 -6.051549 40.991825
3.200000 4.960000 6.800000 1.474328 49.878887 2490.076904
3.200000 4.960000 6.840000 -27.194328 40.699596 2395.988770
3.200000 4.960000 6.880000 -39.345291 14.230885 1750.569946
3.200000 4.960000 6.920000 -28.272114 -9.647284 892.382507
3.200000 4.960000 6.960000 -6.266650 -14.451380 248.113281
3.200000 4.960000 7.000000 7.043958 -1.119590 50.870823
3.200000 4.960000 7.040000 2.321142 14.426996 213.525909
3.200000 4.960000 7.080000 -12.517399 16.983217 445.114929
3.200000 4.960000 7.120000 -21.644501 5.495050 498.679993
3.200000 4.960000 7.160000 -16.706221 -7.938807 342.122467
3.200000 4.960000 7.200000 -3.389573 -10.905762 130.424850
3.200000 5.000000 6.800000 -29.254087 33.867001 2002.775391
3.200000 5.000000 6.840000 -45.255699 11.990593 2191.852783
3.200000 5.000000 6.880000 -40.459999 -15.201846 1868.107666
3.200000 5.000000 6.920000 -18.129456 -29.098478 1175.398560
3.200000 5.000000 6.960000 4.340942 -21.323441 473.532898
3.200000 5.000000 7.000000 10.145015 -1.209830 104.385017
3.200000 5.000000 7.040000 -2.507328 12.564554 164.154724
3.200000 5.000000 7.080000 -19.646029 8.572968 459.462219
3.200000 5.000000 7.120000 -24.837753 -7.988357 680.727844
3.200000 5.000000 7.160000 -13.769996 -21.308023 643.644653
3.200000 5.000000 7.200000 3.159191 -19.834967 403.406403
3.200000 5.040000 6.800000 -35.469154 4.137713 1275.181641
3.200000 5.040000 6.840000 -35.549252 -17.586094 1573.020020
3.200000 5.040000 6.880000 -19.067516 -34.270981 1538.070312
3.200000 5.040000 6.920000 4.416945 -33.539894 1144.433838
3.200000 5.040000 6.960000 18.119009 -16.058086 586.160645
3.200000 5.040000 7.000000 12.560915 3.465246 169.784515
3.200000 5.040000 7.040000 -5.366076 8.642894 103.494385
3.200000 5.040000 7.080000 -18.249706 -3.889979 348.183716
3.200000 5.040000 7.120000 -13.903837 -21.565746 658.398132
3.200000 5.040000 7.160000 3.787790 -27.686302 780.878662
3.200000 5.040000 7.200000 19.149143 -16.660675 644.267822
3.200000 5.080000 6.800000 -19.122927 -13.923351 559.546021
3.200000 5.080000 6.840000 -10.563728 -26.291697 802.845642
3.200000 5.080000 6.880000 6.681439 -29.711235 927.399170
3.200000 5.080000 6.920000 21.800398 -18.803040 828.811646
3.200000 5.080000 6.960000 23.022926 -0.503520 530.308655
3.200000 5.080000 7.000000 9.686916 10.373460 201.445007
3.200000 5.080000 7.040000 -5.468328 4.823778 53.171448
3.200000 5.080000 7.080000 -7.616180 -10.982742 178.626831
3.200000 5.080000 7.120000 5.821589 -20.969177 473.597290
3.200000 5.080000 7.160000 22.453297 -14.528776 715.235901
3.200000 5.080000 7.200000 26.931995 3.349213 736.549622
3.200000 5.120000 6.800000 -1.884136 -9.612019 95.940872
3.200000 5.120000 6.840000 5.637291 -13.378745 210.769867
3.200000 5.120000 6.880000 16.245886 -9.455820 353.341339
3.200000 5.120000 6.920000 20.714558 2.682484 436.288605
3.200000 5.120000 6.960000 13.565706 13.853789 375.955872
3.200000 5.120000 7.000000 0.832891 13.782192 190.642532
3.200000 5.120000 7.040000 -4.597256 2.784695 28.889284
3.200000 5.120000 7.080000 3.604890 -7.050995 62.711761
3.200000 5.120000 7.120000 17.607752 -3.829647 324.699127
3.200000 5.120000 7.160000 22.778135 11.355627 647.793701
3.200000 5.120000 7.200000 12.835159 24.999180 789.700317
3.200000 5.160000 6.800000 -2.535469 3.829400 21.092907
3.200000 5.160000 6.840000 1.009578 1.645375 3.726507
3.200000 5.160000 6.880000 5.718633 5.603178 64.098358
3.200000 5.160000 6.920000 4.156824 13.113416 189.240845
3.200000 5.160000 6.960000 -3.817996 15.522406 255.522171
3.200000 5.160000 7.000000 -9.381838 9.100327 170.834839
3.200000 5.160000 7.040000 -4.843016 1.161263 24.803335
3.200000 5.160000 7.080000 6.017071 2.794512 44.014442
3.200000 5.160000 7.120000 10.466675 15.566129 351.855652
3.200000 5.160000 7.160000 0.800274 27.955040 782.124695
3.200000 5.160000 7.200000 -15.873289 27.054073 983.884216
3.200000 5.200000 6.800000 -17.835920 4.313183 336.723602
3.200000 5.200000 6.840000 -13.443491 -0.271654 180.801239
3.200000 5.200000 6.880000 -9.555985 2.054539 95.537987
3.200000 5.200000 6.920000 -11.692019 5.390578 165.761658
3.200000 5.200000 6.960000 -15.729631 2.942645 256.080475
3.200000 5.200000 7.000000 -13.554335 -2.958324 192.471664
3.200000 5.200000 7.040000 -4.899675 -2.735957 31.492275
3.200000 5.200000 7.080000 -0.046580 7.907658 62.533226
3.200000 5.200000 7.120000 -8.385930 20.142412 476.040588
3.200000 5.200000 7.160000 -25.589245 20.013510 1055.349976
3.200000 5.200000 7.200000 -35.711903 4.758021 1297.978760
