#kx 	ky 	kz 	real 	imag 	intensity
1.800000 -4.200000 3.800000 -38.635216 7.040153 1542.243652
1.800000 -4.200000 3.840000 -35.437534 -5.760527 1289.002563
1.800000 -4.200000 3.880000 -26.842932 -13.731966 909.109863
1.800000 -4.200000 3.920000 -17.939758 -15.822346 572.181519
1.800000 -4.200000 3.960000 -11.629845 -15.236084 367.391541
1.800000 -4.200000 4.000000 -6.335892 -14.971678 264.294678
1.800000 -4.200000 4.040000 0.855656 -13.876736 193.295944
1.800000 -4.200000 4.080000 9.177543 -7.993286 148.119904
1.800000 -4.200000 4.120000 13.316921 3.980486 193.184662
1.800000 -4.200000 4.160000 8.327075 17.290552 368.303375
1.800000 -4.200000 4.200000 -4.635756 24.113232 602.938171
1.800000 -4.160000 3.800000 -33.348377 -11.169498 1236.871948
1.800000 -4.160000 3.840000 -24.793137 -16.263504 879.201172
1.800000 -4.160000 3.880000 -16.915205 -16.296253 551.692017
1.800000 -4.160000 3.920000 -12.040152 -13.696875 332.569641
1.800000 -4.160000 3.960000 -9.791240 -11.208614 221.501404
1.800000 -4.160000 4.000000 -8.238946 -9.711515 162.193756
1.800000 -4.160000 4.040000 -6.225235 -8.023077 103.123322
1.800000 -4.160000 4.080000 -4.664463 -4.811459 44.907345
1.800000 -4.160000 4.120000 -5.475678 -0.589712 30.330816
1.800000 -4.160000 4.160000 -9.269497 2.257082 91.017998
1.800000 -4.160000 4.200000 -14.177355 1.570917 203.465164
1.800000 -4.120000 3.800000 -19.471373 -18.761665 731.134399
1.800000 -4.120000 3.840000 -13.154808 -15.895063 425.702026
1.800000 -4.120000 3.880000 -11.034516 -11.627298 256.954620
1.800000 -4.120000 3.920000 -12.159887 -8.568357 221.279587
1.800000 -4.120000 3.960000 -14.845460 -7.864959 282.245239
1.800000 -4.120000 4.000000 -17.491478 -9.735296 400.727814
1.800000 -4.120000 4.040000 -18.541779 -13.756721 533.044922
1.800000 -4.120000 4.080000 -16.691303 -18.524998 621.775146
1.800000 -4.120000 4.120000 -11.855218 -21.749922 613.605286
1.800000 -4.120000 4.160000 -5.835371 -21.552843 498.576599
1.800000 -4.120000 4.200000 -1.405234 -18.048475 327.722137
1.800000 -4.080000 3.800000 -8.856432 -14.763026 296.383331
1.800000 -4.080000 3.840000 -8.967102 -9.680608 174.123077
1.800000 -4.080000 3.880000 -12.638332 -7.042943 209.330490
1.800000 -4.080000 3.920000 -17.697546 -7.777778 373.696960
1.800000 -4.080000 3.960000 -22.576881 -12.197485 658.494202
1.800000 -4.080000 4.000000 -25.120981 -20.612198 1055.926392
1.800000 -4.080000 4.040000 -22.081165 -31.585850 1485.243774
1.800000 -4.080000 4.080000 -11.519566 -40.468864 1770.429443
1.800000 -4.080000 4.120000 3.900152 -41.481762 1735.947754
1.800000 -4.080000 4.160000 17.082708 -32.530716 1350.066406
1.800000 -4.080000 4.200000 21.341763 -18.047173 781.171265
1.800000 -4.040000 3.800000 -8.006050 -8.267525 132.448807
1.800000 -4.040000 3.840000 -12.021504 -6.941675 192.703430
1.800000 -4.040000 3.880000 -16.915922 -8.955755 366.354004
1.800000 -4.040000 3.920000 -21.412292 -14.283215 662.496460
1.800000 -4.040000 3.960000 -23.935959 -23.596394 1129.719971
1.800000 -4.040000 4.000000 -20.901964 -36.507965 1769.723633
1.800000 -4.040000 4.040000 -8.655043 -48.534065 2430.465088
1.800000 -4.040000 4.080000 11.600315 -51.835472 2821.483643
1.800000 -4.040000 4.120000 31.557072 -41.191132 2692.558105
1.800000 -4.040000 4.160000 40.486877 -19.992210 2038.875732
1.800000 -4.040000 4.200000 33.838924 0.559742 1145.386108
1.800000 -4.000000 3.800000 -12.279499 -8.584596 224.481384
1.800000 -4.000000 3.840000 -14.276540 -11.476600 335.531921
1.800000 -4.000000 3.880000 -15.930642 -15.847951 504.942902
1.800000 -4.000000 3.920000 -16.972897 -22.648518 801.034546
1.800000 -4.000000 3.960000 -14.745684 -33.036430 1308.840942
1.800000 -4.000000 4.000000 -4.716353 -44.578903 2009.522583
1.800000 -4.000000 4.040000 14.503212 -49.873276 2697.687012
1.800000 -4.000000 4.080000 36.569061 -41.363102 3048.202637
1.800000 -4.000000 4.120000 49.585999 -19.169418 2826.237793
1.800000 -4.000000 4.160000 45.147968 6.277595 2077.747070
1.800000 -4.000000 4.200000 26.236376 21.031374 1130.666138
1.800000 -3.960000 3.800000 -11.790928 -15.477999 378.594421
1.800000 -3.960000 3.840000 -9.023802 -17.634735 392.412903
1.800000 -3.960000 3.880000 -7.535658 -19.624546 441.908936
1.800000 -3.960000 3.920000 -6.365599 -24.176601 625.028931
1.800000 -3.960000 3.960000 -1.181759 -31.806084 1013.023499
1.800000 -3.960000 4.000000 11.878212 -37.635082 1557.491333
1.800000 -3.960000 4.040000 30.433355 -33.711472 2062.652344
1.800000 -3.960000 4.080000 44.790672 -16.467028 2277.367432
1.800000 -3.960000 4.120000 44.666412 7.703628 2054.434326
1.800000 -3.960000 4.160000 28.597565 25.467196 1466.398682
1.800000 -3.960000 4.200000 6.688500 26.957211 771.427246
1.800000 -3.920000 3.800000 -2.756108 -19.861744 402.084991
1.800000 -3.920000 3.840000 1.325369 -16.680431 279.993378
1.800000 -3.920000 3.880000 1.594848 -14.430738 210.789749
1.800000 -3.920000 3.920000 1.289915 -16.308323 267.625275
1.800000 -3.920000 3.960000 5.623280 -20.885038 467.806091
1.800000 -3.920000 4.000000 16.348293 -21.865582 745.370361
1.800000 -3.920000 4.040000 28.254477 -13.382494 977.406555
1.800000 -3.920000 4.080000 32.209778 3.440825 1049.309082
1.800000 -3.920000 4.120000 23.222736 19.508831 919.889954
1.800000 -3.920000 4.160000 6.029982 24.622108 642.608887
1.800000 -3.920000 4.200000 -7.898897 16.495642 334.498779
1.800000 -3.880000 3.800000 7.915327 -14.176579 263.627808
1.800000 -3.880000 3.840000 7.299063 -6.812562 99.687317
1.800000 -3.880000 3.880000 2.610257 -3.653848 20.164047
1.800000 -3.880000 3.920000 -1.009205 -6.096709 38.188351
1.800000 -3.880000 3.960000 0.782200 -10.566048 112.253204
1.800000 -3.880000 4.000000 7.391286 -11.130781 178.525391
1.800000 -3.880000 4.040000 13.176291 -4.895582 197.581360
1.800000 -3.880000 4.080000 12.297859 4.777322 174.060135
1.800000 -3.880000 4.120000 4.381794 10.817850 136.225998
1.800000 -3.880000 4.160000 -4.651741 8.922160 101.243637
1.800000 -3.880000 4.200000 -7.906149 1.811864 65.790039
1.800000 -3.840000 3.800000 9.739066 -1.290532 96.514885
1.800000 -3.840000 3.840000 2.404771 3.951404 21.396515
1.800000 -3.840000 3.880000 -5.912847 2.737992 42.458355
1.800000 -3.840000 3.920000 -10.462540 -3.454915 121.401176
1.800000 -3.840000 3.960000 -9.230881 -10.228179 189.824799
1.800000 -3.840000 4.000000 -4.162633 -13.453533 198.325073
1.800000 -3.840000 4.040000 0.697815 -12.187587 149.024216
1.800000 -3.840000 4.080000 2.625137 -8.816040 84.613907
1.800000 -3.840000 4.120000 2.114170 -6.311091 44.299583
1.800000 -3.840000 4.160000 1.502958 -5.311472 30.470623
1.800000 -3.840000 4.200000 1.821405 -4.024970 19.517900
1.800000 -3.800000 3.800000 -0.054142 7.655251 58.605789
1.800000 -3.800000 3.840000 -9.436163 5.424660 118.468102
1.800000 -3.800000 3.880000 -15.659773 -1.775475 248.380798
1.800000 -3.800000 3.920000 -16.819456 -10.878529 401.236481
1.800000 -3.800000 3.960000 -13.262564 -18.846729 531.094849
1.800000 -3.800000 4.000000 -6.583817 -23.795816 609.587585
1.800000 -3.800000 4.040000 1.429191 -24.931032 623.598938
1.800000 -3.800000 4.080000 9.013994 -21.998409 565.182129
1.800000 -3.800000 4.120000 14.116264 -15.314945 433.816467
1.800000 -3.800000 4.160000 14.522572 -6.482064 252.922241
1.800000 -3.800000 4.200000 9.109458 1.144697 84.292557
1.840000 -4.200000 3.800000 -54.196217 -10.073860 3038.712646
1.840000 -4.200000 3.840000 -42.997963 -25.727362 2510.721924
1.840000 -4.200000 3.880000 -26.954533 -31.960938 1748.048340
1.840000 -4.200000 3.920000 -13.262896 -29.691051 1057.462891
1.840000 -4.200000 3.960000 -4.690218 -24.105288 603.063049
1.840000 -4.200000 4.000000 1.058588 -18.594278 346.867798
1.840000 -4.200000 4.040000 6.308281 -11.899135 181.383804
1.840000 -4.200000 4.080000 9.078444 -1.675911 85.226814
1.840000 -4.200000 4.120000 4.974736 10.100651 126.771149
1.840000 -4.200000 4.160000 -6.645079 16.875154 328.927917
1.840000 -4.200000 4.200000 -19.622198 13.601807 570.039795
1.840000 -4.160000 3.800000 -34.844498 -36.945793 2579.130615
1.840000 -4.160000 3.840000 -14.967569 -40.259529 1844.857910
1.840000 -4.160000 3.880000 1.893784 -31.351645 986.512024
1.840000 -4.160000 3.920000 8.253071 -15.771465 316.852295
1.840000 -4.160000 3.960000 3.395126 -2.842047 19.604113
1.840000 -4.160000 4.000000 -6.264992 1.303181 40.948402
1.840000 -4.160000 4.040000 -12.862434 -2.100414 169.853958
1.840000 -4.160000 4.080000 -13.414027 -6.947170 228.199310
1.840000 -4.160000 4.120000 -10.896067 -8.542259 191.694458
1.840000 -4.160000 4.160000 -9.701962 -7.305983 147.505447
1.840000 -4.160000 4.200000 -10.791797 -6.623833 160.338043
1.840000 -4.120000 3.800000 -5.157016 -41.445534 1744.327148
1.840000 -4.120000 3.840000 13.905617 -29.709501 1076.020630
1.840000 -4.120000 3.880000 20.697506 -6.816333 474.849152
1.840000 -4.120000 3.920000 8.833771 14.986801 302.639709
1.840000 -4.120000 3.960000 -15.754433 21.226561 698.769043
1.840000 -4.120000 4.000000 -36.944523 6.954262 1413.259521
1.840000 -4.120000 4.040000 -40.342190 -18.004795 1951.664917
1.840000 -4.120000 4.080000 -24.839855 -36.336052 1937.327148
1.840000 -4.120000 4.120000 -3.035316 -37.113277 1386.608521
1.840000 -4.120000 4.160000 9.957834 -23.707756 661.216125
1.840000 -4.120000 4.200000 8.733917 -8.868319 154.928375
1.840000 -4.080000 3.800000 14.366039 -25.807318 872.400757
1.840000 -4.080000 3.840000 24.020542 -3.021630 586.116699
1.840000 -4.080000 3.880000 12.739606 24.567120 765.840881
1.840000 -4.080000 3.920000 -19.689545 37.175297 1769.680908
1.840000 -4.080000 3.960000 -55.148033 20.281158 3452.631104
1.840000 -4.080000 4.000000 -68.361130 -20.214979 5081.889648
1.840000 -4.080000 4.040000 -47.624882 -59.106140 5761.665039
1.840000 -4.080000 4.080000 -6.034435 -70.931900 5067.749023
1.840000 -4.080000 4.120000 28.441872 -50.608021 3370.111816
1.840000 -4.080000 4.160000 35.794178 -16.580360 1556.131470
1.840000 -4.080000 4.200000 18.804476 6.176857 391.761871
1.840000 -4.040000 3.800000 14.669216 -6.907223 262.895630
1.840000 -4.040000 3.840000 11.203961 18.968140 485.319061
1.840000 -4.040000 3.880000 -17.394352 38.234432 1764.435303
1.840000 -4.040000 3.920000 -59.283501 28.233044 4311.638184
1.840000 -4.040000 3.960000 -84.798119 -15.654947 7435.797852
1.840000 -4.040000 4.000000 -69.706093 -69.981323 9756.325195
1.840000 -4.040000 4.040000 -18.208019 -98.619537 10057.345703
1.840000 -4.040000 4.080000 37.311497 -82.213020 8151.128418
1.840000 -4.040000 4.120000 61.815662 -34.752205 5028.891602
1.840000 -4.040000 4.160000 45.785049 8.631830 2170.779297
1.840000 -4.040000 4.200000 10.359492 21.453060 567.552856
1.840000 -4.000000 3.800000 4.093226 0.283194 16.834702
1.840000 -4.000000 3.840000 -10.587322 21.624430 579.707336
1.840000 -4.000000 3.880000 -46.700752 23.768349 2745.894531
1.840000 -4.000000 3.920000 -79.774994 -9.492805 6454.163086
1.840000 -4.000000 3.960000 -78.093971 -65.869469 10437.455078
1.840000 -4.000000 4.000000 -31.776281 -108.731033 12832.169922
1.840000 -4.000000 4.040000 34.064613 -105.965668 12389.120117
1.840000 -4.000000 4.080000 77.222412 -58.249763 9356.335938
1.840000 -4.000000 4.120000 72.834808 0.364747 5305.041992
1.840000 -4.000000 4.160000 32.920948 31.021858 2046.144531
1.840000 -4.000000 4.200000 -6.605024 21.480970 505.058441
1.840000 -3.960000 3.800000 -2.448615 -4.498803 26.234945
1.840000 -3.960000 3.840000 -22.986069 8.090716 593.819092
1.840000 -3.960000 3.880000 -54.002865 -6.132528 2953.917236
1.840000 -3.960000 3.920000 -65.821556 -49.475960 6780.347656
1.840000 -3.960000 3.960000 -37.167324 -95.689095 10537.812500
1.840000 -3.960000 4.000000 22.157551 -108.917740 12354.031250
1.840000 -3.960000 4.040000 75.252121 -74.908981 11274.237305
1.840000 -3.960000 4.080000 87.693039 -15.325180 7924.930176
1.840000 -3.960000 4.120000 56.311283 29.563385 4044.954346
1.840000 -3.960000 4.160000 10.498341 34.372906 1291.711914
1.840000 -3.960000 4.200000 -14.565063 7.617986 270.174774
1.840000 -3.920000 3.800000 1.084082 -9.899913 99.183510
1.840000 -3.920000 3.840000 -19.564182 -6.252612 421.852386
1.840000 -3.920000 3.880000 -38.019745 -28.127514 2236.657959
1.840000 -3.920000 3.920000 -30.347370 -64.690437 5105.815430
1.840000 -3.920000 3.960000 8.452099 -87.359032 7703.038574
1.840000 -3.920000 4.000000 56.376106 -73.942841 8645.808594
1.840000 -3.920000 4.040000 81.095238 -29.422874 7442.143066
1.840000 -3.920000 4.080000 67.271866 16.788158 4807.346191
1.840000 -3.920000 4.120000 29.316936 35.443424 2115.719238
1.840000 -3.920000 4.160000 -2.109213 21.412098 462.926727
1.840000 -3.920000 4.200000 -6.809162 -4.703382 68.486496
1.840000 -3.880000 3.800000 7.664801 -7.049347 108.442467
1.840000 -3.880000 3.840000 -9.064092 -9.772402 177.657593
1.840000 -3.880000 3.880000 -16.017061 -29.545528 1129.484497
1.840000 -3.880000 3.920000 -1.304781 -51.036995 2606.477295
1.840000 -3.880000 3.960000 28.886395 -54.647243 3820.745117
1.840000 -3.880000 4.000000 54.226303 -33.838314 4085.523438
1.840000 -3.880000 4.040000 57.293106 -1.431618 3284.549561
1.840000 -3.880000 4.080000 38.252934 21.245329 1914.650879
1.840000 -3.880000 4.120000 13.819204 22.446198 694.802185
1.840000 -3.880000 4.160000 1.895308 8.753742 80.220200
1.840000 -3.880000 4.200000 6.490941 -2.850759 50.259140
1.840000 -3.840000 3.800000 7.291947 1.011572 54.195774
1.840000 -3.840000 3.840000 -3.858687 -4.485161 35.006134
1.840000 -3.840000 3.880000 -5.635517 -17.563578 340.238312
1.840000 -3.840000 3.920000 4.371553 -27.895836 797.288147
1.840000 -3.840000 3.960000 19.607540 -27.509167 1141.209961
1.840000 -3.840000 4.000000 30.279114 -16.701614 1195.768555
1.840000 -3.840000 4.040000 31.109957 -2.785288 975.587219
1.840000 -3.840000 4.080000 24.463861 6.619229 642.294739
1.840000 -3.840000 4.120000 16.775101 9.411263 369.975861
1.840000 -3.840000 4.160000 12.278167 9.130583 234.120911
1.840000 -3.840000 4.200000 9.908973 10.111587 200.431931
1.840000 -3.800000 3.800000 -0.862486 4.061348 17.238428
1.840000 -3.800000 3.840000 -6.818854 -0.891359 47.291294
1.840000 -3.800000 3.880000 -8.932512 -8.579250 153.393311
1.840000 -3.800000 3.920000 -6.391573 -16.911583 326.853851
1.840000 -3.800000 3.960000 1.157054 -23.433538 550.469482
1.840000 -3.800000 4.000000 12.660885 -24.876249 779.125732
1.840000 -3.800000 4.040000 24.329441 -18.576979 937.025818
1.840000 -3.800000 4.080000 30.454542 -5.248684 955.027832
1.840000 -3.800000 4.120000 26.877062 9.901991 820.425903
1.840000 -3.800000 4.160000 14.444751 19.682383 596.046997
1.840000 -3.800000 4.200000 -0.947686 19.540815 382.741577
1.880000 -4.200000 3.800000 -56.687248 -41.080532 4901.054199
1.880000 -4.200000 3.840000 -34.701099 -53.203541 4034.782959
1.880000 -4.200000 3.880000 -12.173056 -51.113503 2760.773438
1.880000 -4.200000 3.920000 2.374714 -39.728584 1583.999634
1.880000 -4.200000 3.960000 7.804482 -27.168697 799.048035
1.880000 -4.200000 4.000000 8.464592 -17.465248 376.684204
1.880000 -4.200000 4.040000 7.548189 -9.319931 143.836273
1.880000 -4.200000 4.080000 3.867476 -1.230831 16.472321
1.880000 -4.200000 4.120000 -4.445086 4.138212 36.883583
1.880000 -4.200000 4.160000 -14.566798 2.339255 217.663727
1.880000 -4.200000 4.200000 -19.532667 -6.403342 422.527863
1.880000 -4.160000 3.800000 -15.418659 -62.789394 4180.243164
1.880000 -4.160000 3.840000 13.744717 -53.652542 3067.512451
1.880000 -4.160000 3.880000 29.925840 -27.546303 1654.354736
1.880000 -4.160000 3.920000 24.034527 0.840806 578.365479
1.880000 -4.160000 3.960000 2.061474 14.618996 217.964706
1.880000 -4.160000 4.000000 -19.259426 8.181618 437.864380
1.880000 -4.160000 4.040000 -26.202930 -9.094238 769.298706
1.880000 -4.160000 4.080000 -18.323107 -22.219227 829.430298
1.880000 -4.160000 4.120000 -6.070660 -23.476952 588.020142
1.880000 -4.160000 4.160000 0.459396 -16.630560 276.786591
1.880000 -4.160000 4.200000 -0.271867 -10.040080 100.877121
1.880000 -4.120000 3.800000 26.285065 -48.826946 3074.975342
1.880000 -4.120000 3.840000 47.403347 -15.755138 2495.301758
1.880000 -4.120000 3.880000 38.017902 27.922619 2225.033691
1.880000 -4.120000 3.920000 -3.309330 53.273563 2849.024170
1.880000 -4.120000 3.960000 -51.933647 39.509056 4258.069336
1.880000 -4.120000 4.000000 -74.411598 -5.945023 5572.429199
1.880000 -4.120000 4.040000 -56.184784 -51.307442 5789.183594
1.880000 -4.120000 4.080000 -13.695984 -66.393143 4595.629395
1.880000 -4.120000 4.120000 20.714489 -46.849434 2623.959473
1.880000 -4.120000 4.160000 26.564407 -14.469703 915.040039
1.880000 -4.120000 4.200000 9.430566 4.886186 112.810387
1.880000 -4.080000 3.800000 42.280937 -13.230505 1962.723877
1.880000 -4.080000 3.840000 40.381603 35.106979 2863.173828
1.880000 -4.080000 3.880000 -5.105684 74.306656 5547.546875
1.880000 -4.080000 3.920000 -74.809265 66.670448 10041.375000
1.880000 -4.080000 3.960000 -121.303253 4.740864 14736.955078
1.880000 -4.080000 4.000000 -107.417686 -75.046143 17170.482422
1.880000 -4.080000 4.040000 -40.373516 -118.938683 15776.430664
1.880000 -4.080000 4.080000 32.237034 -100.519302 11143.356445
1.880000 -4.080000 4.120000 62.488441 -41.781876 5650.530273
1.880000 -4.080000 4.160000 40.918915 8.841603 1752.531494
1.880000 -4.080000 4.200000 -1.361877 19.279205 373.542450
1.880000 -4.040000 3.800000 28.721922 16.336071 1091.816040
1.880000 -4.040000 3.840000 -2.190340 62.140884 3866.287109
1.880000 -4.040000 3.880000 -73.901840 71.026360 10506.225586
1.880000 -4.040000 3.920000 -140.609955 14.218910 19973.337891
1.880000 -4.040000 3.960000 -145.727081 -84.828011 28432.173828
1.880000 -4.040000 4.000000 -73.594749 -161.362259 31453.966797
1.880000 -4.040000 4.040000 31.030331 -161.938171 27186.851562
1.880000 -4.040000 4.080000 97.973495 -90.810211 17845.300781
1.880000 -4.040000 4.120000 90.259468 -5.549875 8177.572754
1.880000 -4.040000 4.160000 31.695545 34.005707 2160.995605
1.880000 -4.040000 4.200000 -20.502033 14.661581 635.295349
1.880000 -4.000000 3.800000 4.055849 22.578814 526.252747
1.880000 -4.000000 3.840000 -47.900383 47.871994 4586.174805
1.880000 -4.000000 3.880000 -118.420403 15.270210 14256.571289
1.880000 -4.000000 3.920000 -146.762421 -76.490982 27390.078125
1.880000 -4.000000 3.960000 -92.750107 -172.181976 38249.214844
1.880000 -4.000000 4.000000 20.465508 -201.535065 41035.218750
1.880000 -4.000000 4.040000 119.417252 -140.729050 34065.144531
1.880000 -4.000000 4.080000 141.001740 -35.224545 21122.257812
1.880000 -4.000000 4.120000 84.916870 39.359268 8760.027344
1.880000 -4.000000 4.160000 9.014179 41.575371 1809.766846
1.880000 -4.000000 4.200000 -25.606977 -6.423397 696.977295
1.880000 -3.960000 3.800000 -10.193623 10.452460 213.163879
1.880000 -3.960000 3.840000 -64.906281 7.663017 4271.546875
1.880000 -3.960000 3.880000 -107.050407 -53.599659 14332.712891
1.880000 -3.960000 3.920000 -84.478584 -143.459381 27717.224609
1.880000 -3.960000 3.960000 8.309996 -195.362610 38235.605469
1.880000 -3.960000 4.000000 116.530579 -162.998047 40147.738281
1.880000 -3.960000 4.040000 167.929230 -64.119034 32311.476562
1.880000 -3.960000 4.080000 134.268906 32.337921 19073.878906
1.880000 -3.960000 4.120000 53.676964 65.184402 7130.222656
1.880000 -3.960000 4.160000 -6.348099 30.641619 979.207153
1.880000 -3.960000 4.200000 -8.425175 -22.291119 567.877563
1.880000 -3.920000 3.800000 -7.976462 -2.415588 69.459015
1.880000 -3.920000 3.840000 -47.769203 -26.062115 2961.130615
1.880000 -3.920000 3.880000 -53.249794 -88.204369 10615.550781
1.880000 -3.920000 3.920000 0.846539 -143.853088 20694.427734
1.880000 -3.920000 3.960000 89.574219 -142.425598 28308.591797
1.880000 -3.920000 4.000000 153.912018 -74.455261 29232.496094
1.880000 -3.920000 4.040000 150.549896 16.702068 22944.230469
1.880000 -3.920000 4.080000 89.103447 71.103653 12995.154297
1.880000 -3.920000 4.120000 21.665583 62.835941 4417.752930
1.880000 -3.920000 4.160000 -4.343960 17.924166 340.145721
1.880000 -3.920000 4.200000 15.268953 -14.784516 451.722839
1.880000 -3.880000 3.800000 0.502995 -4.644172 21.821335
1.880000 -3.880000 3.840000 -17.815107 -32.789524 1392.530884
1.880000 -3.880000 3.880000 -0.911285 -73.399918 5388.378418
1.880000 -3.880000 3.920000 50.482491 -89.808517 10614.051758
1.880000 -3.880000 3.960000 103.819321 -60.452881 14433.001953
1.880000 -3.880000 4.000000 121.379044 0.198830 14732.911133
1.880000 -3.880000 4.040000 92.744308 53.034813 11414.198242
1.880000 -3.880000 4.080000 42.715321 67.698318 6407.661133
1.880000 -3.880000 4.120000 7.932915 46.720871 2245.770996
1.880000 -3.880000 4.160000 5.247308 18.970842 387.427094
1.880000 -3.880000 4.200000 21.121239 10.984715 566.770691
1.880000 -3.840000 3.800000 3.388516 0.255743 11.547448
1.880000 -3.840000 3.840000 -0.156538 -18.359806 337.106995
1.880000 -3.840000 3.880000 16.162136 -34.634155 1460.739258
1.880000 -3.840000 3.920000 43.093880 -32.664330 2924.041016
1.880000 -3.840000 3.960000 62.367886 -10.545807 4000.967285
1.880000 -3.840000 4.000000 61.920582 18.682289 4183.186523
1.880000 -3.840000 4.040000 44.649128 38.742771 3494.546875
1.880000 -3.840000 4.080000 23.703007 43.020790 2412.620850
1.880000 -3.840000 4.120000 10.143466 37.331123 1496.502686
1.880000 -3.840000 4.160000 4.864100 31.770596 1033.030151
1.880000 -3.840000 4.200000 1.144121 30.766035 947.857910
1.880000 -3.800000 3.800000 -0.107538 2.112507 4.474249
1.880000 -3.800000 3.840000 -1.490534 -3.526937 14.660979
1.880000 -3.800000 3.880000 0.848934 -9.134991 84.168739
1.880000 -3.800000 3.920000 6.862286 -13.522583 229.951202
1.880000 -3.800000 3.960000 16.819027 -14.285797 486.963684
1.880000 -3.800000 4.000000 28.385895 -7.576616 863.164124
1.880000 -3.800000 4.040000 35.074944 8.052238 1295.090210
1.880000 -3.800000 4.080000 29.895046 27.582813 1654.525391
1.880000 -3.800000 4.120000 11.878485 40.864975 1811.044556
1.880000 -3.800000 4.160000 -11.192631 39.787025 1708.282471
1.880000 -3.800000 4.200000 -27.725666 25.025719 1394.999268
1.920000 -4.200000 3.800000 -34.934845 -72.725677 6509.467285
1.920000 -4.200000 3.840000 -5.074258 -73.102142 5369.671387
1.920000 -4.200000 3.880000 17.093473 -57.595016 3609.372803
1.920000 -4.200000 3.920000 24.603737 -36.731659 1954.558594
1.920000 -4.200000 3.960000 20.815350 -20.882002 869.336792
1.920000 -4.200000 4.000000 13.709236 -12.836533 352.719727
1.920000 -4.200000 4.040000 7.772526 -9.234928 145.696060
1.920000 -4.200000 4.080000 2.334143 -7.383690 59.967098
1.920000 -4.200000 4.120000 -3.385967 -8.455618 82.962250
1.920000 -4.200000 4.160000 -6.335403 -13.629668 225.905182
1.920000 -4.200000 4.200000 -2.716538 -19.171518 374.926697
1.920000 -4.160000 3.800000 21.580235 -71.116364 5523.243652
1.920000 -4.160000 3.840000 48.803196 -42.778652 4211.765137
1.920000 -4.160000 3.880000 49.291153 -2.058262 2433.854004
1.920000 -4.160000 3.920000 21.293655 26.157928 1137.656982
1.920000 -4.160000 3.960000 -15.700272 24.604958 851.902466
1.920000 -4.160000 4.000000 -36.256767 -1.680779 1317.378296
1.920000 -4.160000 4.040000 -29.665264 -30.362850 1801.930542
1.920000 -4.160000 4.080000 -6.660561 -41.383015 1756.916992
1.920000 -4.160000 4.120000 12.841963 -32.155045 1198.862915
1.920000 -4.160000 4.160000 17.466885 -15.276323 538.458130
1.920000 -4.160000 4.200000 10.572959 -3.910079 127.076180
1.920000 -4.120000 3.800000 57.882812 -30.283945 4267.537109
1.920000 -4.120000 3.840000 61.459087 23.188105 4314.907715
1.920000 -4.120000 3.880000 19.113235 69.347725 5174.422852
1.920000 -4.120000 3.920000 -50.047604 69.801865 7377.062988
1.920000 -4.120000 3.960000 -99.507866 16.520584 10174.745117
1.920000 -4.120000 4.000000 -93.245552 -56.158085 11848.463867
1.920000 -4.120000 4.040000 -37.435669 -98.142776 11033.434570
1.920000 -4.120000 4.080000 24.915329 -85.250626 7888.442383
1.920000 -4.120000 4.120000 51.512867 -36.933628 4017.668457
1.920000 -4.120000 4.160000 34.548130 5.106398 1219.648560
1.920000 -4.120000 4.200000 0.428114 14.503920 210.546967
1.920000 -4.080000 3.800000 52.817394 19.680145 3176.985352
1.920000 -4.080000 3.840000 17.036060 78.376266 6433.066895
1.920000 -4.080000 3.880000 -67.785812 94.315491 13490.328125
1.920000 -4.080000 3.920000 -148.735794 34.031639 23280.488281
1.920000 -4.080000 3.960000 -161.115845 -76.028091 31738.585938
1.920000 -4.080000 4.000000 -86.998154 -163.155396 34188.363281
1.920000 -4.080000 4.040000 24.176823 -168.063110 28829.728516
1.920000 -4.080000 4.080000 95.865463 -95.552826 18320.531250
1.920000 -4.080000 4.120000 88.784012 -7.816729 7943.701660
1.920000 -4.080000 4.160000 29.060102 32.115688 1875.906982
1.920000 -4.080000 4.200000 -23.293064 11.821991 682.326294
1.920000 -4.040000 3.800000 17.178684 45.406567 2356.863525
1.920000 -4.040000 3.840000 -55.287678 80.674332 9565.075195
1.920000 -4.040000 3.880000 -151.938690 39.033810 24609.003906
1.920000 -4.040000 3.920000 -193.513336 -80.515556 43930.164062
1.920000 -4.040000 3.960000 -128.332626 -206.014984 58911.437500
1.920000 -4.040000 4.000000 13.276421 -247.203705 61285.933594
1.920000 -4.040000 4.040000 137.375717 -174.414734 49292.585938
1.920000 -4.040000 4.080000 164.858887 -45.945702 29289.460938
1.920000 -4.040000 4.120000 96.843575 43.548336 11275.134766
1.920000 -4.040000 4.160000 6.187180 44.291527 2000.020630
1.920000 -4.040000 4.200000 -32.930946 -14.261809 1287.846436
1.920000 -4.000000 3.800000 -18.411686 36.655323 1682.602783
1.920000 -4.000000 3.840000 -103.701797 28.543240 11568.779297
1.920000 -4.000000 3.880000 -167.786667 -65.911758 32496.724609
1.920000 -4.000000 3.920000 -134.991714 -201.193771 58701.695312
1.920000 -4.000000 3.960000 0.903557 -279.242737 77977.328125
1.920000 -4.000000 4.000000 158.216644 -233.555786 79580.812500
1.920000 -4.000000 4.040000 231.799011 -92.142548 62221.031250
1.920000 -4.000000 4.080000 182.776062 43.788658 35324.535156
1.920000 -4.000000 4.120000 68.641899 87.160454 12308.655273
1.920000 -4.000000 4.160000 -13.363216 35.629707 1448.051636
1.920000 -4.000000 4.200000 -12.549574 -38.721004 1656.807983
1.920000 -3.960000 3.800000 -30.713749 10.264729 1048.698975
1.920000 -3.960000 3.840000 -96.958519 -37.948830 10841.067383
1.920000 -3.960000 3.880000 -101.693695 -147.840363 32198.380859
1.920000 -3.960000 3.920000 -5.303602 -242.225616 58701.378906
1.920000 -3.960000 3.960000 146.762802 -236.836487 77630.843750
1.920000 -3.960000 4.000000 253.272491 -119.142303 78341.843750
1.920000 -3.960000 4.040000 242.896545 34.016727 60155.867188
1.920000 -3.960000 4.080000 136.058029 120.706734 33081.902344
1.920000 -3.960000 4.120000 23.722481 100.310959 10625.043945
1.920000 -3.960000 4.160000 -15.096794 20.974907 667.859924
1.920000 -3.960000 4.200000 22.611284 -33.674290 1645.227905
1.920000 -3.920000 3.800000 -20.398453 -9.158937 499.983002
1.920000 -3.920000 3.840000 -48.524506 -72.462685 7605.468750
1.920000 -3.920000 3.880000 -4.212128 -153.998398 23733.248047
1.920000 -3.920000 3.920000 106.568695 -179.928772 43731.250000
1.920000 -3.920000 3.960000 213.766251 -110.030518 57802.726562
1.920000 -3.920000 4.000000 240.047897 19.994514 58022.773438
1.920000 -3.920000 4.040000 168.896179 125.031105 44158.695312
1.920000 -3.920000 4.080000 58.718105 143.107697 23927.628906
1.920000 -3.920000 4.120000 -10.431192 85.585541 7433.694336
1.920000 -3.920000 4.160000 -5.667604 19.274467 403.626831
1.920000 -3.920000 4.200000 38.724174 1.641289 1502.255493
1.920000 -3.880000 3.800000 -4.886640 -11.121817 147.574066
1.920000 -3.880000 3.840000 -0.345573 -60.551678 3666.625000
1.920000 -3.880000 3.880000 55.705070 -94.771332 12084.660156
1.920000 -3.880000 3.920000 132.158859 -71.489197 22576.669922
1.920000 -3.880000 3.960000 172.954865 7.690170 29972.523438
1.920000 -3.880000 4.000000 145.761810 94.615814 30198.658203
1.920000 -3.880000 4.040000 70.612404 134.959167 23200.087891
1.920000 -3.880000 4.080000 1.217644 113.848450 12962.952148
1.920000 -3.880000 4.120000 -22.437492 64.208847 4626.216797
1.920000 -3.880000 4.160000 -4.950113 32.514877 1081.720947
1.920000 -3.880000 4.200000 16.774664 37.126080 1659.735107
1.920000 -3.840000 3.800000 1.624668 -3.431368 14.413832
1.920000 -3.840000 3.840000 15.970802 -25.873238 924.490967
1.920000 -3.840000 3.880000 49.963360 -28.007248 3280.743408
1.920000 -3.840000 3.920000 79.165924 0.058418 6267.247070
1.920000 -3.840000 3.960000 80.978683 44.056568 8498.528320
1.920000 -3.840000 4.000000 53.450890 77.916405 8927.963867
1.920000 -3.840000 4.040000 15.063301 85.507919 7538.507324
1.920000 -3.840000 4.080000 -12.757263 71.542542 5281.083008
1.920000 -3.840000 4.120000 -22.770926 53.222023 3351.098877
1.920000 -3.840000 4.160000 -23.585480 43.025299 2407.451172
1.920000 -3.840000 4.200000 -27.142002 39.620720 2306.489746
1.920000 -3.800000 3.800000 -0.295218 1.385803 2.007605
1.920000 -3.800000 3.840000 2.883078 -2.350500 13.836987
1.920000 -3.800000 3.880000 7.999771 -2.992050 72.948700
1.920000 -3.800000 3.920000 14.030136 -0.823700 197.523209
1.920000 -3.800000 3.960000 20.736420 5.627831 461.671600
1.920000 -3.800000 4.000000 24.700798 18.821518 964.378906
1.920000 -3.800000 4.040000 19.112923 36.967922 1731.931152
1.920000 -3.800000 4.080000 -0.086351 51.201962 2621.648438
1.920000 -3.800000 4.120000 -27.581841 50.690018 3330.235840
1.920000 -3.800000 4.160000 -50.009499 32.278824 3542.872559
1.920000 -3.800000 4.200000 -55.845558 4.854816 3142.295654
1.960000 -4.200000 3.800000 7.468281 -84.200684 7145.530273
1.960000 -4.200000 3.840000 35.908810 -68.190552 5939.393555
1.960000 -4.200000 3.880000 47.538895 -40.865997 3929.976318
1.960000 -4.200000 3.920000 41.311981 -17.252649 2004.333740
1.960000 -4.200000 3.960000 27.106590 -6.315422 774.651794
1.960000 -4.200000 4.000000 15.604912 -6.104492 280.778107
1.960000 -4.200000 4.040000 10.251860 -9.496193 195.278305
1.960000 -4.200000 4.080000 8.574944 -12.327906 225.506927
1.960000 -4.200000 4.120000 8.707375 -14.830256 295.754852
1.960000 -4.200000 4.160000 11.812638 -16.702435 418.509735
1.960000 -4.200000 4.200000 17.777412 -14.263360 519.479797
1.960000 -4.160000 3.800000 58.392376 -51.390545 6050.657715
1.960000 -4.160000 3.840000 69.316727 -8.129240 4870.893066
1.960000 -4.160000 3.880000 45.195034 32.377373 3090.885254
1.960000 -4.160000 3.920000 -0.670952 42.537407 1809.881226
1.960000 -4.160000 3.960000 -36.963203 16.284264 1631.455688
1.960000 -4.160000 4.000000 -40.124969 -24.970230 2233.525635
1.960000 -4.160000 4.040000 -13.179695 -50.835857 2757.988770
1.960000 -4.160000 4.080000 19.602074 -46.949898 2588.534180
1.960000 -4.160000 4.120000 35.253021 -23.278059 1784.643555
1.960000 -4.160000 4.160000 29.352512 -0.619685 861.954041
1.960000 -4.160000 4.200000 13.581902 8.566837 257.858765
1.960000 -4.120000 3.800000 68.879822 7.186197 4796.071289
1.960000 -4.120000 3.840000 41.715477 63.243553 5739.928223
1.960000 -4.120000 3.880000 -29.112232 84.315399 7956.608398
1.960000 -4.120000 3.920000 -99.690826 41.795578 11685.130859
1.960000 -4.120000 3.960000 -116.703033 -43.564514 15517.464844
1.960000 -4.120000 4.000000 -64.756805 -113.799789 17143.835938
1.960000 -4.120000 4.040000 18.198112 -121.753281 15155.032227
1.960000 -4.120000 4.080000 73.314987 -70.157150 10297.113281
1.960000 -4.120000 4.120000 70.318085 -5.330948 4973.051758
1.960000 -4.120000 4.160000 27.710030 26.072916 1447.642700
1.960000 -4.120000 4.200000 -11.664078 14.429710 344.267242
1.960000 -4.080000 3.800000 34.913704 51.597717 3881.291016
1.960000 -4.080000 3.840000 -36.365990 90.279510 9472.875000
1.960000 -4.080000 3.880000 -132.602859 54.752148 20581.314453
1.960000 -4.080000 3.920000 -177.941956 -56.627769 34870.042969
1.960000 -4.080000 3.960000 -122.656982 -176.152557 46074.457031
1.960000 -4.080000 4.000000 5.716614 -218.773087 47894.343750
1.960000 -4.080000 4.040000 120.127426 -155.990387 38763.597656
1.960000 -4.080000 4.080000 147.248077 -40.817215 23348.041016
1.960000 -4.080000 4.120000 87.423103 40.449406 9278.953125
1.960000 -4.080000 4.160000 6.086950 42.466621 1840.464844
1.960000 -4.080000 4.200000 -30.485441 -8.864280 1007.937561
1.960000 -4.040000 3.800000 -15.233585 55.426430 3304.151123
1.960000 -4.040000 3.840000 -110.935394 47.167255 14531.412109
1.960000 -4.040000 3.880000 -183.866119 -55.206261 36854.480469
1.960000 -4.040000 3.920000 -152.156067 -202.728851 64250.457031
1.960000 -4.040000 3.960000 -8.731529 -289.755127 84034.273438
1.960000 -4.040000 4.000000 158.947632 -244.538681 85063.515625
1.960000 -4.040000 4.040000 238.336716 -96.688271 66153.015625
1.960000 -4.040000 4.080000 187.829926 46.112106 37406.410156
1.960000 -4.040000 4.120000 68.317322 91.547241 13048.154297
1.960000 -4.040000 4.160000 -17.663994 37.266754 1700.827637
1.960000 -4.040000 4.200000 -17.212105 -41.005550 1977.711792
1.960000 -4.000000 3.800000 -46.027531 24.970879 2742.078613
1.960000 -4.000000 3.840000 -127.959343 -37.243347 17760.660156
1.960000 -4.000000 3.880000 -133.762955 -174.042725 48183.398438
1.960000 -4.000000 3.920000 -15.647099 -291.091980 84979.367188
1.960000 -4.000000 3.960000 170.322571 -285.609985 110582.843750
1.960000 -4.000000 4.000000 300.109222 -142.841675 110469.289062
1.960000 -4.000000 4.040000 286.851837 42.626862 84101.023438
1.960000 -4.000000 4.080000 156.356522 146.143982 45805.421875
1.960000 -4.000000 4.120000 20.311317 118.873566 14543.474609
1.960000 -4.000000 4.160000 -25.260170 20.543510 1060.112061
1.960000 -4.000000 4.200000 22.232149 -46.803204 2684.808350
1.960000 -3.960000 3.800000 -43.094086 -10.543957 1968.275269
1.960000 -3.960000 3.840000 -78.802834 -102.822159 16782.283203
1.960000 -3.960000 3.880000 -12.701908 -217.748322 47575.671875
1.960000 -3.960000 3.920000 145.379028 -252.187775 84733.734375
1.960000 -3.960000 3.960000 295.705048 -150.859985 110200.210938
1.960000 -3.960000 4.000000 329.145325 33.764881 109476.718750
1.960000 -3.960000 4.040000 224.112091 179.623962 82491.000000
1.960000 -3.960000 4.080000 66.102318 199.179932 44042.160156
1.960000 -3.960000 4.120000 -29.658375 111.007843 13202.360352
1.960000 -3.960000 4.160000 -17.383478 12.827465 466.729156
1.960000 -3.960000 4.200000 51.549141 -12.806561 2821.322021
1.960000 -3.920000 3.800000 -20.012426 -26.165710 1085.141602
1.960000 -3.920000 3.840000 -5.371435 -108.949478 11898.841797
1.960000 -3.920000 3.880000 93.782166 -162.258545 35122.929688
1.960000 -3.920000 3.920000 223.185486 -116.169815 63307.187500
1.960000 -3.920000 3.960000 286.530457 23.702446 82661.507812
1.960000 -3.920000 4.000000 230.004593 171.244095 82226.656250
1.960000 -3.920000 4.040000 92.707092 231.096573 62000.230469
1.960000 -3.920000 4.080000 -27.193802 180.072845 33165.734375
1.960000 -3.920000 4.120000 -58.514542 81.599449 10082.421875
1.960000 -3.920000 4.160000 -13.000557 22.298429 666.234436
1.960000 -3.920000 4.200000 38.310085 34.999722 2692.643066
1.960000 -3.880000 3.800000 -0.585842 -19.683853 387.797272
1.960000 -3.880000 3.840000 38.987450 -65.554184 5817.372070
1.960000 -3.880000 3.880000 119.365509 -61.275425 18002.802734
1.960000 -3.880000 3.920000 181.140289 14.398438 33019.121094
1.960000 -3.880000 3.960000 169.375290 122.112213 43599.382812
1.960000 -3.880000 4.000000 84.196693 191.931335 43926.718750
1.960000 -3.880000 4.040000 -17.787712 183.144699 33858.382812
1.960000 -3.880000 4.080000 -73.168373 117.168243 19082.007812
1.960000 -3.880000 4.120000 -64.671898 53.512695 7046.063477
1.960000 -3.880000 4.160000 -28.276619 34.570080 1994.657715
1.960000 -3.880000 4.200000 -12.265162 52.973515 2956.627441
1.960000 -3.840000 3.800000 3.464512 -6.540525 54.781315
1.960000 -3.840000 3.840000 34.501312 -17.302937 1489.732178
1.960000 -3.840000 3.880000 70.155685 6.222733 4960.542480
1.960000 -3.840000 3.920000 78.876205 56.446175 9407.625977
1.960000 -3.840000 3.960000 48.228058 102.557159 12843.916016
1.960000 -3.840000 4.000000 -4.591217 116.721710 13645.037109
1.960000 -3.840000 4.040000 -48.877018 96.314430 11665.432617
1.960000 -3.840000 4.080000 -66.483902 62.171486 8285.403320
1.960000 -3.840000 4.120000 -63.158302 37.104965 5365.749512
1.960000 -3.840000 4.160000 -57.086082 27.001833 3987.919922
1.960000 -3.840000 4.200000 -59.104374 21.236038 3944.296143
1.960000 -3.800000 3.800000 -1.694020 -0.617388 3.250872
1.960000 -3.800000 3.840000 4.417736 0.117226 19.530134
1.960000 -3.800000 3.880000 8.380714 5.741173 103.197433
1.960000 -3.800000 3.920000 9.139435 13.324043 261.059387
1.960000 -3.800000 3.960000 7.217957 22.555191 560.835510
1.960000 -3.800000 4.000000 0.165573 34.082390 1161.636719
1.960000 -3.800000 4.040000 -16.379620 44.015305 2205.638916
1.960000 -3.800000 4.080000 -41.710987 43.212505 3607.126953
1.960000 -3.800000 4.120000 -65.708755 24.894657 4937.384766
1.960000 -3.800000 4.160000 -74.526596 -6.577988 5597.483398
1.960000 -3.800000 4.200000 -62.444351 -36.344463 5220.216797
2.000000 -4.200000 3.800000 49.418076 -63.284554 6447.081055
2.000000 -4.200000 3.840000 65.247948 -34.570839 5452.437988
2.000000 -4.200000 3.880000 59.638657 -5.066255 3582.436279
2.000000 -4.200000 3.920000 40.232365 10.574146 1730.455811
2.000000 -4.200000 3.960000 21.658983 9.768715 564.539307
2.000000 -4.200000 4.000000 13.023039 0.968460 170.537460
2.000000 -4.200000 4.040000 13.273911 -6.367741 216.744827
2.000000 -4.200000 4.080000 16.829468 -9.072069 365.533417
2.000000 -4.200000 4.120000 20.680561 -8.521004 500.293121
2.000000 -4.200000 4.160000 24.639088 -4.957972 631.666138
2.000000 -4.200000 4.200000 26.557167 3.202981 715.542236
2.000000 -4.160000 3.800000 73.299210 -10.799059 5489.393555
2.000000 -4.160000 3.840000 60.777809 32.800625 4769.823242
2.000000 -4.160000 3.880000 17.692451 55.326218 3374.013184
2.000000 -4.160000 3.920000 -28.512705 38.522911 2296.989014
2.000000 -4.160000 3.960000 -45.788456 -5.786018 2130.060791
2.000000 -4.160000 4.000000 -24.699188 -44.939938 2629.647949
2.000000 -4.160000 4.040000 14.945892 -53.098721 3042.853760
2.000000 -4.160000 4.080000 43.133621 -30.863949 2813.092529
2.000000 -4.160000 4.120000 44.609062 -0.023014 1989.968872
2.000000 -4.160000 4.160000 26.740683 18.164623 1045.017578
2.000000 -4.160000 4.200000 6.754077 18.609650 391.936615
2.000000 -4.120000 3.800000 51.122002 41.980007 4375.780273
2.000000 -4.120000 3.840000 -1.240101 77.590263 6021.787109
2.000000 -4.120000 3.880000 -74.781250 58.718605 9040.109375
2.000000 -4.120000 3.920000 -114.164215 -16.899414 13319.057617
2.000000 -4.120000 3.960000 -82.830360 -101.652519 17194.103516
2.000000 -4.120000 4.000000 1.261566 -135.583496 18384.476562
2.000000 -4.120000 4.040000 78.798401 -97.808128 15775.617188
2.000000 -4.120000 4.080000 99.600204 -22.906509 10444.909180
2.000000 -4.120000 4.120000 62.522079 32.144016 4942.248047
2.000000 -4.120000 4.160000 9.012112 36.899902 1442.820923
2.000000 -4.120000 4.200000 -18.736217 6.271488 390.377411
2.000000 -4.080000 3.800000 -0.192244 60.215775 3625.976318
2.000000 -4.080000 3.840000 -82.606636 57.540424 10134.756836
2.000000 -4.080000 3.880000 -148.253815 -24.516586 22580.255859
2.000000 -4.080000 3.920000 -128.438828 -146.552780 37974.250000
2.000000 -4.080000 3.960000 -15.762779 -221.722321 49409.253906
2.000000 -4.080000 4.000000 119.428719 -190.207581 50442.140625
2.000000 -4.080000 4.040000 185.600449 -74.426155 39986.781250
2.000000 -4.080000 4.080000 147.888351 39.673271 23444.933594
2.000000 -4.080000 4.120000 53.574932 77.710236 8909.154297
2.000000 -4.080000 4.160000 -16.415403 36.384418 1593.291382
2.000000 -4.080000 4.200000 -19.593603 -25.999096 1059.862305
2.000000 -4.040000 3.800000 -43.788132 36.425350 3244.206543
2.000000 -4.040000 3.840000 -122.988609 -21.006115 15567.455078
2.000000 -4.040000 3.880000 -131.988647 -149.396240 39740.242188
2.000000 -4.040000 3.920000 -24.938736 -261.255768 68876.515625
2.000000 -4.040000 3.960000 147.098450 -260.046326 89262.046875
2.000000 -4.040000 4.000000 268.817749 -130.662491 89335.671875
2.000000 -4.040000 4.040000 258.562561 39.934414 68449.359375
2.000000 -4.040000 4.080000 139.042908 135.960114 37818.082031
2.000000 -4.040000 4.120000 13.056152 111.210541 12538.247070
2.000000 -4.040000 4.160000 -30.312143 19.798210 1310.795166
2.000000 -4.040000 4.200000 12.392748 -44.677513 2149.660400
2.000000 -4.000000 3.800000 -53.174881 -5.911079 2862.508789
2.000000 -4.000000 3.840000 -90.875374 -103.981529 19070.492188
2.000000 -4.000000 3.880000 -21.706366 -226.209305 51641.816406
2.000000 -4.000000 3.920000 144.848511 -263.992279 90673.015625
2.000000 -4.000000 3.960000 303.826050 -158.262192 117357.187500
2.000000 -4.000000 4.000000 339.345825 36.010868 116452.367188
2.000000 -4.000000 4.040000 227.948074 189.358994 87817.156250
2.000000 -4.000000 4.080000 60.235977 208.362823 47043.437500
2.000000 -4.000000 4.120000 -40.967342 112.410263 14314.390625
2.000000 -4.000000 4.160000 -26.440088 5.552483 729.908325
2.000000 -4.000000 4.200000 49.457607 -23.878899 3016.256836
2.000000 -3.960000 3.800000 -31.329809 -34.647076 2181.976807
2.000000 -3.960000 3.840000 -11.293243 -134.122330 18116.335938
2.000000 -3.960000 3.880000 109.658020 -197.398834 50991.183594
2.000000 -3.960000 3.920000 266.255737 -140.111511 90523.351562
2.000000 -3.960000 3.960000 341.350708 30.809078 117469.507812
2.000000 -3.960000 4.000000 269.240997 209.590439 116418.859375
2.000000 -3.960000 4.040000 98.735291 278.659943 87400.023438
2.000000 -3.960000 4.080000 -47.913811 209.822754 46321.324219
2.000000 -3.960000 4.120000 -81.965172 83.012497 13609.364258
2.000000 -3.960000 4.160000 -18.668354 7.385410 403.051727
2.000000 -3.960000 4.200000 51.903912 24.478962 3293.235840
2.000000 -3.920000 3.800000 -2.932346 -35.562714 1273.305176
2.000000 -3.920000 3.840000 56.694065 -98.610184 12938.185547
2.000000 -3.920000 3.880000 172.976624 -88.774673 37801.855469
2.000000 -3.920000 3.920000 259.739502 24.329689 68056.546875
2.000000 -3.920000 3.960000 236.480988 181.869980 88999.953125
2.000000 -3.920000 4.000000 104.822937 278.884552 88764.437500
2.000000 -3.920000 4.040000 -47.754852 254.704010 67154.656250
2.000000 -3.920000 4.080000 -123.339249 144.526810 36100.570312
2.000000 -3.920000 4.120000 -96.385208 43.141544 11151.300781
2.000000 -3.920000 4.160000 -26.022079 18.158669 1006.885864
2.000000 -3.920000 4.200000 8.444786 57.075844 3328.966309
2.000000 -3.880000 3.800000 10.204121 -19.412003 480.949921
2.000000 -3.880000 3.840000 71.403717 -35.683006 6371.767578
2.000000 -3.880000 3.880000 138.980713 15.120987 19544.283203
2.000000 -3.880000 3.920000 149.006836 117.374771 35979.875000
2.000000 -3.880000 3.960000 76.253502 205.061188 47864.687500
2.000000 -3.880000 4.000000 -38.742691 217.219345 48685.238281
2.000000 -3.880000 4.040000 -123.068344 151.137024 37988.218750
2.000000 -3.880000 4.080000 -134.020340 62.195164 21829.689453
2.000000 -3.880000 4.120000 -91.229103 11.938206 8465.269531
2.000000 -3.880000 4.160000 -50.381340 15.832361 2788.943115
2.000000 -3.880000 4.200000 -48.366978 39.190926 3875.292969
2.000000 -3.840000 3.800000 6.164780 -6.205334 76.510674
2.000000 -3.840000 3.840000 40.186913 3.935631 1630.477051
2.000000 -3.840000 3.880000 57.088074 47.169476 5484.007812
2.000000 -3.840000 3.920000 33.475006 97.364136 10600.351562
2.000000 -3.840000 3.960000 -22.631233 119.342010 14754.688477
2.000000 -3.840000 4.000000 -78.484802 99.019676 15964.760742
2.000000 -3.840000 4.040000 -105.096649 53.401047 13896.977539
2.000000 -3.840000 4.080000 -99.615799 12.462769 10078.627930
2.000000 -3.840000 4.120000 -81.701454 -7.432413 6730.368164
2.000000 -3.840000 4.160000 -70.966400 -12.976574 5204.621582
2.000000 -3.840000 4.200000 -69.651794 -20.446987 5269.451660
2.000000 -3.800000 3.800000 -1.681908 -5.041314 28.243662
2.000000 -3.800000 3.840000 3.975260 1.472992 17.972395
2.000000 -3.800000 3.880000 2.362015 11.230801 131.709991
2.000000 -3.800000 3.920000 -5.137741 18.607849 372.648438
2.000000 -3.800000 3.960000 -15.295586 22.742050 751.155823
2.000000 -3.800000 4.000000 -28.383606 24.488724 1405.326660
2.000000 -3.800000 4.040000 -46.152199 20.662689 2556.972168
2.000000 -3.800000 4.080000 -64.906006 4.904694 4236.845703
2.000000 -3.800000 4.120000 -73.790436 -23.974735 6019.816406
2.000000 -3.800000 4.160000 -63.158749 -55.983341 7123.162109
2.000000 -3.800000 4.200000 -35.243298 -75.366928 6922.263672
2.040000 -4.200000 3.800000 65.697021 -19.343109 4690.254395
2.040000 -4.200000 3.840000 63.331581 10.670876 4124.756836
2.040000 -4.200000 3.880000 43.143906 29.970860 2759.648926
2.040000 -4.200000 3.920000 19.502357 30.447147 1307.370728
2.040000 -4.200000 3.960000 6.068495 18.096603 364.313690
2.040000 -4.200000 4.000000 5.676483 5.212120 59.388657
2.040000 -4.200000 4.040000 11.914234 -0.726130 142.476242
2.040000 -4.200000 4.080000 17.959450 -0.226437 322.593109
2.040000 -4.200000 4.120000 21.734747 3.565363 485.111053
2.040000 -4.200000 4.160000 23.181667 9.849882 634.409912
2.040000 -4.200000 4.200000 19.931627 18.367331 734.628601
2.040000 -4.160000 3.800000 57.041779 28.074980 4041.968750
2.040000 -4.160000 3.840000 27.177954 56.447220 3924.929688
2.040000 -4.160000 3.880000 -17.447092 53.297630 3145.038574
2.040000 -4.160000 3.920000 -45.541672 17.159332 2368.486572
2.040000 -4.160000 3.960000 -37.157898 -26.703850 2093.804932
2.040000 -4.160000 4.000000 -0.877678 -47.650124 2271.304443
2.040000 -4.160000 4.040000 34.947010 -35.022018 2447.835205
2.040000 -4.160000 4.080000 47.100441 -3.964684 2234.170410
2.040000 -4.160000 4.120000 34.265335 21.233061 1624.956055
2.040000 -4.160000 4.160000 12.191158 27.735828 917.900513
2.040000 -4.160000 4.200000 -3.734123 19.647417 399.964661
2.040000 -4.120000 3.800000 16.468555 53.788326 3164.397461
2.040000 -4.120000 3.840000 -39.686691 58.277191 4971.264648
2.040000 -4.120000 3.880000 -87.867294 9.980244 7820.267090
2.040000 -4.120000 3.920000 -83.012726 -66.959908 11374.742188
2.040000 -4.120000 3.960000 -18.863419 -117.902405 14256.805664
2.040000 -4.120000 4.000000 62.203804 -104.674507 14826.066406
2.040000 -4.120000 4.040000 104.436005 -39.292549 12450.783203
2.040000 -4.120000 4.080000 85.730522 27.878105 8126.911133
2.040000 -4.120000 4.120000 32.220985 52.837143 3829.955566
2.040000 -4.120000 4.160000 -10.312744 32.134121 1138.954346
2.040000 -4.120000 4.200000 -17.198109 -3.152489 305.713104
2.040000 -4.080000 3.800000 -27.695351 41.688885 2504.995605
2.040000 -4.080000 3.840000 -89.208069 3.551283 7970.691406
2.040000 -4.080000 3.880000 -101.895966 -88.728180 18255.478516
2.040000 -4.080000 3.920000 -30.356293 -172.631027 30722.974609
2.040000 -4.080000 3.960000 90.687233 -177.510223 39734.054688
2.040000 -4.080000 4.000000 179.126068 -90.320557 40243.953125
2.040000 -4.080000 4.040000 175.482071 28.719414 31618.761719
2.040000 -4.080000 4.080000 93.767014 97.712097 18339.906250
2.040000 -4.080000 4.120000 5.004023 82.614532 6850.201172
2.040000 -4.080000 4.160000 -28.129803 19.298883 1163.732666
2.040000 -4.080000 4.200000 -1.436475 -28.217371 798.283508
2.040000 -4.040000 3.800000 -46.250603 4.282688 2157.459473
2.040000 -4.040000 3.840000 -80.215073 -73.989548 11908.911133
2.040000 -4.040000 3.880000 -28.198269 -174.787308 31345.746094
2.040000 -4.040000 3.920000 104.687408 -209.531631 54862.957031
2.040000 -4.040000 3.960000 234.386581 -128.045242 71332.656250
2.040000 -4.040000 4.000000 265.846191 27.171703 71412.500000
2.040000 -4.040000 4.040000 177.905823 151.526794 54610.851562
2.040000 -4.040000 4.080000 42.541725 167.928604 30009.814453
2.040000 -4.040000 4.120000 -40.547279 90.223999 9784.452148
2.040000 -4.040000 4.160000 -29.939983 1.699531 899.291016
2.040000 -4.040000 4.200000 32.110298 -25.560617 1684.416504
2.040000 -4.000000 3.800000 -32.212738 -29.223230 1891.657715
2.040000 -4.000000 3.840000 -15.811224 -119.248199 14470.127930
2.040000 -4.000000 3.880000 92.726288 -178.496704 40459.238281
2.040000 -4.000000 3.920000 235.675156 -128.499069 72054.789062
2.040000 -4.000000 3.960000 305.492432 26.512897 94028.562500
2.040000 -4.000000 4.000000 240.102097 190.168793 93813.187500
2.040000 -4.000000 4.040000 83.063316 253.185959 71002.640625
2.040000 -4.000000 4.080000 -52.555576 187.964722 38092.828125
2.040000 -4.000000 4.120000 -83.193581 67.885086 11529.556641
2.040000 -4.000000 4.160000 -21.692589 -4.900307 494.581421
2.040000 -4.000000 4.200000 48.294025 9.859016 2429.513184
2.040000 -3.960000 3.800000 -3.578320 -37.983303 1455.535645
2.040000 -3.960000 3.840000 57.435112 -102.265282 13756.979492
2.040000 -3.960000 3.880000 177.556122 -92.103485 40009.226562
2.040000 -3.960000 3.920000 267.569305 25.804733 72259.218750
2.040000 -3.960000 3.960000 241.948669 190.673798 94895.656250
2.040000 -3.960000 4.000000 101.352348 291.037689 94975.234375
2.040000 -3.960000 4.040000 -60.920082 261.238464 71956.796875
2.040000 -3.960000 4.080000 -138.795013 138.775131 38522.593750
2.040000 -3.960000 4.120000 -103.822083 26.949802 11505.316406
2.040000 -3.960000 4.160000 -20.537151 0.732105 422.310577
2.040000 -3.960000 4.200000 22.897976 47.375938 2768.796875
2.040000 -3.920000 3.800000 15.320745 -24.720974 845.851746
2.040000 -3.920000 3.840000 89.562576 -42.862373 9858.638672
2.040000 -3.920000 3.880000 171.517975 20.938049 29856.818359
2.040000 -3.920000 3.920000 181.333862 148.345123 54888.242188
2.040000 -3.920000 3.960000 86.420013 255.878021 72941.984375
2.040000 -3.920000 4.000000 -61.029106 264.746643 73815.335938
2.040000 -3.920000 4.040000 -165.095596 171.620743 56710.234375
2.040000 -3.920000 4.080000 -168.851883 51.089188 31121.064453
2.040000 -3.920000 4.120000 -99.547661 -12.608963 10068.722656
2.040000 -3.920000 4.160000 -35.180855 2.343864 1243.186157
2.040000 -3.920000 4.200000 -29.191109 47.113216 3071.776123
2.040000 -3.880000 3.800000 15.142107 -8.422077 300.214783
2.040000 -3.880000 3.840000 68.975410 9.813267 4853.907715
2.040000 -3.880000 3.880000 94.307793 82.017715 15620.865234
2.040000 -3.880000 3.920000 50.183205 164.523087 29586.199219
2.040000 -3.880000 3.960000 -49.649826 194.369354 40244.550781
2.040000 -3.880000 4.000000 -143.676544 145.410904 41787.281250
2.040000 -3.880000 4.040000 -174.981689 52.287415 33352.566406
2.040000 -3.880000 4.080000 -139.065002 -21.342445 19794.574219
2.040000 -3.880000 4.120000 -81.951584 -38.835083 8224.225586
2.040000 -3.880000 4.160000 -53.421440 -16.859089 3138.079102
2.040000 -3.880000 4.200000 -63.271774 -0.260441 4003.385254
2.040000 -3.840000 3.800000 5.823107 -3.964733 49.627682
2.040000 -3.840000 3.840000 26.955753 22.076244 1213.973145
2.040000 -3.840000 3.880000 16.912094 64.806366 4485.884277
2.040000 -3.840000 3.920000 -28.614197 91.106834 9119.227539
2.040000 -3.840000 3.960000 -84.240707 77.730232 13138.485352
2.040000 -3.840000 4.000000 -116.691978 31.551086 14612.488281
2.040000 -3.840000 4.040000 -112.791252 -18.324799 13057.664062
2.040000 -3.840000 4.080000 -86.871475 -47.276367 9781.708008
2.040000 -3.840000 4.120000 -62.912239 -53.825741 6855.160156
2.040000 -3.840000 4.160000 -51.686760 -53.965675 5583.815430
2.040000 -3.840000 4.200000 -45.392551 -60.736092 5749.356445
2.040000 -3.800000 3.800000 2.272953 -9.547436 96.319839
2.040000 -3.800000 3.840000 3.454124 1.349823 13.752998
2.040000 -3.800000 3.880000 -5.518845 9.934536 129.152649
2.040000 -3.800000 3.920000 -18.576118 10.490738 455.127747
2.040000 -3.800000 3.960000 -29.858238 4.739288 913.975281
2.040000 -3.800000 4.000000 -39.139587 -4.015373 1548.030518
2.040000 -3.800000 4.040000 -47.955776 -17.149548 2593.863525
2.040000 -3.800000 4.080000 -52.471329 -38.275803 4218.277344
2.040000 -3.800000 4.120000 -44.010376 -64.738144 6127.940430
2.040000 -3.800000 4.160000 -18.687214 -84.685638 7520.869141
2.040000 -3.800000 4.200000 14.831860 -85.857025 7591.412598
2.080000 -4.200000 3.800000 47.187531 20.654314 2653.263672
2.080000 -4.200000 3.840000 31.265144 39.759819 2558.352539
2.080000 -4.200000 3.880000 7.752375 42.380196 1856.180298
2.080000 -4.200000 3.920000 -8.677288 29.737497 959.614075
2.080000 -4.200000 3.960000 -11.099152 13.157524 296.311615
2.080000 -4.200000 4.000000 -3.760067 2.987622 23.063992
2.080000 -4.200000 4.040000 4.921989 1.281891 25.869225
2.080000 -4.200000 4.080000 10.480874 4.217590 127.636795
2.080000 -4.200000 4.120000 13.160352 8.813803 250.877975
2.080000 -4.200000 4.160000 13.032202 14.922774 392.527466
2.080000 -4.200000 4.200000 7.821906 21.245621 512.558594
2.080000 -4.160000 3.800000 21.303135 42.973381 2300.534912
2.080000 -4.160000 3.840000 -10.565971 50.389145 2650.705566
2.080000 -4.160000 3.880000 -39.973274 29.421795 2463.504639
2.080000 -4.160000 3.920000 -44.072483 -7.751957 2002.476685
2.080000 -4.160000 3.960000 -19.616642 -35.036034 1612.336304
2.080000 -4.160000 4.000000 14.535091 -34.960331 1433.493652
2.080000 -4.160000 4.040000 34.686478 -12.203091 1352.067139
2.080000 -4.160000 4.080000 31.659029 13.514194 1184.927612
2.080000 -4.160000 4.120000 14.507915 25.832584 877.802002
2.080000 -4.160000 4.160000 -1.694659 22.918768 528.141785
2.080000 -4.160000 4.200000 -9.207632 13.197912 258.965393
2.080000 -4.120000 3.800000 -12.189117 39.248341 1689.006836
2.080000 -4.120000 3.840000 -51.240196 21.895302 3104.961914
2.080000 -4.120000 3.880000 -64.931274 -28.708807 5040.266113
2.080000 -4.120000 3.920000 -31.606396 -78.258163 7123.304688
2.080000 -4.120000 3.960000 31.387642 -87.090958 8570.019531
2.080000 -4.120000 4.000000 80.334702 -46.406731 8607.249023
2.080000 -4.120000 4.040000 82.893799 13.478924 7053.062988
2.080000 -4.120000 4.080000 44.690186 50.445641 4541.975586
2.080000 -4.120000 4.120000 0.479803 46.238571 2138.235596
2.080000 -4.120000 4.160000 -18.749416 17.039072 641.870605
2.080000 -4.120000 4.200000 -9.780420 -7.369782 149.970322
2.080000 -4.080000 3.800000 -30.679996 13.650222 1127.590820
2.080000 -4.080000 3.840000 -57.056927 -32.442169 4307.987305
2.080000 -4.080000 3.880000 -30.970009 -96.838348 10336.807617
2.080000 -4.080000 3.920000 47.699875 -123.878357 17621.125000
2.080000 -4.080000 3.960000 128.473450 -79.785172 22871.101562
2.080000 -4.080000 4.000000 151.806168 11.965458 23188.285156
2.080000 -4.080000 4.040000 102.274277 88.148132 18230.121094
2.080000 -4.080000 4.080000 21.732084 100.574806 10587.575195
2.080000 -4.080000 4.120000 -29.695179 55.526031 3964.943848
2.080000 -4.080000 4.160000 -25.727058 1.719864 664.839478
2.080000 -4.080000 4.200000 10.238338 -17.612549 415.025452
2.080000 -4.040000 3.800000 -24.310371 -13.724253 779.349243
2.080000 -4.040000 3.840000 -18.284161 -74.831223 5934.022461
2.080000 -4.040000 3.880000 52.257462 -119.203621 16940.345703
2.080000 -4.040000 3.920000 150.449417 -90.009781 30736.789062
2.080000 -4.040000 3.960000 201.587708 13.457859 40818.718750
2.080000 -4.040000 4.000000 159.883057 126.166626 41480.609375
2.080000 -4.040000 4.040000 52.866470 171.232391 32115.394531
2.080000 -4.040000 4.080000 -41.550983 127.021622 17860.976562
2.080000 -4.040000 4.120000 -63.794685 42.836235 5904.705078
2.080000 -4.040000 4.160000 -20.759291 -10.039463 531.738953
2.080000 -4.040000 4.200000 30.300331 -1.928684 921.829895
2.080000 -4.000000 3.800000 -3.099590 -24.215353 595.990784
2.080000 -4.000000 3.840000 39.185192 -73.976936 7008.066406
2.080000 -4.000000 3.880000 129.443604 -69.686066 21611.794922
2.080000 -4.000000 3.920000 199.995514 18.069304 40324.707031
2.080000 -4.000000 3.960000 182.293121 144.829254 54206.296875
2.080000 -4.000000 4.000000 73.824516 223.318954 55321.414062
2.080000 -4.000000 4.040000 -53.412090 199.675110 42723.000000
2.080000 -4.000000 4.080000 -114.524818 101.500443 23418.273438
2.080000 -4.000000 4.120000 -84.834427 10.751778 7312.480469
2.080000 -4.000000 4.160000 -14.738094 -11.071756 339.795227
2.080000 -4.000000 4.200000 24.281071 27.648087 1353.987061
2.080000 -3.960000 3.800000 13.553045 -15.781155 432.729889
2.080000 -3.960000 3.840000 74.579010 -32.656158 6628.453613
2.080000 -3.960000 3.880000 145.043518 20.518709 21458.640625
2.080000 -3.960000 3.920000 154.097229 130.800751 40854.789062
2.080000 -3.960000 3.960000 70.220078 225.032898 55570.664062
2.080000 -3.960000 4.000000 -61.569969 231.118500 57206.621094
2.080000 -3.960000 4.040000 -154.053329 144.152527 44512.378906
2.080000 -3.960000 4.080000 -153.508179 31.922403 24583.800781
2.080000 -3.960000 4.120000 -83.998718 -26.479017 7756.922852
2.080000 -3.960000 4.160000 -18.856661 -8.944513 435.578003
2.080000 -3.960000 4.200000 -10.393536 39.172485 1642.509277
2.080000 -3.920000 3.800000 14.768135 -2.209244 222.978561
2.080000 -3.920000 3.840000 67.254807 15.129751 4752.118164
2.080000 -3.920000 3.880000 92.329903 87.792351 16232.307617
2.080000 -3.920000 3.920000 45.597702 171.988068 31659.044922
2.080000 -3.920000 3.960000 -60.197617 200.414886 43789.878906
2.080000 -3.920000 4.000000 -158.863342 143.418274 45806.359375
2.080000 -3.920000 4.040000 -186.758026 38.582138 36367.140625
2.080000 -3.920000 4.080000 -138.037170 -41.838184 20804.693359
2.080000 -3.920000 4.120000 -65.856110 -54.535141 7311.108887
2.080000 -3.920000 4.160000 -30.146633 -18.353374 1245.665894
2.080000 -3.920000 4.200000 -44.795818 12.167276 2154.708008
2.080000 -3.880000 3.800000 6.390762 1.994790 44.821030
2.080000 -3.880000 3.840000 32.742264 35.255424 2315.000732
2.080000 -3.880000 3.880000 18.116425 91.458702 8692.899414
2.080000 -3.880000 3.920000 -45.782902 124.801964 17671.603516
2.080000 -3.880000 3.960000 -123.127937 100.101738 25180.847656
2.080000 -3.880000 4.000000 -162.613861 26.781525 27160.517578
2.080000 -3.880000 4.040000 -142.214233 -48.027706 22531.548828
2.080000 -3.880000 4.080000 -86.647552 -81.099396 14084.910156
2.080000 -3.880000 4.120000 -41.585442 -68.822281 6465.855469
2.080000 -3.880000 4.160000 -31.652227 -43.669235 2908.865723
2.080000 -3.880000 4.200000 -43.303337 -38.470932 3355.191406
2.080000 -3.840000 3.800000 2.384318 -4.409799 25.131298
2.080000 -3.840000 3.840000 4.988152 22.633886 537.174438
2.080000 -3.840000 3.880000 -21.412125 46.394859 2610.961914
2.080000 -3.840000 3.920000 -63.985653 42.313522 5884.598145
2.080000 -3.840000 3.960000 -94.487976 6.873474 8975.222656
2.080000 -3.840000 4.000000 -94.029846 -39.335251 10388.874023
2.080000 -3.840000 4.040000 -67.985550 -70.803055 9635.107422
2.080000 -3.840000 4.080000 -37.503922 -78.586601 7582.398438
2.080000 -3.840000 4.120000 -18.322571 -73.403587 5723.803223
2.080000 -3.840000 4.160000 -9.012140 -70.152275 5002.560547
2.080000 -3.840000 4.200000 1.575777 -72.193367 5214.365234
2.080000 -3.800000 3.800000 9.190874 -10.185028 188.206970
2.080000 -3.800000 3.840000 3.623264 0.813950 13.790558
2.080000 -3.800000 3.880000 -9.782223 2.784870 103.447380
2.080000 -3.800000 3.920000 -21.007889 -5.777122 474.706543
2.080000 -3.800000 3.960000 -24.896198 -18.437721 959.770264
2.080000 -3.800000 4.000000 -24.045204 -30.072956 1482.554443
2.080000 -3.800000 4.040000 -21.595444 -42.191376 2246.475342
2.080000 -3.800000 4.080000 -14.312683 -57.663696 3529.954590
2.080000 -3.800000 4.120000 4.064011 -72.204269 5229.972656
2.080000 -3.800000 4.160000 32.593357 -74.844513 6664.028320
2.080000 -3.800000 4.200000 59.200607 -58.929642 6977.414551
2.120000 -4.200000 3.800000 9.680328 32.315865 1138.023804
2.120000 -4.200000 3.840000 -7.770569 35.951233 1352.872803
2.120000 -4.200000 3.880000 -22.618191 26.114130 1193.530396
2.120000 -4.200000 3.920000 -26.272699 10.083836 791.938477
2.120000 -4.200000 3.960000 -19.539066 -2.160042 386.440887
2.120000 -4.200000 4.000000 -9.485090 -6.368024 130.518661
2.120000 -4.200000 4.040000 -1.659058 -5.008663 27.839178
2.120000 -4.200000 4.080000 3.374843 -1.724400 14.363118
2.120000 -4.200000 4.120000 6.755654 2.896694 54.029701
2.120000 -4.200000 4.160000 7.231545 9.390060 140.468475
2.120000 -4.200000 4.200000 2.425999 15.202820 237.011200
2.120000 -4.160000 3.800000 -9.336283 28.823997 917.989014
2.120000 -4.160000 3.840000 -29.782871 22.658943 1400.447144
2.120000 -4.160000 3.880000 -39.555355 0.412199 1564.796021
2.120000 -4.160000 3.920000 -29.152679 -23.000685 1378.910156
2.120000 -4.160000 3.960000 -5.446777 -31.352955 1012.675110
2.120000 -4.160000 4.000000 15.089513 -21.036282 670.218506
2.120000 -4.160000 4.040000 20.988512 -2.374783 446.157227
2.120000 -4.160000 4.080000 13.730428 11.301765 316.254547
2.120000 -4.160000 4.120000 2.908310 14.668905 223.635056
2.120000 -4.160000 4.160000 -4.037771 11.416589 146.642090
2.120000 -4.160000 4.200000 -6.469715 7.108390 92.386429
2.120000 -4.120000 3.800000 -18.861832 13.563238 539.730103
2.120000 -4.120000 3.840000 -35.654121 -5.542398 1301.934570
2.120000 -4.120000 3.880000 -29.055250 -36.812469 2199.365479
2.120000 -4.120000 3.920000 3.520969 -54.234783 2953.808838
2.120000 -4.120000 3.960000 40.606697 -40.584667 3296.019043
2.120000 -4.120000 4.000000 55.389282 -4.128262 3085.015137
2.120000 -4.120000 4.040000 39.533623 28.785736 2391.525879
2.120000 -4.120000 4.080000 9.050970 37.396881 1480.446777
2.120000 -4.120000 4.120000 -12.142523 23.004959 676.669006
2.120000 -4.120000 4.160000 -13.316264 3.725444 191.201828
2.120000 -4.120000 4.200000 -2.507536 -4.556868 27.052784
2.120000 -4.080000 3.800000 -13.963860 -1.320848 196.734024
2.120000 -4.080000 3.840000 -17.542526 -30.345707 1228.602173
2.120000 -4.080000 3.880000 12.072183 -56.502090 3338.223877
2.120000 -4.080000 3.920000 59.977386 -48.632271 5962.384766
2.120000 -4.080000 3.960000 88.989777 -2.333630 7924.625977
2.120000 -4.080000 4.000000 73.636620 52.362503 8164.183594
2.120000 -4.080000 4.040000 24.555431 76.842361 6507.717773
2.120000 -4.080000 4.080000 -21.080379 58.234848 3835.679932
2.120000 -4.080000 4.120000 -33.317623 18.809225 1463.850952
2.120000 -4.080000 4.160000 -13.985044 -7.217025 247.666916
2.120000 -4.080000 4.200000 10.294657 -4.859663 129.596283
2.120000 -4.040000 3.800000 -1.669844 -5.136423 29.171221
2.120000 -4.040000 3.840000 13.609682 -33.183372 1286.359619
2.120000 -4.040000 3.880000 58.877708 -36.908817 4828.845215
2.120000 -4.040000 3.920000 99.098282 4.912916 9844.606445
2.120000 -4.040000 3.960000 93.950127 71.962883 14005.283203
2.120000 -4.040000 4.000000 37.826424 116.286705 14953.435547
2.120000 -4.040000 4.040000 -31.549221 105.225952 12067.854492
2.120000 -4.040000 4.080000 -66.009216 51.384857 6997.620117
2.120000 -4.040000 4.120000 -49.478951 -0.006435 2448.166504
2.120000 -4.040000 4.160000 -8.890266 -13.095413 250.526688
2.120000 -4.040000 4.200000 15.100163 8.902952 307.277466
2.120000 -4.000000 3.800000 5.689093 2.037897 36.518799
2.120000 -4.000000 3.840000 35.405106 -11.960322 1396.570801
2.120000 -4.000000 3.880000 76.398438 13.491012 6018.728516
2.120000 -4.000000 3.920000 84.831398 76.010788 12974.005859
2.120000 -4.000000 3.960000 37.038517 132.886459 19030.662109
2.120000 -4.000000 4.000000 -42.676399 137.441910 20711.554688
2.120000 -4.000000 4.040000 -99.948166 83.203781 16912.503906
2.120000 -4.000000 4.080000 -98.491425 11.435217 9831.325195
2.120000 -4.000000 4.120000 -51.571678 -26.275898 3350.060791
2.120000 -4.000000 4.160000 -6.480307 -13.581829 226.460449
2.120000 -4.000000 4.200000 0.993084 20.918728 438.579376
2.120000 -3.960000 3.800000 2.065368 9.971375 103.694077
2.120000 -3.960000 3.840000 33.085644 16.062723 1352.670898
2.120000 -3.960000 3.880000 50.674564 59.758797 6139.025391
2.120000 -3.960000 3.920000 21.386719 114.675171 13607.786133
2.120000 -3.960000 3.960000 -49.901447 133.587524 20335.781250
2.120000 -3.960000 4.000000 -117.928474 92.583923 22478.908203
2.120000 -3.960000 4.040000 -135.569473 16.363401 18646.843750
2.120000 -3.960000 4.080000 -96.328613 -42.180893 11058.429688
2.120000 -3.960000 4.120000 -38.894218 -49.062233 3919.863037
2.120000 -3.960000 4.160000 -9.784294 -16.998713 384.688660
2.120000 -3.960000 4.200000 -21.722862 11.829428 611.818115
2.120000 -3.920000 3.800000 -6.689241 8.644306 119.469971
2.120000 -3.920000 3.840000 12.519295 29.436224 1023.223999
2.120000 -3.920000 3.880000 2.386169 70.084579 4917.541992
2.120000 -3.920000 3.920000 -47.053062 94.732117 11188.164062
2.120000 -3.920000 3.960000 -108.437019 72.579521 17026.375000
2.120000 -3.920000 4.000000 -138.119812 9.389118 19165.238281
2.120000 -3.920000 4.040000 -115.373909 -54.579880 16290.101562
2.120000 -3.920000 4.080000 -61.187183 -79.764084 10106.180664
2.120000 -3.920000 4.120000 -17.974285 -61.447514 4098.871582
2.120000 -3.920000 4.160000 -10.787270 -30.005222 1016.678528
2.120000 -3.920000 4.200000 -28.107357 -18.989559 1150.626831
2.120000 -3.880000 3.800000 -8.940692 -1.505383 82.202156
2.120000 -3.880000 3.840000 -6.060490 21.742851 509.481110
2.120000 -3.880000 3.880000 -31.509453 43.426262 2878.685791
2.120000 -3.880000 3.920000 -74.236931 36.877327 6871.059570
2.120000 -3.880000 3.960000 -103.610886 -3.843071 10749.985352
2.120000 -3.880000 4.000000 -96.443810 -55.976570 12434.785156
2.120000 -3.880000 4.040000 -58.055305 -87.519379 11030.060547
2.120000 -3.880000 4.080000 -16.452993 -85.150658 7521.335449
2.120000 -3.880000 4.120000 3.882792 -63.328911 4025.627197
2.120000 -3.880000 4.160000 2.206923 -47.170403 2229.917480
2.120000 -3.880000 4.200000 -2.958271 -48.040581 2316.648926
2.120000 -3.840000 3.800000 0.583502 -9.685183 94.143242
2.120000 -3.840000 3.840000 -7.691837 6.060430 95.893166
2.120000 -3.840000 3.880000 -30.805780 8.225973 1016.662720
2.120000 -3.840000 3.920000 -51.303726 -11.426857 2762.645264
2.120000 -3.840000 3.960000 -52.351547 -42.842182 4576.137207
2.120000 -3.840000 4.000000 -32.726295 -67.070084 5569.406250
2.120000 -3.840000 4.040000 -6.076290 -73.354240 5417.766113
2.120000 -3.840000 4.080000 13.457508 -66.366844 4585.662598
2.120000 -3.840000 4.120000 23.344383 -57.741020 3878.985596
2.120000 -3.840000 4.160000 30.774958 -52.842461 3739.423828
2.120000 -3.840000 4.200000 41.234352 -47.325592 3939.983398
2.120000 -3.800000 3.800000 14.678373 -5.559134 246.358627
2.120000 -3.800000 3.840000 3.927834 0.430449 15.613162
2.120000 -3.800000 3.880000 -7.516299 -5.829525 90.478119
2.120000 -3.800000 3.920000 -10.102074 -19.056389 465.197876
2.120000 -3.800000 3.960000 -3.796715 -29.813850 903.280701
2.120000 -3.800000 4.000000 4.658749 -34.954399 1243.514038
2.120000 -3.800000 4.040000 11.858978 -38.803959 1646.382568
2.120000 -3.800000 4.080000 22.033081 -44.316505 2449.409180
2.120000 -3.800000 4.120000 39.845612 -46.100075 3712.889648
2.120000 -3.800000 4.160000 60.819000 -35.240700 4940.857422
2.120000 -3.800000 4.200000 72.380249 -11.073334 5361.519043
2.160000 -4.200000 3.800000 -18.178247 13.306669 507.516113
2.160000 -4.200000 3.840000 -26.525734 7.516284 760.109070
2.160000 -4.200000 3.880000 -28.730131 -3.497055 837.649780
2.160000 -4.200000 3.920000 -23.490946 -13.325950 729.405457
2.160000 -4.200000 3.960000 -14.662853 -17.937107 536.739075
2.160000 -4.200000 4.000000 -6.412043 -18.024342 365.991180
2.160000 -4.200000 4.040000 0.362332 -16.010574 256.469788
2.160000 -4.200000 4.080000 6.617791 -12.245897 193.757172
2.160000 -4.200000 4.120000 11.487456 -5.365668 160.752045
2.160000 -4.200000 4.160000 11.805470 3.942591 154.913132
2.160000 -4.200000 4.200000 6.020945 11.294086 163.808167
2.160000 -4.160000 3.800000 -16.165394 1.229897 262.832581
2.160000 -4.160000 3.840000 -22.736429 -4.956855 541.515625
2.160000 -4.160000 3.880000 -21.890842 -16.282331 744.323303
2.160000 -4.160000 3.920000 -12.263682 -24.529663 752.102234
2.160000 -4.160000 3.960000 0.375537 -24.278166 589.570374
2.160000 -4.160000 4.000000 9.066266 -17.017532 371.793579
2.160000 -4.160000 4.040000 11.470370 -8.220253 199.141953
2.160000 -4.160000 4.080000 9.982500 -1.666821 102.428596
2.160000 -4.160000 4.120000 7.448154 2.674008 62.625328
2.160000 -4.160000 4.160000 4.223252 6.030116 54.198158
2.160000 -4.160000 4.200000 -0.394424 7.837602 61.583580
2.160000 -4.120000 3.800000 -5.754996 -2.962139 41.894253
2.160000 -4.120000 3.840000 -11.641129 -9.898992 233.505936
2.160000 -4.120000 3.880000 -7.022093 -20.650730 475.762451
2.160000 -4.120000 3.920000 6.699995 -23.786879 610.705566
2.160000 -4.120000 3.960000 18.965364 -14.720264 576.371216
2.160000 -4.120000 4.000000 20.544189 0.094128 422.072571
2.160000 -4.120000 4.040000 11.960339 9.989223 242.834290
2.160000 -4.120000 4.080000 1.726388 10.212986 107.285500
2.160000 -4.120000 4.120000 -2.756705 4.997613 32.575558
2.160000 -4.120000 4.160000 -1.581466 1.517207 4.802950
2.160000 -4.120000 4.200000 -0.077362 2.260080 5.113948
2.160000 -4.080000 3.800000 2.608727 4.385430 26.037449
2.160000 -4.080000 3.840000 -1.934831 -4.309617 22.316370
2.160000 -4.080000 3.880000 6.619293 -12.093119 190.058563
2.160000 -4.080000 3.920000 20.392036 -6.866599 462.985321
2.160000 -4.080000 3.960000 24.611744 10.102592 707.800293
2.160000 -4.080000 4.000000 12.988423 25.010162 794.207397
2.160000 -4.080000 4.040000 -5.699455 25.356005 675.410767
2.160000 -4.080000 4.080000 -16.475458 12.212805 420.593323
2.160000 -4.080000 4.120000 -12.846441 -1.603634 167.602692
2.160000 -4.080000 4.160000 -2.064899 -4.825309 27.547415
2.160000 -4.080000 4.200000 3.635069 1.777031 16.371565
2.160000 -4.040000 3.800000 -0.275816 16.388557 268.660889
2.160000 -4.040000 3.840000 -1.590109 6.460575 44.267475
2.160000 -4.040000 3.880000 8.661169 4.308994 93.583282
2.160000 -4.040000 3.920000 15.964032 16.914297 540.943787
2.160000 -4.040000 3.960000 6.923609 33.944431 1200.160767
2.160000 -4.040000 4.000000 -15.556133 37.771385 1668.670776
2.160000 -4.040000 4.040000 -33.979309 21.871025 1632.935303
2.160000 -4.040000 4.080000 -33.445107 -1.832462 1121.933105
2.160000 -4.040000 4.120000 -16.377522 -14.511749 478.814087
2.160000 -4.040000 4.160000 0.401038 -8.737192 76.499352
2.160000 -4.040000 4.200000 2.761867 5.320968 35.940605
2.160000 -4.000000 3.800000 -13.820264 21.042294 633.777832
2.160000 -4.000000 3.840000 -10.961370 12.450738 275.172516
2.160000 -4.000000 3.880000 -3.275128 16.279381 275.744720
2.160000 -4.000000 3.920000 -6.668534 29.911291 939.154724
2.160000 -4.000000 3.960000 -26.095694 36.731689 2030.202271
2.160000 -4.000000 4.000000 -48.171375 23.553890 2875.267090
2.160000 -4.000000 4.040000 -53.523415 -4.269133 2882.981445
2.160000 -4.000000 4.080000 -36.408428 -26.572048 2031.647339
2.160000 -4.000000 4.120000 -11.080835 -27.653780 887.516479
2.160000 -4.000000 4.160000 2.002028 -11.258072 130.752304
2.160000 -4.000000 4.200000 -4.217708 4.009150 33.862335
2.160000 -3.960000 3.800000 -27.255871 11.744099 880.806396
2.160000 -3.960000 3.840000 -21.814386 7.455293 531.448853
2.160000 -3.960000 3.880000 -20.266863 14.163046 611.337585
2.160000 -3.960000 3.920000 -32.338211 20.876598 1481.592285
2.160000 -3.960000 3.960000 -51.866241 12.660637 2850.398682
2.160000 -3.960000 4.000000 -61.144314 -12.413170 3892.713867
2.160000 -3.960000 4.040000 -48.577309 -38.979820 3879.181152
2.160000 -3.960000 4.080000 -21.326664 -48.202744 2778.331055
2.160000 -3.960000 4.120000 0.691072 -35.906197 1289.732544
2.160000 -3.960000 4.160000 3.599734 -16.317110 279.206177
2.160000 -3.960000 4.200000 -7.988764 -7.754411 123.951233
2.160000 -3.920000 3.800000 -28.390278 -6.163823 844.000610
2.160000 -3.920000 3.840000 -24.054287 -5.097666 604.594910
2.160000 -3.920000 3.880000 -28.969799 -0.336347 839.362427
2.160000 -3.920000 3.920000 -42.396500 -4.375401 1816.607300
2.160000 -3.920000 3.960000 -51.603134 -22.944614 3189.338867
2.160000 -3.920000 4.000000 -44.092010 -47.133682 4165.689453
2.160000 -3.920000 4.040000 -20.782684 -60.593231 4103.459473
2.160000 -3.920000 4.080000 3.794773 -54.916409 3030.212402
2.160000 -3.920000 4.120000 14.860424 -37.469196 1624.772827
2.160000 -3.920000 4.160000 10.686776 -23.805904 680.928223
2.160000 -3.920000 4.200000 2.652946 -22.776657 525.814270
2.160000 -3.880000 3.800000 -14.371592 -19.013922 568.071838
2.160000 -3.880000 3.840000 -14.828836 -14.566015 432.063171
2.160000 -3.880000 3.880000 -23.205904 -15.290689 772.319153
2.160000 -3.880000 3.920000 -30.627396 -27.339603 1685.491211
2.160000 -3.880000 3.960000 -26.488708 -45.787910 2798.184326
2.160000 -3.880000 4.000000 -9.210550 -58.477318 3504.430908
2.160000 -3.880000 4.040000 11.916811 -57.330460 3428.791992
2.160000 -3.880000 4.080000 25.539074 -45.423340 2715.524170
2.160000 -3.880000 4.120000 28.363703 -32.879532 1885.563232
2.160000 -3.880000 4.160000 26.370264 -26.656908 1405.981567
2.160000 -3.880000 4.200000 27.045055 -25.098597 1361.374512
2.160000 -3.840000 3.800000 5.013810 -16.052374 282.817017
2.160000 -3.840000 3.840000 -1.641373 -12.475250 158.325974
2.160000 -3.840000 3.880000 -9.277238 -19.202358 454.797699
2.160000 -3.840000 3.920000 -8.139865 -32.700058 1135.551270
2.160000 -3.840000 3.960000 3.771278 -42.870880 1852.134888
2.160000 -3.840000 4.000000 19.334089 -43.142960 2235.122070
2.160000 -3.840000 4.040000 30.335567 -35.974751 2214.429199
2.160000 -3.840000 4.080000 35.432144 -28.282330 2055.327148
2.160000 -3.840000 4.120000 39.309494 -22.944197 2071.672363
2.160000 -3.840000 4.160000 45.007942 -16.515034 2298.461182
2.160000 -3.840000 4.200000 49.319069 -5.306986 2460.534668
2.160000 -3.800000 3.800000 14.919339 1.132881 223.870102
2.160000 -3.800000 3.840000 4.082733 -0.448807 16.870138
2.160000 -3.800000 3.880000 0.302277 -11.131298 123.997169
2.160000 -3.800000 3.920000 7.286034 -20.779919 484.891296
2.160000 -3.800000 3.960000 18.479885 -22.080580 829.058167
2.160000 -3.800000 4.000000 25.786448 -17.513618 971.667725
2.160000 -3.800000 4.040000 29.045069 -14.216471 1045.724121
2.160000 -3.800000 4.080000 34.717255 -13.506777 1387.720703
2.160000 -3.800000 4.120000 45.552044 -8.440035 2146.222900
2.160000 -3.800000 4.160000 54.402901 7.001716 3008.699463
2.160000 -3.800000 4.200000 50.880180 28.131695 3380.185059
2.200000 -4.200000 3.800000 -18.123604 -15.561880 570.637146
2.200000 -4.200000 3.840000 -15.850498 -19.520042 632.270325
2.200000 -4.200000 3.880000 -11.532697 -22.630310 645.134033
2.200000 -4.200000 3.920000 -6.381962 -24.053308 619.291077
2.200000 -4.200000 3.960000 -1.183505 -24.386797 596.116577
2.200000 -4.200000 4.000000 4.729353 -24.051411 600.837097
2.200000 -4.200000 4.040000 12.118032 -21.689993 617.302490
2.200000 -4.200000 4.080000 19.523071 -15.051432 607.695923
2.200000 -4.200000 4.120000 23.123322 -3.934193 550.165894
2.200000 -4.200000 4.160000 19.758627 8.048157 455.176178
2.200000 -4.200000 4.200000 10.372099 15.516706 348.348602
2.200000 -4.160000 3.800000 -0.049711 -16.738985 280.196106
2.200000 -4.160000 3.840000 -0.963516 -14.080755 199.196030
2.200000 -4.160000 3.880000 -2.522144 -14.495174 216.471283
2.200000 -4.160000 3.920000 -2.118809 -17.301464 303.830017
2.200000 -4.160000 3.960000 1.665640 -20.272224 413.737427
2.200000 -4.160000 4.000000 8.440440 -20.686445 499.170044
2.200000 -4.160000 4.040000 15.953976 -16.489540 526.434265
2.200000 -4.160000 4.080000 20.685242 -7.565223 485.111816
2.200000 -4.160000 4.120000 19.535997 3.467651 393.679779
2.200000 -4.160000 4.160000 12.033978 12.051859 290.063904
2.200000 -4.160000 4.200000 1.335948 14.358701 207.957047
2.200000 -4.120000 3.800000 11.261509 -1.015234 127.852287
2.200000 -4.120000 3.840000 1.288576 2.781121 9.395061
2.200000 -4.120000 3.880000 -7.135030 -2.260588 56.018906
2.200000 -4.120000 3.920000 -8.271915 -11.668707 204.583313
2.200000 -4.120000 3.960000 -1.764154 -18.690617 352.451385
2.200000 -4.120000 4.000000 8.039328 -18.953743 423.875183
2.200000 -4.120000 4.040000 15.615517 -12.533827 400.941162
2.200000 -4.120000 4.080000 17.450964 -2.874746 312.800293
2.200000 -4.120000 4.120000 13.206549 5.651917 206.357101
2.200000 -4.120000 4.160000 5.128601 9.734041 121.054108
2.200000 -4.120000 4.200000 -3.168167 8.190247 77.117424
2.200000 -4.080000 3.800000 3.830433 19.178520 382.487854
2.200000 -4.080000 3.840000 -14.153247 15.147673 429.766357
2.200000 -4.080000 3.880000 -23.322248 -0.276201 544.003540
2.200000 -4.080000 3.920000 -18.899204 -16.647690 634.325500
2.200000 -4.080000 3.960000 -5.500476 -24.430202 627.090027
2.200000 -4.080000 4.000000 7.779065 -21.318735 515.002319
2.200000 -4.080000 4.040000 14.423555 -11.880527 349.185883
2.200000 -4.080000 4.080000 13.666899 -2.469092 192.880539
2.200000 -4.080000 4.120000 8.563083 3.144341 83.213264
2.200000 -4.080000 4.160000 2.488304 4.390046 25.464163
2.200000 -4.080000 4.200000 -2.374345 2.114628 10.109167
2.200000 -4.040000 3.800000 -19.059158 26.153982 1047.282227
2.200000 -4.040000 3.840000 -36.515385 9.208264 1418.165405
2.200000 -4.040000 3.880000 -37.259563 -15.018567 1613.832397
2.200000 -4.040000 3.920000 -22.215021 -32.182491 1529.219971
2.200000 -4.040000 3.960000 -2.162415 -34.581593 1200.562622
2.200000 -4.040000 4.000000 11.673418 -25.266502 774.664795
2.200000 -4.040000 4.040000 15.357683 -13.060324 406.430481
2.200000 -4.040000 4.080000 12.271079 -4.628897 172.006058
2.200000 -4.040000 4.120000 7.568508 -1.088937 58.468098
2.200000 -4.040000 4.160000 3.734774 -0.469631 14.169087
2.200000 -4.040000 4.200000 0.912415 -1.484772 3.037049
2.200000 -4.000000 3.800000 -40.673836 11.911866 1796.253540
2.200000 -4.000000 3.840000 -47.663437 -14.143179 2471.832764
2.200000 -4.000000 3.880000 -35.284386 -38.393478 2719.047119
2.200000 -4.000000 3.920000 -11.540926 -47.987087 2435.953369
2.200000 -4.000000 3.960000 9.699492 -41.116276 1784.628174
2.200000 -4.000000 4.000000 19.514250 -26.196930 1067.085083
2.200000 -4.000000 4.040000 18.700760 -13.313755 526.974487
2.200000 -4.000000 4.080000 13.738266 -6.735965 234.113190
2.200000 -4.000000 4.120000 9.661881 -4.582840 114.354370
2.200000 -4.000000 4.160000 7.112960 -3.742085 64.597404
2.200000 -4.000000 4.200000 4.912064 -3.563516 36.827023
2.200000 -3.960000 3.800000 -44.278877 -14.731441 2177.634277
2.200000 -3.960000 3.840000 -37.499676 -39.377235 2956.792480
2.200000 -3.960000 3.880000 -16.118286 -54.265835 3204.579834
2.200000 -3.960000 3.920000 8.366741 -52.580261 2834.686279
2.200000 -3.960000 3.960000 24.215277 -38.393578 2060.446289
2.200000 -3.960000 4.000000 27.510426 -21.954304 1238.814941
2.200000 -3.960000 4.040000 22.761591 -11.194566 643.408325
2.200000 -3.960000 4.080000 16.969963 -7.191938 339.703613
2.200000 -3.960000 4.120000 13.705643 -6.355916 228.242310
2.200000 -3.960000 4.160000 12.206010 -5.559107 179.890350
2.200000 -3.960000 4.200000 10.712550 -4.623757 136.137848
2.200000 -3.920000 3.800000 -26.792030 -35.008404 1943.401245
2.200000 -3.920000 3.840000 -12.528231 -49.138908 2571.588867
2.200000 -3.920000 3.880000 8.009299 -52.229477 2792.067139
2.200000 -3.920000 3.920000 25.661747 -43.239101 2528.145020
2.200000 -3.920000 3.960000 33.790863 -27.905014 1920.512207
2.200000 -3.920000 4.000000 32.175274 -14.222370 1237.524170
2.200000 -3.920000 4.040000 25.896086 -6.968436 719.166321
2.200000 -3.920000 4.080000 20.723366 -5.482524 459.515961
2.200000 -3.920000 4.120000 19.063744 -5.798911 397.053711
2.200000 -3.920000 4.160000 19.421856 -4.684011 399.148438
2.200000 -3.920000 4.200000 19.097315 -1.955625 368.531891
2.200000 -3.880000 3.800000 -1.097097 -35.177277 1238.644409
2.200000 -3.880000 3.840000 9.848525 -38.347496 1567.523804
2.200000 -3.880000 3.880000 22.084455 -35.850868 1773.007935
2.200000 -3.880000 3.920000 31.801140 -27.463522 1765.557617
2.200000 -3.880000 3.960000 35.569511 -15.911949 1518.380371
2.200000 -3.880000 4.000000 32.921108 -6.006333 1119.875366
2.200000 -3.880000 4.040000 27.350170 -1.388971 749.961060
2.200000 -3.880000 4.080000 23.878933 -1.466020 572.352661
2.200000 -3.880000 4.120000 24.705215 -1.833399 613.708984
2.200000 -3.880000 4.160000 27.175407 1.474030 740.675537
2.200000 -3.880000 4.200000 26.598370 7.914251 770.108643
2.200000 -3.840000 3.800000 14.517684 -16.969471 498.726105
2.200000 -3.840000 3.840000 15.766684 -17.367466 550.217163
2.200000 -3.840000 3.880000 20.547108 -18.335308 758.367188
2.200000 -3.840000 3.920000 27.794050 -15.273874 1005.800415
2.200000 -3.840000 3.960000 32.363308 -7.243800 1099.856323
2.200000 -3.840000 4.000000 30.997875 1.188800 962.281555
2.200000 -3.840000 4.040000 26.568466 4.923724 730.126465
2.200000 -3.840000 4.080000 25.045738 4.557315 648.058105
2.200000 -3.840000 4.120000 28.217060 6.063616 832.969910
2.200000 -3.840000 4.160000 30.853848 13.643440 1138.103394
2.200000 -3.840000 4.200000 26.396730 23.867079 1266.424805
2.200000 -3.800000 3.800000 10.612118 4.741087 135.094940
2.200000 -3.800000 3.840000 5.215323 -2.321327 32.588154
2.200000 -3.800000 3.880000 10.086479 -10.581072 213.696136
2.200000 -3.800000 3.920000 20.997152 -10.695366 555.271240
2.200000 -3.800000 3.960000 28.135899 -2.093450 796.011292
2.200000 -3.800000 4.000000 27.055206 7.258068 784.663757
2.200000 -3.800000 4.040000 22.884399 10.821086 640.791626
2.200000 -3.800000 4.080000 22.930651 11.182330 650.859253
2.200000 -3.800000 4.120000 26.712444 16.167871 974.954712
2.200000 -3.800000 4.160000 25.820507 27.900776 1445.151855
2.200000 -3.800000 4.200000 14.369688 38.328682 1675.575806
