#kx 	ky 	kz 	real 	imag 	intensity
2.800000 -9.200000 2.800000 -58.209435 -12.702021 3549.679688
2.800000 -9.200000 2.840000 -39.555626 -28.122881 2355.543945
2.800000 -9.200000 2.880000 -22.277586 -25.241772 1133.437866
2.800000 -9.200000 2.920000 -19.109407 -15.723314 612.392090
2.800000 -9.200000 2.960000 -25.941845 -15.363150 909.005676
2.800000 -9.200000 3.000000 -27.297379 -27.326092 1491.862061
2.800000 -9.200000 3.040000 -13.454329 -38.997932 1701.857666
2.800000 -9.200000 3.080000 8.722450 -35.365158 1326.775635
2.800000 -9.200000 3.120000 22.181881 -14.731938 709.065857
2.800000 -9.200000 3.160000 16.182613 9.195920 346.441925
2.800000 -9.200000 3.200000 -3.951304 20.165730 422.269440
2.800000 -9.160000 2.800000 -40.212997 -39.881393 3207.610840
2.800000 -9.160000 2.840000 -16.301224 -39.940712 1860.990356
2.800000 -9.160000 2.880000 -5.712943 -26.975151 760.296448
2.800000 -9.160000 2.920000 -10.066802 -18.097593 428.863403
2.800000 -9.160000 2.960000 -16.377457 -22.171570 759.799622
2.800000 -9.160000 3.000000 -11.847951 -32.143322 1173.567017
2.800000 -9.160000 3.040000 2.883895 -33.968166 1162.153198
2.800000 -9.160000 3.080000 15.144141 -21.776598 703.565247
2.800000 -9.160000 3.120000 13.583139 -3.721039 198.347809
2.800000 -9.160000 3.160000 -0.811852 6.473978 42.571495
2.800000 -9.160000 3.200000 -16.535103 2.439983 279.363159
2.800000 -9.120000 2.800000 -9.802143 -43.717819 2007.329712
2.800000 -9.120000 2.840000 6.210930 -30.460901 966.442139
2.800000 -9.120000 2.880000 5.521692 -15.883863 282.786194
2.800000 -9.120000 2.920000 -3.232141 -12.248555 160.473831
2.800000 -9.120000 2.960000 -7.057169 -18.338428 386.101624
2.800000 -9.120000 3.000000 -1.700141 -23.646112 562.029114
2.800000 -9.120000 3.040000 6.030204 -20.738127 466.433289
2.800000 -9.120000 3.080000 7.293050 -12.393665 206.791519
2.800000 -9.120000 3.120000 0.766550 -7.235872 52.945450
2.800000 -9.120000 3.160000 -6.948977 -10.186975 152.062759
2.800000 -9.120000 3.200000 -8.864125 -18.217812 410.461395
2.800000 -9.080000 2.800000 8.530663 -24.641811 679.991089
2.800000 -9.080000 2.840000 10.878566 -9.716842 212.760208
2.800000 -9.080000 2.880000 2.877449 -2.062954 12.535492
2.800000 -9.080000 2.920000 -5.009082 -4.230186 42.985371
2.800000 -9.080000 2.960000 -6.840906 -10.089613 148.598297
2.800000 -9.080000 3.000000 -4.742764 -13.579931 206.908340
2.800000 -9.080000 3.040000 -3.388479 -14.684052 227.103165
2.800000 -9.080000 3.080000 -3.418568 -16.987728 300.269531
2.800000 -9.080000 3.120000 -1.465096 -21.521631 465.327118
2.800000 -9.080000 3.160000 4.570500 -24.958525 643.817444
2.800000 -9.080000 3.200000 12.243289 -23.757401 714.312195
2.800000 -9.040000 2.800000 2.539117 -3.990721 22.372967
2.800000 -9.040000 2.840000 -2.571524 2.129705 11.148381
2.800000 -9.040000 2.880000 -9.121204 1.429852 85.240852
2.800000 -9.040000 2.920000 -12.728628 -2.969028 170.833099
2.800000 -9.040000 2.960000 -14.030762 -7.898919 259.255188
2.800000 -9.040000 3.000000 -14.448148 -13.914577 402.364441
2.800000 -9.040000 3.040000 -11.966681 -22.326912 641.692444
2.800000 -9.040000 3.080000 -3.157219 -30.401304 934.207336
2.800000 -9.040000 3.120000 11.091450 -32.004448 1147.304932
2.800000 -9.040000 3.160000 23.971226 -23.950310 1148.237061
2.800000 -9.040000 3.200000 28.415699 -10.455989 916.779663
2.800000 -9.000000 2.800000 -15.419065 -2.531059 244.153809
2.800000 -9.000000 2.840000 -16.859192 -5.116869 310.414703
2.800000 -9.000000 2.880000 -16.614716 -7.945746 339.183655
2.800000 -9.000000 2.920000 -16.888840 -10.096304 387.168274
2.800000 -9.000000 2.960000 -18.644543 -14.615148 561.221497
2.800000 -9.000000 3.000000 -17.713188 -24.149805 896.970093
2.800000 -9.000000 3.040000 -8.101444 -35.042145 1293.585327
2.800000 -9.000000 3.080000 10.169409 -38.227524 1564.760498
2.800000 -9.000000 3.120000 28.131880 -27.772522 1562.715576
2.800000 -9.000000 3.160000 34.752930 -8.111982 1273.570312
2.800000 -9.000000 3.200000 27.337551 8.757000 824.026733
2.800000 -8.960000 2.800000 -21.808233 -19.048525 838.445312
2.800000 -8.960000 2.840000 -15.042733 -21.238890 677.374268
2.800000 -8.960000 2.880000 -10.725006 -19.076820 478.950836
2.800000 -8.960000 2.920000 -11.711236 -17.573402 445.977509
2.800000 -8.960000 2.960000 -14.063450 -22.464144 702.418396
2.800000 -8.960000 3.000000 -9.455968 -32.675350 1157.093750
2.800000 -8.960000 3.040000 5.893406 -38.920685 1549.551880
2.800000 -8.960000 3.080000 25.114775 -31.806704 1642.418213
2.800000 -8.960000 3.120000 35.277634 -12.013061 1388.825073
2.800000 -8.960000 3.160000 29.332027 8.677416 935.665405
2.800000 -8.960000 3.200000 13.206833 17.730370 488.786438
2.800000 -8.920000 2.800000 -7.332647 -32.324345 1098.630981
2.800000 -8.920000 2.840000 1.568135 -26.668716 713.679504
2.800000 -8.920000 2.880000 2.706124 -18.858362 362.960938
2.800000 -8.920000 2.920000 -2.068008 -16.483974 275.998047
2.800000 -8.920000 2.960000 -4.611198 -22.278816 517.608765
2.800000 -8.920000 3.000000 2.268323 -30.116341 912.139221
2.800000 -8.920000 3.040000 16.885870 -29.733231 1169.197632
2.800000 -8.920000 3.080000 28.754545 -16.787691 1108.650391
2.800000 -8.920000 3.120000 27.968731 1.771815 785.389282
2.800000 -8.920000 3.160000 15.024214 13.467327 407.095886
2.800000 -8.920000 3.200000 0.701490 12.078680 146.386612
2.800000 -8.880000 2.800000 13.059228 -24.689537 780.116699
2.800000 -8.880000 2.840000 14.884527 -13.747434 410.541077
2.800000 -8.880000 2.880000 9.125147 -6.542467 126.072174
2.800000 -8.880000 2.920000 1.594575 -7.378599 56.986389
2.800000 -8.880000 2.960000 -0.407278 -14.205097 201.950668
2.800000 -8.880000 3.000000 5.781016 -19.572912 416.519043
2.800000 -8.880000 3.040000 15.267357 -16.909748 519.031738
2.800000 -8.880000 3.080000 19.643944 -6.797993 432.097229
2.800000 -8.880000 3.120000 14.921901 3.189624 232.836823
2.800000 -8.880000 3.160000 5.560882 5.758201 64.080284
2.800000 -8.880000 3.200000 -0.034051 1.257442 1.582319
2.800000 -8.840000 2.800000 16.574797 -1.720817 277.685089
2.800000 -8.840000 2.840000 9.662104 4.715505 115.592232
2.800000 -8.840000 2.880000 1.061153 4.953188 25.660122
2.800000 -8.840000 2.920000 -4.915722 -0.237112 24.220549
2.800000 -8.840000 2.960000 -5.550470 -7.509977 87.207474
2.800000 -8.840000 3.000000 -1.215042 -12.583220 159.813766
2.800000 -8.840000 3.040000 4.712848 -12.909703 188.871368
2.800000 -8.840000 3.080000 8.370800 -9.525998 160.814926
2.800000 -8.840000 3.120000 8.642695 -5.846388 108.876434
2.800000 -8.840000 3.160000 7.754610 -4.021686 76.307930
2.800000 -8.840000 3.200000 8.085166 -2.627024 72.271164
2.800000 -8.800000 2.800000 -2.435916 13.314794 183.217407
2.800000 -8.800000 2.840000 -9.767893 8.902516 174.666534
2.800000 -8.800000 2.880000 -13.281364 2.654347 183.440201
2.800000 -8.800000 2.920000 -14.230096 -3.527924 214.941864
2.800000 -8.800000 2.960000 -13.327952 -9.813130 273.931824
2.800000 -8.800000 3.000000 -9.696102 -16.029099 350.946411
2.800000 -8.800000 3.040000 -2.717249 -20.234774 416.829529
2.800000 -8.800000 3.080000 6.089853 -20.018742 437.836334
2.800000 -8.800000 3.120000 13.527029 -14.704378 399.199249
2.800000 -8.800000 3.160000 16.702528 -5.949537 314.371460
2.800000 -8.800000 3.200000 14.308584 3.326613 215.801941
2.840000 -9.200000 2.800000 -52.883461 -29.102367 3643.608154
2.840000 -9.200000 2.840000 -31.894657 -35.979649 2311.804199
2.840000 -9.200000 2.880000 -19.797489 -29.654085 1271.305298
2.840000 -9.200000 2.920000 -19.955807 -25.220619 1034.313843
2.840000 -9.200000 2.960000 -20.895496 -31.335781 1418.552979
2.840000 -9.200000 3.000000 -10.459430 -40.772930 1771.831543
2.840000 -9.200000 3.040000 9.423182 -38.750866 1590.426025
2.840000 -9.200000 3.080000 23.450617 -19.985584 949.355042
2.840000 -9.200000 3.120000 18.532394 4.024807 359.648712
2.840000 -9.200000 3.160000 -2.298228 15.346049 240.783096
2.840000 -9.200000 3.200000 -22.241455 6.785017 540.718750
2.840000 -9.160000 2.800000 -24.687347 -53.740074 3497.460693
2.840000 -9.160000 2.840000 -3.221918 -44.279739 1971.076050
2.840000 -9.160000 2.880000 1.880788 -30.333614 923.665527
2.840000 -9.160000 2.920000 -2.017446 -25.525328 655.612427
2.840000 -9.160000 2.960000 -1.402098 -29.443258 868.871338
2.840000 -9.160000 3.000000 8.177168 -30.664757 1007.193420
2.840000 -9.160000 3.040000 18.024921 -21.016907 766.608154
2.840000 -9.160000 3.080000 16.804943 -5.239424 309.857666
2.840000 -9.160000 3.120000 3.494942 3.894075 27.378441
2.840000 -9.160000 3.160000 -11.079300 -0.998350 123.747589
2.840000 -9.160000 3.200000 -15.114978 -14.536594 439.775146
2.840000 -9.120000 2.800000 9.677125 -49.079094 2502.404297
2.840000 -9.120000 2.840000 21.268175 -29.514267 1323.427246
2.840000 -9.120000 2.880000 17.990192 -13.991620 519.412476
2.840000 -9.120000 2.920000 10.385693 -8.700113 183.554581
2.840000 -9.120000 2.960000 6.659580 -9.155145 128.166687
2.840000 -9.120000 3.000000 6.330912 -8.605074 114.127731
2.840000 -9.120000 3.040000 4.451512 -6.139730 57.512253
2.840000 -9.120000 3.080000 -0.391064 -6.099041 37.351231
2.840000 -9.120000 3.120000 -3.914543 -11.116108 138.891510
2.840000 -9.120000 3.160000 -1.543705 -17.845757 320.854065
2.840000 -9.120000 3.200000 5.787864 -20.266703 444.238586
2.840000 -9.080000 2.800000 24.702616 -24.102657 1191.157349
2.840000 -9.080000 2.840000 25.677967 -4.611811 680.626770
2.840000 -9.080000 2.880000 16.516953 8.860854 351.324463
2.840000 -9.080000 2.920000 3.394760 13.702850 199.292511
2.840000 -9.080000 2.960000 -9.114324 10.458309 192.447113
2.840000 -9.080000 3.000000 -17.417755 0.453278 303.583679
2.840000 -9.080000 3.040000 -17.838352 -13.301792 495.144470
2.840000 -9.080000 3.080000 -8.795197 -24.757332 690.280945
2.840000 -9.080000 3.120000 5.913548 -27.346083 782.778259
2.840000 -9.080000 3.160000 17.957720 -19.459959 701.169678
2.840000 -9.080000 3.200000 20.611542 -6.875483 472.107910
2.840000 -9.040000 2.800000 15.339221 -4.261259 253.450027
2.840000 -9.040000 2.840000 12.193295 10.727293 263.751282
2.840000 -9.040000 2.880000 -0.644837 22.000193 484.424286
2.840000 -9.040000 2.920000 -20.381001 22.575508 925.038757
2.840000 -9.040000 2.960000 -37.918076 7.891794 1500.060791
2.840000 -9.040000 3.000000 -41.217400 -17.759533 2014.275024
2.840000 -9.040000 3.040000 -24.726166 -40.410580 2244.398193
2.840000 -9.040000 3.080000 3.564045 -45.389313 2072.892090
2.840000 -9.040000 3.120000 26.226410 -29.619564 1565.143188
2.840000 -9.040000 3.160000 30.059982 -5.223146 930.883789
2.840000 -9.040000 3.200000 16.989582 10.467312 398.210510
2.840000 -9.000000 2.800000 0.270870 -5.093744 26.019600
2.840000 -9.000000 2.840000 -2.459367 8.845189 84.285858
2.840000 -9.000000 2.880000 -19.405437 18.103544 704.309326
2.840000 -9.000000 2.920000 -42.992649 9.501778 1938.651733
2.840000 -9.000000 2.960000 -54.949242 -18.909906 3377.003662
2.840000 -9.000000 3.000000 -40.944241 -51.512249 4329.942383
2.840000 -9.000000 3.040000 -5.371190 -65.304642 4293.545898
2.840000 -9.000000 3.080000 29.413666 -49.474201 3312.860352
2.840000 -9.000000 3.120000 41.005100 -15.886820 1933.809204
2.840000 -9.000000 3.160000 26.052933 10.729301 793.873230
2.840000 -9.000000 3.200000 2.116235 14.388265 211.500610
2.840000 -8.960000 2.800000 0.173409 -17.283491 298.749115
2.840000 -8.960000 2.840000 -5.036114 -0.227534 25.414213
2.840000 -8.960000 2.880000 -26.995192 4.402430 748.121765
2.840000 -8.960000 2.920000 -47.755989 -15.265390 2513.666748
2.840000 -8.960000 2.960000 -45.156868 -49.929283 4532.076172
2.840000 -8.960000 3.000000 -13.854464 -73.951019 5660.699707
2.840000 -8.960000 3.040000 27.146690 -67.109497 5240.627441
2.840000 -8.960000 3.080000 49.623123 -33.389236 3577.295410
2.840000 -8.960000 3.120000 40.738289 1.924293 1663.311035
2.840000 -8.960000 3.160000 13.644025 14.839514 406.370575
2.840000 -8.960000 3.200000 -6.043781 3.336475 47.659355
2.840000 -8.920000 2.800000 14.848161 -19.191708 588.789551
2.840000 -8.920000 2.840000 1.264594 -1.876336 5.119834
2.840000 -8.920000 2.880000 -23.047691 -6.191350 569.528931
2.840000 -8.920000 2.920000 -34.154781 -33.151711 2265.584961
2.840000 -8.920000 2.960000 -17.089207 -62.293663 4172.541504
2.840000 -8.920000 3.000000 19.265461 -68.754440 5098.331055
2.840000 -8.920000 3.040000 48.881271 -45.688587 4476.825684
2.840000 -8.920000 3.080000 51.530937 -10.616057 2768.138184
2.840000 -8.920000 3.120000 30.351362 10.752153 1036.813965
2.840000 -8.920000 3.160000 7.322247 7.636898 111.937500
2.840000 -8.920000 3.200000 1.653619 -7.859415 64.504852
2.840000 -8.880000 2.800000 24.371273 -2.641678 600.937378
2.840000 -8.880000 2.840000 2.669938 6.120339 44.587124
2.840000 -8.880000 2.880000 -17.056801 -8.309820 359.987549
2.840000 -8.880000 2.920000 -16.171234 -34.711060 1466.366455
2.840000 -8.880000 2.960000 6.765238 -51.207371 2667.963379
2.840000 -8.880000 3.000000 34.753601 -44.249229 3165.807129
2.840000 -8.880000 3.040000 47.582867 -19.982639 2663.435059
2.840000 -8.880000 3.080000 39.367344 2.421626 1555.651978
2.840000 -8.880000 3.120000 22.087467 8.690701 563.384460
2.840000 -8.880000 3.160000 12.583284 1.441477 160.416901
2.840000 -8.880000 3.200000 16.233635 -4.728939 285.893768
2.840000 -8.840000 2.800000 12.698337 16.881042 446.217346
2.840000 -8.840000 2.840000 -7.680542 11.658085 194.901688
2.840000 -8.840000 2.880000 -16.183018 -7.516885 318.393616
2.840000 -8.840000 2.920000 -7.110838 -26.140490 733.889221
2.840000 -8.840000 2.960000 11.910239 -31.698341 1146.638672
2.840000 -8.840000 3.000000 27.533562 -22.893137 1282.192749
2.840000 -8.840000 3.040000 31.875652 -8.620951 1090.377930
2.840000 -8.840000 3.080000 27.439503 1.266340 754.529968
2.840000 -8.840000 3.120000 22.297184 4.354103 516.122620
2.840000 -8.840000 3.160000 21.142334 5.845452 481.167603
2.840000 -8.840000 3.200000 20.972382 11.319810 567.978882
2.840000 -8.800000 2.800000 -12.772429 17.039463 453.478241
2.840000 -8.800000 2.840000 -20.634541 3.186460 435.937805
2.840000 -8.800000 2.880000 -17.539732 -11.248071 434.161316
2.840000 -8.800000 2.920000 -7.668602 -19.691710 446.570892
2.840000 -8.800000 2.960000 3.190870 -21.393791 467.875946
2.840000 -8.800000 3.000000 12.270909 -18.858429 506.215576
2.840000 -8.800000 3.040000 19.658436 -13.706078 574.310669
2.840000 -8.800000 3.080000 25.176228 -5.547602 664.618286
2.840000 -8.800000 3.120000 26.630444 5.709207 741.775574
2.840000 -8.800000 3.160000 21.400852 17.496428 764.121460
2.840000 -8.800000 3.200000 9.428021 25.033533 715.565369
2.880000 -9.200000 2.800000 -43.863815 -44.532810 3907.205566
2.880000 -9.200000 2.840000 -23.057796 -45.408794 2593.620605
2.880000 -9.200000 2.880000 -12.804905 -38.753189 1665.775269
2.880000 -9.200000 2.920000 -9.823389 -36.540707 1431.722290
2.880000 -9.200000 2.960000 -3.111591 -39.642899 1581.241455
2.880000 -9.200000 3.000000 11.220032 -37.719822 1548.674072
2.880000 -9.200000 3.040000 23.592525 -22.793938 1076.170898
2.880000 -9.200000 3.080000 20.857044 -1.066898 436.154572
2.880000 -9.200000 3.120000 1.914315 10.987947 124.399597
2.880000 -9.200000 3.160000 -18.511045 3.014922 351.748566
2.880000 -9.200000 3.200000 -22.998146 -17.724081 843.057739
2.880000 -9.160000 2.800000 -4.768113 -61.092075 3754.976562
2.880000 -9.160000 2.840000 12.306638 -45.745110 2244.068359
2.880000 -9.160000 2.880000 15.187309 -31.278105 1208.974121
2.880000 -9.160000 2.920000 13.481884 -24.870356 800.295776
2.880000 -9.160000 2.960000 15.486755 -21.863415 717.848511
2.880000 -9.160000 3.000000 19.228439 -14.451042 578.565491
2.880000 -9.160000 3.040000 16.518715 -2.883970 281.185242
2.880000 -9.160000 3.080000 4.584363 3.777145 35.283211
2.880000 -9.160000 3.120000 -8.469101 -1.909820 75.373085
2.880000 -9.160000 3.160000 -10.978121 -16.109556 380.036926
2.880000 -9.160000 3.200000 -0.018634 -26.034855 677.814026
2.880000 -9.120000 2.800000 31.156355 -44.701481 2968.940918
2.880000 -9.120000 2.840000 37.568840 -20.389156 1827.135376
2.880000 -9.120000 2.880000 30.605640 -1.434376 938.762634
2.880000 -9.120000 2.920000 18.168463 8.093870 395.603790
2.880000 -9.120000 2.960000 5.915909 9.849815 132.016846
2.880000 -9.120000 3.000000 -4.131056 6.139656 54.761002
2.880000 -9.120000 3.040000 -10.435402 -2.107540 113.339340
2.880000 -9.120000 3.080000 -10.216324 -12.879897 270.265015
2.880000 -9.120000 3.120000 -2.193121 -21.010698 446.259216
2.880000 -9.120000 3.160000 9.832397 -20.829727 530.553589
2.880000 -9.120000 3.200000 18.028845 -11.589083 459.346069
2.880000 -9.080000 2.800000 41.197578 -12.666540 1857.681763
2.880000 -9.080000 2.840000 37.071388 13.808031 1564.949585
2.880000 -9.080000 2.880000 17.733746 33.349968 1426.706055
2.880000 -9.080000 2.920000 -10.290922 37.046562 1478.350830
2.880000 -9.080000 2.960000 -34.725830 21.597305 1672.326904
2.880000 -9.080000 3.000000 -42.795410 -6.439419 1872.913208
2.880000 -9.080000 3.040000 -29.659847 -32.084358 1909.112549
2.880000 -9.080000 3.080000 -3.418102 -40.793297 1675.776489
2.880000 -9.080000 3.120000 19.291479 -28.953552 1210.469360
2.880000 -9.080000 3.160000 25.174255 -6.907550 681.457336
2.880000 -9.080000 3.200000 14.032043 9.198771 281.515625
2.880000 -9.040000 2.800000 27.731329 8.790550 846.300415
2.880000 -9.040000 2.840000 14.883975 34.993961 1446.109985
2.880000 -9.040000 2.880000 -18.277950 48.393562 2676.020264
2.880000 -9.040000 2.920000 -57.049690 33.239540 4359.534180
2.880000 -9.040000 2.960000 -76.098221 -8.696678 5866.571777
2.880000 -9.040000 3.000000 -59.192635 -54.070686 6427.407227
2.880000 -9.040000 3.040000 -15.080706 -73.714912 5661.315918
2.880000 -9.040000 3.080000 27.002827 -56.241158 3892.220459
2.880000 -9.040000 3.120000 40.436447 -17.895786 1955.365356
2.880000 -9.040000 3.160000 22.560467 11.403525 639.015076
2.880000 -9.040000 3.200000 -5.254091 13.394936 207.029770
2.880000 -9.000000 2.800000 11.986773 9.953960 242.764038
2.880000 -9.000000 2.840000 -10.589458 34.476303 1300.752075
2.880000 -9.000000 2.880000 -53.984573 32.847099 3993.266113
2.880000 -9.000000 2.920000 -87.791260 -7.422207 7762.394531
2.880000 -9.000000 2.960000 -80.669350 -66.433777 10920.990234
2.880000 -9.000000 3.000000 -30.171251 -103.926727 11711.069336
2.880000 -9.000000 3.040000 31.150497 -92.948906 9609.852539
2.880000 -9.000000 3.080000 61.885696 -44.130520 5777.342285
2.880000 -9.000000 3.120000 46.943699 3.490149 2215.892090
2.880000 -9.000000 3.160000 8.656556 16.955631 362.429413
2.880000 -9.000000 3.200000 -16.037720 -3.434231 269.002411
2.880000 -8.960000 2.800000 9.646910 3.669918 106.531166
2.880000 -8.960000 2.840000 -24.164682 21.118935 1029.941284
2.880000 -8.960000 2.880000 -67.153221 -1.246350 4511.108398
2.880000 -8.960000 2.920000 -78.894470 -58.399315 9634.817383
2.880000 -8.960000 2.960000 -39.337852 -110.780052 13819.686523
2.880000 -8.960000 3.000000 29.154009 -117.179764 14581.052734
2.880000 -8.960000 3.040000 78.841621 -72.190689 11427.497070
2.880000 -8.960000 3.080000 78.228897 -11.657324 6255.653320
2.880000 -8.960000 3.120000 38.724625 19.854139 1893.783447
2.880000 -8.960000 3.160000 1.189026 8.214027 68.884026
2.880000 -8.960000 3.200000 -3.285751 -21.672579 480.496857
2.880000 -8.920000 2.800000 15.226103 6.996286 280.782227
2.880000 -8.920000 2.840000 -25.497360 9.144793 733.742554
2.880000 -8.920000 2.880000 -54.490318 -30.523483 3900.877930
2.880000 -8.920000 2.920000 -38.321377 -85.511429 8780.732422
2.880000 -8.920000 2.960000 19.284775 -111.034912 12700.654297
2.880000 -8.920000 3.000000 78.092438 -84.420166 13225.193359
2.880000 -8.920000 3.040000 96.720757 -26.124722 10037.405273
2.880000 -8.920000 3.080000 69.145966 19.434181 5158.852051
2.880000 -8.920000 3.120000 27.344994 24.437027 1344.916992
2.880000 -8.920000 3.160000 8.847731 0.265112 78.352623
2.880000 -8.920000 3.200000 22.190228 -18.243610 825.235474
2.880000 -8.880000 2.800000 11.647398 20.048801 537.616333
2.880000 -8.880000 2.840000 -24.118710 3.555141 594.351196
2.880000 -8.880000 2.880000 -31.081156 -40.486908 2605.228027
2.880000 -8.880000 2.920000 3.050426 -76.281082 5828.108887
2.880000 -8.880000 2.960000 55.078060 -73.093979 8376.322266
2.880000 -8.880000 3.000000 86.822617 -32.842827 8616.818359
2.880000 -8.880000 3.040000 79.204056 12.881533 6439.216309
2.880000 -8.880000 3.080000 47.148430 32.806393 3299.233887
2.880000 -8.880000 3.120000 22.192257 23.302948 1035.523682
2.880000 -8.880000 3.160000 21.504032 7.313055 515.904175
2.880000 -8.880000 3.200000 34.110966 8.349542 1233.272827
2.880000 -8.840000 2.800000 -7.010752 25.941662 722.120483
2.880000 -8.840000 2.840000 -25.575689 -1.473809 656.288025
2.880000 -8.840000 2.880000 -14.093327 -34.697411 1402.532104
2.880000 -8.840000 2.920000 19.939339 -47.394348 2643.801270
2.880000 -8.840000 2.960000 51.511295 -30.853016 3605.322266
2.880000 -8.840000 3.000000 60.511967 0.360950 3661.828369
2.880000 -8.840000 3.040000 47.646919 23.778996 2835.669678
2.880000 -8.840000 3.080000 29.802126 29.379147 1751.301025
2.880000 -8.840000 3.120000 21.476952 25.435091 1108.203369
2.880000 -8.840000 3.160000 21.607506 26.152655 1150.845703
2.880000 -8.840000 3.200000 17.891148 35.373924 1571.407715
2.880000 -8.800000 2.800000 -26.097301 11.464361 812.500732
2.880000 -8.800000 2.840000 -25.080904 -11.402737 759.074158
2.880000 -8.800000 2.880000 -8.258167 -26.057516 747.191467
2.880000 -8.800000 2.920000 12.339796 -25.250315 789.848938
2.880000 -8.800000 2.960000 25.660400 -13.405491 838.163330
2.880000 -8.800000 3.000000 29.378422 0.482758 863.324707
2.880000 -8.800000 3.040000 27.779760 11.664183 907.768250
2.880000 -8.800000 3.080000 24.247692 21.367481 1044.519775
2.880000 -8.800000 3.120000 17.331415 31.418278 1287.486084
2.880000 -8.800000 3.160000 4.081182 39.128990 1547.733887
2.880000 -8.800000 3.200000 -14.066805 38.552170 1684.144775
2.920000 -9.200000 2.800000 -27.162457 -59.757156 4308.716797
2.920000 -9.200000 2.840000 -5.620571 -55.077805 3065.155273
2.920000 -9.200000 2.880000 5.572109 -44.928055 2049.578613
2.920000 -9.200000 2.920000 10.845974 -37.603374 1531.648926
2.920000 -9.200000 2.960000 17.155844 -31.665356 1297.017700
2.920000 -9.200000 3.000000 23.476292 -20.626331 976.581848
2.920000 -9.200000 3.040000 21.413872 -4.493013 478.741058
2.920000 -9.200000 3.080000 6.766657 6.345072 86.047577
2.920000 -9.200000 3.120000 -11.621305 1.068238 136.195862
2.920000 -9.200000 3.160000 -17.560879 -18.080158 635.276611
2.920000 -9.200000 3.200000 -3.484802 -34.578445 1207.812744
2.920000 -9.160000 2.800000 19.248772 -60.601131 4043.012207
2.920000 -9.160000 2.840000 32.381340 -40.373791 2678.594238
2.920000 -9.160000 2.880000 32.655487 -22.086863 1554.210327
2.920000 -9.160000 2.920000 27.402031 -10.388170 858.785339
2.920000 -9.160000 2.960000 21.463453 -2.736649 468.169098
2.920000 -9.160000 3.000000 13.726320 3.302773 199.320175
2.920000 -9.160000 3.040000 2.480010 4.883911 30.003036
2.920000 -9.160000 3.080000 -8.036327 -2.420940 70.443512
2.920000 -9.160000 3.120000 -9.191063 -16.514135 357.192322
2.920000 -9.160000 3.160000 2.767967 -26.808958 726.381836
2.920000 -9.160000 3.200000 20.092926 -22.760220 921.753296
2.920000 -9.120000 2.800000 50.405716 -29.287861 3398.514893
2.920000 -9.120000 2.840000 49.780693 -0.439823 2478.310791
2.920000 -9.120000 2.880000 33.715408 21.459837 1597.253418
2.920000 -9.120000 2.920000 9.856205 29.337322 957.823242
2.920000 -9.120000 2.960000 -12.114106 22.180595 638.730408
2.920000 -9.120000 3.000000 -24.122059 4.532310 602.415527
2.920000 -9.120000 3.040000 -22.228561 -15.334549 729.257324
2.920000 -9.120000 3.080000 -8.300692 -28.197777 864.016113
2.920000 -9.120000 3.120000 9.990112 -27.836382 874.666504
2.920000 -9.120000 3.160000 22.270027 -14.877743 717.301331
2.920000 -9.120000 3.200000 21.360146 2.599731 463.014435
2.920000 -9.080000 2.800000 49.755211 9.834751 2572.303467
2.920000 -9.080000 2.840000 33.377281 40.963966 2792.089355
2.920000 -9.080000 2.880000 -3.098248 56.414150 3192.155518
2.920000 -9.080000 2.920000 -43.746658 43.187153 3778.900391
2.920000 -9.080000 2.960000 -65.658218 4.741608 4333.484375
2.920000 -9.080000 3.000000 -55.189430 -37.978878 4488.268555
2.920000 -9.080000 3.040000 -19.435959 -60.019165 3980.056885
2.920000 -9.080000 3.080000 17.942127 -50.550022 2877.224609
2.920000 -9.080000 3.120000 34.125763 -20.522827 1585.754150
2.920000 -9.080000 3.160000 23.561562 6.778478 601.094910
2.920000 -9.080000 3.200000 -0.066846 14.036596 197.030502
2.920000 -9.040000 2.800000 26.868248 31.722864 1728.242920
2.920000 -9.040000 2.840000 -6.362562 58.405647 3451.701904
2.920000 -9.040000 2.880000 -59.101578 53.004467 6302.470215
2.920000 -9.040000 2.920000 -97.945526 5.674412 9625.525391
2.920000 -9.040000 2.960000 -91.439819 -60.271671 11993.914062
2.920000 -9.040000 3.000000 -38.936024 -102.674301 12058.025391
2.920000 -9.040000 3.040000 25.318226 -94.444016 9560.684570
2.920000 -9.040000 3.080000 59.064651 -46.494049 5650.329590
2.920000 -9.040000 3.120000 46.376671 2.074449 2155.098877
2.920000 -9.040000 3.160000 8.261901 17.572899 377.065765
2.920000 -9.040000 3.200000 -18.900501 -1.899227 360.835999
2.920000 -9.000000 2.800000 4.408835 31.464369 1009.444336
2.920000 -9.000000 2.840000 -43.910610 44.529377 3911.007080
2.920000 -9.000000 2.880000 -97.036133 8.366482 9486.008789
2.920000 -9.000000 2.920000 -107.882362 -66.821342 16103.696289
2.920000 -9.000000 2.960000 -55.998013 -132.053284 20573.847656
2.920000 -9.000000 3.000000 28.931568 -139.386520 20265.636719
2.920000 -9.000000 3.040000 89.221817 -84.765549 15145.730469
2.920000 -9.000000 3.080000 88.320969 -12.342704 7952.935547
2.920000 -9.000000 3.120000 40.783943 24.734911 2275.145996
2.920000 -9.000000 3.160000 -4.566934 9.771611 116.341263
2.920000 -9.000000 3.200000 -10.441208 -28.096275 898.419495
2.920000 -8.960000 2.800000 -4.851055 23.160103 559.923096
2.920000 -8.960000 2.840000 -59.465954 13.667446 3722.998779
2.920000 -8.960000 2.880000 -91.863281 -48.852325 10825.412109
2.920000 -8.960000 2.920000 -60.548058 -125.822021 19497.248047
2.920000 -8.960000 2.960000 24.943583 -156.886353 25235.509766
2.920000 -8.960000 3.000000 107.038239 -114.439606 24553.609375
2.920000 -8.960000 3.040000 129.557617 -30.347170 17706.126953
2.920000 -8.960000 3.080000 86.968475 32.340130 8609.399414
2.920000 -8.960000 3.120000 26.132832 35.740639 1960.318115
2.920000 -8.960000 3.160000 0.313175 -2.691743 7.343559
2.920000 -8.960000 3.200000 21.508301 -33.053993 1555.173584
2.920000 -8.920000 2.800000 -6.944776 20.626698 473.690582
2.920000 -8.920000 2.840000 -52.528725 -12.900852 2925.698730
2.920000 -8.920000 2.880000 -51.404900 -82.373947 9427.930664
2.920000 -8.920000 2.920000 11.809677 -132.204025 17617.373047
2.920000 -8.920000 2.960000 97.234077 -116.472404 23020.287109
2.920000 -8.920000 3.000000 143.008789 -42.640373 22269.714844
2.920000 -8.920000 3.040000 120.748474 34.269299 15754.579102
2.920000 -8.920000 3.080000 59.316975 62.025913 7365.717285
2.920000 -8.920000 3.120000 14.589176 36.750729 1563.460205
2.920000 -8.920000 3.160000 16.547203 0.366367 273.944153
2.920000 -8.920000 3.200000 45.795120 -4.262172 2115.359131
2.920000 -8.880000 2.800000 -14.198181 22.206394 694.712280
2.920000 -8.880000 2.840000 -36.951714 -24.708113 1975.919922
2.920000 -8.880000 2.880000 -7.293415 -78.051910 6145.294434
2.920000 -8.880000 2.920000 60.090939 -89.437439 11609.976562
2.920000 -8.880000 2.960000 115.511566 -43.913391 15271.307617
2.920000 -8.880000 3.000000 118.922836 25.695072 14802.876953
2.920000 -8.880000 3.040000 75.233017 69.532875 10494.828125
2.920000 -8.880000 3.080000 26.213991 65.966507 5038.753418
2.920000 -8.880000 3.120000 8.797290 37.168709 1458.905273
2.920000 -8.880000 3.160000 22.166372 22.050968 977.593262
2.920000 -8.880000 3.200000 34.711304 36.441547 2532.860840
2.920000 -8.840000 2.800000 -27.364643 15.772699 997.601685
2.920000 -8.840000 2.840000 -24.958864 -26.237947 1311.374756
2.920000 -8.840000 2.880000 13.827066 -51.585678 2852.270020
2.920000 -8.840000 2.920000 60.668163 -36.887737 5041.331055
2.920000 -8.840000 2.960000 80.833351 7.713497 6593.528809
2.920000 -8.840000 3.000000 63.764038 49.356609 6501.927734
2.920000 -8.840000 3.040000 29.363140 63.297874 4868.814941
2.920000 -8.840000 3.080000 5.637707 52.957771 2836.309326
2.920000 -8.840000 3.120000 1.838055 40.970757 1681.981323
2.920000 -8.840000 3.160000 3.694993 43.091076 1870.493774
2.920000 -8.840000 3.200000 -7.061634 52.810326 2838.797119
2.920000 -8.800000 2.800000 -33.351578 -3.367001 1123.664429
2.920000 -8.800000 2.840000 -17.469353 -26.245993 994.030396
2.920000 -8.800000 2.880000 10.400199 -29.238155 963.033875
2.920000 -8.800000 2.920000 30.884243 -11.887093 1095.139404
2.920000 -8.800000 2.960000 33.634979 11.978840 1274.804443
2.920000 -8.800000 3.000000 23.250614 28.659332 1361.948364
2.920000 -8.800000 3.040000 10.539738 35.556595 1375.357544
2.920000 -8.800000 3.080000 0.319742 38.710663 1498.617676
2.920000 -8.800000 3.120000 -11.123371 42.018227 1889.260742
2.920000 -8.800000 3.160000 -27.785465 41.313019 2478.797607
2.920000 -8.800000 3.200000 -45.728580 29.640461 2969.659912
2.960000 -9.200000 2.800000 0.987859 -66.820526 4465.958984
2.960000 -9.200000 2.840000 22.191738 -53.442688 3348.593994
2.960000 -9.200000 2.880000 30.416426 -35.270489 2169.166260
2.960000 -9.200000 2.920000 29.661304 -20.759632 1310.755249
2.960000 -9.200000 2.960000 25.978807 -10.513274 785.427368
2.960000 -9.200000 3.000000 20.080551 -1.798035 406.461487
2.960000 -9.200000 3.040000 9.381413 3.711473 101.785934
2.960000 -9.200000 3.080000 -3.804236 -0.011204 14.472341
2.960000 -9.200000 3.120000 -9.659054 -14.391369 300.408813
2.960000 -9.200000 3.160000 0.390301 -29.564974 874.240051
2.960000 -9.200000 3.200000 22.168711 -30.260319 1407.138672
2.960000 -9.160000 2.800000 44.254791 -47.080780 4175.086426
2.960000 -9.160000 2.840000 51.494789 -21.042141 3094.485107
2.960000 -9.160000 2.880000 43.588802 1.450082 1902.086426
2.960000 -9.160000 2.920000 27.665104 13.638053 951.354492
2.960000 -9.160000 2.960000 11.110978 15.486828 363.295685
2.960000 -9.160000 3.000000 -2.116590 9.645237 97.510544
2.960000 -9.160000 3.040000 -9.601999 -1.827543 95.538300
2.960000 -9.160000 3.080000 -8.112881 -15.870014 317.676178
2.960000 -9.160000 3.120000 3.925628 -25.591681 670.344604
2.960000 -9.160000 3.160000 21.311810 -22.761211 972.265991
2.960000 -9.160000 3.200000 32.004059 -5.606129 1055.688477
2.960000 -9.120000 2.800000 60.376839 -3.257383 3655.973145
2.960000 -9.120000 2.840000 48.823120 27.708591 3151.463135
2.960000 -9.120000 2.880000 19.535046 45.283699 2432.231201
2.960000 -9.120000 2.920000 -13.919033 40.310986 1818.715088
2.960000 -9.120000 2.960000 -35.271885 16.022064 1500.812378
2.960000 -9.120000 3.000000 -35.397167 -14.100735 1451.790161
2.960000 -9.120000 3.040000 -16.997814 -34.683670 1491.882568
2.960000 -9.120000 3.080000 8.081411 -36.930016 1429.135254
2.960000 -9.120000 3.120000 26.030046 -22.381157 1178.479492
2.960000 -9.120000 3.160000 28.242481 -0.973357 798.585205
2.960000 -9.120000 3.200000 15.166737 14.715968 446.589600
2.960000 -9.080000 2.800000 42.404678 36.150055 3104.983154
2.960000 -9.080000 2.840000 9.804905 62.422867 3992.750488
2.960000 -9.080000 2.880000 -38.917145 59.305408 5031.675781
2.960000 -9.080000 2.920000 -75.459396 20.433784 6111.660156
2.960000 -9.080000 2.960000 -75.048378 -34.631046 6831.568359
2.960000 -9.080000 3.000000 -37.080101 -72.956619 6697.602539
2.960000 -9.080000 3.040000 13.240364 -73.037643 5509.804688
2.960000 -9.080000 3.080000 44.210064 -40.611736 3603.842773
2.960000 -9.080000 3.120000 41.219894 -2.328052 1704.499512
2.960000 -9.080000 3.160000 15.038569 16.082291 484.798645
2.960000 -9.080000 3.200000 -10.263752 7.984240 169.092682
2.960000 -9.040000 2.800000 7.455212 49.912167 2546.804443
2.960000 -9.040000 2.840000 -43.401451 59.395630 5411.526855
2.960000 -9.040000 2.880000 -95.672165 21.821060 9629.321289
2.960000 -9.040000 2.920000 -106.828255 -51.079765 14021.418945
2.960000 -9.040000 2.960000 -59.785591 -114.139381 16602.115234
2.960000 -9.040000 3.000000 18.104490 -124.496910 15827.252930
2.960000 -9.040000 3.040000 75.389832 -78.227478 11803.164062
2.960000 -9.040000 3.080000 78.831009 -13.459177 6395.477539
2.960000 -9.040000 3.120000 38.964691 22.908371 2043.040649
2.960000 -9.040000 3.160000 -3.242951 13.611053 195.777512
2.960000 -9.040000 3.200000 -13.907351 -19.738525 583.023804
2.960000 -9.000000 2.800000 -20.371447 39.039307 1939.063354
2.960000 -9.000000 2.840000 -78.046661 21.217764 6541.474609
2.960000 -9.000000 2.880000 -108.614014 -49.336510 14231.095703
2.960000 -9.000000 2.920000 -72.092873 -131.319672 22442.238281
2.960000 -9.000000 2.960000 19.315365 -163.485260 27100.513672
2.960000 -9.000000 3.000000 105.834717 -119.099731 25385.734375
2.960000 -9.000000 3.040000 130.238678 -31.637598 17963.050781
2.960000 -9.000000 3.080000 86.831421 34.222786 8710.894531
2.960000 -9.000000 3.120000 23.019665 38.980362 2049.373535
2.960000 -9.000000 3.160000 -6.303396 -1.271692 41.350006
2.960000 -9.000000 3.200000 13.587142 -36.579151 1522.644775
2.960000 -8.960000 2.800000 -30.298918 20.593689 1342.124512
2.960000 -8.960000 2.840000 -76.503372 -25.595602 6507.900879
2.960000 -8.960000 2.880000 -66.735107 -107.935371 16103.619141
2.960000 -8.960000 2.920000 13.281762 -162.668716 26637.515625
2.960000 -8.960000 2.960000 115.268150 -138.915802 32584.345703
2.960000 -8.960000 3.000000 167.251572 -48.027058 30279.685547
2.960000 -8.960000 3.040000 137.424957 44.075989 20828.312500
2.960000 -8.960000 3.080000 61.210732 75.605515 9462.947266
2.960000 -8.960000 3.120000 5.805342 42.042652 1801.286621
2.960000 -8.960000 3.160000 8.208449 -6.490433 109.504356
2.960000 -8.960000 3.200000 46.868073 -17.345146 2497.470215
2.960000 -8.920000 2.800000 -29.410736 8.746885 941.499390
2.960000 -8.920000 2.840000 -48.366058 -53.159946 5165.255859
2.960000 -8.920000 2.880000 -0.689156 -117.895226 13899.758789
2.960000 -8.920000 2.920000 92.096214 -123.856224 23822.078125
2.960000 -8.920000 2.960000 163.147095 -54.102970 29544.105469
2.960000 -8.920000 3.000000 159.766052 44.317963 27489.273438
2.960000 -8.920000 3.040000 91.322891 101.970016 18737.753906
2.960000 -8.920000 3.080000 18.398407 89.406784 8332.074219
2.960000 -8.920000 3.120000 -5.210175 39.506760 1587.929932
2.960000 -8.920000 3.160000 20.322674 10.204391 517.140686
2.960000 -8.920000 3.200000 48.985714 27.635082 3163.297852
2.960000 -8.880000 2.800000 -29.513781 3.045452 880.338013
2.960000 -8.880000 2.840000 -18.442139 -53.779625 3232.360596
2.960000 -8.880000 2.880000 44.436272 -82.791229 8828.969727
2.960000 -8.880000 2.920000 114.755013 -48.628479 15533.441406
2.960000 -8.880000 2.960000 136.733154 30.491917 19625.712891
2.960000 -8.880000 3.000000 94.536575 97.880943 18517.843750
2.960000 -8.880000 3.040000 25.567780 110.333771 12827.251953
2.960000 -8.880000 3.080000 -16.929453 75.467339 5981.925781
2.960000 -8.880000 3.120000 -13.509533 38.658676 1677.000732
2.960000 -8.880000 3.160000 8.668137 35.484085 1334.256836
2.960000 -8.880000 3.200000 9.341715 58.993084 3567.451416
2.960000 -8.840000 2.800000 -32.329353 -5.541184 1075.891846
2.960000 -8.840000 2.840000 -3.711039 -40.939018 1689.775024
2.960000 -8.840000 2.880000 47.647400 -38.369617 3742.502197
2.960000 -8.840000 2.920000 80.574173 6.331558 6532.286133
2.960000 -8.840000 2.960000 68.880875 61.179802 8487.542969
2.960000 -8.840000 3.000000 24.345440 88.054832 8346.353516
2.960000 -8.840000 3.040000 -17.284134 76.910591 6213.980469
2.960000 -8.840000 3.080000 -31.571751 50.500504 3547.076172
2.960000 -8.840000 3.120000 -25.688717 37.249290 2047.419800
2.960000 -8.840000 3.160000 -24.994793 42.237965 2408.785400
2.960000 -8.840000 3.200000 -42.899685 45.736389 3932.200195
2.960000 -8.800000 2.800000 -29.141701 -19.804102 1241.441162
2.960000 -8.800000 2.840000 -1.971422 -31.584145 1001.444702
2.960000 -8.800000 2.880000 24.928226 -17.407581 924.440430
2.960000 -8.800000 2.920000 31.945141 11.639015 1155.958740
2.960000 -8.800000 2.960000 17.405647 34.959988 1525.157227
2.960000 -8.800000 3.000000 -4.577194 41.557068 1747.940552
2.960000 -8.800000 3.040000 -20.526310 36.664471 1765.612793
2.960000 -8.800000 3.080000 -29.731630 31.131466 1853.137939
2.960000 -8.800000 3.120000 -40.119057 27.351810 2357.660156
2.960000 -8.800000 3.160000 -54.666130 17.690535 3301.340820
2.960000 -8.800000 3.200000 -65.104713 -3.928095 4254.053223
3.000000 -9.200000 2.800000 32.989510 -54.161186 4021.741699
3.000000 -9.200000 2.840000 47.584671 -30.534081 3196.631104
3.000000 -9.200000 2.880000 44.670128 -6.535920 2038.138550
3.000000 -9.200000 2.920000 31.258224 7.433783 1032.337769
3.000000 -9.200000 2.960000 17.091049 10.603251 404.532898
3.000000 -9.200000 3.000000 6.565394 7.603014 100.910225
3.000000 -9.200000 3.040000 -0.468324 1.112728 1.457491
3.000000 -9.200000 3.080000 -2.710199 -8.880655 86.211212
3.000000 -9.200000 3.120000 3.872215 -19.374170 390.352539
3.000000 -9.200000 3.160000 19.480831 -21.730244 851.706299
3.000000 -9.200000 3.200000 34.639542 -8.598228 1273.827393
3.000000 -9.160000 2.800000 59.555862 -18.387074 3884.985107
3.000000 -9.160000 2.840000 56.095482 11.304646 3274.498047
3.000000 -9.160000 2.880000 35.411865 31.174501 2225.849854
3.000000 -9.160000 2.920000 9.526449 33.350304 1202.996094
3.000000 -9.160000 2.960000 -9.264814 20.871721 521.465515
3.000000 -9.160000 3.000000 -15.457495 2.611290 245.752975
3.000000 -9.160000 3.040000 -10.018072 -13.382170 279.444244
3.000000 -9.160000 3.080000 3.321754 -21.918922 491.473206
3.000000 -9.160000 3.120000 19.342455 -19.566141 756.964478
3.000000 -9.160000 3.160000 30.327078 -5.628614 951.412903
3.000000 -9.160000 3.200000 28.003399 14.308084 988.911621
3.000000 -9.120000 2.800000 53.328011 26.397711 3540.715820
3.000000 -9.120000 2.840000 28.894375 52.564377 3597.898438
3.000000 -9.120000 2.880000 -9.595177 55.727089 3197.575928
3.000000 -9.120000 2.920000 -40.657490 31.762947 2661.916260
3.000000 -9.120000 2.960000 -47.141899 -5.565315 2253.331299
3.000000 -9.120000 3.000000 -28.083853 -35.027538 2015.631226
3.000000 -9.120000 3.040000 2.471989 -42.634369 1823.800171
3.000000 -9.120000 3.080000 26.587126 -28.929043 1543.764771
3.000000 -9.120000 3.120000 33.425068 -5.515986 1147.661255
3.000000 -9.120000 3.160000 23.100803 13.674351 720.634949
3.000000 -9.120000 3.200000 3.904654 19.516838 396.153290
3.000000 -9.080000 2.800000 18.899452 53.239140 3191.595215
3.000000 -9.080000 2.840000 -24.449615 63.455914 4624.436523
3.000000 -9.080000 2.880000 -69.047318 35.783875 6048.018066
3.000000 -9.080000 2.920000 -82.496964 -19.996159 7205.595215
3.000000 -9.080000 2.960000 -52.218815 -70.389023 7681.419434
3.000000 -9.080000 3.000000 2.835659 -84.288170 7112.536621
3.000000 -9.080000 3.040000 47.173294 -57.305000 5509.182617
3.000000 -9.080000 3.080000 56.571217 -13.215797 3374.959717
3.000000 -9.080000 3.120000 34.333408 16.956474 1466.304932
3.000000 -9.080000 3.160000 4.056948 18.408510 355.332092
3.000000 -9.080000 3.200000 -11.488293 -0.588432 132.327118
3.000000 -9.040000 2.800000 -20.695021 49.196083 2848.538574
3.000000 -9.040000 2.840000 -71.934639 32.003166 6198.794922
3.000000 -9.040000 2.880000 -99.109756 -29.243740 10677.940430
3.000000 -9.040000 2.920000 -70.216354 -99.737419 14877.888672
3.000000 -9.040000 2.960000 4.307987 -129.801514 16866.992188
3.000000 -9.040000 3.000000 76.612778 -97.743629 15423.334961
3.000000 -9.040000 3.040000 100.845627 -29.087076 11015.898438
3.000000 -9.040000 3.080000 70.577934 25.914707 5652.816406
3.000000 -9.040000 3.120000 20.370678 34.774303 1624.216675
3.000000 -9.040000 3.160000 -7.435943 6.150398 93.120644
3.000000 -9.040000 3.200000 2.081966 -24.418285 600.587280
3.000000 -9.000000 2.800000 -42.833897 23.627045 2392.979980
3.000000 -9.000000 2.840000 -83.124771 -23.166161 7446.398438
3.000000 -9.000000 2.880000 -71.085449 -100.514786 15156.363281
3.000000 -9.000000 2.920000 4.339306 -150.816589 22764.474609
3.000000 -9.000000 2.960000 98.790894 -129.224365 26458.578125
3.000000 -9.000000 3.000000 147.652283 -46.552578 23968.339844
3.000000 -9.000000 3.040000 122.219521 38.072315 16387.113281
3.000000 -9.000000 3.080000 53.344727 68.828079 7582.964844
3.000000 -9.000000 3.120000 0.829416 39.838638 1587.805054
3.000000 -9.000000 3.160000 -0.385372 -6.077083 37.079445
3.000000 -9.000000 3.200000 33.989849 -21.446815 1615.275635
3.000000 -8.960000 2.800000 -42.132225 -2.463886 1781.195068
3.000000 -8.960000 2.840000 -54.288254 -66.569038 7378.651367
3.000000 -8.960000 2.880000 -0.350646 -129.586411 16792.761719
3.000000 -8.960000 2.920000 96.223289 -131.156586 26460.972656
3.000000 -8.960000 2.960000 167.771500 -56.233917 31309.529297
3.000000 -8.960000 3.000000 161.829300 46.253281 28328.087891
3.000000 -8.960000 3.040000 88.866013 105.287796 18982.687500
3.000000 -8.960000 3.080000 11.422176 90.513786 8323.210938
3.000000 -8.960000 3.120000 -14.168389 35.273415 1444.957031
3.000000 -8.960000 3.160000 13.903969 -0.107806 193.331970
3.000000 -8.960000 3.200000 49.357132 14.138752 2636.030762
3.000000 -8.920000 2.800000 -30.599005 -15.326073 1171.187622
3.000000 -8.920000 2.840000 -10.541420 -75.093689 5750.183594
3.000000 -8.920000 2.880000 64.418587 -100.470215 14244.017578
3.000000 -8.920000 2.920000 143.224899 -53.556835 23381.705078
3.000000 -8.920000 2.960000 162.592667 42.519497 28244.283203
3.000000 -8.920000 3.000000 106.000122 120.648621 25792.117188
3.000000 -8.920000 3.040000 19.496096 130.061218 17296.017578
3.000000 -8.920000 3.080000 -31.837807 80.789459 7540.582520
3.000000 -8.920000 3.120000 -23.279636 29.231615 1396.428711
3.000000 -8.920000 3.160000 12.441866 21.568119 619.983765
3.000000 -8.920000 3.200000 23.778711 52.541836 3326.071777
3.000000 -8.880000 2.800000 -22.615778 -17.684418 824.212036
3.000000 -8.880000 2.840000 17.549795 -55.267475 3362.489258
3.000000 -8.880000 2.880000 83.418098 -42.679523 8780.121094
3.000000 -8.880000 2.920000 120.246773 24.315197 15050.514648
3.000000 -8.880000 2.960000 93.256927 100.326027 18762.166016
3.000000 -8.880000 3.000000 21.312550 130.872864 17581.931641
3.000000 -8.880000 3.040000 -41.113167 102.209686 12137.113281
3.000000 -8.880000 3.080000 -55.472130 50.745384 5652.250977
3.000000 -8.880000 3.120000 -32.209717 24.163918 1621.360718
3.000000 -8.880000 3.160000 -13.877777 35.269123 1436.503662
3.000000 -8.880000 3.200000 -28.845203 54.712402 3825.492676
3.000000 -8.840000 2.800000 -20.739517 -20.757307 860.993347
3.000000 -8.840000 2.840000 20.000631 -32.635201 1465.081543
3.000000 -8.840000 2.880000 58.425785 -2.251656 3418.642334
3.000000 -8.840000 2.920000 58.895489 51.553001 6126.390625
3.000000 -8.840000 2.960000 17.869209 88.275009 8111.785645
3.000000 -8.840000 3.000000 -33.427292 83.592415 8105.075684
3.000000 -8.840000 3.040000 -60.060867 50.085495 6115.864746
3.000000 -8.840000 3.080000 -55.660225 20.794477 3530.470703
3.000000 -8.840000 3.120000 -43.387836 14.529776 2093.618652
3.000000 -8.840000 3.160000 -47.221779 19.621887 2614.915039
3.000000 -8.840000 3.200000 -65.769272 11.135382 4449.593750
3.000000 -8.800000 2.800000 -16.328218 -29.144627 1116.020020
3.000000 -8.800000 2.840000 11.134531 -25.421055 770.207825
3.000000 -8.800000 2.880000 24.958218 -0.258816 622.979553
3.000000 -8.800000 2.920000 14.170944 26.345877 894.920898
3.000000 -8.800000 2.960000 -11.089035 35.752621 1401.216553
3.000000 -8.800000 3.000000 -32.151005 26.900051 1757.299805
3.000000 -8.800000 3.040000 -40.711685 12.859077 1822.797119
3.000000 -8.800000 3.080000 -43.620159 3.666695 1916.162964
3.000000 -8.800000 3.120000 -50.115780 -4.236746 2529.541260
3.000000 -8.800000 3.160000 -57.934971 -20.691286 3784.590332
3.000000 -8.800000 3.200000 -54.809288 -46.500965 5166.397949
3.040000 -9.200000 2.800000 50.460541 -21.284599 2999.300293
3.040000 -9.200000 2.840000 51.291481 7.013931 2680.011230
3.040000 -9.200000 2.880000 33.960903 26.695669 1866.001709
3.040000 -9.200000 2.920000 11.566595 29.120186 981.771362
3.040000 -9.200000 2.960000 -3.113245 18.723913 360.277222
3.040000 -9.200000 3.000000 -6.678328 5.641884 76.430908
3.040000 -9.200000 3.040000 -3.123266 -3.937561 25.259178
3.040000 -9.200000 3.080000 3.805662 -9.359020 102.074326
3.040000 -9.200000 3.120000 13.369419 -10.104724 280.846802
3.040000 -9.200000 3.160000 23.304260 -3.041304 552.338074
3.040000 -9.200000 3.200000 26.244011 12.605265 847.640808
3.040000 -9.160000 2.800000 53.219604 15.806987 3082.187256
3.040000 -9.160000 2.840000 36.805096 41.610817 3086.075195
3.040000 -9.160000 2.880000 6.993583 49.083157 2458.066406
3.040000 -9.160000 2.920000 -18.408150 35.186409 1576.943359
3.040000 -9.160000 2.960000 -26.922438 10.848829 842.514709
3.040000 -9.160000 3.000000 -18.714809 -9.568885 441.807648
3.040000 -9.160000 3.040000 -2.404825 -18.247282 338.746460
3.040000 -9.160000 3.080000 13.242256 -15.226143 407.192780
3.040000 -9.160000 3.120000 22.884109 -3.940554 539.210449
3.040000 -9.160000 3.160000 23.117157 11.321343 662.575806
3.040000 -9.160000 3.200000 12.109559 24.107393 727.807800
3.040000 -9.120000 2.800000 28.627928 46.011818 2936.645508
3.040000 -9.120000 2.840000 -4.036194 59.401627 3544.843994
3.040000 -9.120000 2.880000 -39.725945 44.216988 3533.292480
3.040000 -9.120000 2.920000 -54.950325 7.477669 3075.453857
3.040000 -9.120000 2.960000 -40.924034 -28.240360 2472.294434
3.040000 -9.120000 3.000000 -9.066650 -42.986107 1930.009521
3.040000 -9.120000 3.040000 20.000086 -33.065918 1493.358398
3.040000 -9.120000 3.080000 31.989334 -9.955803 1122.435547
3.040000 -9.120000 3.120000 25.844585 10.972389 788.335876
3.040000 -9.120000 3.160000 9.773178 20.237713 505.080048
3.040000 -9.120000 3.200000 -6.255976 16.418198 308.694458
3.040000 -9.080000 2.800000 -9.884197 51.012878 2700.010986
3.040000 -9.080000 2.840000 -50.718742 41.612148 4303.961914
3.040000 -9.080000 2.880000 -75.276779 -1.240721 5668.132812
3.040000 -9.080000 2.920000 -60.427307 -52.901642 6450.042969
3.040000 -9.080000 2.960000 -12.583733 -79.082085 6412.326172
3.040000 -9.080000 3.000000 37.152313 -64.296844 5514.378418
3.040000 -9.080000 3.040000 58.784737 -23.176882 3992.812988
3.040000 -9.080000 3.080000 46.001476 13.988846 2311.823486
3.040000 -9.080000 3.120000 16.798061 26.125177 964.699768
3.040000 -9.080000 3.160000 -4.846445 14.415639 231.298660
3.040000 -9.080000 3.200000 -7.443450 -4.552255 76.127975
3.040000 -9.040000 2.800000 -39.421276 29.353756 2415.679932
3.040000 -9.040000 2.840000 -72.437119 -6.571580 5290.321777
3.040000 -9.040000 2.880000 -65.995682 -66.415726 8766.478516
3.040000 -9.040000 2.920000 -11.738253 -107.314217 11654.126953
3.040000 -9.040000 2.960000 58.340878 -96.099052 12638.686523
3.040000 -9.040000 3.000000 97.728882 -39.459846 11108.013672
3.040000 -9.040000 3.040000 84.757919 21.722321 7655.764160
3.040000 -9.040000 3.080000 38.758438 47.884388 3795.131104
3.040000 -9.040000 3.120000 -0.204044 32.282516 1042.202515
3.040000 -9.040000 3.160000 -6.616744 0.976155 44.734184
3.040000 -9.040000 3.200000 13.041506 -14.656488 384.893524
3.040000 -9.000000 2.800000 -44.921539 -2.459202 2023.992432
3.040000 -9.000000 2.840000 -53.567360 -55.632820 5964.472656
3.040000 -9.000000 2.880000 -9.066947 -107.247604 11584.258789
3.040000 -9.000000 2.920000 69.446701 -109.421242 16795.851562
3.040000 -9.000000 2.960000 128.291260 -50.364830 18995.261719
3.040000 -9.000000 3.000000 125.842918 31.530556 16830.617188
3.040000 -9.000000 3.040000 69.449059 80.383087 11284.613281
3.040000 -9.000000 3.080000 7.270784 71.155479 5115.966309
3.040000 -9.000000 3.120000 -15.972402 27.847980 1030.627686
3.040000 -9.000000 3.160000 3.843757 -3.360303 26.066101
3.040000 -9.000000 3.200000 33.510910 2.787178 1130.749390
3.040000 -8.960000 2.800000 -30.195524 -23.858953 1481.019287
3.040000 -8.960000 2.840000 -8.688264 -74.756065 5663.955078
3.040000 -8.960000 2.880000 59.209259 -94.052299 12351.571289
3.040000 -8.960000 2.920000 128.483917 -49.825523 18990.699219
3.040000 -8.960000 2.960000 144.135468 36.700035 22121.925781
3.040000 -8.960000 3.000000 92.277077 106.249435 19804.000000
3.040000 -8.960000 3.040000 13.822865 113.918648 13168.529297
3.040000 -8.960000 3.080000 -33.158325 68.110916 5738.571289
3.040000 -8.960000 3.120000 -25.336575 18.718882 992.338501
3.040000 -8.960000 3.160000 9.801715 8.335765 165.558594
3.040000 -8.960000 3.200000 26.082767 35.292419 1925.865479
3.040000 -8.920000 2.800000 -12.388783 -27.120615 889.009705
3.040000 -8.920000 2.840000 29.425980 -57.922985 4220.960449
3.040000 -8.920000 2.880000 92.892029 -39.474895 10187.196289
3.040000 -8.920000 2.920000 124.852341 30.670206 16528.769531
3.040000 -8.920000 2.960000 92.303467 106.567535 19876.570312
3.040000 -8.920000 3.000000 15.714094 133.796585 18148.458984
3.040000 -8.920000 3.040000 -48.708881 99.213303 12215.833984
3.040000 -8.920000 3.080000 -60.769947 41.068363 5379.597168
3.040000 -8.920000 3.120000 -30.735035 10.266374 1050.040771
3.040000 -8.920000 3.160000 -3.702967 22.618561 525.311279
3.040000 -8.920000 3.200000 -12.581142 49.066967 2565.852295
3.040000 -8.880000 2.800000 -4.988577 -21.516453 487.843628
3.040000 -8.880000 2.840000 38.813499 -27.367979 2255.494141
3.040000 -8.880000 2.880000 76.633377 12.613605 6031.777344
3.040000 -8.880000 2.920000 68.848221 75.742439 10476.994141
3.040000 -8.880000 2.960000 13.158638 114.224129 13220.300781
3.040000 -8.880000 3.000000 -51.114838 99.705101 12553.833984
3.040000 -8.880000 3.040000 -79.801544 49.416458 8810.273438
3.040000 -8.880000 3.080000 -64.517769 7.445139 4217.972656
3.040000 -8.880000 3.120000 -36.389481 1.160686 1325.541504
3.040000 -8.880000 3.160000 -31.042793 17.559711 1271.998535
3.040000 -8.880000 3.200000 -52.637527 21.772856 3244.766602
3.040000 -8.840000 2.800000 -5.989711 -21.061087 479.446014
3.040000 -8.840000 2.840000 25.950588 -10.661369 787.097839
3.040000 -8.840000 2.880000 36.804825 27.392027 2104.918213
3.040000 -8.840000 2.920000 10.664253 63.184696 4106.032227
3.040000 -8.840000 2.960000 -35.243221 66.960724 5725.823242
3.040000 -8.840000 3.000000 -67.272331 37.557129 5936.104492
3.040000 -8.840000 3.040000 -67.978966 1.466663 4623.290527
3.040000 -8.840000 3.080000 -50.431496 -15.538876 2784.792236
3.040000 -8.840000 3.120000 -40.496025 -13.395306 1819.362305
3.040000 -8.840000 3.160000 -47.741306 -13.581951 2463.701904
3.040000 -8.840000 3.200000 -56.562908 -32.354462 4246.173828
3.040000 -8.800000 2.800000 -2.887768 -28.705898 832.367798
3.040000 -8.800000 2.840000 14.912466 -14.761333 440.278625
3.040000 -8.800000 2.880000 12.996166 8.388393 239.265472
3.040000 -8.800000 2.920000 -7.032223 20.590317 473.413300
3.040000 -8.800000 2.960000 -28.238201 13.493538 979.471558
3.040000 -8.800000 3.000000 -36.781631 -3.503830 1365.165283
3.040000 -8.800000 3.040000 -34.569069 -16.504200 1467.409180
3.040000 -8.800000 3.080000 -32.800789 -23.134041 1611.075562
3.040000 -8.800000 3.120000 -35.508331 -32.797791 2336.536621
3.040000 -8.800000 3.160000 -33.360973 -51.840523 3800.394287
3.040000 -8.800000 3.200000 -15.186169 -72.170853 5439.251465
3.080000 -9.200000 2.800000 40.014847 14.256746 1804.442871
3.080000 -9.200000 2.840000 26.961523 36.334461 2047.116821
3.080000 -9.200000 2.880000 2.502351 42.006168 1770.779907
3.080000 -9.200000 2.920000 -16.826054 29.756966 1168.593018
3.080000 -9.200000 2.960000 -21.188061 10.932645 568.456665
3.080000 -9.200000 3.000000 -13.541418 -2.069235 187.651749
3.080000 -9.200000 3.040000 -3.144471 -5.520602 40.364742
3.080000 -9.200000 3.080000 4.301357 -3.195397 28.712236
3.080000 -9.200000 3.120000 8.870914 1.402884 80.661209
3.080000 -9.200000 3.160000 10.877979 8.518532 190.895813
3.080000 -9.200000 3.200000 7.071842 17.714745 363.823120
3.080000 -9.160000 2.800000 25.405659 36.424950 1972.224487
3.080000 -9.160000 2.840000 1.388586 50.211586 2523.131592
3.080000 -9.160000 2.880000 -26.169851 41.893806 2439.952148
3.080000 -9.160000 2.920000 -39.308075 17.287106 1843.968750
3.080000 -9.160000 2.960000 -32.423962 -6.995545 1100.250854
3.080000 -9.160000 3.000000 -14.147745 -18.145924 529.433228
3.080000 -9.160000 3.040000 2.828033 -15.175219 238.285034
3.080000 -9.160000 3.080000 11.731543 -4.917048 161.806458
3.080000 -9.160000 3.120000 12.621414 6.255987 198.437469
3.080000 -9.160000 3.160000 7.226912 15.279598 285.694366
3.080000 -9.160000 3.200000 -3.382185 19.390675 387.437439
3.080000 -9.120000 2.800000 -2.008047 44.107956 1949.543945
3.080000 -9.120000 2.840000 -32.620308 42.558365 2875.298828
3.080000 -9.120000 2.880000 -54.068069 16.198082 3185.734131
3.080000 -9.120000 2.920000 -49.862797 -18.526594 2829.533203
3.080000 -9.120000 2.960000 -23.474463 -39.269058 2093.109375
3.080000 -9.120000 3.000000 6.521791 -36.059368 1342.811890
3.080000 -9.120000 3.040000 22.949902 -16.506670 799.168152
3.080000 -9.120000 3.080000 21.708738 4.023744 487.459839
3.080000 -9.120000 3.120000 10.071259 15.131816 330.402100
3.080000 -9.120000 3.160000 -2.616009 15.554169 248.775665
3.080000 -9.120000 3.200000 -10.987034 8.913752 200.169891
3.080000 -9.080000 2.800000 -28.063908 31.295176 1766.970947
3.080000 -9.080000 2.840000 -54.829559 10.239581 3111.129639
3.080000 -9.080000 2.880000 -56.574818 -29.690115 4082.212891
3.080000 -9.080000 2.920000 -26.277695 -60.478657 4348.185059
3.080000 -9.080000 2.960000 17.028564 -60.088730 3900.627441
3.080000 -9.080000 3.000000 45.069870 -30.891006 2985.547363
3.080000 -9.080000 3.040000 43.818233 4.465976 1939.982544
3.080000 -9.080000 3.080000 22.056734 23.566414 1041.875366
3.080000 -9.080000 3.120000 -0.055190 20.868645 435.503387
3.080000 -9.080000 3.160000 -8.779131 7.106946 127.581825
3.080000 -9.080000 3.200000 -4.503076 -3.775187 34.529736
3.080000 -9.040000 2.800000 -38.011002 5.199949 1471.875610
3.080000 -9.040000 2.840000 -47.900269 -30.558723 3228.271484
3.080000 -9.040000 2.880000 -21.914087 -67.925041 5094.038086
3.080000 -9.040000 2.920000 28.672199 -74.534660 6377.510742
3.080000 -9.040000 2.960000 69.560379 -41.150051 6531.973145
3.080000 -9.040000 3.000000 73.348495 9.411211 5468.572754
3.080000 -9.040000 3.040000 42.594101 42.664562 3634.522461
3.080000 -9.040000 3.080000 5.004461 41.792656 1771.670776
3.080000 -9.040000 3.120000 -12.490814 18.622356 502.812592
3.080000 -9.040000 3.160000 -5.159028 -1.326696 28.375692
3.080000 -9.040000 3.200000 10.802588 -2.578629 123.345230
3.080000 -9.000000 2.800000 -28.082628 -17.751305 1103.742920
3.080000 -9.000000 2.840000 -14.447295 -53.994400 3124.119629
3.080000 -9.000000 2.880000 32.078945 -69.434616 5850.224609
3.080000 -9.000000 2.920000 80.961388 -41.333656 8263.216797
3.080000 -9.000000 2.960000 94.372131 16.767536 9187.250000
3.080000 -9.000000 3.000000 61.817245 65.152161 8066.175781
3.080000 -9.000000 3.040000 9.607890 72.908768 5408.000000
3.080000 -9.000000 3.080000 -23.638298 43.954208 2490.741455
3.080000 -9.000000 3.120000 -20.908825 10.071024 538.604492
3.080000 -9.000000 3.160000 1.953894 -0.093276 3.826401
3.080000 -9.000000 3.200000 15.660358 14.877820 466.596375
3.080000 -8.960000 2.800000 -9.049789 -24.888067 701.314575
3.080000 -8.960000 2.840000 22.213688 -46.381672 2644.707520
3.080000 -8.960000 2.880000 68.957878 -31.744827 5762.922852
3.080000 -8.960000 2.920000 92.111290 20.718399 8913.741211
3.080000 -8.960000 2.960000 67.430206 77.086456 10489.154297
3.080000 -8.960000 3.000000 10.000574 97.085510 9525.608398
3.080000 -8.960000 3.040000 -38.516506 70.623260 6471.166016
3.080000 -8.960000 3.080000 -47.664295 25.651230 2929.870605
3.080000 -8.960000 3.120000 -23.862564 0.426391 569.603760
3.080000 -8.960000 3.160000 -0.149777 8.466629 71.706238
3.080000 -8.960000 3.200000 -2.480240 30.042513 908.704163
3.080000 -8.920000 2.800000 3.347531 -18.006250 335.431030
3.080000 -8.920000 2.840000 37.631786 -18.995245 1776.970703
3.080000 -8.920000 2.880000 65.322250 15.995827 4522.863281
3.080000 -8.920000 2.920000 54.991043 67.767036 7616.385742
3.080000 -8.920000 2.960000 5.928965 97.042458 9452.390625
3.080000 -8.920000 3.000000 -48.384624 80.995651 8901.367188
3.080000 -8.920000 3.040000 -70.637695 34.960102 6211.892578
3.080000 -8.920000 3.080000 -53.694145 -2.873435 2891.317871
3.080000 -8.920000 3.120000 -24.471767 -7.916363 661.536194
3.080000 -8.920000 3.160000 -15.137337 9.846711 326.096680
3.080000 -8.920000 3.200000 -31.984062 19.945757 1420.813477
3.080000 -8.880000 2.800000 3.156450 -10.648888 123.361992
3.080000 -8.880000 2.840000 28.117144 2.593777 797.301453
3.080000 -8.880000 2.880000 32.100517 38.671021 2525.891113
3.080000 -8.880000 2.920000 1.771263 69.128609 4781.901855
3.080000 -8.880000 2.960000 -44.696053 66.274681 6390.070312
3.080000 -8.880000 3.000000 -73.584244 30.703770 6357.362793
3.080000 -8.880000 3.040000 -67.737976 -9.251827 4674.029785
3.080000 -8.880000 3.080000 -41.664776 -25.668592 2394.830078
3.080000 -8.880000 3.120000 -24.538643 -17.357649 903.432983
3.080000 -8.880000 3.160000 -29.883623 -7.617842 951.062439
3.080000 -8.880000 3.200000 -43.704491 -17.474850 2215.452881
3.080000 -8.840000 2.800000 -0.621998 -13.521224 183.210388
3.080000 -8.840000 2.840000 12.487137 3.228832 166.353943
3.080000 -8.840000 2.880000 3.027878 27.029047 739.737427
3.080000 -8.840000 2.920000 -25.678055 34.238106 1831.610352
3.080000 -8.840000 2.960000 -51.168152 15.655155 2863.263672
3.080000 -8.840000 3.000000 -54.471169 -14.290421 3171.324219
3.080000 -8.840000 3.040000 -38.554234 -33.256840 2592.446289
3.080000 -8.840000 3.080000 -22.817732 -34.094250 1683.066650
3.080000 -8.840000 3.120000 -20.599794 -30.094992 1330.060059
3.080000 -8.840000 3.160000 -25.008953 -37.589470 2038.416016
3.080000 -8.840000 3.200000 -18.305786 -56.141109 3486.926025
3.080000 -8.800000 2.800000 5.342446 -22.645008 541.338135
3.080000 -8.800000 2.840000 11.362946 -8.264490 197.418335
3.080000 -8.800000 2.880000 1.579189 3.478171 14.591515
3.080000 -8.800000 2.920000 -13.686602 0.859001 188.060944
3.080000 -8.800000 2.960000 -20.357029 -12.657883 574.630615
3.080000 -8.800000 3.000000 -15.801048 -24.452269 847.586548
3.080000 -8.800000 3.040000 -9.350101 -28.462379 897.531433
3.080000 -8.800000 3.080000 -8.381060 -31.412739 1057.002319
3.080000 -8.800000 3.120000 -7.517463 -42.208939 1838.106689
3.080000 -8.800000 3.160000 5.259953 -57.710838 3358.207764
3.080000 -8.800000 3.200000 32.396301 -63.007324 5019.443359
3.120000 -9.200000 2.800000 8.836776 28.832285 909.389282
3.120000 -9.200000 2.840000 -8.795056 37.380524 1474.656616
3.120000 -9.200000 2.880000 -27.632694 29.414570 1628.782715
3.120000 -9.200000 2.920000 -34.545403 10.948549 1313.255615
3.120000 -9.200000 2.960000 -27.332390 -4.811854 770.213440
3.120000 -9.200000 3.000000 -14.588717 -9.769205 308.268005
3.120000 -9.200000 3.040000 -5.812844 -6.255091 72.915329
3.120000 -9.200000 3.080000 -3.216600 -1.394751 12.291845
3.120000 -9.200000 3.120000 -3.132204 1.351192 11.636423
3.120000 -9.200000 3.160000 -3.217236 3.667739 23.802917
3.120000 -9.200000 3.200000 -5.463580 6.684370 74.531502
3.120000 -9.160000 2.800000 -6.444919 30.233372 955.593750
3.120000 -9.160000 2.840000 -27.330696 31.043205 1710.647583
3.120000 -9.160000 2.880000 -42.629494 14.411079 2024.952881
3.120000 -9.160000 2.920000 -41.032696 -8.112140 1749.488892
3.120000 -9.160000 2.960000 -25.477764 -21.770836 1123.085693
3.120000 -9.160000 3.000000 -8.168292 -21.240021 517.859497
3.120000 -9.160000 3.040000 1.474186 -12.288401 153.178024
3.120000 -9.160000 3.080000 2.974700 -3.286753 19.651585
3.120000 -9.160000 3.120000 0.731889 2.455692 6.566086
3.120000 -9.160000 3.160000 -2.883108 5.960299 43.837467
3.120000 -9.160000 3.200000 -8.373953 7.112943 120.717041
3.120000 -9.120000 2.800000 -20.261026 22.441055 914.110107
3.120000 -9.120000 2.840000 -40.133739 12.748363 1773.237793
3.120000 -9.120000 2.880000 -45.775421 -11.388771 2225.093262
3.120000 -9.120000 2.920000 -31.300671 -32.577446 2041.021973
3.120000 -9.120000 2.960000 -7.220335 -36.875233 1411.916016
3.120000 -9.120000 3.000000 10.533123 -24.825333 727.243774
3.120000 -9.120000 3.040000 14.296020 -7.932170 267.295502
3.120000 -9.120000 3.080000 7.999433 3.256333 74.594627
3.120000 -9.120000 3.120000 -0.261187 6.486829 42.147171
3.120000 -9.120000 3.160000 -6.191743 5.151996 64.880745
3.120000 -9.120000 3.200000 -9.822453 1.920614 100.169350
3.120000 -9.080000 2.800000 -26.640963 7.860632 771.530457
3.120000 -9.080000 2.840000 -38.300217 -11.441986 1597.825684
3.120000 -9.080000 2.880000 -28.906826 -35.954807 2128.352783
3.120000 -9.080000 2.920000 -2.558128 -45.782127 2102.547119
3.120000 -9.080000 2.960000 22.303265 -33.445843 1616.060059
3.120000 -9.080000 3.000000 29.922922 -9.311107 982.078003
3.120000 -9.080000 3.040000 19.772392 9.444139 480.139252
3.120000 -9.080000 3.080000 3.819155 13.807747 205.239807
3.120000 -9.080000 3.120000 -6.136011 7.659487 96.318367
3.120000 -9.080000 3.160000 -7.443269 0.351762 55.525986
3.120000 -9.080000 3.200000 -4.830966 -2.787169 31.106539
3.120000 -9.040000 2.800000 -22.379841 -6.684428 545.538818
3.120000 -9.040000 2.840000 -20.320353 -28.491161 1224.662964
3.120000 -9.040000 2.880000 2.358094 -42.318264 1796.396118
3.120000 -9.040000 2.920000 30.360312 -33.112061 2018.157104
3.120000 -9.040000 2.960000 42.522903 -5.548803 1838.986450
3.120000 -9.040000 3.000000 31.053675 20.570560 1387.478638
3.120000 -9.040000 3.040000 7.295823 28.499428 865.446411
3.120000 -9.040000 3.080000 -10.191380 18.158724 433.603485
3.120000 -9.040000 3.120000 -12.201425 3.198302 159.103897
3.120000 -9.040000 3.160000 -4.336047 -3.370922 30.164421
3.120000 -9.040000 3.200000 1.579525 0.105639 2.506059
3.120000 -9.000000 2.800000 -10.873108 -13.392162 297.574463
3.120000 -9.000000 2.840000 3.248792 -27.865088 787.017700
3.120000 -9.000000 2.880000 28.584927 -24.072880 1396.601562
3.120000 -9.000000 2.920000 43.852314 1.183623 1924.426392
3.120000 -9.000000 2.960000 34.433056 30.987114 2145.836670
3.120000 -9.000000 3.000000 6.486658 43.584908 1941.720947
3.120000 -9.000000 3.040000 -18.908840 32.120525 1389.272461
3.120000 -9.000000 3.080000 -25.218147 9.630322 728.698059
3.120000 -9.000000 3.120000 -14.186383 -4.516102 221.648636
3.120000 -9.000000 3.160000 -1.508616 -2.355172 7.822758
3.120000 -9.000000 3.200000 -0.519341 7.674573 59.168785
3.120000 -8.960000 2.800000 -1.010993 -10.179810 104.650635
3.120000 -8.960000 2.840000 16.604565 -12.060136 421.158447
3.120000 -8.960000 2.880000 31.901798 5.714092 1050.375610
3.120000 -8.960000 2.920000 26.922306 33.322239 1835.182129
3.120000 -8.960000 2.960000 0.551100 49.055565 2406.752197
3.120000 -8.960000 3.000000 -28.997009 39.828178 2427.110352
3.120000 -8.960000 3.040000 -40.807785 13.675234 1852.287354
3.120000 -8.960000 3.080000 -30.327293 -8.192004 986.853699
3.120000 -8.960000 3.120000 -12.128010 -11.435847 277.867249
3.120000 -8.960000 3.160000 -4.586382 -0.677192 21.493492
3.120000 -8.960000 3.200000 -12.526408 7.281895 209.936890
3.120000 -8.920000 2.800000 0.433850 -3.690328 13.806744
3.120000 -8.920000 2.840000 12.846519 4.029457 181.269592
3.120000 -8.920000 2.880000 13.020571 24.148174 752.669617
3.120000 -8.920000 2.920000 -6.462954 39.727959 1620.080444
3.120000 -8.920000 2.960000 -34.051323 34.657234 2360.616455
3.120000 -8.920000 3.000000 -49.181171 10.282240 2524.511963
3.120000 -8.920000 3.040000 -41.935623 -15.245705 1991.027954
3.120000 -8.920000 3.080000 -22.138186 -24.391468 1085.042969
3.120000 -8.920000 3.120000 -8.801796 -16.525204 350.553986
3.120000 -8.920000 3.160000 -11.266819 -6.770315 172.778381
3.120000 -8.920000 3.200000 -21.295404 -9.580263 545.275696
3.120000 -8.880000 2.800000 -3.798944 -3.364111 25.749222
3.120000 -8.880000 2.840000 1.082705 6.818860 47.669102
3.120000 -8.880000 2.880000 -8.487273 19.378624 447.564880
3.120000 -8.880000 2.920000 -28.696632 18.874649 1179.749023
3.120000 -8.880000 2.960000 -43.241375 0.866880 1870.567993
3.120000 -8.880000 3.000000 -39.741753 -22.456289 2083.691895
3.120000 -8.880000 3.040000 -22.397125 -34.364826 1682.572510
3.120000 -8.880000 3.080000 -7.190125 -30.400637 975.896606
3.120000 -8.880000 3.120000 -4.937569 -21.876719 502.970398
3.120000 -8.880000 3.160000 -10.602965 -22.695215 627.495667
3.120000 -8.880000 3.200000 -9.965080 -34.214855 1269.959229
3.120000 -8.840000 2.800000 -3.313241 -10.893902 129.654663
3.120000 -8.840000 2.840000 -2.572310 -2.264358 11.744098
3.120000 -8.840000 2.880000 -12.814187 1.687190 167.049988
3.120000 -8.840000 2.920000 -23.837730 -7.340675 622.122864
3.120000 -8.840000 2.960000 -23.427364 -23.757534 1113.261841
3.120000 -8.840000 3.000000 -11.116343 -34.196854 1292.997925
3.120000 -8.840000 3.040000 1.624937 -32.595383 1065.099365
3.120000 -8.840000 3.080000 5.000287 -26.651651 735.313416
3.120000 -8.840000 3.120000 2.446332 -28.083221 794.651855
3.120000 -8.840000 3.160000 6.481369 -37.956593 1482.711060
3.120000 -8.840000 3.200000 23.428728 -44.355671 2516.330811
3.120000 -8.800000 2.800000 8.601767 -16.516140 346.773254
3.120000 -8.800000 2.840000 7.891154 -8.141048 128.546997
3.120000 -8.800000 2.880000 0.922712 -7.424709 55.977707
3.120000 -8.800000 2.920000 -1.627207 -14.907812 224.890656
3.120000 -8.800000 2.960000 4.391088 -21.404808 477.447449
3.120000 -8.800000 3.000000 12.025408 -20.364779 559.334656
3.120000 -8.800000 3.040000 13.156786 -16.603323 448.771362
3.120000 -8.800000 3.080000 10.491122 -19.900530 506.094727
3.120000 -8.800000 3.120000 15.857292 -30.822071 1201.453735
3.120000 -8.800000 3.160000 35.427052 -36.590214 2593.919678
3.120000 -8.800000 3.200000 59.170555 -23.922264 4073.429199
3.160000 -9.200000 2.800000 -18.169098 14.197249 531.677979
3.160000 -9.200000 2.840000 -28.835266 12.558104 989.178589
3.160000 -9.200000 2.880000 -35.270676 1.657845 1246.768921
3.160000 -9.200000 2.920000 -31.834311 -11.047848 1135.478271
3.160000 -9.200000 2.960000 -21.655058 -17.331802 769.332886
3.160000 -9.200000 3.000000 -12.542501 -15.731901 404.807068
3.160000 -9.200000 3.040000 -8.942033 -11.411148 210.174255
3.160000 -9.200000 3.080000 -8.762394 -9.524368 167.493134
3.160000 -9.200000 3.120000 -7.636563 -10.053234 159.384613
3.160000 -9.200000 3.160000 -4.715930 -9.602762 114.453041
3.160000 -9.200000 3.200000 -2.960938 -6.975881 57.430061
3.160000 -9.160000 2.800000 -19.516201 3.785959 395.215607
3.160000 -9.160000 2.840000 -29.903904 -0.037479 894.244873
3.160000 -9.160000 2.880000 -33.260689 -12.591464 1264.818359
3.160000 -9.160000 2.920000 -25.735077 -24.172527 1246.605225
3.160000 -9.160000 2.960000 -13.074538 -27.084852 904.532776
3.160000 -9.160000 3.000000 -3.659934 -22.089294 501.332031
3.160000 -9.160000 3.040000 -0.464511 -15.419031 237.962296
3.160000 -9.160000 3.080000 -0.369547 -11.233612 126.330605
3.160000 -9.160000 3.120000 -0.020904 -8.497596 72.209572
3.160000 -9.160000 3.160000 -0.100464 -4.907336 24.092043
3.160000 -9.160000 3.200000 -2.965508 -1.612983 11.395955
3.160000 -9.120000 2.800000 -15.332796 -2.558872 241.642456
3.160000 -9.120000 2.840000 -24.508272 -9.477253 690.473694
3.160000 -9.120000 2.880000 -23.588730 -22.532509 1064.142090
3.160000 -9.120000 2.920000 -12.375456 -30.679691 1094.395386
3.160000 -9.120000 2.960000 0.670059 -28.446661 809.661499
3.160000 -9.120000 3.000000 7.567832 -19.537188 438.973755
3.160000 -9.120000 3.040000 7.427238 -11.091624 178.187988
3.160000 -9.120000 3.080000 4.494290 -6.390837 61.041439
3.160000 -9.120000 3.120000 1.853018 -3.858166 18.319118
3.160000 -9.120000 3.160000 -1.166060 -1.765813 4.477793
3.160000 -9.120000 3.200000 -5.673338 -1.445168 34.275276
3.160000 -9.080000 2.800000 -10.637199 -3.861619 128.062119
3.160000 -9.080000 2.840000 -16.366596 -13.281303 444.258484
3.160000 -9.080000 2.880000 -10.895790 -24.100212 699.538513
3.160000 -9.080000 2.920000 1.476130 -26.580564 708.705383
3.160000 -9.080000 2.960000 11.104078 -19.365093 498.307373
3.160000 -9.080000 3.000000 12.424444 -9.042280 236.129639
3.160000 -9.080000 3.040000 7.617273 -2.543739 64.493454
3.160000 -9.080000 3.080000 2.231502 -1.256628 6.558713
3.160000 -9.080000 3.120000 -0.955650 -2.191686 5.716753
3.160000 -9.080000 3.160000 -3.073641 -3.051292 18.757652
3.160000 -9.080000 3.200000 -5.506938 -4.578613 51.290066
3.160000 -9.040000 2.800000 -8.301153 -2.445854 74.891342
3.160000 -9.040000 2.840000 -9.538613 -11.576555 225.001770
3.160000 -9.040000 2.880000 -1.943810 -17.509830 310.372589
3.160000 -9.040000 2.920000 7.327885 -14.684619 269.335938
3.160000 -9.040000 2.960000 10.508120 -6.147490 148.212204
3.160000 -9.040000 3.000000 6.330471 0.649582 40.496819
3.160000 -9.040000 3.040000 -0.152380 1.373061 1.908517
3.160000 -9.040000 3.080000 -3.609680 -2.137432 17.598408
3.160000 -9.040000 3.120000 -3.268229 -5.354188 39.348652
3.160000 -9.040000 3.160000 -2.111317 -6.212341 43.050838
3.160000 -9.040000 3.200000 -2.500066 -6.391518 47.101830
3.160000 -9.000000 2.800000 -8.685081 -0.872647 76.192139
3.160000 -9.000000 2.840000 -7.231743 -7.076987 102.381851
3.160000 -9.000000 2.880000 -1.548813 -8.400485 72.966965
3.160000 -9.000000 2.920000 1.818693 -4.268267 21.525743
3.160000 -9.000000 2.960000 -0.415838 0.209900 0.216979
3.160000 -9.000000 3.000000 -5.458836 0.096819 29.808266
3.160000 -9.000000 3.040000 -8.004172 -4.483558 84.169060
3.160000 -9.000000 3.080000 -5.815000 -9.128818 117.149536
3.160000 -9.000000 3.120000 -1.506459 -10.093590 104.149971
3.160000 -9.000000 3.160000 0.727152 -7.947823 63.696636
3.160000 -9.000000 3.200000 -0.423636 -6.438392 41.632355
3.160000 -8.960000 2.800000 -10.974976 -1.098311 121.656380
3.160000 -8.960000 2.840000 -9.749624 -4.447051 114.831436
3.160000 -8.960000 2.880000 -8.139317 -4.629848 87.683960
3.160000 -8.960000 2.920000 -9.145352 -4.114456 100.566216
3.160000 -8.960000 2.960000 -11.493330 -6.369257 172.664062
3.160000 -8.960000 3.000000 -11.380184 -11.489728 261.522461
3.160000 -8.960000 3.040000 -6.989089 -15.884098 301.151917
3.160000 -8.960000 3.080000 -0.715894 -16.094927 259.559174
3.160000 -8.960000 3.120000 3.163023 -12.469341 165.489182
3.160000 -8.960000 3.160000 2.749976 -8.852444 85.928131
3.160000 -8.960000 3.200000 0.322592 -8.825335 77.990593
3.160000 -8.920000 2.800000 -13.098558 -4.683492 193.507324
3.160000 -8.920000 2.840000 -13.053384 -7.220836 222.531296
3.160000 -8.920000 2.880000 -13.885630 -9.657377 286.075653
3.160000 -8.920000 2.920000 -14.400431 -14.349425 413.278412
3.160000 -8.920000 2.960000 -11.397977 -20.565208 552.841675
3.160000 -8.920000 3.000000 -4.068380 -24.342575 609.112671
3.160000 -8.920000 3.040000 4.091199 -22.632219 528.955261
3.160000 -8.920000 3.080000 8.326322 -16.935190 356.128296
3.160000 -8.920000 3.120000 7.413459 -12.192687 203.621002
3.160000 -8.920000 3.160000 4.877047 -11.963580 166.912827
3.160000 -8.920000 3.200000 5.422946 -15.076181 256.699585
3.160000 -8.880000 2.800000 -11.279651 -11.178508 252.189560
3.160000 -8.880000 2.840000 -11.087122 -13.714369 311.008179
3.160000 -8.880000 2.880000 -11.142881 -18.453346 464.689819
3.160000 -8.880000 2.920000 -7.432159 -25.339832 697.344116
3.160000 -8.880000 2.960000 1.780869 -29.523142 874.787415
3.160000 -8.880000 3.000000 12.217556 -26.527874 852.996765
3.160000 -8.880000 3.040000 17.153450 -18.116991 622.466187
3.160000 -8.880000 3.080000 14.716442 -11.479456 348.351562
3.160000 -8.880000 3.120000 10.500868 -11.868038 251.118561
3.160000 -8.880000 3.160000 11.895492 -16.777203 422.977234
3.160000 -8.880000 3.200000 20.128170 -18.392437 743.424927
3.160000 -8.840000 2.800000 -2.547383 -15.940289 260.581970
3.160000 -8.840000 2.840000 -1.740283 -16.713947 282.384644
3.160000 -8.840000 2.880000 -0.193340 -21.207666 449.802490
3.160000 -8.840000 2.920000 7.085253 -26.045143 728.550293
3.160000 -8.840000 2.960000 18.237396 -24.335911 924.839233
3.160000 -8.840000 3.000000 25.046310 -14.886786 848.934082
3.160000 -8.840000 3.040000 22.363960 -5.467372 530.038879
3.160000 -8.840000 3.080000 15.376445 -4.880183 260.251251
3.160000 -8.840000 3.120000 15.125793 -12.268747 379.311768
3.160000 -8.840000 3.160000 26.110168 -16.542191 955.385010
3.160000 -8.840000 3.200000 39.966599 -7.913906 1659.958862
3.160000 -8.800000 2.800000 10.441586 -11.842230 249.265106
3.160000 -8.800000 2.840000 9.004829 -9.511682 171.559036
3.160000 -8.800000 2.880000 9.800874 -12.650876 256.101807
3.160000 -8.800000 2.920000 17.100485 -14.356892 498.546906
3.160000 -8.800000 2.960000 25.111008 -8.145113 696.905518
3.160000 -8.800000 3.000000 24.953030 2.211239 627.543274
3.160000 -8.800000 3.040000 17.068825 5.827818 325.308258
3.160000 -8.800000 3.080000 13.105431 -1.560355 174.187012
3.160000 -8.800000 3.120000 22.975149 -9.825991 624.407593
3.160000 -8.800000 3.160000 41.321644 -3.752053 1721.556152
3.160000 -8.800000 3.200000 50.272160 19.350807 2901.743652
3.200000 -9.200000 2.800000 -19.679268 -13.432684 567.710571
3.200000 -9.200000 2.840000 -19.901653 -14.044350 593.319580
3.200000 -9.200000 2.880000 -19.179461 -16.933348 654.589966
3.200000 -9.200000 2.920000 -16.009008 -19.843203 650.041016
3.200000 -9.200000 2.960000 -11.671149 -20.744274 566.540649
3.200000 -9.200000 3.000000 -8.233002 -20.011761 468.252899
3.200000 -9.200000 3.040000 -5.927624 -19.470951 414.254669
3.200000 -9.200000 3.080000 -3.116607 -19.709885 398.192780
3.200000 -9.200000 3.120000 1.225049 -19.122005 367.151825
3.200000 -9.200000 3.160000 5.724898 -15.957225 287.407471
3.200000 -9.200000 3.200000 7.927639 -10.771086 178.863754
3.200000 -9.160000 2.800000 -5.429589 -19.695244 417.383057
3.200000 -9.160000 2.840000 -8.082382 -17.434370 369.282166
3.200000 -9.160000 2.880000 -9.617522 -19.628023 477.756042
3.200000 -9.160000 2.920000 -7.498082 -22.769478 574.670349
3.200000 -9.160000 2.960000 -3.166069 -23.762663 574.688110
3.200000 -9.160000 3.000000 0.921117 -22.519859 507.992523
3.200000 -9.160000 3.040000 4.188954 -20.383099 433.018036
3.200000 -9.160000 3.080000 7.314690 -17.428825 357.268616
3.200000 -9.160000 3.120000 9.681629 -12.594919 252.365936
3.200000 -9.160000 3.160000 9.062943 -6.344614 122.391045
3.200000 -9.160000 3.200000 4.507631 -1.772598 23.460846
3.200000 -9.120000 2.800000 6.225564 -11.825047 178.589371
3.200000 -9.120000 2.840000 -0.822716 -9.917591 99.035477
3.200000 -9.120000 2.880000 -4.895424 -14.177106 224.955505
3.200000 -9.120000 2.920000 -3.380388 -19.463861 390.268921
3.200000 -9.120000 2.960000 1.625536 -21.706902 473.831940
3.200000 -9.120000 3.000000 6.837073 -20.288855 458.383209
3.200000 -9.120000 3.040000 10.508625 -16.420746 380.072083
3.200000 -9.120000 3.080000 12.001305 -11.046083 266.047272
3.200000 -9.120000 3.120000 10.368197 -5.128134 133.797272
3.200000 -9.120000 3.160000 5.052504 -1.006578 26.540993
3.200000 -9.120000 3.200000 -2.009033 -1.574921 6.516589
3.200000 -9.080000 2.800000 5.474018 1.405500 31.940306
3.200000 -9.080000 2.840000 -4.830600 -0.682675 23.800739
3.200000 -9.080000 2.880000 -9.314245 -9.268316 172.656860
3.200000 -9.080000 2.920000 -6.097745 -17.697809 350.394958
3.200000 -9.080000 2.960000 1.522725 -21.097057 447.404510
3.200000 -9.080000 3.000000 8.755506 -18.756065 428.448853
3.200000 -9.080000 3.040000 12.424928 -12.935978 321.718353
3.200000 -9.080000 3.080000 11.628368 -6.674176 179.763565
3.200000 -9.080000 3.120000 7.147015 -2.684372 58.285671
3.200000 -9.080000 3.160000 1.174221 -2.912877 9.863647
3.200000 -9.080000 3.200000 -2.980386 -7.558807 66.018272
3.200000 -9.040000 2.800000 -5.981151 7.826919 97.034821
3.200000 -9.040000 2.840000 -16.163277 0.010859 261.251648
3.200000 -9.040000 2.880000 -17.681942 -12.961000 480.638611
3.200000 -9.040000 2.920000 -10.018375 -23.277430 642.206604
3.200000 -9.040000 2.960000 1.740310 -25.754631 666.329712
3.200000 -9.040000 3.000000 11.013893 -20.661991 548.223694
3.200000 -9.040000 3.040000 13.995249 -12.456932 351.042145
3.200000 -9.040000 3.080000 11.250383 -6.259814 165.756409
3.200000 -9.040000 3.120000 6.314605 -4.801408 62.927750
3.200000 -9.040000 3.160000 3.033417 -7.571238 66.525261
3.200000 -9.040000 3.200000 3.474310 -11.882301 153.259918
3.200000 -9.000000 2.800000 -18.034969 2.368579 330.870300
3.200000 -9.000000 2.840000 -24.479347 -10.186836 703.010071
3.200000 -9.000000 2.880000 -20.369181 -25.128952 1046.367798
3.200000 -9.000000 2.920000 -7.076005 -34.100277 1212.898682
3.200000 -9.000000 2.960000 8.282060 -32.613358 1132.223633
3.200000 -9.000000 3.000000 17.938555 -23.007204 851.123169
3.200000 -9.000000 3.040000 18.896355 -12.220242 506.406555
3.200000 -9.000000 3.080000 14.290983 -6.284672 243.729309
3.200000 -9.000000 3.120000 9.945257 -6.276392 138.301239
3.200000 -9.000000 3.160000 9.485313 -8.770664 166.895721
3.200000 -9.000000 3.200000 12.282606 -9.758511 246.090942
3.200000 -8.960000 2.800000 -21.618519 -10.279416 573.026733
3.200000 -8.960000 2.840000 -22.189024 -24.488451 1092.036987
3.200000 -8.960000 2.880000 -12.095862 -37.644093 1563.387695
3.200000 -8.960000 2.920000 5.330860 -41.887917 1783.015625
3.200000 -8.960000 2.960000 21.514492 -34.415375 1647.291382
3.200000 -8.960000 3.000000 28.716311 -20.031574 1225.890381
3.200000 -8.960000 3.040000 25.854706 -7.469038 724.252380
3.200000 -8.960000 3.080000 18.751268 -2.398062 357.360779
3.200000 -8.960000 3.120000 14.486183 -3.503294 222.122574
3.200000 -8.960000 3.160000 15.364328 -5.043171 261.496155
3.200000 -8.960000 3.200000 18.094801 -2.963964 336.206909
3.200000 -8.920000 2.800000 -15.023298 -21.252848 677.383057
3.200000 -8.920000 2.840000 -10.064748 -33.242561 1206.367065
3.200000 -8.920000 2.880000 3.655219 -41.505005 1736.026001
3.200000 -8.920000 2.920000 21.712488 -39.577446 2037.806396
3.200000 -8.920000 2.960000 35.217133 -26.539574 1944.595459
3.200000 -8.920000 3.000000 37.400547 -9.153940 1482.595581
3.200000 -8.920000 3.040000 29.476675 2.946335 877.555298
3.200000 -8.920000 3.080000 19.651993 5.244871 413.709503
3.200000 -8.920000 3.120000 15.651354 1.727185 247.948044
3.200000 -8.920000 3.160000 17.976040 0.238285 323.194794
3.200000 -8.920000 3.200000 20.595724 4.477968 444.236023
3.200000 -8.880000 2.800000 -2.990308 -24.347994 601.766785
3.200000 -8.880000 2.840000 4.475250 -31.254959 996.900391
3.200000 -8.880000 2.880000 17.877384 -34.024380 1477.259277
3.200000 -8.880000 2.920000 33.146027 -27.327078 1845.428223
3.200000 -8.880000 2.960000 41.767334 -11.293584 1872.055176
3.200000 -8.880000 3.000000 38.057819 6.041290 1484.894775
3.200000 -8.880000 3.040000 25.562840 14.661085 868.406128
3.200000 -8.880000 3.080000 14.828188 11.867364 360.709473
3.200000 -8.880000 3.120000 13.628357 5.083740 211.576538
3.200000 -8.880000 3.160000 19.440809 4.428250 397.554474
3.200000 -8.880000 3.200000 22.452963 12.299189 655.405579
3.200000 -8.840000 2.800000 7.877215 -18.467909 403.114166
3.200000 -8.840000 2.840000 13.279789 -20.372078 591.374329
3.200000 -8.840000 2.880000 23.178057 -20.147633 943.149414
3.200000 -8.840000 2.920000 34.428814 -11.885670 1326.612427
3.200000 -8.840000 2.960000 38.278660 4.136201 1482.363892
3.200000 -8.840000 3.000000 29.843849 18.616127 1237.215576
3.200000 -8.840000 3.040000 15.362629 21.501724 698.334534
3.200000 -8.840000 3.080000 7.544477 13.194172 231.005310
3.200000 -8.840000 3.120000 12.457978 5.497905 185.428177
3.200000 -8.840000 3.160000 22.287828 9.657785 590.020081
3.200000 -8.840000 3.200000 22.990685 23.816744 1095.808838
3.200000 -8.800000 2.800000 12.261958 -6.331617 190.445007
3.200000 -8.800000 2.840000 12.229452 -7.045053 199.192276
3.200000 -8.800000 2.880000 18.469276 -7.945996 404.253021
3.200000 -8.800000 2.920000 27.195274 -0.810404 740.239685
3.200000 -8.800000 2.960000 28.056517 13.505430 969.564819
3.200000 -8.800000 3.000000 17.280966 23.780998 864.167664
3.200000 -8.800000 3.040000 4.437325 20.921919 457.416534
3.200000 -8.800000 3.080000 3.004914 10.060520 110.243576
3.200000 -8.800000 3.120000 14.338631 6.772326 251.460724
3.200000 -8.800000 3.160000 23.931496 19.789928 964.357788
3.200000 -8.800000 3.200000 16.259514 39.331879 1811.368530
