#kx 	ky 	kz 	real 	imag 	intensity
0.800000 2.800000 -7.200000 -19.941317 -25.549610 1050.438721
0.800000 2.800000 -7.160000 -0.125937 -41.502380 1722.463501
0.800000 2.800000 -7.120000 25.513626 -36.270683 1966.507568
0.800000 2.800000 -7.080000 37.816055 -14.358417 1636.218262
0.800000 2.800000 -7.040000 30.111172 6.719934 951.840210
0.800000 2.800000 -7.000000 12.392345 12.746717 316.049011
0.800000 2.800000 -6.960000 0.306010 4.110835 16.992609
0.800000 2.800000 -6.920000 1.011450 -7.563948 58.236336
0.800000 2.800000 -6.880000 9.351736 -11.982184 231.027710
0.800000 2.800000 -6.840000 16.007946 -8.645310 330.995728
0.800000 2.800000 -6.800000 17.440496 -3.945142 319.735077
0.800000 2.840000 -7.200000 -0.976109 -33.250763 1106.566040
0.800000 2.840000 -7.160000 22.882668 -37.109974 1900.766602
0.800000 2.840000 -7.120000 41.799076 -22.165436 2238.469238
0.800000 2.840000 -7.080000 43.794563 -0.140522 1917.983521
0.800000 2.840000 -7.040000 31.467257 13.560684 1174.080322
0.800000 2.840000 -7.000000 17.669334 12.994866 481.071930
0.800000 2.840000 -6.960000 13.064785 4.698402 192.763596
0.800000 2.840000 -6.920000 17.864943 -0.541574 319.449463
0.800000 2.840000 -6.880000 24.385349 2.161539 599.317505
0.800000 2.840000 -6.840000 25.968185 9.300928 760.853943
0.800000 2.840000 -6.800000 22.643456 14.777475 731.099854
0.800000 2.880000 -7.200000 15.751956 -23.458248 798.413574
0.800000 2.880000 -7.160000 34.507553 -17.168928 1485.543335
0.800000 2.880000 -7.120000 43.105522 0.018539 1858.086426
0.800000 2.880000 -7.080000 38.113338 16.161659 1713.825806
0.800000 2.880000 -7.040000 26.668800 22.413254 1213.578857
0.800000 2.880000 -7.000000 18.875563 19.629265 741.594910
0.800000 2.880000 -6.960000 18.872725 15.687328 602.271973
0.800000 2.880000 -6.920000 22.624390 17.240776 809.107361
0.800000 2.880000 -6.880000 23.246632 24.135502 1122.928345
0.800000 2.880000 -6.840000 17.803074 30.941488 1274.325073
0.800000 2.880000 -6.800000 9.193266 32.917774 1168.095947
0.800000 2.920000 -7.200000 17.480438 -6.315479 345.451019
0.800000 2.920000 -7.160000 27.632931 2.763213 771.214233
0.800000 2.920000 -7.120000 28.914557 15.695681 1082.406006
0.800000 2.920000 -7.080000 22.564888 24.657196 1117.151489
0.800000 2.920000 -7.040000 15.135053 26.590855 936.143372
0.800000 2.920000 -7.000000 12.059924 25.063423 773.616943
0.800000 2.920000 -6.960000 12.901899 25.988091 841.839844
0.800000 2.920000 -6.920000 12.448377 31.608025 1154.029297
0.800000 2.920000 -6.880000 6.206424 38.368073 1510.628662
0.800000 2.920000 -6.840000 -5.063666 40.359928 1654.564575
0.800000 2.920000 -6.800000 -15.838444 34.856445 1465.828125
0.800000 2.960000 -7.200000 6.141963 2.973239 46.563858
0.800000 2.960000 -7.160000 10.841438 9.175078 201.718842
0.800000 2.960000 -7.120000 10.114020 16.549994 376.195679
0.800000 2.960000 -7.080000 5.811687 20.674160 461.196594
0.800000 2.960000 -7.040000 2.450213 21.122711 452.172455
0.800000 2.960000 -7.000000 2.186560 21.716818 476.401215
0.800000 2.960000 -6.960000 2.150965 26.092777 685.459656
0.800000 2.960000 -6.920000 -2.822044 33.004433 1097.256592
0.800000 2.960000 -6.880000 -14.445564 36.406860 1534.133789
0.800000 2.960000 -6.840000 -27.951290 30.804161 1730.170898
0.800000 2.960000 -6.800000 -35.262321 16.941608 1530.449341
0.800000 3.000000 -7.200000 -5.357457 -1.144715 30.012718
0.800000 3.000000 -7.160000 -1.558323 2.073580 6.728106
0.800000 3.000000 -7.120000 -1.728925 6.091393 40.094257
0.800000 3.000000 -7.080000 -3.598709 7.413740 67.914253
0.800000 3.000000 -7.040000 -3.268756 7.216948 62.769096
0.800000 3.000000 -7.000000 -0.886259 10.012651 101.038643
0.800000 3.000000 -6.960000 -1.769162 17.518000 310.010254
0.800000 3.000000 -6.920000 -10.821732 24.659645 725.207947
0.800000 3.000000 -6.880000 -25.807003 23.101286 1199.670898
0.800000 3.000000 -6.840000 -37.173912 9.602629 1474.110229
0.800000 3.000000 -6.800000 -35.822636 -9.245404 1368.738770
0.800000 3.040000 -7.200000 -7.059986 -11.002100 170.889603
0.800000 3.040000 -7.160000 -3.353032 -8.082215 76.565033
0.800000 3.040000 -7.120000 -3.472384 -6.343528 52.297798
0.800000 3.040000 -7.080000 -2.497495 -7.804358 67.145477
0.800000 3.040000 -7.040000 2.851821 -7.754749 68.269020
0.800000 3.040000 -7.000000 8.300541 -0.682539 69.364838
0.800000 3.040000 -6.960000 5.393106 11.324974 157.340622
0.800000 3.040000 -6.920000 -8.593883 18.022659 398.671082
0.800000 3.040000 -6.880000 -25.124264 10.429388 740.000793
0.800000 3.040000 -6.840000 -30.539503 -8.986905 1013.425720
0.800000 3.040000 -6.800000 -18.758148 -26.564640 1057.548218
0.800000 3.080000 -7.200000 -1.000050 -15.725615 248.295059
0.800000 3.080000 -7.160000 0.250130 -12.951336 167.799667
0.800000 3.080000 -7.120000 0.525702 -15.072337 227.451721
0.800000 3.080000 -7.080000 7.009592 -18.736996 400.209381
0.800000 3.080000 -7.040000 18.628580 -14.727699 563.929077
0.800000 3.080000 -7.000000 24.683050 0.264751 609.323059
0.800000 3.080000 -6.960000 15.757100 16.896469 533.776855
0.800000 3.080000 -6.920000 -4.448720 20.464916 438.603912
0.800000 3.080000 -6.880000 -20.043278 5.811204 435.503052
0.800000 3.080000 -6.840000 -17.218199 -15.847734 547.617065
0.800000 3.080000 -6.800000 2.157994 -26.225075 692.411438
0.800000 3.120000 -7.200000 3.336391 -13.033157 180.994690
0.800000 3.120000 -7.160000 1.626166 -14.017485 199.134293
0.800000 3.120000 -7.120000 6.030731 -20.815296 469.646271
0.800000 3.120000 -7.080000 20.653065 -22.370697 926.997192
0.800000 3.120000 -7.040000 35.729813 -8.897301 1355.781494
0.800000 3.120000 -7.000000 35.894600 15.049411 1514.907104
0.800000 3.120000 -6.960000 16.707901 32.013710 1304.031616
0.800000 3.120000 -6.920000 -8.383259 27.855862 846.228088
0.800000 3.120000 -6.880000 -19.304220 6.410921 413.752838
0.800000 3.120000 -6.840000 -8.267061 -13.070142 239.172913
0.800000 3.120000 -6.800000 12.840652 -13.810014 355.598816
0.800000 3.160000 -7.200000 0.829032 -10.227060 105.280060
0.800000 3.160000 -7.160000 0.558914 -17.919237 321.411438
0.800000 3.160000 -7.120000 13.470669 -25.503994 831.912659
0.800000 3.160000 -7.080000 34.155518 -18.144657 1495.827881
0.800000 3.160000 -7.040000 44.832977 6.996799 2058.950928
0.800000 3.160000 -7.000000 32.494461 34.677444 2258.415039
0.800000 3.160000 -6.960000 3.338512 44.247910 1969.023071
0.800000 3.160000 -6.920000 -21.205643 29.251644 1305.338013
0.800000 3.160000 -6.880000 -23.863323 4.046818 585.834900
0.800000 3.160000 -6.840000 -7.144794 -9.641125 143.999374
0.800000 3.160000 -6.800000 10.255110 -2.750008 112.729813
0.800000 3.200000 -7.200000 -3.620148 -14.480442 222.788666
0.800000 3.200000 -7.160000 3.764808 -26.230068 702.190247
0.800000 3.200000 -7.120000 24.738186 -27.106113 1346.719238
0.800000 3.200000 -7.080000 43.512695 -7.245707 1945.854858
0.800000 3.200000 -7.040000 41.612885 24.418840 2327.912109
0.800000 3.200000 -7.000000 16.033077 46.088249 2381.186279
0.800000 3.200000 -6.960000 -16.376642 42.401733 2066.101318
0.800000 3.200000 -6.920000 -33.381985 18.443352 1454.514160
0.800000 3.200000 -6.880000 -26.845688 -5.322047 749.015137
0.800000 3.200000 -6.840000 -8.427760 -11.904325 212.740112
0.800000 3.200000 -6.800000 3.154192 -1.845267 13.353941
0.840000 2.800000 -7.200000 18.473572 -36.498615 1673.421753
0.840000 2.800000 -7.160000 44.156525 -29.154198 2799.765869
0.840000 2.800000 -7.120000 56.209904 -3.445173 3171.422363
0.840000 2.800000 -7.080000 45.960747 22.033335 2597.857910
0.840000 2.800000 -7.040000 23.583166 30.857529 1508.352783
0.840000 2.800000 -7.000000 6.602912 22.640537 556.192383
0.840000 2.800000 -6.960000 3.402676 10.105822 113.705833
0.840000 2.800000 -6.920000 8.344471 4.602921 90.817078
0.840000 2.800000 -6.880000 11.271800 6.171803 165.144638
0.840000 2.800000 -6.840000 9.254413 7.286683 138.739899
0.840000 2.800000 -6.800000 7.857031 3.872440 76.728722
0.840000 2.840000 -7.200000 33.224922 -18.507397 1446.419189
0.840000 2.840000 -7.160000 52.252129 -4.966363 2754.949707
0.840000 2.840000 -7.120000 57.071030 19.711540 3645.647461
0.840000 2.840000 -7.080000 44.849312 41.151844 3704.935059
0.840000 2.840000 -7.040000 24.307009 49.368576 3028.086914
0.840000 2.840000 -7.000000 6.769157 44.868904 2059.040039
0.840000 2.840000 -6.960000 -2.409634 34.883778 1222.684204
0.840000 2.840000 -6.920000 -4.744127 25.663094 681.101074
0.840000 2.840000 -6.880000 -3.652539 18.996174 374.195648
0.840000 2.840000 -6.840000 -0.574448 14.536222 211.631744
0.840000 2.840000 -6.800000 4.151978 13.046451 187.448792
0.840000 2.880000 -7.200000 28.072369 3.982622 803.919128
0.840000 2.880000 -7.160000 41.073364 17.848480 2005.589478
0.840000 2.880000 -7.120000 42.319904 40.452366 3427.368164
0.840000 2.880000 -7.080000 28.162081 61.025272 4517.186523
0.840000 2.880000 -7.040000 3.812859 69.446831 4837.400391
0.840000 2.880000 -7.000000 -20.123055 62.278564 4283.557129
0.840000 2.880000 -6.960000 -34.041420 44.219196 3114.155518
0.840000 2.880000 -6.920000 -34.459480 24.700216 1797.556519
0.840000 2.880000 -6.880000 -25.103298 12.243765 780.085388
0.840000 2.880000 -6.840000 -13.799002 9.991746 290.247437
0.840000 2.880000 -6.800000 -7.436779 14.947586 278.735992
0.840000 2.920000 -7.200000 8.176360 12.356445 219.534607
0.840000 2.920000 -7.160000 19.287357 25.093700 1001.695923
0.840000 2.920000 -7.120000 17.871738 47.782825 2602.597656
0.840000 2.920000 -7.080000 -1.990419 67.234726 4524.470215
0.840000 2.920000 -7.040000 -33.148354 69.202896 5887.854492
0.840000 2.920000 -7.000000 -59.101379 49.846558 5977.652344
0.840000 2.920000 -6.960000 -65.981331 19.598503 4737.637695
0.840000 2.920000 -6.920000 -52.985729 -4.452604 2827.313232
0.840000 2.920000 -6.880000 -32.205589 -11.495344 1169.342896
0.840000 2.920000 -6.840000 -18.236214 -4.134720 349.655396
0.840000 2.920000 -6.800000 -16.902840 5.946775 321.070129
0.840000 2.960000 -7.200000 -8.027298 1.410716 66.427635
0.840000 2.960000 -7.160000 2.817111 16.144287 268.574127
0.840000 2.960000 -7.120000 -4.250625 39.372173 1568.235962
0.840000 2.960000 -7.080000 -31.560654 51.889938 3688.640625
0.840000 2.960000 -7.040000 -63.559032 39.543037 5603.402344
0.840000 2.960000 -7.000000 -78.571320 6.727897 6218.716797
0.840000 2.960000 -6.960000 -67.054794 -26.262590 5186.068848
0.840000 2.960000 -6.920000 -39.385132 -40.114082 3160.328125
0.840000 2.960000 -6.880000 -15.991358 -32.046814 1282.721802
0.840000 2.960000 -6.840000 -9.545574 -15.801311 340.799438
0.840000 2.960000 -6.800000 -16.049751 -7.275542 310.528015
0.840000 3.000000 -7.200000 -7.048659 -16.109802 309.209320
0.840000 3.000000 -7.160000 -0.065662 2.966169 8.802472
0.840000 3.000000 -7.120000 -15.398143 22.229706 731.262634
0.840000 3.000000 -7.080000 -44.780769 21.059135 2448.804443
0.840000 3.000000 -7.040000 -65.145386 -5.280920 4271.809570
0.840000 3.000000 -7.000000 -59.059715 -39.849552 5076.037109
0.840000 3.000000 -6.960000 -30.573132 -58.656219 4375.268555
0.840000 3.000000 -6.920000 -1.040444 -51.756897 2679.858887
0.840000 3.000000 -6.880000 10.659565 -30.535744 1046.057983
0.840000 3.000000 -6.840000 3.940722 -14.946622 238.930786
0.840000 3.000000 -6.800000 -6.355782 -14.470257 249.784302
0.840000 3.040000 -7.200000 7.047265 -23.032654 580.167053
0.840000 3.040000 -7.160000 5.185559 -2.940438 35.536194
0.840000 3.040000 -7.120000 -15.348816 5.585212 266.780731
0.840000 3.040000 -7.080000 -35.947334 -9.448233 1381.479980
0.840000 3.040000 -7.040000 -35.794861 -38.215118 2741.667480
0.840000 3.040000 -7.000000 -11.914446 -57.439209 3441.216797
0.840000 3.040000 -6.960000 17.848396 -52.049389 3027.704102
0.840000 3.040000 -6.920000 31.856895 -28.654102 1835.919434
0.840000 3.040000 -6.880000 24.487125 -7.788076 660.273438
0.840000 3.040000 -6.840000 9.173017 -3.601742 97.116783
0.840000 3.040000 -6.800000 2.930062 -11.835082 148.654434
0.840000 3.080000 -7.200000 18.295124 -14.876489 556.021484
0.840000 3.080000 -7.160000 7.669873 -1.446210 60.918476
0.840000 3.080000 -7.120000 -9.147260 -6.082000 120.663086
0.840000 3.080000 -7.080000 -12.620954 -25.716516 820.627686
0.840000 3.080000 -7.040000 4.735889 -41.340588 1731.472778
0.840000 3.080000 -7.000000 30.200058 -36.375584 2235.226562
0.840000 3.080000 -6.960000 42.860199 -13.014403 2006.371338
0.840000 3.080000 -6.920000 33.727547 10.086020 1239.275146
0.840000 3.080000 -6.880000 13.581610 16.185978 446.445984
0.840000 3.080000 -6.840000 1.105856 5.949094 36.614635
0.840000 3.080000 -6.800000 4.249167 -5.310674 46.258675
0.840000 3.120000 -7.200000 15.972127 -2.911708 263.586884
0.840000 3.120000 -7.160000 3.794639 -1.465821 16.547915
0.840000 3.120000 -7.120000 -0.650732 -13.397059 179.904648
0.840000 3.120000 -7.080000 11.519354 -24.405037 728.301331
0.840000 3.120000 -7.040000 31.770273 -18.953594 1368.588989
0.840000 3.120000 -7.000000 41.523800 3.498621 1736.466309
0.840000 3.120000 -6.960000 30.269865 26.869678 1638.244385
0.840000 3.120000 -6.920000 6.102579 33.500198 1159.504761
0.840000 3.120000 -6.880000 -12.033829 20.827068 578.579834
0.840000 3.120000 -6.840000 -12.461179 2.915457 163.780869
0.840000 3.120000 -6.800000 -0.815189 -4.121274 17.649433
0.840000 3.160000 -7.200000 4.949963 -1.000463 25.503056
0.840000 3.160000 -7.160000 0.578295 -9.015862 81.620186
0.840000 3.160000 -7.120000 9.811599 -17.334393 396.748657
0.840000 3.160000 -7.080000 26.684731 -11.999783 856.069580
0.840000 3.160000 -7.040000 34.865494 9.112381 1298.638184
0.840000 3.160000 -7.000000 23.091129 32.370712 1581.063232
0.840000 3.160000 -6.960000 -3.211151 40.014042 1611.435059
0.840000 3.160000 -6.920000 -25.965925 26.444492 1373.540405
0.840000 3.160000 -6.880000 -30.554121 3.213826 943.882996
0.840000 3.160000 -6.840000 -18.253805 -11.986066 476.867188
0.840000 3.160000 -6.800000 -3.347776 -11.201101 136.672272
0.840000 3.200000 -7.200000 -0.847175 -10.952734 120.680084
0.840000 3.200000 -7.160000 6.575954 -19.430147 420.773773
0.840000 3.200000 -7.120000 22.154692 -16.100262 750.048767
0.840000 3.200000 -7.080000 31.339436 2.601414 988.927551
0.840000 3.200000 -7.040000 22.173294 25.665222 1150.358643
0.840000 3.200000 -7.000000 -3.040641 35.953888 1301.927490
0.840000 3.200000 -6.960000 -28.553242 24.965328 1438.555176
0.840000 3.200000 -6.920000 -38.139885 0.264698 1454.720947
0.840000 3.200000 -6.880000 -28.244247 -21.229378 1248.423950
0.840000 3.200000 -6.840000 -9.517599 -27.490257 846.298950
0.840000 3.200000 -6.800000 3.749643 -19.924128 411.030670
0.880000 2.800000 -7.200000 55.197449 -8.842333 3124.945068
0.880000 2.800000 -7.160000 65.365616 20.684635 4700.517578
0.880000 2.800000 -7.120000 49.237686 50.283043 4952.734375
0.880000 2.800000 -7.080000 17.965206 58.799526 3780.132812
0.880000 2.800000 -7.040000 -5.703701 44.643181 2025.545776
0.880000 2.800000 -7.000000 -9.728947 24.882341 713.783325
0.880000 2.800000 -6.960000 -1.993366 16.161509 265.167877
0.880000 2.800000 -6.920000 1.668594 18.792706 355.949982
0.880000 2.800000 -6.880000 -4.246168 20.224669 427.067139
0.880000 2.800000 -6.840000 -10.580114 11.881006 253.097137
0.880000 2.800000 -6.800000 -6.317359 -0.484224 40.143497
0.880000 2.840000 -7.200000 42.684151 22.445644 2325.743652
0.880000 2.840000 -7.160000 44.751774 44.671745 3998.286133
0.880000 2.840000 -7.120000 30.848038 65.828560 5285.000977
0.880000 2.840000 -7.080000 6.736698 75.270294 5711.000488
0.880000 2.840000 -7.040000 -17.368717 70.800629 5314.401367
0.880000 2.840000 -7.000000 -34.735878 56.960644 4451.096191
0.880000 2.840000 -6.960000 -43.775417 38.928528 3431.717285
0.880000 2.840000 -6.920000 -44.499523 19.877335 2375.315918
0.880000 2.840000 -6.880000 -36.450035 3.191399 1338.790161
0.880000 2.840000 -6.840000 -21.223959 -5.848346 484.659576
0.880000 2.840000 -6.800000 -5.290061 -3.283877 38.768597
0.880000 2.880000 -7.200000 10.567518 32.328789 1156.823120
0.880000 2.880000 -7.160000 15.338017 48.371887 2575.093994
0.880000 2.880000 -7.120000 5.766048 71.544861 5151.914062
0.880000 2.880000 -7.080000 -22.648643 88.074524 8270.083008
0.880000 2.880000 -7.040000 -61.586681 83.464432 10759.230469
0.880000 2.880000 -7.000000 -92.838974 53.505295 11481.891602
0.880000 2.880000 -6.960000 -99.581100 9.447014 10005.641602
0.880000 2.880000 -6.920000 -78.384048 -27.839092 6919.074219
0.880000 2.880000 -6.880000 -42.370285 -41.520180 3519.166504
0.880000 2.880000 -6.840000 -12.271235 -30.092487 1056.140991
0.880000 2.880000 -6.800000 -1.987241 -7.325610 57.613693
0.880000 2.920000 -7.200000 -15.289194 13.441523 414.433990
0.880000 2.920000 -7.160000 -4.781422 33.355370 1135.442627
0.880000 2.920000 -7.120000 -19.523386 64.239532 4507.880371
0.880000 2.920000 -7.080000 -63.651081 78.381668 10195.146484
0.880000 2.920000 -7.040000 -114.515266 53.477535 15973.592773
0.880000 2.920000 -7.000000 -137.549500 -5.552795 18950.699219
0.880000 2.920000 -6.960000 -114.254852 -66.708427 17504.185547
0.880000 2.920000 -6.920000 -58.407776 -94.920143 12421.302734
0.880000 2.920000 -6.880000 -5.336914 -79.366066 6327.455078
0.880000 2.920000 -6.840000 16.359833 -39.984161 1866.377319
0.880000 2.920000 -6.800000 5.360788 -8.426824 99.749405
0.880000 2.960000 -7.200000 -14.439415 -16.364315 476.287506
0.880000 2.960000 -7.160000 -6.876709 14.668134 262.443268
0.880000 2.960000 -7.120000 -37.421940 45.850227 3502.645020
0.880000 2.960000 -7.080000 -93.865074 40.135201 10421.486328
0.880000 2.960000 -7.040000 -134.663391 -14.596745 18347.292969
0.880000 2.960000 -7.000000 -123.092300 -89.617516 23183.013672
0.880000 2.960000 -6.960000 -60.459206 -136.340271 22243.984375
0.880000 2.960000 -6.920000 13.361241 -126.486107 16177.257812
0.880000 2.960000 -6.880000 53.265930 -74.533920 8392.564453
0.880000 2.960000 -6.840000 45.131275 -22.372168 2537.345947
0.880000 2.960000 -6.800000 12.217388 -2.216568 154.177750
0.880000 3.000000 -7.200000 9.184544 -30.669514 1024.974976
0.880000 3.000000 -7.160000 1.853613 6.628559 47.373680
0.880000 3.000000 -7.120000 -43.491791 22.784729 2410.679688
0.880000 3.000000 -7.080000 -93.210052 -10.985008 8808.784180
0.880000 3.000000 -7.040000 -100.679909 -81.682007 16808.394531
0.880000 3.000000 -7.000000 -48.837227 -140.681122 22176.251953
0.880000 3.000000 -6.960000 31.790812 -144.420563 21867.955078
0.880000 3.000000 -6.920000 88.112747 -92.010727 16229.830078
0.880000 3.000000 -6.880000 89.418060 -24.338978 8587.975586
0.880000 3.000000 -6.840000 50.081146 13.357653 2686.547852
0.880000 3.000000 -6.800000 10.741459 8.741195 191.787415
0.880000 3.040000 -7.200000 31.994444 -19.149944 1390.364868
0.880000 3.040000 -7.160000 7.009742 10.186431 152.899857
0.880000 3.040000 -7.120000 -38.459000 2.100533 1483.506836
0.880000 3.040000 -7.080000 -61.575726 -48.688660 6162.155762
0.880000 3.040000 -7.040000 -31.973660 -106.677361 12402.374023
0.880000 3.040000 -7.000000 37.542168 -124.208481 16837.162109
0.880000 3.040000 -6.960000 99.371834 -83.933655 16919.621094
0.880000 3.040000 -6.920000 112.045319 -14.471801 12763.585938
0.880000 3.040000 -6.880000 74.965706 35.775475 6899.741211
0.880000 3.040000 -6.840000 24.636343 40.721848 2265.218262
0.880000 3.040000 -6.800000 -1.398650 14.481503 211.670135
0.880000 3.080000 -7.200000 33.990913 4.184390 1172.891357
0.880000 3.080000 -7.160000 1.849211 14.172142 204.269196
0.880000 3.080000 -7.120000 -26.468315 -12.063629 846.102844
0.880000 3.080000 -7.080000 -18.772533 -56.891289 3589.026611
0.880000 3.080000 -7.040000 28.083225 -80.951256 7341.773438
0.880000 3.080000 -7.000000 81.632156 -58.308136 10063.647461
0.880000 3.080000 -6.960000 101.067055 -1.251209 10216.115234
0.880000 3.080000 -6.920000 73.170090 49.922501 7846.118164
0.880000 3.080000 -6.880000 22.471432 62.545189 4416.865723
0.880000 3.080000 -6.840000 -13.060572 38.235825 1632.556763
0.880000 3.080000 -6.800000 -15.820923 6.189156 288.607239
0.880000 3.120000 -7.200000 16.933964 16.545238 560.504028
0.880000 3.120000 -7.160000 -6.823032 8.407484 117.239563
0.880000 3.120000 -7.120000 -11.724457 -18.985462 497.910675
0.880000 3.120000 -7.080000 12.495001 -40.485939 1795.236206
0.880000 3.120000 -7.040000 49.245010 -32.051270 3452.354980
0.880000 3.120000 -7.000000 67.686890 5.896793 4616.287109
0.880000 3.120000 -6.960000 50.199669 46.870502 4716.850586
0.880000 3.120000 -6.920000 8.532063 61.163742 3813.799561
0.880000 3.120000 -6.880000 -27.056932 41.615669 2463.941406
0.880000 3.120000 -6.840000 -34.870995 7.823334 1277.190796
0.880000 3.120000 -6.800000 -18.720520 -13.989072 546.151978
0.880000 3.160000 -7.200000 -0.021068 8.810270 77.621307
0.880000 3.160000 -7.160000 -7.069174 -5.269701 77.742966
0.880000 3.160000 -7.120000 3.129519 -19.269012 381.088715
0.880000 3.160000 -7.080000 23.614727 -17.172371 852.545654
0.880000 3.160000 -7.040000 35.694630 4.377605 1293.270020
0.880000 3.160000 -7.000000 25.110001 30.859255 1582.805664
0.880000 3.160000 -6.960000 -4.236557 41.231361 1717.973511
0.880000 3.160000 -6.920000 -32.461884 26.220573 1741.292480
0.880000 3.160000 -6.880000 -40.520958 -3.572019 1654.707275
0.880000 3.160000 -6.840000 -25.943077 -27.363510 1421.804932
0.880000 3.160000 -6.800000 -3.031474 -32.186352 1045.151001
0.880000 3.200000 -7.200000 -0.928380 -7.703825 60.210808
0.880000 3.200000 -7.160000 4.940308 -15.170020 254.536163
0.880000 3.200000 -7.120000 15.962396 -13.273258 430.977478
0.880000 3.200000 -7.080000 21.666986 -0.538395 469.748169
0.880000 3.200000 -7.040000 13.862941 14.729477 409.138611
0.880000 3.200000 -7.000000 -5.649956 19.881498 427.195984
0.880000 3.200000 -6.960000 -24.936277 8.076463 687.047180
0.880000 3.200000 -6.920000 -30.547483 -15.378532 1169.647949
0.880000 3.200000 -6.880000 -18.043749 -36.420883 1652.057617
0.880000 3.200000 -6.840000 4.628295 -42.888077 1860.808228
0.880000 3.200000 -6.800000 23.792652 -33.319382 1676.271484
0.920000 2.800000 -7.200000 57.648457 41.975914 5085.321777
0.920000 2.800000 -7.160000 38.374817 75.164703 7122.358887
0.920000 2.800000 -7.120000 -2.309992 84.509872 7147.254395
0.920000 2.800000 -7.080000 -35.897987 62.365658 5178.140625
0.920000 2.800000 -7.040000 -41.492287 28.670559 2543.610840
0.920000 2.800000 -7.000000 -25.215305 9.950020 734.814514
0.920000 2.800000 -6.960000 -11.012550 13.060905 291.863525
0.920000 2.800000 -6.920000 -14.095500 21.429630 657.912170
0.920000 2.800000 -6.880000 -26.262548 16.135895 950.088501
0.920000 2.800000 -6.840000 -27.876905 -2.561886 783.685120
0.920000 2.800000 -6.800000 -11.502060 -16.675673 410.375427
0.920000 2.840000 -7.200000 14.217279 58.347324 3606.541260
0.920000 2.840000 -7.160000 -2.101496 73.898529 5465.409180
0.920000 2.840000 -7.120000 -27.521425 78.126099 6861.116211
0.920000 2.840000 -7.080000 -52.042946 68.397034 7386.622559
0.920000 2.840000 -7.040000 -68.776604 49.462578 7176.767578
0.920000 2.840000 -7.000000 -76.619766 26.720299 6584.562500
0.920000 2.840000 -6.960000 -75.899826 2.538689 5767.228516
0.920000 2.840000 -6.920000 -64.852280 -20.566788 4628.811035
0.920000 2.840000 -6.880000 -42.826466 -36.018967 3131.472168
0.920000 2.840000 -6.840000 -16.111750 -36.142494 1565.868408
0.920000 2.840000 -6.800000 2.776182 -20.527784 429.097107
0.920000 2.880000 -7.200000 -25.442257 35.134098 1881.713135
0.920000 2.880000 -7.160000 -27.346569 48.586174 3108.451172
0.920000 2.880000 -7.120000 -47.275459 65.068985 6468.941406
0.920000 2.880000 -7.080000 -85.570396 65.505463 11613.258789
0.920000 2.880000 -7.040000 -124.709305 35.471157 16810.613281
0.920000 2.880000 -7.000000 -139.016098 -20.239227 19735.101562
0.920000 2.880000 -6.960000 -113.907135 -76.657494 18851.207031
0.920000 2.880000 -6.920000 -59.124008 -104.579338 14432.486328
0.920000 2.880000 -6.880000 -3.725685 -91.809044 8442.781250
0.920000 2.880000 -6.840000 24.484076 -52.155464 3319.662354
0.920000 2.880000 -6.800000 18.543064 -14.260174 547.197754
0.920000 2.920000 -7.200000 -30.622564 -8.436308 1008.912720
0.920000 2.920000 -7.160000 -26.926535 20.113571 1129.593994
0.920000 2.920000 -7.120000 -62.003464 47.124073 6065.107422
0.920000 2.920000 -7.080000 -122.575714 33.888405 16173.229492
0.920000 2.920000 -7.040000 -164.021423 -32.303886 27946.568359
0.920000 2.920000 -7.000000 -145.928024 -120.125504 35725.125000
0.920000 2.920000 -6.960000 -68.736023 -175.110016 35388.156250
0.920000 2.920000 -6.920000 23.156799 -163.267700 27192.580078
0.920000 2.920000 -6.880000 76.238197 -98.459412 15506.518555
0.920000 2.920000 -6.840000 69.729187 -29.000851 5703.208984
0.920000 2.920000 -6.800000 27.435539 3.187185 762.866943
0.920000 2.960000 -7.200000 -0.103119 -36.039352 1298.845581
0.920000 2.960000 -7.160000 -11.157394 7.771322 184.880890
0.920000 2.960000 -7.120000 -70.223480 24.272541 5520.493652
0.920000 2.960000 -7.080000 -134.357742 -24.489159 18651.720703
0.920000 2.960000 -7.040000 -141.760803 -122.633141 35135.011719
0.920000 2.960000 -7.000000 -67.705750 -205.602112 46856.296875
0.920000 2.960000 -6.960000 48.523697 -212.399277 47468.003906
0.920000 2.960000 -6.920000 133.570709 -137.931824 36866.320312
0.920000 2.960000 -6.880000 140.457245 -36.578575 21066.230469
0.920000 2.960000 -6.840000 83.959877 25.650503 7707.208984
0.920000 2.960000 -6.800000 20.472130 24.556532 1022.131348
0.920000 3.000000 -7.200000 37.186218 -26.969978 2110.194580
0.920000 3.000000 -7.160000 0.065788 13.412571 179.901398
0.920000 3.000000 -7.120000 -68.449501 -1.195625 4686.763672
0.920000 3.000000 -7.080000 -104.398346 -81.873009 17602.203125
0.920000 3.000000 -7.040000 -58.291088 -176.850647 34674.000000
0.920000 3.000000 -7.000000 54.785278 -210.687393 47390.601562
0.920000 3.000000 -6.960000 161.861450 -150.206726 48761.187500
0.920000 3.000000 -6.920000 192.574890 -35.014553 38311.109375
0.920000 3.000000 -6.880000 137.524734 56.953262 22156.726562
0.920000 3.000000 -6.840000 50.697765 75.719925 8303.770508
0.920000 3.000000 -6.800000 -2.927357 35.170071 1245.503296
0.920000 3.040000 -7.200000 49.497631 6.426134 2491.310547
0.920000 3.040000 -7.160000 -4.029531 22.526997 523.702698
0.920000 3.040000 -7.120000 -55.169624 -23.311491 3587.113037
0.920000 3.040000 -7.080000 -45.844994 -106.860901 13521.015625
0.920000 3.040000 -7.040000 37.352661 -160.312439 27095.298828
0.920000 3.040000 -7.000000 143.037567 -130.498627 37489.636719
0.920000 3.040000 -6.960000 195.279510 -28.843834 38966.050781
0.920000 3.040000 -6.920000 158.700867 76.075378 30973.427734
0.920000 3.040000 -6.880000 67.097046 117.393402 18283.224609
0.920000 3.040000 -6.840000 -10.210852 84.452263 7236.446289
0.920000 3.040000 -6.800000 -29.648026 23.110037 1413.079224
0.920000 3.080000 -7.200000 30.581348 32.786118 2010.148315
0.920000 3.080000 -7.160000 -16.695419 20.052824 680.852783
0.920000 3.080000 -7.120000 -33.929726 -35.751144 2429.370605
0.920000 3.080000 -7.080000 8.726757 -90.991768 8355.658203
0.920000 3.080000 -7.040000 89.790955 -91.777618 16485.546875
0.920000 3.080000 -7.000000 148.813187 -24.190689 22730.554688
0.920000 3.080000 -6.960000 137.701080 68.868073 23704.398438
0.920000 3.080000 -6.920000 63.334312 122.880188 19110.775391
0.920000 3.080000 -6.880000 -19.371708 106.633415 11745.948242
0.920000 3.080000 -6.840000 -56.643547 45.161491 5248.051758
0.920000 3.080000 -6.800000 -39.396446 -8.660566 1627.085327
0.920000 3.120000 -7.200000 1.981772 31.982080 1026.780884
0.920000 3.120000 -7.160000 -22.536247 4.853426 531.438171
0.920000 3.120000 -7.120000 -11.802792 -36.285648 1455.954224
0.920000 3.120000 -7.080000 34.827221 -53.539501 4079.413574
0.920000 3.120000 -7.040000 83.119110 -22.909569 7433.634766
0.920000 3.120000 -7.000000 90.920036 40.028740 9868.752930
0.920000 3.120000 -6.960000 46.109009 89.855148 10199.988281
0.920000 3.120000 -6.920000 -20.950497 89.737061 8491.663086
0.920000 3.120000 -6.880000 -63.428719 42.790939 5854.266602
0.920000 3.120000 -6.840000 -57.890171 -13.084555 3522.477539
0.920000 3.120000 -6.800000 -20.411062 -40.473106 2054.683838
0.920000 3.160000 -7.200000 -10.586955 11.411541 242.306885
0.920000 3.160000 -7.160000 -13.538351 -10.659005 296.901337
0.920000 3.160000 -7.120000 5.091540 -27.747049 795.822510
0.920000 3.160000 -7.080000 33.346355 -21.399887 1569.934570
0.920000 3.160000 -7.040000 46.498146 9.031891 2243.652588
0.920000 3.160000 -7.000000 28.463955 41.707382 2549.702393
0.920000 3.160000 -6.960000 -11.606911 49.087067 2544.260498
0.920000 3.160000 -6.920000 -44.878292 22.205067 2507.126221
0.920000 3.160000 -6.880000 -46.921524 -20.685097 2629.502686
0.920000 3.160000 -6.840000 -18.079533 -49.813698 2808.273926
0.920000 3.160000 -6.800000 18.808575 -49.009666 2755.709961
0.920000 3.200000 -7.200000 -1.433936 -5.675298 34.265182
0.920000 3.200000 -7.160000 3.744151 -13.841400 205.603012
0.920000 3.200000 -7.120000 14.394794 -15.074676 434.455963
0.920000 3.200000 -7.080000 22.453852 -6.052078 540.803101
0.920000 3.200000 -7.040000 18.865021 7.616144 413.894653
0.920000 3.200000 -7.000000 2.843708 13.373249 186.930466
0.920000 3.200000 -6.960000 -14.404129 2.084986 211.826096
0.920000 3.200000 -6.920000 -17.261118 -22.144398 788.320557
0.920000 3.200000 -6.880000 0.828655 -43.095200 1857.882812
0.920000 3.200000 -6.840000 30.526024 -45.049301 2961.277832
0.920000 3.200000 -6.800000 53.604576 -25.775826 3537.843750
0.960000 2.800000 -7.200000 19.492695 79.346985 6675.909180
0.960000 2.800000 -7.160000 -23.907162 92.447601 9118.111328
0.960000 2.800000 -7.120000 -67.041862 67.692757 9076.919922
0.960000 2.800000 -7.080000 -78.418381 20.495676 6569.515137
0.960000 2.800000 -7.040000 -54.628723 -14.247814 3187.297607
0.960000 2.800000 -7.000000 -22.784077 -16.335762 785.971252
0.960000 2.800000 -6.960000 -11.923028 1.570190 144.624100
0.960000 2.800000 -6.920000 -24.241909 10.293228 693.620728
0.960000 2.800000 -6.880000 -36.263767 -3.853437 1329.909790
0.960000 2.800000 -6.840000 -26.853878 -26.085499 1401.583984
0.960000 2.800000 -6.800000 -0.434282 -31.719820 1006.335571
0.960000 2.840000 -7.200000 -33.341885 59.930649 4703.363770
0.960000 2.840000 -7.160000 -57.392464 57.577202 6609.029297
0.960000 2.840000 -7.120000 -78.843155 40.952137 7893.320801
0.960000 2.840000 -7.080000 -89.267670 15.956934 8223.340820
0.960000 2.840000 -7.040000 -88.355881 -9.086174 7889.320312
0.960000 2.840000 -7.000000 -80.158714 -30.912033 7380.973145
0.960000 2.840000 -6.960000 -65.782089 -50.143204 6841.624023
0.960000 2.840000 -6.920000 -42.991341 -64.351166 5989.328125
0.960000 2.840000 -6.880000 -13.471329 -66.072327 4547.028809
0.960000 2.840000 -6.840000 12.367785 -50.412285 2694.360596
0.960000 2.840000 -6.800000 21.603073 -23.947906 1040.194946
0.960000 2.880000 -7.200000 -50.846756 7.354740 2639.484863
0.960000 2.880000 -7.160000 -56.068802 16.143562 3404.324951
0.960000 2.880000 -7.120000 -80.383636 20.048340 6863.464844
0.960000 2.880000 -7.080000 -114.288544 -0.868427 13062.625000
0.960000 2.880000 -7.040000 -132.049286 -51.594231 20098.978516
0.960000 2.880000 -7.000000 -110.694809 -112.444992 24897.216797
0.960000 2.880000 -6.960000 -50.753113 -149.769989 25006.927734
0.960000 2.880000 -6.920000 19.975784 -140.676636 20188.947266
0.960000 2.880000 -6.880000 65.026184 -91.617004 12622.080078
0.960000 2.880000 -6.840000 65.967010 -34.248875 5524.631836
0.960000 2.880000 -6.800000 34.855862 -1.351297 1216.757202
0.960000 2.920000 -7.200000 -20.847549 -36.219097 1746.443359
0.960000 2.920000 -7.160000 -31.107380 -4.220558 985.482178
0.960000 2.920000 -7.120000 -80.970810 3.145847 6566.168457
0.960000 2.920000 -7.080000 -132.462036 -46.196499 19680.308594
0.960000 2.920000 -7.040000 -131.529999 -137.205414 36125.468750
0.960000 2.920000 -7.000000 -56.835777 -211.969391 48161.328125
0.960000 2.920000 -6.960000 55.893654 -215.275375 49467.589844
0.960000 2.920000 -6.920000 139.235687 -141.701843 39465.988281
0.960000 2.920000 -6.880000 148.054749 -40.818077 23586.324219
0.960000 2.920000 -6.840000 93.652077 24.378532 9365.024414
0.960000 2.920000 -6.800000 28.619038 27.377134 1568.556885
0.960000 2.960000 -7.200000 28.849937 -37.224014 2217.946045
0.960000 2.960000 -7.160000 -9.391563 2.403280 93.977219
0.960000 2.960000 -7.120000 -80.359528 -16.955519 6745.143555
0.960000 2.960000 -7.080000 -114.855148 -107.103363 24662.835938
0.960000 2.960000 -7.040000 -59.022346 -211.499863 48215.828125
0.960000 2.960000 -7.000000 70.668274 -247.127579 66066.046875
0.960000 2.960000 -6.960000 193.499023 -176.609589 68632.820312
0.960000 2.960000 -6.920000 230.112808 -43.149307 54813.769531
0.960000 2.960000 -6.880000 167.936859 65.592491 32505.164062
0.960000 2.960000 -6.840000 66.502289 90.839935 12674.447266
0.960000 2.960000 -6.800000 0.967592 45.253922 2048.853516
0.960000 3.000000 -7.200000 56.205875 0.166241 3159.127930
0.960000 3.000000 -7.160000 -8.628376 18.483067 416.072632
0.960000 3.000000 -7.120000 -70.689423 -40.762379 6658.566406
0.960000 3.000000 -7.080000 -56.070801 -147.896622 25017.345703
0.960000 3.000000 -7.040000 53.556114 -216.746613 49847.351562
0.960000 3.000000 -7.000000 193.425491 -177.944336 69077.609375
0.960000 3.000000 -6.960000 265.191650 -44.091949 72270.710938
0.960000 3.000000 -6.920000 220.481720 97.064926 58033.789062
0.960000 3.000000 -6.880000 100.390953 156.835968 34675.867188
0.960000 3.000000 -6.840000 -4.831665 117.499886 13829.567383
0.960000 3.000000 -6.800000 -34.802525 36.597137 2550.566162
0.960000 3.040000 -7.200000 42.536800 40.572571 3455.512939
0.960000 3.040000 -7.160000 -23.571651 22.255100 1050.912231
0.960000 3.040000 -7.120000 -47.699715 -59.212795 5781.417969
0.960000 3.040000 -7.080000 15.906614 -141.835831 20370.421875
0.960000 3.040000 -7.040000 138.644531 -145.431183 40372.535156
0.960000 3.040000 -7.000000 232.202606 -45.910652 56025.839844
0.960000 3.040000 -6.960000 222.569244 96.424751 58834.804688
0.960000 3.040000 -6.920000 115.133209 185.363068 47615.125000
0.960000 3.040000 -6.880000 -11.156517 169.977356 29016.769531
0.960000 3.040000 -6.840000 -74.068253 82.525162 12296.507812
0.960000 3.040000 -6.800000 -54.730480 0.778299 2996.031250
0.960000 3.080000 -7.200000 5.972337 51.654625 2703.868896
0.960000 3.080000 -7.160000 -34.819801 8.059710 1277.377441
0.960000 3.080000 -7.120000 -17.817047 -62.422707 4214.041504
0.960000 3.080000 -7.080000 62.722198 -95.760391 13104.126953
0.960000 3.080000 -7.040000 151.558060 -46.958920 25174.986328
0.960000 3.080000 -7.000000 174.875183 62.878304 34535.011719
0.960000 3.080000 -6.960000 105.843750 158.103043 36199.472656
0.960000 3.080000 -6.920000 -9.373730 171.845108 29618.607422
0.960000 3.080000 -6.880000 -91.288643 102.277344 18794.271484
0.960000 3.080000 -6.840000 -94.701462 9.295656 9054.776367
0.960000 3.080000 -6.800000 -40.512436 -42.183830 3420.732910
0.960000 3.120000 -7.200000 -19.902370 31.797066 1407.157715
0.960000 3.120000 -7.160000 -29.220831 -11.146942 978.111267
0.960000 3.120000 -7.120000 6.504535 -49.708141 2513.208496
0.960000 3.120000 -7.080000 68.144981 -42.661407 6463.733887
0.960000 3.120000 -7.040000 105.482956 18.153442 11456.202148
0.960000 3.120000 -7.000000 80.047562 93.001831 15056.953125
0.960000 3.120000 -6.960000 2.522797 124.506622 15508.263672
0.960000 3.120000 -6.920000 -73.074699 87.259430 12954.119141
0.960000 3.120000 -6.880000 -95.030174 9.804657 9126.865234
0.960000 3.120000 -6.840000 -56.530048 -51.836880 5882.708496
0.960000 3.120000 -6.800000 4.107153 -62.704910 3948.774414
0.960000 3.160000 -7.200000 -18.521080 5.878006 377.581360
0.960000 3.160000 -7.160000 -11.264635 -18.979319 487.106537
0.960000 3.160000 -7.120000 17.420977 -30.076660 1208.095947
0.960000 3.160000 -7.080000 47.582737 -11.130043 2387.994873
0.960000 3.160000 -7.040000 50.870682 29.216476 3441.428711
0.960000 3.160000 -7.000000 17.388901 59.463455 3838.276367
0.960000 3.160000 -6.960000 -31.051414 51.337620 3599.741699
0.960000 3.160000 -6.920000 -56.980507 6.341599 3286.993896
0.960000 3.160000 -6.880000 -39.362282 -43.640186 3453.854980
0.960000 3.160000 -6.840000 8.543602 -63.405434 4093.242188
0.960000 3.160000 -6.800000 52.336128 -43.517799 4632.869141
0.960000 3.200000 -7.200000 -1.738716 -2.812301 10.932169
0.960000 3.200000 -7.160000 3.950348 -11.588531 149.899292
0.960000 3.200000 -7.120000 16.832808 -13.688248 470.711548
0.960000 3.200000 -7.080000 27.650835 -3.543907 777.127930
0.960000 3.200000 -7.040000 24.820065 12.374503 769.163940
0.960000 3.200000 -7.000000 7.856419 18.413357 400.775024
0.960000 3.200000 -6.960000 -8.311993 4.602226 90.269707
0.960000 3.200000 -6.920000 -5.235747 -21.124672 473.664825
0.960000 3.200000 -6.880000 21.172188 -37.286697 1838.559326
0.960000 3.200000 -6.840000 54.848484 -27.324120 3754.963623
0.960000 3.200000 -6.800000 72.569344 5.422899 5295.717285
1.000000 2.800000 -7.200000 -33.235420 76.784332 7000.426758
1.000000 2.800000 -7.160000 -78.936638 58.105606 9607.253906
1.000000 2.800000 -7.120000 -98.809181 7.112762 9813.845703
1.000000 2.800000 -7.080000 -75.509094 -42.027431 7467.928711
1.000000 2.800000 -7.040000 -28.956585 -55.868870 3959.814453
1.000000 2.800000 -7.000000 2.757853 -33.647491 1139.759399
1.000000 2.800000 -6.960000 0.484085 -6.021881 36.497391
1.000000 2.800000 -6.920000 -19.604187 -2.477747 390.463379
1.000000 2.800000 -6.880000 -26.374352 -22.343950 1194.858521
1.000000 2.800000 -6.840000 -7.573790 -39.210297 1594.809692
1.000000 2.800000 -6.800000 19.181150 -31.761658 1376.719482
1.000000 2.840000 -7.200000 -65.349770 26.000896 4946.638672
1.000000 2.840000 -7.160000 -82.053177 6.302851 6772.449707
1.000000 2.840000 -7.120000 -86.009354 -22.231619 7891.853516
1.000000 2.840000 -7.080000 -74.978592 -48.308296 7955.480469
1.000000 2.840000 -7.040000 -55.904259 -64.630905 7302.439941
1.000000 2.840000 -7.000000 -36.065571 -72.582230 6568.905273
1.000000 2.840000 -6.960000 -16.122406 -76.189728 6064.806641
1.000000 2.840000 -6.920000 6.508835 -74.145966 5539.988770
1.000000 2.840000 -6.880000 28.934832 -60.921967 4548.710449
1.000000 2.840000 -6.840000 41.121246 -36.263115 3005.970459
1.000000 2.840000 -6.800000 35.392963 -10.906912 1371.622559
1.000000 2.880000 -7.200000 -45.448967 -29.431902 2931.845459
1.000000 2.880000 -7.160000 -51.094162 -25.092327 3240.238281
1.000000 2.880000 -7.120000 -70.654083 -33.927174 6143.052734
1.000000 2.880000 -7.080000 -85.506142 -68.000000 11935.300781
1.000000 2.880000 -7.040000 -71.398392 -117.696312 18950.152344
1.000000 2.880000 -7.000000 -20.064568 -154.175476 24172.664062
1.000000 2.880000 -6.960000 49.394333 -150.064301 24959.095703
1.000000 2.880000 -6.920000 101.361763 -102.243042 20727.847656
1.000000 2.880000 -6.880000 109.704849 -36.685196 13380.958008
1.000000 2.880000 -6.840000 77.514755 10.194635 6112.467773
1.000000 2.880000 -6.800000 33.633629 18.573921 1476.211426
1.000000 2.920000 -7.200000 8.288387 -45.820763 2168.239502
1.000000 2.920000 -7.160000 -17.042194 -21.212906 740.423767
1.000000 2.920000 -7.120000 -64.365784 -40.481247 5781.685547
1.000000 2.920000 -7.080000 -81.819847 -110.592598 18925.210938
1.000000 2.920000 -7.040000 -30.381126 -187.703812 36155.734375
1.000000 2.920000 -7.000000 75.631042 -209.094788 49440.683594
1.000000 2.920000 -6.960000 173.555054 -147.261200 51807.218750
1.000000 2.920000 -6.920000 201.905487 -36.404816 42091.132812
1.000000 2.920000 -6.880000 150.532928 54.441711 25624.062500
1.000000 2.920000 -6.840000 66.100098 77.579948 10387.871094
1.000000 2.920000 -6.800000 9.631762 41.256561 1794.874756
1.000000 2.960000 -7.200000 50.283398 -13.871500 2720.838623
1.000000 2.960000 -7.160000 -6.932011 1.624260 50.690994
1.000000 2.960000 -7.120000 -60.281139 -54.782658 6634.955078
1.000000 2.960000 -7.080000 -40.901520 -154.067062 25409.593750
1.000000 2.960000 -7.040000 67.055878 -214.873840 50667.257812
1.000000 2.960000 -7.000000 201.392166 -172.607956 70352.312500
1.000000 2.960000 -6.960000 268.864685 -40.364563 73917.515625
1.000000 2.960000 -6.920000 223.925842 97.752930 59698.417969
1.000000 2.960000 -6.880000 106.200066 156.725647 35841.382812
1.000000 2.960000 -6.840000 2.719585 119.113937 14195.526367
1.000000 2.960000 -6.800000 -27.243502 40.215744 2359.514404
1.000000 3.000000 -7.200000 48.782509 35.072350 3609.802734
1.000000 3.000000 -7.160000 -21.126701 14.945631 669.709412
1.000000 3.000000 -7.120000 -44.374374 -73.965698 7440.009277
1.000000 3.000000 -7.080000 28.964327 -162.804031 27344.083984
1.000000 3.000000 -7.040000 166.511047 -163.251862 54377.101562
1.000000 3.000000 -7.000000 270.317688 -49.407787 75512.789062
1.000000 3.000000 -6.960000 258.700500 111.394699 79334.726562
1.000000 3.000000 -6.920000 137.961914 212.301666 64105.484375
1.000000 3.000000 -6.880000 -4.042700 196.648407 38686.941406
1.000000 3.000000 -6.840000 -75.509804 100.142624 15730.275391
1.000000 3.000000 -6.800000 -54.821869 9.681103 3099.160889
1.000000 3.040000 -7.200000 11.933871 60.041389 3747.385742
1.000000 3.040000 -7.160000 -37.808174 5.608355 1460.911621
1.000000 3.040000 -7.120000 -13.971130 -82.622894 7021.734863
1.000000 3.040000 -7.080000 90.500641 -122.823067 23275.871094
1.000000 3.040000 -7.040000 204.844208 -57.811222 45303.285156
1.000000 3.040000 -7.000000 234.932541 85.200485 62452.417969
1.000000 3.040000 -6.960000 146.642654 209.723099 65487.843750
1.000000 3.040000 -6.920000 -1.375793 230.545166 53152.968750
1.000000 3.040000 -6.880000 -108.137115 144.985901 32714.546875
1.000000 3.040000 -6.840000 -115.970627 28.733423 14274.795898
1.000000 3.040000 -6.800000 -50.948982 -35.855042 3881.382812
1.000000 3.080000 -7.200000 -24.717554 47.087536 2828.193604
1.000000 3.080000 -7.160000 -37.211411 -15.036613 1610.788818
1.000000 3.080000 -7.120000 17.330999 -70.303223 5242.906250
1.000000 3.080000 -7.080000 109.967163 -57.134884 15357.171875
1.000000 3.080000 -7.040000 165.786438 36.208351 28796.187500
1.000000 3.080000 -7.000000 127.962059 150.558777 39042.234375
1.000000 3.080000 -6.960000 12.334610 201.336609 40688.574219
1.000000 3.080000 -6.920000 -102.122955 151.194382 33288.835938
1.000000 3.080000 -6.880000 -140.207001 41.238327 21358.603516
1.000000 3.080000 -6.840000 -91.803329 -48.069607 10738.539062
1.000000 3.080000 -6.800000 -11.412470 -66.886398 4604.034668
1.000000 3.120000 -7.200000 -33.943680 16.697830 1430.990845
1.000000 3.120000 -7.160000 -19.914284 -26.500420 1098.850952
1.000000 3.120000 -7.120000 32.831406 -43.337273 2956.020508
1.000000 3.120000 -7.080000 86.518539 -5.150314 7511.983398
1.000000 3.120000 -7.040000 90.411842 70.742134 13178.750977
1.000000 3.120000 -7.000000 28.404053 127.885895 17161.591797
1.000000 3.120000 -6.960000 -60.540726 117.646606 17505.902344
1.000000 3.120000 -6.920000 -112.446503 43.302895 14519.356445
1.000000 3.120000 -6.880000 -92.592087 -41.770275 10318.050781
1.000000 3.120000 -6.840000 -22.854805 -80.562103 7012.594727
1.000000 3.120000 -6.800000 42.270889 -58.805714 5244.940430
1.000000 3.160000 -7.200000 -19.295677 -1.578182 374.813812
1.000000 3.160000 -7.160000 -2.513769 -20.618771 431.452728
1.000000 3.160000 -7.120000 28.707300 -18.701550 1173.857056
1.000000 3.160000 -7.080000 49.022114 12.014864 2547.524658
1.000000 3.160000 -7.040000 34.765942 51.620220 3873.317871
1.000000 3.160000 -7.000000 -10.189606 65.517357 4396.352051
1.000000 3.160000 -6.960000 -52.325279 35.889637 4026.000977
1.000000 3.160000 -6.920000 -55.862328 -19.010056 3481.981934
1.000000 3.160000 -6.880000 -14.773096 -58.449692 3634.610840
1.000000 3.160000 -6.840000 41.704086 -53.961727 4651.098633
1.000000 3.160000 -6.800000 75.210281 -12.153776 5804.300781
1.000000 3.200000 -7.200000 -4.673749 1.490423 24.065290
1.000000 3.200000 -7.160000 1.592779 -7.267434 55.352543
1.000000 3.200000 -7.120000 15.905679 -7.808281 313.959869
1.000000 3.200000 -7.080000 26.051006 5.069112 704.350830
1.000000 3.200000 -7.040000 20.267437 21.317482 865.204041
1.000000 3.200000 -7.000000 2.334278 23.659485 565.220093
1.000000 3.200000 -6.960000 -8.753029 6.207443 115.147873
1.000000 3.200000 -6.920000 3.413792 -16.353191 279.080841
1.000000 3.200000 -6.880000 34.907829 -20.429607 1635.925415
1.000000 3.200000 -6.840000 62.688549 4.380375 3949.041992
1.000000 3.200000 -6.800000 64.570641 44.912926 6186.538574
1.040000 2.800000 -7.200000 -65.001068 39.648224 5797.120117
1.040000 2.800000 -7.160000 -90.258316 -2.158012 8151.220703
1.040000 2.800000 -7.120000 -75.975739 -55.025116 8800.076172
1.040000 2.800000 -7.080000 -27.142151 -81.412651 7364.715820
1.040000 2.800000 -7.040000 21.112480 -64.493515 4605.150391
1.040000 2.800000 -7.000000 35.936169 -24.387119 1886.139771
1.040000 2.800000 -6.960000 16.947479 2.118532 291.705231
1.040000 2.800000 -6.920000 -6.611008 -2.768414 51.369534
1.040000 2.800000 -6.880000 -7.472700 -23.508465 608.489136
1.040000 2.800000 -6.840000 13.141455 -31.408855 1159.213989
1.040000 2.800000 -6.800000 30.902620 -15.889130 1207.436401
1.040000 2.840000 -7.200000 -61.756565 -16.683968 4092.228027
1.040000 2.840000 -7.160000 -62.080635 -42.673359 5675.020996
1.040000 2.840000 -7.120000 -46.163399 -67.388031 6672.206055
1.040000 2.840000 -7.080000 -19.425529 -79.291687 6664.522461
1.040000 2.840000 -7.040000 6.254330 -76.214020 5847.693359
1.040000 2.840000 -7.000000 23.684059 -65.358810 4832.708496
1.040000 2.840000 -6.960000 34.767975 -53.876816 4111.523438
1.040000 2.840000 -6.920000 44.038719 -41.733028 3681.054443
1.040000 2.840000 -6.880000 50.288551 -25.189339 3163.441406
1.040000 2.840000 -6.840000 47.346184 -5.797169 2275.268311
1.040000 2.840000 -6.800000 33.399685 7.384657 1170.072144
1.040000 2.880000 -7.200000 -16.025368 -47.303566 2494.439941
1.040000 2.880000 -7.160000 -20.317799 -46.285114 2555.124756
1.040000 2.880000 -7.120000 -28.349548 -61.275146 4558.340332
1.040000 2.880000 -7.080000 -20.762732 -91.408829 8786.665039
1.040000 2.880000 -7.040000 14.453831 -117.679688 14057.421875
1.040000 2.880000 -7.000000 68.311691 -116.017227 18126.484375
1.040000 2.880000 -6.960000 113.744476 -77.450226 18936.343750
1.040000 2.880000 -6.920000 124.836777 -18.106979 15912.083008
1.040000 2.880000 -6.880000 97.097900 30.845268 10379.432617
1.040000 2.880000 -6.840000 51.451138 46.067604 4769.443359
1.040000 2.880000 -6.800000 18.025026 28.919228 1161.223267
1.040000 2.920000 -7.200000 33.165115 -29.358681 1961.857056
1.040000 2.920000 -7.160000 1.055355 -21.293488 454.526367
1.040000 2.920000 -7.120000 -26.176300 -58.440102 4100.443848
1.040000 2.920000 -7.080000 -5.198994 -119.627609 14337.793945
1.040000 2.920000 -7.040000 71.371246 -151.687424 28102.929688
1.040000 2.920000 -7.000000 160.873322 -114.529083 38997.136719
1.040000 2.920000 -6.960000 202.251099 -19.399235 41281.839844
1.040000 2.920000 -6.920000 167.010788 76.699028 33775.343750
1.040000 2.920000 -6.880000 83.076859 117.060982 20605.039062
1.040000 2.920000 -6.840000 9.899593 90.337090 8258.791016
1.040000 2.920000 -6.800000 -11.363314 34.569733 1324.191284
1.040000 2.960000 -7.200000 46.299408 17.869640 2462.959229
1.040000 2.960000 -7.160000 -7.985668 1.784283 66.954559
1.040000 2.960000 -7.120000 -22.721817 -69.277451 5315.645996
1.040000 2.960000 -7.080000 41.209919 -137.518661 20609.640625
1.040000 2.960000 -7.040000 154.982605 -131.442032 41296.617188
1.040000 2.960000 -7.000000 237.637115 -32.242798 57510.996094
1.040000 2.960000 -6.960000 223.538513 102.851280 60547.855469
1.040000 2.960000 -6.920000 120.050491 185.813782 48938.882812
1.040000 2.960000 -6.880000 0.915005 171.210434 29313.851562
1.040000 2.960000 -6.840000 -57.935905 90.056511 11466.744141
1.040000 2.960000 -6.800000 -39.285461 15.434599 1781.574341
1.040000 3.000000 -7.200000 18.042862 53.025406 3137.238525
1.040000 3.000000 -7.160000 -28.297405 1.174728 802.123169
1.040000 3.000000 -7.120000 -2.729160 -81.876266 6711.171387
1.040000 3.000000 -7.080000 99.533684 -116.564659 23494.273438
1.040000 3.000000 -7.040000 208.672760 -49.337418 45978.500000
1.040000 3.000000 -7.000000 234.463440 91.345581 63317.121094
1.040000 3.000000 -6.960000 146.115768 211.666534 66152.539062
1.040000 3.000000 -6.920000 1.924477 230.678009 53216.046875
1.040000 3.000000 -6.880000 -100.698410 147.755219 31971.775391
1.040000 3.000000 -6.840000 -107.522568 37.022293 12931.752930
1.040000 3.000000 -6.800000 -45.340282 -22.313808 2553.647217
1.040000 3.040000 -7.200000 -22.137035 51.246269 3116.228516
1.040000 3.040000 -7.160000 -34.518066 -17.565176 1500.032349
1.040000 3.040000 -7.120000 28.468502 -76.726044 6697.341309
1.040000 3.040000 -7.080000 132.082214 -57.806538 20787.306641
1.040000 3.040000 -7.040000 191.946564 49.889248 39332.421875
1.040000 3.040000 -7.000000 146.468109 178.538269 53328.820312
1.040000 3.040000 -6.960000 15.732025 234.564270 55267.894531
1.040000 3.040000 -6.920000 -111.793648 178.796204 44465.902344
1.040000 3.040000 -6.880000 -154.301880 58.586517 27241.451172
1.040000 3.040000 -6.840000 -102.933945 -37.395645 11993.831055
1.040000 3.040000 -6.800000 -18.973957 -56.229393 3521.755615
1.040000 3.080000 -7.200000 -41.192886 23.234009 2236.673096
1.040000 3.080000 -7.160000 -20.557188 -31.965466 1444.389038
1.040000 3.080000 -7.120000 49.821217 -49.610687 4943.374023
1.040000 3.080000 -7.080000 117.775787 5.446272 13900.797852
1.040000 3.080000 -7.040000 118.007660 106.980057 25370.539062
1.040000 3.080000 -7.000000 33.197956 180.626465 33728.023438
1.040000 3.080000 -6.960000 -83.685089 166.089355 34588.867188
1.040000 3.080000 -6.920000 -151.362473 70.959793 27945.890625
1.040000 3.080000 -6.880000 -128.840973 -35.815811 17882.767578
1.040000 3.080000 -6.840000 -46.270790 -84.457199 9274.004883
1.040000 3.080000 -6.800000 28.527023 -60.554165 4480.598145
1.040000 3.120000 -7.200000 -32.496277 -1.209605 1057.471191
1.040000 3.120000 -7.160000 -2.167967 -28.084448 793.436279
1.040000 3.120000 -7.120000 46.783775 -17.313763 2488.488037
1.040000 3.120000 -7.080000 71.893036 37.303902 6560.189453
1.040000 3.120000 -7.040000 40.385597 99.441406 11519.589844
1.040000 3.120000 -7.000000 -35.327866 116.591873 14841.722656
1.040000 3.120000 -6.960000 -101.840172 67.193466 14886.382812
1.040000 3.120000 -6.920000 -108.851471 -17.008148 12137.919922
1.040000 3.120000 -6.880000 -52.473793 -76.755585 8644.918945
1.040000 3.120000 -6.840000 23.377447 -75.455154 6239.985352
1.040000 3.120000 -6.800000 67.486549 -26.233431 5242.627441
1.040000 3.160000 -7.200000 -15.951495 -4.844661 277.920929
1.040000 3.160000 -7.160000 2.973375 -13.410299 188.677078
1.040000 3.160000 -7.120000 26.151217 -0.751160 684.450378
1.040000 3.160000 -7.080000 30.257309 30.607063 1852.297119
1.040000 3.160000 -7.040000 3.558796 55.670479 3111.867188
1.040000 3.160000 -7.000000 -37.231133 47.869984 3677.692627
1.040000 3.160000 -6.960000 -57.558147 6.303680 3352.676758
1.040000 3.160000 -6.920000 -35.751404 -39.160278 2811.690186
1.040000 3.160000 -6.880000 15.849457 -52.417042 2998.751709
1.040000 3.160000 -6.840000 60.773499 -22.444702 4197.182617
1.040000 3.160000 -6.800000 69.875320 28.679907 5705.097656
1.040000 3.200000 -7.200000 -12.295382 3.263554 161.827194
1.040000 3.200000 -7.160000 -5.726237 -5.690017 65.166077
1.040000 3.200000 -7.120000 8.182041 -4.682875 88.875114
1.040000 3.200000 -7.080000 15.582527 8.540550 315.756165
1.040000 3.200000 -7.040000 7.924767 21.244404 514.126648
1.040000 3.200000 -7.000000 -6.306779 18.907562 397.271362
1.040000 3.200000 -6.960000 -8.635002 2.554466 81.088562
1.040000 3.200000 -6.920000 9.742363 -9.466261 184.523727
1.040000 3.200000 -6.880000 36.543888 1.282394 1337.100342
1.040000 3.200000 -6.840000 48.193779 34.397079 3505.799316
1.040000 3.200000 -6.800000 31.365120 69.630486 5832.174805
1.080000 2.800000 -7.200000 -60.398102 -2.226948 3652.889893
1.080000 2.800000 -7.160000 -57.270027 -45.494141 5349.572754
1.080000 2.800000 -7.120000 -19.558529 -77.130928 6331.716309
1.080000 2.800000 -7.080000 31.141609 -71.715454 6112.906250
1.080000 2.800000 -7.040000 60.330795 -32.931900 4724.314941
1.080000 2.800000 -7.000000 51.696438 8.702607 2748.257080
1.080000 2.800000 -6.960000 20.982819 23.942085 1013.502136
1.080000 2.800000 -6.920000 -1.076843 10.573708 112.962883
1.080000 2.800000 -6.880000 1.429371 -8.556889 75.263443
1.080000 2.800000 -6.840000 17.446569 -11.288506 431.813141
1.080000 2.800000 -6.800000 24.956001 2.323116 628.198853
1.080000 2.840000 -7.200000 -32.457664 -38.569008 2541.068359
1.080000 2.840000 -7.160000 -18.543861 -57.924183 3699.085693
1.080000 2.840000 -7.120000 7.600014 -67.207031 4574.545410
1.080000 2.840000 -7.080000 35.092613 -59.311829 4749.384766
1.080000 2.840000 -7.040000 51.610897 -38.824974 4171.063477
1.080000 2.840000 -7.000000 53.745350 -17.434782 3192.534424
1.080000 2.840000 -6.960000 47.832130 -3.192822 2298.106689
1.080000 2.840000 -6.920000 41.463673 4.717094 1741.487183
1.080000 2.840000 -6.880000 36.030785 10.977806 1418.729614
1.080000 2.840000 -6.840000 28.432356 16.258919 1072.751343
1.080000 2.840000 -6.800000 18.598957 16.446758 616.417053
1.080000 2.880000 -7.200000 11.829603 -37.326630 1533.216797
1.080000 2.880000 -7.160000 9.922873 -38.207458 1558.273315
1.080000 2.880000 -7.120000 13.267385 -50.072067 2683.235352
1.080000 2.880000 -7.080000 32.521660 -62.998428 5026.460449
1.080000 2.880000 -7.040000 65.231506 -60.552757 7921.786133
1.080000 2.880000 -7.000000 94.874077 -33.753895 10140.416016
1.080000 2.880000 -6.960000 102.291763 9.412872 10552.207031
1.080000 2.880000 -6.920000 80.900894 47.774841 8827.390625
1.080000 2.880000 -6.880000 42.980316 62.000999 5691.431641
1.080000 2.880000 -6.840000 11.208149 49.008064 2527.412842
1.080000 2.880000 -6.800000 1.935831 23.831993 571.711304
1.080000 2.920000 -7.200000 35.000721 -2.487620 1231.238647
1.080000 2.920000 -7.160000 9.146097 -10.801178 200.316528
1.080000 2.920000 -7.120000 6.931934 -47.034340 2260.281006
1.080000 2.920000 -7.080000 46.966869 -77.616730 8230.244141
1.080000 2.920000 -7.040000 110.066971 -64.813797 16315.566406
1.080000 2.920000 -7.000000 150.861984 -1.976627 22763.244141
1.080000 2.920000 -6.960000 135.363968 76.392876 24159.275391
1.080000 2.920000 -6.920000 70.991737 121.233398 19737.363281
1.080000 2.920000 -6.880000 1.020687 109.105057 11904.955078
1.080000 2.920000 -6.840000 -31.622028 59.780849 4573.702637
1.080000 2.920000 -6.800000 -18.160843 16.373079 597.893921
1.080000 2.960000 -7.200000 20.833023 33.665005 1567.347412
1.080000 2.960000 -7.160000 -10.208250 -2.146278 108.814880
1.080000 2.960000 -7.120000 10.466347 -57.807491 3451.250488
1.080000 2.960000 -7.080000 83.330772 -76.933670 12862.806641
1.080000 2.960000 -7.040000 157.451828 -24.266987 25379.964844
1.080000 2.960000 -7.000000 170.407898 77.276230 35010.468750
1.080000 2.960000 -6.960000 103.435272 160.860474 36574.945312
1.080000 2.960000 -6.920000 -0.133467 171.156250 29294.478516
1.080000 2.960000 -6.880000 -71.450714 110.292282 17269.591797
1.080000 2.960000 -6.840000 -73.808258 32.283638 6489.892578
1.080000 2.960000 -6.800000 -28.226238 -6.690355 841.481384
1.080000 3.000000 -7.200000 -13.289059 42.145729 1952.861572
1.080000 3.000000 -7.160000 -22.415976 -15.275825 735.826782
1.080000 3.000000 -7.120000 31.789923 -62.299454 4891.821289
1.080000 3.000000 -7.080000 117.700867 -42.669090 15674.145508
1.080000 3.000000 -7.040000 164.500198 49.803185 29540.671875
1.080000 3.000000 -7.000000 123.015289 156.872070 39741.609375
1.080000 3.000000 -6.960000 12.519024 201.531677 40771.742188
1.080000 3.000000 -6.920000 -92.742020 153.740326 32237.169922
1.080000 3.000000 -6.880000 -126.405991 54.791981 18980.636719
1.080000 3.000000 -6.840000 -83.531021 -21.739845 7450.052734
1.080000 3.000000 -6.800000 -16.519867 -33.675354 1406.935425
1.080000 3.040000 -7.200000 -36.573643 22.623756 1849.465698
1.080000 3.040000 -7.160000 -14.461953 -30.666180 1149.562622
1.080000 3.040000 -7.120000 55.139114 -44.644318 5033.437012
1.080000 3.040000 -7.080000 119.318504 12.482269 14392.711914
1.080000 3.040000 -7.040000 115.814850 112.253311 26013.884766
1.080000 3.040000 -7.000000 31.000505 182.201630 34158.464844
1.080000 3.040000 -6.960000 -82.043678 166.539413 34466.542969
1.080000 3.040000 -6.920000 -146.149384 75.455383 27053.156250
1.080000 3.040000 -6.880000 -124.957878 -24.253513 16202.705078
1.080000 3.040000 -6.840000 -49.564819 -67.932762 7071.531738
1.080000 3.040000 -6.800000 15.617010 -44.927105 2262.335693
1.080000 3.080000 -7.200000 -35.000793 -1.446876 1227.149048
1.080000 3.080000 -7.160000 2.630031 -29.908922 901.460693
1.080000 3.080000 -7.120000 58.213150 -12.342224 3541.101318
1.080000 3.080000 -7.080000 82.110802 53.696007 9625.445312
1.080000 3.080000 -7.040000 40.573666 123.670746 16940.675781
1.080000 3.080000 -7.000000 -47.876514 139.638184 21790.982422
1.080000 3.080000 -6.960000 -122.257233 81.803955 21638.718750
1.080000 3.080000 -6.920000 -129.669006 -11.434456 16944.796875
1.080000 3.080000 -6.880000 -69.928032 -75.705551 10621.259766
1.080000 3.080000 -6.840000 7.593487 -74.982803 5680.082031
1.080000 3.080000 -6.800000 49.927177 -26.929615 3217.927246
1.080000 3.120000 -7.200000 -20.793631 -9.704842 526.559021
1.080000 3.120000 -7.160000 8.973936 -15.343592 315.957336
1.080000 3.120000 -7.120000 36.813156 10.554104 1466.597656
1.080000 3.120000 -7.080000 32.186119 56.375572 4214.151367
1.080000 3.120000 -7.040000 -13.161766 85.357178 7459.079590
1.080000 3.120000 -7.000000 -70.696777 66.744392 9452.847656
1.080000 3.120000 -6.960000 -95.667084 6.565483 9195.295898
1.080000 3.120000 -6.920000 -65.986046 -53.715492 7239.512207
1.080000 3.120000 -6.880000 -2.295837 -71.647713 5138.665527
1.080000 3.120000 -6.840000 50.454910 -39.138702 4077.536133
1.080000 3.120000 -6.800000 61.654823 14.445235 4009.981934
1.080000 3.160000 -7.200000 -14.377562 -4.225345 224.567810
1.080000 3.160000 -7.160000 -1.028893 -5.293929 29.084309
1.080000 3.160000 -7.120000 9.904623 8.296323 166.930527
1.080000 3.160000 -7.080000 3.381886 28.493139 823.296143
1.080000 3.160000 -7.040000 -20.911720 35.020042 1663.703369
1.080000 3.160000 -7.000000 -43.133446 15.542347 2102.058594
1.080000 3.160000 -6.960000 -39.731316 -18.636009 1925.878174
1.080000 3.160000 -6.920000 -6.740112 -39.452682 1601.943237
1.080000 3.160000 -6.880000 33.994942 -26.727547 1870.017822
1.080000 3.160000 -6.840000 53.044441 13.413198 2993.626465
1.080000 3.160000 -6.800000 38.411263 54.443512 4439.520996
1.080000 3.200000 -7.200000 -20.795059 -2.553888 438.956818
1.080000 3.200000 -7.160000 -13.186412 -12.083881 319.901642
1.080000 3.200000 -7.120000 0.154327 -10.783693 116.311859
1.080000 3.200000 -7.080000 6.424191 0.433491 41.458141
1.080000 3.200000 -7.040000 1.214715 9.432076 90.439583
1.080000 3.200000 -7.000000 -5.873962 7.153873 85.681335
1.080000 3.200000 -6.960000 -2.029186 -0.928190 4.979134
1.080000 3.200000 -6.920000 13.316414 0.377371 177.469284
1.080000 3.200000 -6.880000 25.685686 19.514894 1040.585571
1.080000 3.200000 -6.840000 19.110634 47.786560 2648.771729
1.080000 3.200000 -6.800000 -8.101076 66.278740 4458.499023
1.120000 2.800000 -7.200000 -33.198353 -21.944374 1583.686157
1.120000 2.800000 -7.160000 -11.992753 -48.274414 2474.245117
1.120000 2.800000 -7.120000 26.662067 -52.343246 3450.681152
1.120000 2.800000 -7.080000 58.643883 -26.184172 4124.715820
1.120000 2.800000 -7.040000 62.213768 14.533545 4081.776855
1.120000 2.800000 -7.000000 37.267078 42.784615 3219.358398
1.120000 2.800000 -6.960000 4.951704 43.272316 1897.012695
1.120000 2.800000 -6.920000 -11.926218 23.994461 717.968872
1.120000 2.800000 -6.880000 -8.155433 5.817936 100.359467
1.120000 2.800000 -6.840000 3.229610 1.810608 13.708685
1.120000 2.800000 -6.800000 7.455550 7.413113 110.539467
1.120000 2.840000 -7.200000 -4.429347 -32.124077 1051.575439
1.120000 2.840000 -7.160000 13.791344 -38.710777 1688.725464
1.120000 2.840000 -7.120000 36.302017 -32.249771 2357.884277
1.120000 2.840000 -7.080000 51.368622 -11.862461 2779.453369
1.120000 2.840000 -7.040000 50.603363 13.017473 2730.155029
1.120000 2.840000 -7.000000 36.232090 30.008530 2213.276367
1.120000 2.840000 -6.960000 18.538713 33.599991 1472.643311
1.120000 2.840000 -6.920000 6.678635 27.834023 819.336975
1.120000 2.840000 -6.880000 2.426857 20.289402 417.549469
1.120000 2.840000 -6.840000 2.271711 14.858585 225.938232
1.120000 2.840000 -6.800000 3.665001 10.812548 130.343414
1.120000 2.880000 -7.200000 18.748459 -14.995395 576.366577
1.120000 2.880000 -7.160000 19.512766 -15.988407 636.377197
1.120000 2.880000 -7.120000 27.582651 -19.085960 1125.076538
1.120000 2.880000 -7.080000 42.609337 -14.974499 2039.791138
1.120000 2.880000 -7.040000 55.712910 1.789850 3107.131836
1.120000 2.880000 -7.000000 56.102386 26.925526 3872.461670
1.120000 2.880000 -6.960000 39.976952 48.339710 3934.884277
1.120000 2.880000 -6.920000 14.487499 54.654037 3196.951416
1.120000 2.880000 -6.880000 -6.681467 43.703041 1954.597778
1.120000 2.880000 -6.840000 -12.834115 24.409271 760.526978
1.120000 2.880000 -6.800000 -3.687448 10.464180 123.096329
1.120000 2.920000 -7.200000 17.301460 11.604348 434.001404
1.120000 2.920000 -7.160000 5.987226 -3.135921 45.680874
1.120000 2.920000 -7.120000 18.357491 -23.554022 891.789429
1.120000 2.920000 -7.080000 50.854511 -24.825426 3202.483154
1.120000 2.920000 -7.040000 78.994804 5.141434 6266.613770
1.120000 2.920000 -7.000000 76.960464 52.482243 8677.298828
1.120000 2.920000 -6.960000 40.432018 86.722054 9155.462891
1.120000 2.920000 -6.920000 -8.278957 85.635109 7401.913086
1.120000 2.920000 -6.880000 -38.173870 53.662910 4336.952148
1.120000 2.920000 -6.840000 -34.751686 17.396294 1510.310791
1.120000 2.920000 -6.800000 -10.150257 2.673151 110.173454
1.120000 2.960000 -7.200000 -3.593840 23.710091 575.084106
1.120000 2.960000 -7.160000 -7.448313 -9.429419 144.391296
1.120000 2.960000 -7.120000 25.241331 -33.867767 1784.150391
1.120000 2.960000 -7.080000 73.548134 -18.635170 5756.597656
1.120000 2.960000 -7.040000 96.685562 36.866707 10707.251953
1.120000 2.960000 -7.000000 68.799026 97.605537 14260.146484
1.120000 2.960000 -6.960000 3.490091 120.401009 14508.583984
1.120000 2.960000 -6.920000 -55.966679 90.466766 11316.504883
1.120000 2.960000 -6.880000 -72.777351 33.433010 6414.309082
1.120000 2.960000 -6.840000 -46.181694 -8.033147 2197.280273
1.120000 2.960000 -6.800000 -8.074631 -10.616262 177.904694
1.120000 3.000000 -7.200000 -22.546646 14.375106 714.994934
1.120000 3.000000 -7.160000 -5.192372 -22.506371 533.497437
1.120000 3.000000 -7.120000 43.942436 -29.851276 2822.036377
1.120000 3.000000 -7.080000 86.961578 11.996952 7706.242676
1.120000 3.000000 -7.040000 82.225090 81.370888 13382.186523
1.120000 3.000000 -7.000000 22.546522 128.555283 17034.806641
1.120000 3.000000 -6.960000 -54.740963 117.060822 16699.808594
1.120000 3.000000 -6.920000 -97.725273 55.452438 12625.202148
1.120000 3.000000 -6.880000 -83.265167 -10.415945 7041.579590
1.120000 3.000000 -6.840000 -33.801231 -37.470100 2546.531738
1.120000 3.000000 -6.800000 6.488160 -19.995165 441.902832
1.120000 3.040000 -7.200000 -24.863846 -2.605815 625.001099
1.120000 3.040000 -7.160000 8.201613 -24.243309 655.004517
1.120000 3.040000 -7.120000 53.418575 -6.865485 2900.679199
1.120000 3.040000 -7.080000 70.621170 48.601753 7349.479980
1.120000 3.040000 -7.040000 34.904865 105.006935 12244.805664
1.120000 3.040000 -7.000000 -36.903030 117.106743 15075.823242
1.120000 3.040000 -6.960000 -96.233810 71.200333 14330.433594
1.120000 3.040000 -6.920000 -102.788193 -1.317559 10567.148438
1.120000 3.040000 -6.880000 -58.063606 -50.464741 5918.072266
1.120000 3.040000 -6.840000 -1.220299 -49.725239 2474.088379
1.120000 3.040000 -6.800000 27.343410 -14.481632 957.379761
1.120000 3.080000 -7.200000 -15.636569 -10.226045 349.074280
1.120000 3.080000 -7.160000 14.934729 -11.797632 362.230225
1.120000 3.080000 -7.120000 39.429466 17.310959 1854.352173
1.120000 3.080000 -7.080000 30.455868 62.248085 4802.383789
1.120000 3.080000 -7.040000 -15.946045 87.794472 7962.145508
1.120000 3.080000 -7.000000 -70.840500 67.917145 9631.115234
1.120000 3.080000 -6.960000 -93.819702 11.216232 8927.940430
1.120000 3.080000 -6.920000 -67.485992 -43.675156 6461.878418
1.120000 3.080000 -6.880000 -12.462391 -60.229362 3782.887451
1.120000 3.080000 -6.840000 31.480928 -33.822929 2135.039551
1.120000 3.080000 -6.800000 39.664246 8.287916 1641.941895
1.120000 3.120000 -7.200000 -10.443862 -6.636766 153.120911
1.120000 3.120000 -7.160000 5.449670 -0.403182 29.861462
1.120000 3.120000 -7.120000 11.435836 20.704586 559.458191
1.120000 3.120000 -7.080000 -4.788614 42.387878 1819.662964
1.120000 3.120000 -7.040000 -37.006081 43.171165 3233.199463
1.120000 3.120000 -7.000000 -61.029835 15.144836 3954.006592
1.120000 3.120000 -6.960000 -54.535538 -24.954580 3596.855957
1.120000 3.120000 -6.920000 -18.157223 -47.633259 2598.612061
1.120000 3.120000 -6.880000 23.432301 -35.734718 1826.042725
1.120000 3.120000 -6.840000 42.406952 1.176553 1799.733887
1.120000 3.120000 -6.800000 30.626795 36.766266 2289.758789
1.120000 3.160000 -7.200000 -15.868384 -4.723204 274.114258
1.120000 3.160000 -7.160000 -9.950089 -5.385533 128.008240
1.120000 3.160000 -7.120000 -6.017914 0.771572 36.810608
1.120000 3.160000 -7.080000 -10.851374 7.750444 177.821701
1.120000 3.160000 -7.040000 -21.128189 5.332081 474.831451
1.120000 3.160000 -7.000000 -24.300566 -8.416283 661.351318
1.120000 3.160000 -6.960000 -11.285805 -21.950577 609.197205
1.120000 3.160000 -6.920000 12.272379 -19.730881 539.918945
1.120000 3.160000 -6.880000 28.928715 2.496009 843.100586
1.120000 3.160000 -6.840000 24.660378 32.435791 1660.214844
1.120000 3.160000 -6.800000 1.112959 51.767120 2681.073486
1.120000 3.200000 -7.200000 -21.971210 -14.924905 705.486877
1.120000 3.200000 -7.160000 -12.189768 -23.933134 721.385376
1.120000 3.200000 -7.120000 1.615524 -22.259092 498.077118
1.120000 3.200000 -7.080000 9.305545 -12.154966 234.336365
1.120000 3.200000 -7.040000 8.566845 -2.681648 80.582069
1.120000 3.200000 -7.000000 5.943710 1.175825 36.710258
1.120000 3.200000 -6.960000 7.623932 3.737570 72.093765
1.120000 3.200000 -6.920000 11.085939 12.439640 277.642700
1.120000 3.200000 -6.880000 7.341532 27.666019 819.306702
1.120000 3.200000 -6.840000 -8.845301 40.489838 1717.666382
1.120000 3.200000 -6.800000 -32.378235 40.853760 2717.379883
1.160000 2.800000 -7.200000 -9.305212 -15.972618 341.711487
1.160000 2.800000 -7.160000 11.719972 -21.903151 617.105774
1.160000 2.800000 -7.120000 34.328239 -10.022275 1278.874023
1.160000 2.800000 -7.080000 43.343582 16.690929 2157.253174
1.160000 2.800000 -7.040000 30.920546 43.401863 2839.801758
1.160000 2.800000 -7.000000 3.837540 54.134686 2945.291016
1.160000 2.800000 -6.960000 -21.446896 44.138283 2408.157227
1.160000 2.800000 -6.920000 -31.752268 22.699402 1523.469360
1.160000 2.800000 -6.880000 -26.378635 4.193047 713.414062
1.160000 2.800000 -6.840000 -14.679624 -3.712977 229.277542
1.160000 2.800000 -6.800000 -5.701926 -3.758877 46.641121
1.160000 2.840000 -7.200000 4.139363 -13.344083 195.198868
1.160000 2.840000 -7.160000 17.016239 -10.215040 393.899445
1.160000 2.840000 -7.120000 27.720860 2.728097 775.888550
1.160000 2.840000 -7.080000 27.925510 22.088600 1267.740356
1.160000 2.840000 -7.040000 14.792131 37.996159 1662.515137
1.160000 2.840000 -7.000000 -5.465782 41.429886 1746.310181
1.160000 2.840000 -6.960000 -21.879101 31.331982 1460.388062
1.160000 2.840000 -6.920000 -26.938438 14.952192 949.247498
1.160000 2.840000 -6.880000 -21.149170 1.561551 449.725830
1.160000 2.840000 -6.840000 -10.505510 -4.096728 127.148926
1.160000 2.840000 -6.800000 -0.599413 -2.936117 8.980080
1.160000 2.880000 -7.200000 7.751269 -2.127699 64.609283
1.160000 2.880000 -7.160000 10.181400 -1.532600 106.009773
1.160000 2.880000 -7.120000 15.244457 2.640495 239.365692
1.160000 2.880000 -7.080000 17.773579 12.345273 468.305847
1.160000 2.880000 -7.040000 12.867792 23.839622 733.907654
1.160000 2.880000 -7.000000 0.675555 30.352600 921.736694
1.160000 2.880000 -6.960000 -13.092583 27.458393 925.379089
1.160000 2.880000 -6.920000 -21.110481 16.582449 720.630005
1.160000 2.880000 -6.880000 -19.423508 4.118463 394.234375
1.160000 2.880000 -6.840000 -9.839906 -2.745427 104.361115
1.160000 2.880000 -6.800000 1.451004 -0.251592 2.168711
1.160000 2.920000 -7.200000 0.557488 4.769355 23.057539
1.160000 2.920000 -7.160000 1.395520 -4.462165 21.858395
1.160000 2.920000 -7.120000 12.247016 -7.997128 213.943451
1.160000 2.920000 -7.080000 24.106316 1.048437 582.213684
1.160000 2.920000 -7.040000 25.474823 19.209715 1017.979736
1.160000 2.920000 -7.000000 12.081971 34.584274 1342.046021
1.160000 2.920000 -6.960000 -8.875195 36.145096 1385.236938
1.160000 2.920000 -6.920000 -23.924665 22.860907 1095.010620
1.160000 2.920000 -6.880000 -23.959208 4.886312 597.919678
1.160000 2.920000 -6.840000 -11.492091 -4.459866 151.958557
1.160000 2.920000 -6.800000 1.577462 0.770959 3.082765
1.160000 2.960000 -7.200000 -7.211316 1.496286 54.241951
1.160000 2.960000 -7.160000 2.360065 -13.130739 177.986206
1.160000 2.960000 -7.120000 23.098896 -13.672817 720.504944
1.160000 2.960000 -7.080000 39.079605 5.171454 1553.959473
1.160000 2.960000 -7.040000 35.297043 33.170612 2346.170898
1.160000 2.960000 -7.000000 10.719165 51.095623 2725.663086
1.160000 2.960000 -6.960000 -19.475929 45.993572 2494.720459
1.160000 2.960000 -6.920000 -35.551605 22.185598 1756.117432
1.160000 2.960000 -6.880000 -29.255426 -2.131530 860.423340
1.160000 2.960000 -6.840000 -10.135773 -10.117450 205.096680
1.160000 2.960000 -6.800000 3.448707 0.054338 11.896533
1.160000 3.000000 -7.200000 -6.970912 -5.492799 78.764450
1.160000 3.000000 -7.160000 12.099927 -14.416876 354.254547
1.160000 3.000000 -7.120000 34.853100 -3.385147 1226.197754
1.160000 3.000000 -7.080000 42.716270 25.271467 2463.326904
1.160000 3.000000 -7.040000 25.139099 53.705521 3516.257324
1.160000 3.000000 -7.000000 -9.656216 61.209000 3839.784180
1.160000 3.000000 -6.960000 -39.297447 41.382236 3256.778809
1.160000 3.000000 -6.920000 -44.891693 8.344582 2084.896240
1.160000 3.000000 -6.880000 -26.464880 -14.669230 915.576172
1.160000 3.000000 -6.840000 -2.087151 -14.621414 218.141953
1.160000 3.000000 -6.800000 8.539335 1.558621 75.349548
1.160000 3.040000 -7.200000 -1.510622 -6.592470 45.742641
1.160000 3.040000 -7.160000 17.652760 -4.048036 328.006531
1.160000 3.040000 -7.120000 30.936094 15.466888 1196.266602
1.160000 3.040000 -7.080000 24.621216 42.612778 2422.053223
1.160000 3.040000 -7.040000 -2.502005 58.480465 3426.224854
1.160000 3.040000 -7.000000 -34.839642 49.269756 3641.309570
1.160000 3.040000 -6.960000 -50.676037 19.140680 2934.426514
1.160000 3.040000 -6.920000 -39.910912 -11.600599 1727.454712
1.160000 3.040000 -6.880000 -12.670524 -22.861412 683.186340
1.160000 3.040000 -6.840000 9.702730 -11.148537 218.432846
1.160000 3.040000 -6.800000 13.146443 9.099996 255.638901
1.160000 3.080000 -7.200000 -0.633923 -1.344267 2.208913
1.160000 3.080000 -7.160000 9.293897 7.103910 136.842056
1.160000 3.080000 -7.120000 10.391014 23.413012 656.142334
1.160000 3.080000 -7.080000 -3.013630 37.901665 1445.618042
1.160000 3.080000 -7.040000 -25.786655 38.026428 2110.960938
1.160000 3.080000 -7.000000 -42.924133 19.757856 2232.854004
1.160000 3.080000 -6.960000 -40.946388 -6.446746 1718.167236
1.160000 3.080000 -6.920000 -20.107773 -22.594553 914.836365
1.160000 3.080000 -6.880000 4.787794 -17.968981 345.807251
1.160000 3.080000 -6.840000 16.750790 1.954599 284.409424
1.160000 3.080000 -6.800000 10.714255 21.206554 564.513245
1.160000 3.120000 -7.200000 -8.218034 0.652810 67.962242
1.160000 3.120000 -7.160000 -6.809152 4.436104 66.043571
1.160000 3.120000 -7.120000 -8.940887 9.718071 174.380371
1.160000 3.120000 -7.080000 -16.241579 12.180962 412.164703
1.160000 3.120000 -7.040000 -24.648457 6.775921 653.459473
1.160000 3.120000 -7.000000 -25.943220 -5.632210 704.772461
1.160000 3.120000 -6.960000 -15.493104 -16.334358 506.847534
1.160000 3.120000 -6.920000 1.647654 -15.395190 239.726654
1.160000 3.120000 -6.880000 13.618878 -0.995254 186.464371
1.160000 3.120000 -6.840000 11.781404 18.147099 468.118713
1.160000 3.120000 -6.800000 -1.967428 30.320698 923.215515
1.160000 3.160000 -7.200000 -15.966476 -8.616053 329.164734
1.160000 3.160000 -7.160000 -13.450984 -13.368929 359.657227
1.160000 3.160000 -7.120000 -7.963364 -14.778093 281.807190
1.160000 3.160000 -7.080000 -3.465574 -12.771572 175.123260
1.160000 3.160000 -7.040000 -0.969284 -10.319103 107.423409
1.160000 3.160000 -7.000000 1.956825 -8.505266 76.168716
1.160000 3.160000 -6.960000 6.706053 -4.526049 65.456268
1.160000 3.160000 -6.920000 10.145563 4.601084 124.102425
1.160000 3.160000 -6.880000 6.955929 17.123329 341.593353
1.160000 3.160000 -6.840000 -4.606363 26.727375 735.571167
1.160000 3.160000 -6.800000 -20.233433 27.996429 1193.191895
1.160000 3.200000 -7.200000 -11.627826 -24.616072 741.157349
1.160000 3.200000 -7.160000 -0.390901 -30.763323 946.534851
1.160000 3.200000 -7.120000 13.566037 -27.306625 929.689148
1.160000 3.200000 -7.080000 22.484993 -15.689704 751.741699
1.160000 3.200000 -7.040000 23.322701 -1.991793 547.915588
1.160000 3.200000 -7.000000 18.308060 9.087009 417.758789
1.160000 3.200000 -6.960000 10.611163 16.841366 396.228394
1.160000 3.200000 -6.920000 1.063634 22.103907 489.714020
1.160000 3.200000 -6.880000 -10.703114 24.100739 695.402222
1.160000 3.200000 -6.840000 -23.307478 20.870331 978.809204
1.160000 3.200000 -6.800000 -33.416016 12.197210 1265.402100
1.200000 2.800000 -7.200000 -3.116408 -0.507964 9.970028
1.200000 2.800000 -7.160000 5.657899 3.698392 45.689926
1.200000 2.800000 -7.120000 10.878739 14.145106 318.431000
1.200000 2.800000 -7.080000 7.956117 27.875441 840.339966
1.200000 2.800000 -7.040000 -4.865025 38.269966 1488.258789
1.200000 2.800000 -7.000000 -23.559799 38.283157 2020.664307
1.200000 2.800000 -6.960000 -39.319984 25.628487 2202.880371
1.200000 2.800000 -6.920000 -43.929451 5.415845 1959.128052
1.200000 2.800000 -6.880000 -35.490814 -12.815382 1423.831909
1.200000 2.800000 -6.840000 -19.407801 -21.600433 843.241455
1.200000 2.800000 -6.800000 -3.767185 -20.009754 414.581940
1.200000 2.840000 -7.200000 -3.322239 -2.054677 15.258972
1.200000 2.840000 -7.160000 0.903652 2.856010 8.973383
1.200000 2.840000 -7.120000 1.596687 11.695887 139.343170
1.200000 2.840000 -7.080000 -4.894636 21.008886 465.330750
1.200000 2.840000 -7.040000 -18.113453 24.433451 925.090698
1.200000 2.840000 -7.000000 -32.007156 17.537683 1332.028320
1.200000 2.840000 -6.960000 -38.513077 2.143201 1487.850342
1.200000 2.840000 -6.920000 -33.447304 -14.199381 1320.344604
1.200000 2.840000 -6.880000 -19.554249 -23.432858 931.467468
1.200000 2.840000 -6.840000 -4.058088 -22.328228 515.017822
1.200000 2.840000 -6.800000 6.672561 -13.472248 226.024536
1.200000 2.880000 -7.200000 -3.355936 -5.556313 42.134918
1.200000 2.880000 -7.160000 -1.344543 -3.031090 10.995300
1.200000 2.880000 -7.120000 -2.166443 2.107285 9.134123
1.200000 2.880000 -7.080000 -7.873302 6.060203 98.714935
1.200000 2.880000 -7.040000 -16.093502 4.500753 279.257568
1.200000 2.880000 -7.000000 -21.451790 -3.269306 470.867645
1.200000 2.880000 -6.960000 -19.867769 -13.301231 571.651001
1.200000 2.880000 -6.920000 -11.676303 -19.942965 534.057861
1.200000 2.880000 -6.880000 -1.003869 -19.772337 391.953064
1.200000 2.880000 -6.840000 7.330254 -13.169037 227.156158
1.200000 2.880000 -6.800000 10.392221 -3.028313 117.168945
1.200000 2.920000 -7.200000 0.578522 -10.056551 101.468903
1.200000 2.920000 -7.160000 3.714293 -9.094291 96.502098
1.200000 2.920000 -7.120000 4.268880 -6.172222 56.319664
1.200000 2.920000 -7.080000 2.215757 -4.569342 25.788460
1.200000 2.920000 -7.040000 0.195300 -5.680744 32.308998
1.200000 2.920000 -7.000000 0.460304 -8.034294 64.761765
1.200000 2.920000 -6.960000 2.974476 -9.266747 94.720093
1.200000 2.920000 -6.920000 6.173325 -8.229065 105.827438
1.200000 2.920000 -6.880000 8.675917 -5.071448 100.991112
1.200000 2.920000 -6.840000 9.589247 -0.139400 91.973083
1.200000 2.920000 -6.800000 7.636890 6.097836 95.505692
1.200000 2.960000 -7.200000 8.831568 -10.110763 180.224121
1.200000 2.960000 -7.160000 13.286096 -7.423859 231.634018
1.200000 2.960000 -7.120000 14.861159 -3.961441 236.547058
1.200000 2.960000 -7.080000 15.313363 -1.368906 236.372986
1.200000 2.960000 -7.040000 15.893375 1.338805 254.391785
1.200000 2.960000 -7.000000 15.552916 5.184741 268.774719
1.200000 2.960000 -6.960000 12.846849 8.966326 245.436523
1.200000 2.960000 -6.920000 8.582520 10.543903 184.833542
1.200000 2.960000 -6.880000 5.263042 9.891073 125.532944
1.200000 2.960000 -6.840000 3.751257 9.501645 104.353188
1.200000 2.960000 -6.800000 1.592546 11.053581 124.717857
1.200000 3.000000 -7.200000 15.190174 -2.223080 235.683472
1.200000 3.000000 -7.160000 17.547325 3.453708 319.836731
1.200000 3.000000 -7.120000 17.454578 7.617569 362.689636
1.200000 3.000000 -7.080000 17.528797 11.121950 430.956512
1.200000 3.000000 -7.040000 16.959835 16.155239 548.627808
1.200000 3.000000 -7.000000 12.931620 21.885231 646.190125
1.200000 3.000000 -6.960000 5.222332 24.486158 626.844727
1.200000 3.000000 -6.920000 -2.272750 21.688063 475.537476
1.200000 3.000000 -6.880000 -5.426752 16.025206 286.256866
1.200000 3.000000 -6.840000 -4.654487 12.319099 173.424454
1.200000 3.000000 -6.800000 -4.428695 12.059517 165.045288
1.200000 3.040000 -7.200000 12.168100 9.012821 229.293610
1.200000 3.040000 -7.160000 9.443650 14.496134 299.320435
1.200000 3.040000 -7.120000 6.786204 16.217686 309.065918
1.200000 3.040000 -7.080000 6.254826 17.879309 358.792511
1.200000 3.040000 -7.040000 4.944598 21.936712 505.668396
1.200000 3.040000 -7.000000 -0.377290 25.925838 672.291443
1.200000 3.040000 -6.960000 -8.318611 25.402119 714.466919
1.200000 3.040000 -6.920000 -13.779611 19.670433 576.803589
1.200000 3.040000 -6.880000 -13.688104 13.091570 358.753387
1.200000 3.040000 -6.840000 -10.454404 10.274650 214.862991
1.200000 3.040000 -6.800000 -8.933543 10.988220 200.549179
1.200000 3.080000 -7.200000 -0.116132 13.296614 176.813431
1.200000 3.080000 -7.160000 -6.247058 13.641307 225.110992
1.200000 3.080000 -7.120000 -8.110825 10.290439 171.678604
1.200000 3.080000 -7.080000 -5.876077 9.194796 119.072540
1.200000 3.080000 -7.040000 -4.535860 12.283026 171.446747
1.200000 3.080000 -7.000000 -7.489567 15.925451 309.713623
1.200000 3.080000 -6.960000 -12.776067 15.791750 412.607239
1.200000 3.080000 -6.920000 -15.836681 11.939815 393.359650
1.200000 3.080000 -6.880000 -14.936090 8.290791 291.824005
1.200000 3.080000 -6.840000 -12.680268 7.785297 221.400055
1.200000 3.080000 -6.800000 -12.364011 9.342067 240.142975
1.200000 3.120000 -7.200000 -11.704244 4.550739 157.698547
1.200000 3.120000 -7.160000 -15.363741 -1.544427 238.429794
1.200000 3.120000 -7.120000 -11.497196 -7.856086 193.903595
1.200000 3.120000 -7.080000 -3.654068 -8.006927 77.463097
1.200000 3.120000 -7.040000 1.392613 -1.748007 4.994900
1.200000 3.120000 -7.000000 0.198894 5.852205 34.287865
1.200000 3.120000 -6.960000 -5.111120 9.925382 124.636749
1.200000 3.120000 -6.920000 -10.222963 9.810056 200.746170
1.200000 3.120000 -6.880000 -12.975504 8.104694 234.049774
1.200000 3.120000 -6.840000 -14.247132 7.116538 253.625885
1.200000 3.120000 -6.800000 -15.739225 7.045920 297.368225
1.200000 3.160000 -7.200000 -11.036018 -11.642968 257.352417
1.200000 3.160000 -7.160000 -7.472740 -19.478527 435.254883
1.200000 3.160000 -7.120000 3.095946 -22.431652 512.763916
1.200000 3.160000 -7.080000 14.218541 -16.230560 465.598022
1.200000 3.160000 -7.040000 18.735216 -3.381161 362.440582
1.200000 3.160000 -7.000000 14.192856 9.391485 289.637146
1.200000 3.160000 -6.960000 3.715659 16.411816 283.153809
1.200000 3.160000 -6.920000 -7.239932 16.346722 319.631897
1.200000 3.160000 -6.880000 -14.713790 11.733141 354.162231
1.200000 3.160000 -6.840000 -17.964102 6.362902 363.195465
1.200000 3.160000 -6.800000 -18.926250 2.830114 366.212494
1.200000 3.200000 -7.200000 3.725106 -21.654087 482.775879
1.200000 3.200000 -7.160000 13.120713 -24.160393 755.877686
1.200000 3.200000 -7.120000 25.014090 -18.902256 982.999939
1.200000 3.200000 -7.080000 32.563087 -5.298235 1088.425903
1.200000 3.200000 -7.040000 30.496021 11.806362 1069.397461
1.200000 3.200000 -7.000000 18.526051 25.147671 975.619873
1.200000 3.200000 -6.960000 1.412680 29.332216 862.374573
1.200000 3.200000 -6.920000 -13.887810 23.708313 754.955383
1.200000 3.200000 -6.880000 -22.148113 12.451670 645.583008
1.200000 3.200000 -6.840000 -22.795078 1.823143 522.939453
1.200000 3.200000 -6.800000 -19.935770 -4.005305 413.477417
