#kx 	ky 	kz 	real 	imag 	intensity
6.800000 -5.200000 -5.200000 -28.359983 -0.211237 804.333252
6.800000 -5.200000 -5.160000 -10.820354 -12.290738 268.142273
6.800000 -5.200000 -5.120000 5.366673 2.851360 36.931438
6.800000 -5.200000 -5.080000 -6.458937 28.075653 829.960205
6.800000 -5.200000 -5.040000 -41.921612 29.822947 2646.829590
6.800000 -5.200000 -5.000000 -66.834869 -3.872473 4481.895996
6.800000 -5.200000 -4.960000 -52.908974 -46.932236 5001.994141
6.800000 -5.200000 -4.920000 -9.724980 -60.244381 3723.960693
6.800000 -5.200000 -4.880000 22.855904 -32.632393 1587.265381
6.800000 -5.200000 -4.840000 15.096277 6.438387 269.350403
6.800000 -5.200000 -4.800000 -22.046585 16.700569 764.960938
6.800000 -5.160000 -5.200000 -22.313305 -22.245014 992.724243
6.800000 -5.160000 -5.160000 1.260947 -22.021759 486.547882
6.800000 -5.160000 -5.120000 8.197394 -0.076965 67.203194
6.800000 -5.160000 -5.080000 -13.102026 15.199911 402.700378
6.800000 -5.160000 -5.040000 -41.104424 -0.197756 1689.612671
6.800000 -5.160000 -5.000000 -43.015968 -37.452831 3253.088135
6.800000 -5.160000 -4.960000 -11.025316 -61.853256 3947.382812
6.800000 -5.160000 -4.920000 27.124638 -49.153015 3151.764648
6.800000 -5.160000 -4.880000 36.047092 -12.175592 1447.637939
6.800000 -5.160000 -4.840000 9.712834 11.677244 230.697174
6.800000 -5.160000 -4.800000 -22.324312 -0.858296 499.111572
6.800000 -5.120000 -5.200000 -1.066745 -32.341587 1047.116211
6.800000 -5.120000 -5.160000 18.229126 -19.293785 704.551147
6.800000 -5.120000 -5.120000 14.709261 1.739759 219.389114
6.800000 -5.120000 -5.080000 -6.158381 5.487394 68.037148
6.800000 -5.120000 -5.040000 -18.660263 -14.462206 557.360840
6.800000 -5.120000 -5.000000 -5.189833 -37.396866 1425.459961
6.800000 -5.120000 -4.960000 23.356264 -37.623825 1961.067383
6.800000 -5.120000 -4.920000 38.451859 -13.093674 1649.989746
6.800000 -5.120000 -4.880000 24.807108 11.357046 744.375061
6.800000 -5.120000 -4.840000 -2.597443 10.308942 113.020996
6.800000 -5.120000 -4.800000 -14.227626 -14.998835 427.390381
6.800000 -5.080000 -5.200000 20.238981 -23.017637 939.427979
6.800000 -5.080000 -5.160000 28.375797 -3.828705 819.844849
6.800000 -5.080000 -5.120000 18.134432 11.181924 453.893036
6.800000 -5.080000 -5.080000 3.157593 9.052393 91.916206
6.800000 -5.080000 -5.040000 0.713079 -3.843022 15.277299
6.800000 -5.080000 -5.000000 12.214363 -9.573952 240.851212
6.800000 -5.080000 -4.960000 21.916382 0.299673 480.417603
6.800000 -5.080000 -4.920000 15.544580 14.478951 451.273987
6.800000 -5.080000 -4.880000 -2.281617 14.578037 217.724945
6.800000 -5.080000 -4.840000 -12.056602 -3.379406 156.782013
6.800000 -5.080000 -4.800000 -0.843068 -23.130447 535.728333
6.800000 -5.040000 -5.200000 27.041023 -1.897851 734.818787
6.800000 -5.040000 -5.160000 23.884014 15.035524 796.513062
6.800000 -5.040000 -5.120000 11.240257 22.932829 652.257996
6.800000 -5.040000 -5.080000 0.619375 19.935471 397.806610
6.800000 -5.040000 -5.040000 -2.106356 14.560942 216.457764
6.800000 -5.040000 -5.000000 -2.227989 14.192625 206.394531
6.800000 -5.040000 -4.960000 -7.782186 15.608345 304.182861
6.800000 -5.040000 -4.920000 -17.453279 9.330551 391.676147
6.800000 -5.040000 -4.880000 -20.040047 -7.045484 451.242310
6.800000 -5.040000 -4.840000 -7.202398 -22.767969 570.255005
6.800000 -5.040000 -4.800000 14.966629 -23.634277 782.579041
6.800000 -5.000000 -5.200000 17.031040 15.860373 541.607788
6.800000 -5.000000 -5.160000 7.045447 25.375418 693.550110
6.800000 -5.000000 -5.120000 -5.472459 26.540022 734.320557
6.800000 -5.000000 -5.080000 -14.703750 22.027382 701.405823
6.800000 -5.000000 -5.040000 -20.775326 16.436398 701.769287
6.800000 -5.000000 -5.000000 -26.842304 9.590464 812.486267
6.800000 -5.000000 -4.960000 -31.668213 -2.573736 1009.499878
6.800000 -5.000000 -4.920000 -28.185562 -20.017380 1195.121338
6.800000 -5.000000 -4.880000 -11.484793 -33.900604 1281.151489
6.800000 -5.000000 -4.840000 12.508436 -32.917789 1240.041748
6.800000 -5.000000 -4.800000 29.147810 -15.312853 1084.078369
6.800000 -4.960000 -5.200000 -0.154029 20.676239 427.530579
6.800000 -4.960000 -5.160000 -12.030819 21.604088 611.477173
6.800000 -4.960000 -5.120000 -22.275782 15.673594 741.871948
6.800000 -4.960000 -5.080000 -28.165112 6.495220 835.461365
6.800000 -4.960000 -5.040000 -30.935104 -3.608452 970.001648
6.800000 -4.960000 -5.000000 -31.052288 -15.841516 1215.198242
6.800000 -4.960000 -4.960000 -24.819300 -30.576717 1550.933350
6.800000 -4.960000 -4.920000 -8.276898 -42.190727 1848.564575
6.800000 -4.960000 -4.880000 15.255261 -41.347836 1942.366577
6.800000 -4.960000 -4.840000 33.851257 -24.392584 1740.905762
6.800000 -4.960000 -4.800000 35.976791 0.216567 1294.376343
6.800000 -4.920000 -5.200000 -13.377985 14.450729 387.794067
6.800000 -4.920000 -5.160000 -23.636061 7.372830 613.022034
6.800000 -4.920000 -5.120000 -27.629086 -5.550866 794.178528
6.800000 -4.920000 -5.080000 -23.987316 -17.972065 898.386475
6.800000 -4.920000 -5.040000 -16.378101 -26.462631 968.513062
6.800000 -4.920000 -5.000000 -7.506465 -32.286972 1098.795654
6.800000 -4.920000 -4.960000 4.074814 -36.452274 1345.372437
6.800000 -4.920000 -4.920000 19.812538 -35.334103 1641.035400
6.800000 -4.920000 -4.880000 35.207142 -23.832937 1807.551758
6.800000 -4.920000 -4.840000 40.890621 -3.189826 1682.217896
6.800000 -4.920000 -4.800000 31.430285 16.467447 1259.039551
6.800000 -4.880000 -5.200000 -19.157930 5.047362 392.502167
6.800000 -4.880000 -5.160000 -24.725586 -9.219950 696.362061
6.800000 -4.880000 -5.120000 -17.574215 -25.562664 962.302795
6.800000 -4.880000 -5.080000 -1.132169 -32.869949 1081.715454
6.800000 -4.880000 -5.040000 14.012371 -28.585779 1013.493347
6.800000 -4.880000 -5.000000 21.395559 -19.618053 842.637939
6.800000 -4.880000 -4.960000 23.832285 -13.019679 737.489807
6.800000 -4.880000 -4.920000 27.198935 -8.159632 806.361633
6.800000 -4.880000 -4.880000 31.367598 0.467636 984.144836
6.800000 -4.880000 -4.840000 29.718300 13.881475 1075.872681
6.800000 -4.880000 -4.800000 17.875664 24.798851 934.522400
6.800000 -4.840000 -5.200000 -21.038509 -2.984226 451.524475
6.800000 -4.840000 -5.160000 -18.237499 -22.393864 834.091553
6.800000 -4.840000 -5.120000 1.874531 -34.571445 1198.698730
6.800000 -4.840000 -5.080000 25.698612 -27.206892 1400.633545
6.800000 -4.840000 -5.040000 35.710167 -5.790360 1308.744385
6.800000 -4.840000 -5.000000 27.848642 12.493860 931.643433
6.800000 -4.840000 -4.960000 13.991274 16.523918 468.795593
6.800000 -4.840000 -4.920000 7.825566 11.019547 182.669891
6.800000 -4.840000 -4.880000 10.593291 8.630898 186.710205
6.800000 -4.840000 -4.840000 12.074562 14.520123 356.629028
6.800000 -4.840000 -4.800000 4.260138 21.134281 464.806610
6.800000 -4.800000 -5.200000 -22.043312 -11.185691 611.027283
6.800000 -4.800000 -5.160000 -7.973741 -30.899277 1018.345886
6.800000 -4.800000 -5.120000 20.769318 -31.026930 1394.034912
6.800000 -4.800000 -5.080000 40.085892 -6.544325 1649.706909
6.800000 -4.800000 -5.040000 32.995415 23.860699 1658.030273
6.800000 -4.800000 -5.000000 6.691256 36.121727 1349.552124
6.800000 -4.800000 -4.960000 -15.418048 24.200621 823.386230
6.800000 -4.800000 -4.920000 -17.411459 4.075949 319.772278
6.800000 -4.800000 -4.880000 -4.926960 -4.554390 45.017403
6.800000 -4.800000 -4.840000 4.035776 1.921686 19.980366
6.800000 -4.800000 -4.800000 -0.373631 10.271146 105.636040
6.840000 -5.200000 -5.200000 -17.767218 -9.054091 397.650574
6.840000 -5.200000 -5.160000 -4.693810 -3.515817 34.392818
6.840000 -5.200000 -5.120000 -9.168686 14.203852 285.814209
6.840000 -5.200000 -5.080000 -35.074722 18.340527 1566.610962
6.840000 -5.200000 -5.040000 -58.186943 -7.496826 3441.922852
6.840000 -5.200000 -5.000000 -49.844711 -47.814968 4770.766602
6.840000 -5.200000 -4.960000 -9.645714 -66.992035 4580.972656
6.840000 -5.200000 -4.920000 29.630089 -45.588402 2956.244629
6.840000 -5.200000 -4.880000 33.069603 -2.854705 1101.747925
6.840000 -5.200000 -4.840000 -0.582541 20.361433 414.927307
6.840000 -5.200000 -4.800000 -36.502815 2.049733 1336.656982
6.840000 -5.160000 -5.200000 -4.748679 -24.340805 615.024719
6.840000 -5.160000 -5.160000 6.679572 -11.292117 172.128586
6.840000 -5.160000 -5.120000 -2.725908 3.597052 20.369356
6.840000 -5.160000 -5.080000 -23.316299 -1.622152 546.281250
6.840000 -5.160000 -5.040000 -29.050884 -27.890764 1621.848633
6.840000 -5.160000 -5.000000 -6.229267 -50.460644 2585.080322
6.840000 -5.160000 -4.960000 28.545914 -43.778027 2731.384766
6.840000 -5.160000 -4.920000 42.914597 -10.157078 1944.828857
6.840000 -5.160000 -4.880000 22.243649 19.701559 882.931335
6.840000 -5.160000 -4.840000 -13.583279 16.916567 470.675690
6.840000 -5.160000 -4.800000 -29.115797 -15.806187 1097.565186
6.840000 -5.120000 -5.200000 17.009678 -23.548241 843.848755
6.840000 -5.120000 -5.160000 23.111814 -5.345593 562.731323
6.840000 -5.120000 -5.120000 12.324535 7.276396 204.840103
6.840000 -5.120000 -5.080000 -1.009781 2.767191 8.677003
6.840000 -5.120000 -5.040000 0.041592 -10.786260 116.345131
6.840000 -5.120000 -5.000000 15.236004 -14.113604 431.329620
6.840000 -5.120000 -4.960000 26.141396 0.982533 684.337952
6.840000 -5.120000 -4.920000 16.433422 20.537727 691.855591
6.840000 -5.120000 -4.880000 -8.432665 22.167168 562.493164
6.840000 -5.120000 -4.840000 -24.690201 -0.312380 609.703613
6.840000 -5.120000 -4.800000 -14.448801 -28.367748 1013.496948
6.840000 -5.080000 -5.200000 30.684507 -5.711696 974.162476
6.840000 -5.080000 -5.160000 29.972197 14.413183 1106.072388
6.840000 -5.080000 -5.120000 17.136517 27.388676 1043.799683
6.840000 -5.080000 -5.080000 2.745316 28.472675 818.229980
6.840000 -5.080000 -5.040000 -5.276424 23.778748 593.269470
6.840000 -5.080000 -5.000000 -9.246962 21.170013 533.675781
6.840000 -5.080000 -4.960000 -16.357620 19.908962 663.938538
6.840000 -5.080000 -4.920000 -26.929995 11.848450 865.610352
6.840000 -5.080000 -4.880000 -31.102814 -6.683497 1012.054138
6.840000 -5.080000 -4.840000 -19.172512 -26.648787 1077.743042
6.840000 -5.080000 -4.800000 5.547183 -32.789719 1105.936890
6.840000 -5.040000 -5.200000 26.125290 15.849075 933.723938
6.840000 -5.040000 -5.160000 18.379627 34.927406 1557.734375
6.840000 -5.040000 -5.120000 -0.410030 47.062065 2215.006104
6.840000 -5.040000 -5.080000 -23.578140 46.923801 2757.771973
6.840000 -5.040000 -5.040000 -43.653519 34.779266 3115.227051
6.840000 -5.040000 -5.000000 -55.570923 14.096748 3286.845703
6.840000 -5.040000 -4.960000 -56.209797 -10.740444 3274.898438
6.840000 -5.040000 -4.920000 -43.675541 -33.803528 3050.231445
6.840000 -5.040000 -4.880000 -19.628624 -47.055397 2599.493408
6.840000 -5.040000 -4.840000 7.866875 -43.895065 1988.664429
6.840000 -5.040000 -4.800000 26.622864 -25.412273 1354.560547
6.840000 -5.000000 -5.200000 8.410303 25.934059 743.308655
6.840000 -5.000000 -5.160000 -5.864145 40.865574 1704.383301
6.840000 -5.000000 -5.120000 -31.550301 45.727695 3086.443604
6.840000 -5.000000 -5.080000 -59.717415 32.855797 4645.672852
6.840000 -5.000000 -5.040000 -77.457611 2.837276 6007.731934
6.840000 -5.000000 -5.000000 -74.823059 -34.725983 6804.384277
6.840000 -5.000000 -4.960000 -50.382061 -65.328552 6806.171875
6.840000 -5.000000 -4.920000 -12.749905 -76.432594 6004.501465
6.840000 -5.000000 -4.880000 22.876595 -64.036987 4624.074219
6.840000 -5.000000 -4.840000 42.300846 -35.458359 3046.656738
6.840000 -5.000000 -4.800000 40.348057 -5.704144 1660.502930
6.840000 -4.960000 -5.200000 -8.309712 20.647455 495.368744
6.840000 -4.960000 -5.160000 -27.056597 27.979137 1514.891602
6.840000 -4.960000 -5.120000 -53.263023 19.399796 3213.301758
6.840000 -4.960000 -5.080000 -72.372772 -9.070841 5320.098633
6.840000 -4.960000 -5.040000 -70.170227 -48.700493 7295.598633
6.840000 -4.960000 -5.000000 -42.517139 -82.072105 8543.538086
6.840000 -4.960000 -4.960000 1.089285 -93.065651 8662.402344
6.840000 -4.960000 -4.920000 42.285007 -76.345665 7616.682617
6.840000 -4.960000 -4.880000 64.047119 -40.600456 5750.430664
6.840000 -4.960000 -4.840000 60.210533 -3.444950 3637.176025
6.840000 -4.960000 -4.800000 38.378677 19.038502 1835.387451
6.840000 -4.920000 -5.200000 -14.509025 8.520727 283.114594
6.840000 -4.920000 -5.160000 -33.193653 5.834938 1135.865112
6.840000 -4.920000 -5.120000 -49.220909 -14.993864 2647.513916
6.840000 -4.920000 -5.080000 -47.627621 -47.726387 4546.198242
6.840000 -4.920000 -5.040000 -22.893360 -76.149162 6322.800781
6.840000 -4.920000 -5.000000 16.851120 -84.623764 7445.142090
6.840000 -4.920000 -4.960000 54.798195 -67.641327 7578.191406
6.840000 -4.920000 -4.920000 75.162788 -32.528755 6707.564453
6.840000 -4.920000 -4.880000 71.378738 5.190466 5121.865234
6.840000 -4.920000 -4.840000 48.730110 30.304808 3293.004883
6.840000 -4.920000 -4.800000 20.575165 35.633587 1693.089966
6.840000 -4.880000 -5.200000 -12.271097 -0.125058 150.595459
6.840000 -4.880000 -5.160000 -24.820057 -11.949497 758.825684
6.840000 -4.880000 -5.120000 -23.800589 -35.250397 1809.058472
6.840000 -4.880000 -5.080000 -3.693797 -55.000622 3038.712402
6.840000 -4.880000 -5.040000 27.309164 -57.684830 4073.330078
6.840000 -4.880000 -5.000000 54.424305 -40.631538 4612.926758
6.840000 -4.880000 -4.960000 66.478348 -11.780321 4558.146484
6.840000 -4.880000 -4.920000 60.888882 17.095150 3999.699951
6.840000 -4.880000 -4.880000 42.208626 36.622169 3122.751465
6.840000 -4.880000 -4.840000 18.429422 42.294254 2128.447510
6.840000 -4.880000 -4.800000 -1.917788 34.653309 1204.529663
6.840000 -4.840000 -5.200000 -9.574860 -3.261288 102.313934
6.840000 -4.840000 -5.160000 -11.319090 -19.218380 497.467926
6.840000 -4.840000 -5.120000 4.110495 -32.972546 1104.084839
6.840000 -4.840000 -5.080000 27.777512 -30.628855 1709.716919
6.840000 -4.840000 -5.040000 43.879139 -12.049505 2070.569336
6.840000 -4.840000 -5.000000 44.089878 11.016327 2065.276855
6.840000 -4.840000 -4.960000 32.332611 26.966499 1772.589844
6.840000 -4.840000 -4.920000 17.581501 32.874172 1389.820312
6.840000 -4.840000 -4.880000 4.883638 32.289459 1066.459106
6.840000 -4.840000 -4.840000 -5.765755 27.948954 814.387939
6.840000 -4.840000 -4.800000 -14.123240 19.267738 570.711609
6.840000 -4.800000 -5.200000 -9.771378 -6.343818 135.723846
6.840000 -4.800000 -5.160000 -0.325026 -19.256790 370.929626
6.840000 -4.800000 -5.120000 19.339413 -17.371056 675.766479
6.840000 -4.800000 -5.080000 30.885439 1.625812 956.553589
6.840000 -4.800000 -5.040000 23.408474 23.017603 1077.766724
6.840000 -4.800000 -5.000000 3.852895 30.603779 951.436096
6.840000 -4.800000 -4.960000 -11.572188 22.318861 632.047119
6.840000 -4.800000 -4.920000 -14.168289 9.755692 295.913940
6.840000 -4.800000 -4.880000 -9.257637 4.001466 101.715569
6.840000 -4.800000 -4.840000 -6.998533 4.680331 70.884972
6.840000 -4.800000 -4.800000 -9.763970 3.522331 107.741936
6.880000 -5.200000 -5.200000 -8.192821 -8.788017 144.351562
6.880000 -5.200000 -5.160000 -9.773603 2.329306 100.948990
6.880000 -5.200000 -5.120000 -26.984142 6.285997 767.657715
6.880000 -5.200000 -5.080000 -45.142460 -11.687275 2174.434082
6.880000 -5.200000 -5.040000 -40.813229 -44.309517 3629.052734
6.880000 -5.200000 -5.000000 -8.023853 -64.064301 4168.616699
6.880000 -5.200000 -4.960000 30.266579 -49.556625 3371.924805
6.880000 -5.200000 -4.920000 41.311096 -9.958225 1805.772949
6.880000 -5.200000 -4.880000 15.191401 20.189602 638.398682
6.880000 -5.200000 -4.840000 -23.078180 13.393715 711.994019
6.880000 -5.200000 -4.800000 -36.391998 -23.314049 1867.922363
6.880000 -5.160000 -5.200000 7.262494 -16.575676 327.496826
6.880000 -5.160000 -5.160000 4.476055 -4.505295 40.332752
6.880000 -5.160000 -5.120000 -8.533142 -3.432766 84.598396
6.880000 -5.160000 -5.080000 -15.147301 -18.180096 559.956604
6.880000 -5.160000 -5.040000 -2.183617 -34.405090 1188.478394
6.880000 -5.160000 -5.000000 22.933773 -31.611618 1525.252319
6.880000 -5.160000 -4.960000 36.291660 -6.126251 1354.615601
6.880000 -5.160000 -4.920000 21.431149 21.273912 911.873474
6.880000 -5.160000 -4.880000 -11.359009 23.943245 702.306091
6.880000 -5.160000 -4.840000 -32.337906 -3.361040 1057.036743
6.880000 -5.160000 -4.800000 -20.753029 -37.222271 1816.185669
6.880000 -5.120000 -5.200000 24.999025 -7.315358 678.465759
6.880000 -5.120000 -5.160000 21.129486 7.669851 505.281799
6.880000 -5.120000 -5.120000 9.964424 13.936564 293.517578
6.880000 -5.120000 -5.080000 2.128128 10.965717 124.775887
6.880000 -5.120000 -5.040000 2.263054 7.988190 68.932587
6.880000 -5.120000 -5.000000 3.240528 12.556793 168.174072
6.880000 -5.120000 -4.960000 -5.318260 19.989876 427.879028
6.880000 -5.120000 -4.920000 -22.939728 16.906601 812.064331
6.880000 -5.120000 -4.880000 -35.129662 -3.330339 1245.184326
6.880000 -5.120000 -4.840000 -26.804062 -30.035030 1620.560791
6.880000 -5.120000 -4.800000 0.901879 -42.642292 1819.178467
6.880000 -5.080000 -5.200000 29.131863 14.011719 1044.993652
6.880000 -5.080000 -5.160000 20.693682 33.393078 1543.326172
6.880000 -5.080000 -5.120000 1.381199 45.610611 2082.235596
6.880000 -5.080000 -5.080000 -22.010376 45.402679 2545.859863
6.880000 -5.080000 -5.040000 -41.872910 33.483353 2874.475586
6.880000 -5.080000 -5.000000 -53.738487 13.919003 3081.563477
6.880000 -5.080000 -4.960000 -55.748688 -9.272343 3193.892578
6.880000 -5.080000 -4.920000 -46.450672 -31.999090 3181.606934
6.880000 -5.080000 -4.880000 -25.734444 -48.022278 2968.400879
6.880000 -5.080000 -4.840000 1.475914 -50.115341 2513.725586
6.880000 -5.080000 -4.800000 24.462112 -35.811558 1880.862549
6.880000 -5.040000 -5.200000 15.354700 31.102736 1203.146973
6.880000 -5.040000 -5.160000 -2.631453 51.862495 2696.643066
6.880000 -5.040000 -5.120000 -36.653679 59.511230 4885.079102
6.880000 -5.040000 -5.080000 -74.083069 42.747581 7315.657227
6.880000 -5.040000 -5.040000 -96.226181 3.263744 9270.129883
6.880000 -5.040000 -5.000000 -90.587494 -43.684746 10114.451172
6.880000 -5.040000 -4.960000 -58.884727 -78.365555 9608.571289
6.880000 -5.040000 -4.920000 -15.387388 -88.056808 7990.772949
6.880000 -5.040000 -4.880000 22.085720 -72.968498 5812.180664
6.880000 -5.040000 -4.840000 41.621880 -43.972641 3665.974121
6.880000 -5.040000 -4.800000 41.661076 -15.231070 1967.630737
6.880000 -5.000000 -5.200000 -5.132469 31.814054 1038.476318
6.880000 -5.000000 -5.160000 -33.911751 46.410183 3303.911865
6.880000 -5.000000 -5.120000 -76.479431 36.020741 7146.597168
6.880000 -5.000000 -5.080000 -108.401230 -7.374798 11805.213867
6.880000 -5.000000 -5.040000 -105.193787 -68.527596 15761.763672
6.880000 -5.000000 -5.000000 -61.850006 -116.992180 17512.593750
6.880000 -5.000000 -4.960000 2.002098 -128.075684 16407.388672
6.880000 -5.000000 -4.920000 55.566586 -99.501129 12988.120117
6.880000 -5.000000 -4.880000 77.582893 -50.908836 8610.815430
6.880000 -5.000000 -4.840000 67.909393 -8.286913 4680.358398
6.880000 -5.000000 -4.800000 42.832043 13.109106 2006.432495
6.880000 -4.960000 -5.200000 -16.958467 18.981659 647.893005
6.880000 -4.960000 -5.160000 -51.050430 20.315180 3018.853027
6.880000 -4.960000 -5.120000 -85.905869 -11.688374 7516.436523
6.880000 -4.960000 -5.080000 -91.058304 -70.543625 13268.017578
6.880000 -4.960000 -5.040000 -51.118031 -125.368790 18330.386719
6.880000 -4.960000 -5.000000 19.236572 -142.559097 20693.140625
6.880000 -4.960000 -4.960000 84.292595 -111.005836 19427.537109
6.880000 -4.960000 -4.920000 112.783150 -49.718513 15191.969727
6.880000 -4.960000 -4.880000 98.516853 7.541476 9762.444336
6.880000 -4.960000 -4.840000 60.473267 36.461163 4986.432129
6.880000 -4.960000 -4.800000 25.130136 35.539883 1894.606934
6.880000 -4.920000 -5.200000 -15.091306 5.930266 262.915588
6.880000 -4.920000 -5.160000 -44.921444 -7.095119 2068.276855
6.880000 -4.920000 -5.120000 -58.363014 -49.844955 5890.760742
6.880000 -4.920000 -5.080000 -32.680790 -99.575455 10983.305664
6.880000 -4.920000 -5.040000 27.652958 -121.743347 15586.128906
6.880000 -4.920000 -5.000000 91.660706 -97.163307 17842.392578
6.880000 -4.920000 -4.960000 124.420448 -37.209293 16864.980469
6.880000 -4.920000 -4.920000 112.102104 25.312675 13207.613281
6.880000 -4.920000 -4.880000 69.158844 60.567692 8451.390625
6.880000 -4.920000 -4.840000 24.128815 60.620720 4257.071289
6.880000 -4.920000 -4.800000 -1.820992 39.394131 1555.213623
6.880000 -4.880000 -5.200000 -7.602056 2.277655 62.978966
6.880000 -4.880000 -5.160000 -25.679785 -19.198034 1028.015869
6.880000 -4.880000 -5.120000 -17.108627 -55.533127 3376.633301
6.880000 -4.880000 -5.080000 23.001406 -78.086487 6626.563965
6.880000 -4.880000 -5.040000 73.636436 -64.754875 9615.518555
6.880000 -4.880000 -5.000000 103.856735 -18.365360 11123.507812
6.880000 -4.880000 -4.960000 96.378944 35.824875 10572.323242
6.880000 -4.880000 -4.920000 58.749100 69.756920 8317.484375
6.880000 -4.880000 -4.880000 14.766094 71.705963 5359.782715
6.880000 -4.880000 -4.840000 -14.022840 50.384197 2735.207520
6.880000 -4.880000 -4.800000 -20.926491 24.107500 1019.089600
6.880000 -4.840000 -5.200000 -5.025877 5.450672 54.969261
6.880000 -4.840000 -5.160000 -10.149261 -15.797496 352.568359
6.880000 -4.840000 -5.120000 8.955494 -34.997105 1304.998291
6.880000 -4.840000 -5.080000 41.083324 -31.686077 2691.847168
6.880000 -4.840000 -5.040000 62.969433 -3.240536 3975.650391
6.880000 -4.840000 -5.000000 58.948730 33.626152 4605.670898
6.880000 -4.840000 -4.960000 32.275909 57.494347 4347.333984
6.880000 -4.840000 -4.920000 -0.131111 58.246223 3392.639648
6.880000 -4.840000 -4.880000 -22.001040 41.268341 2187.121582
6.880000 -4.840000 -4.840000 -27.595364 19.520964 1142.572144
6.880000 -4.840000 -4.800000 -21.092554 3.283335 455.676117
6.880000 -4.800000 -5.200000 -8.817371 6.150207 115.571091
6.880000 -4.800000 -5.160000 -5.227687 -8.780824 104.431580
6.880000 -4.800000 -5.120000 11.167377 -12.148886 272.305725
6.880000 -4.800000 -5.080000 24.108305 1.321953 582.957947
6.880000 -4.800000 -5.040000 21.212551 20.959515 889.273560
6.880000 -4.800000 -5.000000 4.719364 31.627308 1022.559021
6.880000 -4.800000 -4.960000 -12.807312 27.459089 918.028809
6.880000 -4.800000 -4.920000 -21.066948 14.577936 656.332520
6.880000 -4.800000 -4.880000 -19.375284 2.637402 382.357544
6.880000 -4.800000 -4.840000 -13.250259 -3.896479 190.751923
6.880000 -4.800000 -4.800000 -6.894743 -6.323236 87.520798
6.920000 -5.200000 -5.200000 -4.563678 -5.083632 46.670471
6.920000 -5.200000 -5.160000 -16.681480 -2.526882 284.656921
6.920000 -5.200000 -5.120000 -29.733574 -14.866592 1105.100952
6.920000 -5.200000 -5.080000 -27.529408 -38.691982 2254.937744
6.920000 -5.200000 -5.040000 -3.429970 -55.161755 3054.583740
6.920000 -5.200000 -5.000000 28.176731 -46.118729 2920.865234
6.920000 -5.200000 -4.960000 41.454739 -14.146004 1918.604736
6.920000 -5.200000 -4.920000 23.499344 15.610762 795.915039
6.920000 -5.200000 -4.880000 -10.690983 17.136475 407.955872
6.920000 -5.200000 -4.840000 -29.897276 -11.075467 1016.513062
6.920000 -5.200000 -4.800000 -15.633394 -42.949600 2089.071289
6.920000 -5.160000 -5.200000 10.457317 -6.620419 153.185425
6.920000 -5.160000 -5.160000 2.341272 -3.739424 19.464846
6.920000 -5.160000 -5.120000 -3.342907 -10.487774 121.168427
6.920000 -5.160000 -5.080000 2.159279 -19.695267 392.566010
6.920000 -5.160000 -5.040000 16.199772 -18.426395 601.964661
6.920000 -5.160000 -5.000000 24.124519 -2.229248 586.961975
6.920000 -5.160000 -4.960000 13.152340 16.768147 454.154785
6.920000 -5.160000 -4.920000 -12.328008 19.059681 515.251221
6.920000 -5.160000 -4.880000 -31.290993 -2.681475 986.316528
6.920000 -5.160000 -4.840000 -24.667095 -33.534756 1733.045410
6.920000 -5.160000 -4.800000 5.424242 -47.904732 2324.285645
6.920000 -5.120000 -5.200000 22.098122 7.967188 551.803040
6.920000 -5.120000 -5.160000 14.270333 17.870687 523.003906
6.920000 -5.120000 -5.120000 3.119987 22.249369 504.768707
6.920000 -5.120000 -5.080000 -7.547791 21.682438 527.097229
6.920000 -5.120000 -5.040000 -17.102488 18.560127 636.973389
6.920000 -5.120000 -5.000000 -27.238289 12.519440 898.660767
6.920000 -5.120000 -4.960000 -36.748596 -0.132164 1350.476807
6.920000 -5.120000 -4.920000 -38.765335 -20.729427 1932.460449
6.920000 -5.120000 -4.880000 -25.823196 -42.308823 2456.874023
6.920000 -5.120000 -4.840000 0.906288 -51.774658 2681.436523
6.920000 -5.120000 -4.800000 28.450594 -40.600594 2457.844482
6.920000 -5.080000 -5.200000 17.017498 28.712622 1114.009888
6.920000 -5.080000 -5.160000 -0.064280 45.405678 2061.679688
6.920000 -5.080000 -5.120000 -29.390961 50.449593 3408.989990
6.920000 -5.080000 -5.080000 -60.513458 35.580730 4927.867188
6.920000 -5.080000 -5.040000 -78.945160 2.768227 6240.001465
6.920000 -5.080000 -5.000000 -75.390129 -36.091755 6986.286133
6.920000 -5.080000 -4.960000 -51.029507 -66.217941 6988.826172
6.920000 -5.080000 -4.920000 -15.766708 -77.791870 6300.164062
6.920000 -5.080000 -4.880000 17.724171 -69.438805 5135.893555
6.920000 -5.080000 -4.840000 39.502647 -46.980667 3767.642090
6.920000 -5.080000 -4.800000 45.227989 -19.994652 2445.357178
6.920000 -5.040000 -5.200000 -3.031191 38.561089 1496.145630
6.920000 -5.040000 -5.160000 -35.478714 52.249847 3988.785645
6.920000 -5.040000 -5.120000 -80.410141 38.900146 7979.012695
6.920000 -5.040000 -5.080000 -112.136726 -8.097736 12640.218750
6.920000 -5.040000 -5.040000 -106.493881 -71.325714 16428.304688
6.920000 -5.040000 -5.000000 -60.597149 -119.209702 17882.966797
6.920000 -5.040000 -4.960000 3.685490 -128.302902 16475.216797
6.920000 -5.040000 -4.920000 55.515770 -99.007072 12884.401367
6.920000 -5.040000 -4.880000 76.118759 -52.337234 8533.251953
6.920000 -5.040000 -4.840000 67.891052 -12.596711 4767.872070
6.920000 -5.040000 -4.800000 46.828247 8.271809 2261.307617
6.920000 -5.000000 -5.200000 -22.516441 30.114937 1413.899536
6.920000 -5.000000 -5.160000 -65.680862 28.539516 5128.479492
6.920000 -5.000000 -5.120000 -107.142288 -13.192265 11653.505859
6.920000 -5.000000 -5.080000 -110.763763 -85.417801 19564.812500
6.920000 -5.000000 -5.040000 -60.074280 -149.663605 26008.115234
6.920000 -5.000000 -5.000000 24.335875 -166.341339 28261.675781
6.920000 -5.000000 -4.960000 98.140350 -125.560112 25396.871094
6.920000 -5.000000 -4.920000 126.145050 -53.907295 18818.570312
6.920000 -5.000000 -4.880000 106.032364 7.831910 11304.201172
6.920000 -5.000000 -4.840000 64.084045 35.025360 5333.540527
6.920000 -5.000000 -4.800000 30.157534 31.822811 1922.168091
6.920000 -4.960000 -5.200000 -27.433184 12.586623 911.002686
6.920000 -4.960000 -5.160000 -68.210518 -8.729492 4728.878906
6.920000 -4.960000 -5.120000 -85.528748 -69.349739 12124.552734
6.920000 -4.960000 -5.080000 -48.757061 -138.206085 21478.171875
6.920000 -4.960000 -5.040000 35.149315 -167.471497 29282.177734
6.920000 -4.960000 -5.000000 121.793983 -131.419678 32104.906250
6.920000 -4.960000 -4.960000 162.383881 -48.582165 28728.751953
6.920000 -4.960000 -4.920000 140.687820 32.879017 20874.091797
6.920000 -4.960000 -4.880000 81.791962 72.816772 11992.207031
6.920000 -4.960000 -4.840000 27.512699 66.177078 5136.354492
6.920000 -4.960000 -4.800000 3.040283 38.345978 1479.657349
6.920000 -4.920000 -5.200000 -18.574657 1.856209 348.463440
6.920000 -4.920000 -5.160000 -45.273884 -32.415062 3100.460938
6.920000 -4.920000 -5.120000 -32.853188 -90.116539 9200.322266
6.920000 -4.920000 -5.080000 29.480556 -128.419800 17360.748047
6.920000 -4.920000 -5.040000 110.987961 -110.152496 24451.898438
6.920000 -4.920000 -5.000000 160.934448 -37.122173 27277.953125
6.920000 -4.920000 -4.960000 148.867493 49.264854 24588.556641
6.920000 -4.920000 -4.920000 87.640968 100.720200 17825.498047
6.920000 -4.920000 -4.880000 19.856304 98.380219 10072.939453
6.920000 -4.920000 -4.840000 -17.655823 61.597645 4105.998047
6.920000 -4.920000 -4.800000 -18.850246 25.415653 1001.287231
6.920000 -4.880000 -5.200000 -9.187457 4.488233 104.553604
6.920000 -4.880000 -5.160000 -19.385798 -30.902729 1330.787842
6.920000 -4.880000 -5.120000 10.601730 -68.912888 4861.382324
6.920000 -4.880000 -5.080000 70.036171 -71.587250 10029.799805
6.920000 -4.880000 -5.040000 119.160568 -24.814560 14815.003906
6.920000 -4.880000 -5.000000 121.597260 47.049118 16999.513672
6.920000 -4.880000 -4.960000 74.480217 100.192436 15585.827148
6.920000 -4.880000 -4.920000 9.427483 106.335449 11396.104492
6.920000 -4.880000 -4.880000 -34.737022 72.283623 6431.582520
6.920000 -4.880000 -4.840000 -41.461296 29.063156 2563.706055
6.920000 -4.880000 -4.800000 -23.245760 4.032190 556.623901
6.920000 -4.840000 -5.200000 -10.307178 12.478419 261.948853
6.920000 -4.840000 -5.160000 -9.790892 -16.255451 360.101257
6.920000 -4.840000 -5.120000 20.238445 -33.494846 1531.499512
6.920000 -4.840000 -5.080000 57.897209 -17.122089 3645.252930
6.920000 -4.840000 -5.040000 71.517319 26.989922 5843.183105
6.920000 -4.840000 -5.000000 47.397079 69.263115 7043.862305
6.920000 -4.840000 -4.960000 1.006458 81.578232 6656.020996
6.920000 -4.840000 -4.920000 -37.387779 59.588249 4948.605469
6.920000 -4.840000 -4.880000 -47.701439 22.978882 2803.456299
6.920000 -4.840000 -4.840000 -32.960892 -3.540403 1098.954834
6.920000 -4.840000 -4.800000 -11.437918 -9.324907 217.779846
6.920000 -4.800000 -5.200000 -19.810884 13.378128 571.445435
6.920000 -4.800000 -5.160000 -15.225294 -8.181791 298.751282
6.920000 -4.800000 -5.120000 5.897891 -14.668137 249.939362
6.920000 -4.800000 -5.080000 23.083359 0.710968 533.346924
6.920000 -4.800000 -5.040000 20.012169 24.666553 1008.925781
6.920000 -4.800000 -5.000000 -1.194679 37.053291 1374.373657
6.920000 -4.800000 -4.960000 -23.602833 28.934395 1394.292969
6.920000 -4.800000 -4.920000 -31.553883 8.500416 1067.904541
6.920000 -4.800000 -4.880000 -22.964542 -8.541653 600.330017
6.920000 -4.800000 -4.840000 -7.817614 -12.806282 225.115936
6.920000 -4.800000 -4.800000 2.728765 -6.383195 48.191338
6.960000 -5.200000 -5.200000 -5.059497 -3.857214 40.476608
6.960000 -5.200000 -5.160000 -14.534371 -13.469723 392.681396
6.960000 -5.200000 -5.120000 -12.986072 -30.281631 1085.615234
6.960000 -5.200000 -5.080000 3.636471 -42.079433 1783.902588
6.960000 -5.200000 -5.040000 26.350716 -36.447632 2022.790039
6.960000 -5.200000 -5.000000 37.538181 -13.581924 1593.583740
6.960000 -5.200000 -4.960000 26.160391 10.273922 789.919495
6.960000 -5.200000 -4.920000 -0.017150 15.209112 231.317383
6.960000 -5.200000 -4.880000 -18.784351 -3.839117 367.590698
6.960000 -5.200000 -4.840000 -12.773490 -30.513134 1094.213379
6.960000 -5.200000 -4.800000 13.902460 -40.564449 1838.752930
6.960000 -5.160000 -5.200000 8.101393 -0.402892 65.794884
6.960000 -5.160000 -5.160000 4.457344 -3.798546 34.296867
6.960000 -5.160000 -5.120000 6.247559 -7.817472 100.144867
6.960000 -5.160000 -5.080000 11.670582 -6.509867 178.580841
6.960000 -5.160000 -5.040000 13.264074 1.973045 179.828583
6.960000 -5.160000 -5.000000 4.328376 10.912876 137.825699
6.960000 -5.160000 -4.960000 -12.549503 9.028736 239.008118
6.960000 -5.160000 -4.920000 -24.422049 -8.543213 669.422974
6.960000 -5.160000 -4.880000 -18.110008 -32.640373 1393.366333
6.960000 -5.160000 -4.840000 6.584403 -45.213646 2087.628174
6.960000 -5.160000 -4.800000 33.877693 -34.586208 2343.903809
6.960000 -5.120000 -5.200000 12.733625 16.769531 443.362366
6.960000 -5.120000 -5.160000 3.598419 23.976053 587.799744
6.960000 -5.120000 -5.120000 -10.916809 26.359659 814.008301
6.960000 -5.120000 -5.080000 -27.227757 20.139168 1146.936768
6.960000 -5.120000 -5.040000 -39.698963 4.654778 1597.674683
6.960000 -5.120000 -5.000000 -43.023346 -17.201271 2146.892090
6.960000 -5.120000 -4.960000 -33.953461 -39.678627 2727.230957
6.960000 -5.120000 -4.920000 -12.837368 -55.192795 3211.042725
6.960000 -5.120000 -4.880000 14.842720 -56.623447 3426.521240
6.960000 -5.120000 -4.840000 38.857460 -41.456322 3228.528809
6.960000 -5.120000 -4.800000 48.638680 -15.306636 2600.014404
6.960000 -5.080000 -5.200000 -0.491479 33.543442 1125.404053
6.960000 -5.080000 -5.160000 -26.171160 42.473564 2488.933350
6.960000 -5.080000 -5.120000 -60.131783 30.766752 4562.424316
6.960000 -5.080000 -5.080000 -83.450783 -5.601807 6995.413574
6.960000 -5.080000 -5.040000 -78.992996 -53.578766 9110.578125
6.960000 -5.080000 -5.000000 -44.855431 -90.553833 10212.006836
6.960000 -5.080000 -4.960000 3.798347 -99.672684 9949.071289
6.960000 -5.080000 -4.920000 45.459152 -80.122330 8486.122070
6.960000 -5.080000 -4.880000 65.886002 -45.099033 6374.888184
6.960000 -5.080000 -4.840000 64.132477 -11.176194 4237.881836
6.960000 -5.080000 -4.800000 48.717255 11.244938 2499.819580
6.960000 -5.040000 -5.200000 -23.655510 34.052834 1719.178589
6.960000 -5.040000 -5.160000 -64.478188 28.652372 4978.395020
6.960000 -5.040000 -5.120000 -100.350067 -13.022587 10239.723633
6.960000 -5.040000 -5.080000 -99.921494 -79.657364 16329.599609
6.960000 -5.040000 -5.040000 -51.122635 -136.029953 21117.671875
6.960000 -5.040000 -5.000000 25.541603 -148.328934 22653.845703
6.960000 -5.040000 -4.960000 90.602173 -110.141251 20339.847656
6.960000 -5.040000 -4.920000 114.583115 -46.236275 15267.083008
6.960000 -5.040000 -4.880000 97.090996 8.154963 9493.164062
6.960000 -5.040000 -4.840000 61.246628 33.023109 4841.675293
6.960000 -5.040000 -4.800000 31.692532 32.659256 2071.043457
6.960000 -5.000000 -5.200000 -38.588844 16.973965 1777.214355
6.960000 -5.000000 -5.160000 -79.751556 -11.830278 6500.266113
6.960000 -5.000000 -5.120000 -92.338181 -78.247147 14648.955078
6.960000 -5.000000 -5.080000 -48.385406 -148.035736 24255.726562
6.960000 -5.000000 -5.040000 40.903618 -173.174530 31662.523438
6.960000 -5.000000 -5.000000 128.167999 -131.036392 33597.570312
6.960000 -5.000000 -4.960000 165.118988 -44.367031 29232.712891
6.960000 -5.000000 -4.920000 139.082596 36.542519 20679.324219
6.960000 -5.000000 -4.880000 78.835831 73.149460 11565.931641
6.960000 -5.000000 -4.840000 26.903214 64.250107 4851.858887
6.960000 -5.000000 -4.800000 5.662949 37.841175 1464.023560
6.960000 -4.960000 -5.200000 -34.838760 -2.701231 1221.035889
6.960000 -4.960000 -5.160000 -59.929531 -48.819366 5974.878906
6.960000 -4.960000 -5.120000 -37.628231 -116.283653 14937.771484
6.960000 -4.960000 -5.080000 40.089691 -155.948380 25927.080078
6.960000 -4.960000 -5.040000 134.797318 -128.091385 34577.718750
6.960000 -4.960000 -5.000000 188.031372 -39.156670 36889.042969
6.960000 -4.960000 -4.960000 167.975235 60.028076 31819.048828
6.960000 -4.960000 -4.920000 94.139297 114.265381 21918.785156
6.960000 -4.960000 -4.880000 18.356682 105.942566 11560.794922
6.960000 -4.960000 -4.840000 -18.612200 62.301746 4227.921387
6.960000 -4.960000 -4.800000 -15.047577 25.380171 870.582642
6.960000 -4.920000 -5.200000 -19.925463 -8.664421 472.096252
6.960000 -4.920000 -5.160000 -23.802544 -56.604553 3770.636475
6.960000 -4.920000 -5.120000 22.541603 -102.270943 10967.469727
6.960000 -4.920000 -5.080000 102.809364 -99.176224 20405.689453
6.960000 -4.920000 -5.040000 164.940384 -32.086342 28234.863281
6.960000 -4.920000 -5.000000 162.945068 64.479813 30708.742188
6.960000 -4.920000 -4.960000 96.231544 131.915482 26662.203125
6.960000 -4.920000 -4.920000 9.840525 134.685089 18236.908203
6.960000 -4.920000 -4.880000 -43.950535 86.048340 9335.966797
6.960000 -4.920000 -4.840000 -46.438412 30.970507 3115.698486
6.960000 -4.920000 -4.800000 -19.923679 5.393696 426.044952
6.960000 -4.880000 -5.200000 -11.209949 0.551219 125.966805
6.960000 -4.880000 -5.160000 -1.534086 -37.653645 1420.150391
6.960000 -4.880000 -5.120000 46.999603 -56.484196 5399.426758
6.960000 -4.880000 -5.080000 103.227951 -25.674438 11315.186523
6.960000 -4.880000 -5.040000 120.991943 45.421936 16702.203125
6.960000 -4.880000 -5.000000 80.040504 111.656166 18873.582031
6.960000 -4.880000 -4.960000 5.071548 129.305298 16745.580078
6.960000 -4.880000 -4.920000 -55.172943 92.172424 11539.809570
6.960000 -4.880000 -4.880000 -68.584259 33.633404 5835.006836
6.960000 -4.880000 -4.840000 -42.479645 -4.895336 1828.484619
6.960000 -4.880000 -4.800000 -10.235430 -7.793203 165.498047
6.960000 -4.840000 -5.200000 -18.042561 10.934068 445.087830
6.960000 -4.840000 -5.160000 -5.246443 -17.212292 323.788147
6.960000 -4.840000 -5.120000 31.589119 -20.895473 1434.493286
6.960000 -4.840000 -5.080000 60.202553 12.269306 3774.883301
6.960000 -4.840000 -5.040000 51.243225 60.894718 6334.035156
6.960000 -4.840000 -5.000000 6.067837 87.678253 7724.294922
6.960000 -4.840000 -4.960000 -43.874756 72.437637 7172.205566
6.960000 -4.840000 -4.920000 -64.955772 28.833918 5050.647461
6.960000 -4.840000 -4.880000 -49.397163 -9.889011 2537.872314
6.960000 -4.840000 -4.840000 -17.936899 -20.581188 745.317627
6.960000 -4.840000 -4.800000 2.260983 -6.861490 52.192089
6.960000 -4.800000 -5.200000 -32.797318 8.024744 1140.060547
6.960000 -4.800000 -5.160000 -20.082027 -15.962030 658.074219
6.960000 -4.800000 -5.120000 6.681376 -17.503448 351.011475
6.960000 -4.800000 -5.080000 21.939980 4.664968 503.124634
6.960000 -4.800000 -5.040000 11.337467 29.790749 1016.026855
6.960000 -4.800000 -5.000000 -15.428307 35.292053 1483.561646
6.960000 -4.800000 -4.960000 -35.079159 17.452492 1535.136841
6.960000 -4.800000 -4.920000 -32.849258 -7.089664 1129.337036
6.960000 -4.800000 -4.880000 -14.366990 -18.543726 550.280151
6.960000 -4.800000 -4.840000 2.537539 -11.578508 140.500961
6.960000 -4.800000 -4.800000 5.456707 3.013601 38.857445
7.000000 -5.200000 -5.200000 -4.667043 -6.044036 58.311657
7.000000 -5.200000 -5.160000 -2.419894 -18.893852 362.833557
7.000000 -5.200000 -5.120000 9.506081 -26.399248 787.285889
7.000000 -5.200000 -5.080000 24.188007 -22.180473 1077.033081
7.000000 -5.200000 -5.040000 31.161795 -7.401611 1025.841309
7.000000 -5.200000 -5.000000 24.081310 8.150078 646.333252
7.000000 -5.200000 -4.960000 7.126078 12.389874 204.289948
7.000000 -5.200000 -4.920000 -6.519449 1.093847 43.699722
7.000000 -5.200000 -4.880000 -4.893518 -17.008816 313.246338
7.000000 -5.200000 -4.840000 11.854851 -26.228458 828.469482
7.000000 -5.200000 -4.800000 30.224743 -17.225777 1210.262451
7.000000 -5.160000 -5.200000 5.345840 1.435416 30.638430
7.000000 -5.160000 -5.160000 7.687752 0.364029 59.234047
7.000000 -5.160000 -5.120000 8.810722 3.066803 87.034111
7.000000 -5.160000 -5.080000 5.551096 7.092270 81.114960
7.000000 -5.160000 -5.040000 -2.532929 7.839497 67.873436
7.000000 -5.160000 -5.000000 -11.693930 1.053143 137.857101
7.000000 -5.160000 -4.960000 -14.850868 -13.403032 400.189575
7.000000 -5.160000 -4.920000 -6.042774 -29.142986 885.828796
7.000000 -5.160000 -4.880000 13.697010 -35.726242 1463.972412
7.000000 -5.160000 -4.840000 34.409630 -26.149761 1867.832520
7.000000 -5.160000 -4.800000 42.924480 -3.869765 1857.486084
7.000000 -5.120000 -5.200000 2.554542 18.202459 337.855225
7.000000 -5.120000 -5.160000 -9.112207 23.801294 649.533936
7.000000 -5.120000 -5.120000 -27.022387 19.328976 1103.818604
7.000000 -5.120000 -5.080000 -41.177048 1.002396 1696.554077
7.000000 -5.120000 -5.040000 -41.446907 -25.668488 2376.717285
7.000000 -5.120000 -5.000000 -24.727303 -49.200298 3032.108887
7.000000 -5.120000 -4.960000 3.329697 -59.209343 3516.833252
7.000000 -5.120000 -4.920000 32.032471 -51.757149 3704.881836
7.000000 -5.120000 -4.880000 51.096630 -30.295176 3528.663330
7.000000 -5.120000 -4.840000 54.667400 -3.393570 3000.041016
7.000000 -5.120000 -4.800000 43.162140 18.825485 2217.369141
7.000000 -5.080000 -5.200000 -16.534021 27.521229 1030.791870
7.000000 -5.080000 -5.160000 -45.573746 23.038906 2607.757568
7.000000 -5.080000 -5.120000 -70.245178 -7.361244 4988.573242
7.000000 -5.080000 -5.080000 -68.728989 -54.634613 7708.614746
7.000000 -5.080000 -5.040000 -33.531784 -94.018112 9963.786133
7.000000 -5.080000 -5.000000 20.836891 -102.709991 10983.518555
7.000000 -5.080000 -4.960000 67.793663 -76.408455 10434.232422
7.000000 -5.080000 -4.920000 87.324799 -31.018625 8587.775391
7.000000 -5.080000 -4.880000 77.654495 10.462083 6139.675781
7.000000 -5.080000 -4.840000 52.045567 33.438129 3826.849609
7.000000 -5.080000 -4.800000 26.352489 37.517025 2101.980957
7.000000 -5.040000 -5.200000 -38.141697 17.318426 1754.716919
7.000000 -5.040000 -5.160000 -71.270416 -10.694973 5193.854492
7.000000 -5.040000 -5.120000 -77.459930 -67.549683 10563.000000
7.000000 -5.040000 -5.080000 -36.943504 -123.155579 16532.119141
7.000000 -5.040000 -5.040000 37.864399 -139.715454 20954.121094
7.000000 -5.040000 -5.000000 107.844254 -101.957840 22025.785156
7.000000 -5.040000 -4.960000 135.809723 -30.196714 19356.123047
7.000000 -5.040000 -4.920000 113.566574 35.584938 14163.655273
7.000000 -5.040000 -4.880000 64.401169 65.974350 8500.125000
7.000000 -5.040000 -4.840000 21.116285 60.355316 4088.661621
7.000000 -5.040000 -4.800000 0.960397 39.806992 1585.518921
7.000000 -5.000000 -5.200000 -43.968529 -6.275612 1972.614868
7.000000 -5.000000 -5.160000 -61.527771 -54.811104 6789.923828
7.000000 -5.000000 -5.120000 -32.703003 -116.705009 14689.545898
7.000000 -5.000000 -5.080000 43.997505 -147.052948 23560.351562
7.000000 -5.000000 -5.040000 130.111145 -114.035553 29933.017578
7.000000 -5.000000 -5.000000 173.680298 -28.490671 30976.564453
7.000000 -5.000000 -4.960000 149.958771 61.551437 26276.212891
7.000000 -5.000000 -4.920000 80.074203 107.871742 18048.191406
7.000000 -5.000000 -4.880000 11.449974 97.721588 9680.610352
7.000000 -5.000000 -4.840000 -20.947277 57.559078 3751.835693
7.000000 -5.000000 -4.800000 -17.628942 24.899349 930.757202
7.000000 -4.960000 -5.200000 -29.843723 -23.782883 1456.273315
7.000000 -4.960000 -5.160000 -22.561171 -75.503052 6209.717285
7.000000 -4.960000 -5.120000 34.305077 -116.014404 14636.179688
7.000000 -4.960000 -5.080000 118.312759 -102.316292 24466.533203
7.000000 -4.960000 -5.040000 176.069885 -25.761324 31664.251953
7.000000 -4.960000 -5.000000 165.388306 74.140701 32850.132812
7.000000 -4.960000 -4.960000 91.394791 138.389709 27504.718750
7.000000 -4.960000 -4.920000 2.788130 135.109512 18262.353516
7.000000 -4.960000 -4.880000 -48.522072 82.199966 9111.225586
7.000000 -4.960000 -4.840000 -47.289623 27.043085 2967.636719
7.000000 -4.960000 -4.800000 -19.558004 4.475914 402.549347
7.000000 -4.920000 -5.200000 -10.660572 -21.539703 577.606628
7.000000 -4.920000 -5.160000 13.741644 -60.097427 3800.533447
7.000000 -4.920000 -5.120000 74.891396 -69.197258 10396.982422
7.000000 -4.920000 -5.080000 134.895065 -22.059135 18683.283203
7.000000 -4.920000 -5.040000 144.959305 64.250137 25141.279297
7.000000 -4.920000 -5.000000 88.649849 136.863953 26590.539062
7.000000 -4.920000 -4.960000 -0.849360 149.463867 22340.167969
7.000000 -4.920000 -4.920000 -67.195801 100.499207 14615.367188
7.000000 -4.920000 -4.880000 -77.052795 31.995592 6960.851074
7.000000 -4.920000 -4.840000 -43.624023 -8.643753 1977.769897
7.000000 -4.920000 -4.800000 -8.201626 -7.125772 118.043297
7.000000 -4.880000 -5.200000 -5.774258 -5.620758 64.934975
7.000000 -4.880000 -5.160000 20.654530 -28.547863 1241.590088
7.000000 -4.880000 -5.120000 66.615067 -17.658779 4749.399414
7.000000 -4.880000 -5.080000 92.996712 34.934441 9868.803711
7.000000 -4.880000 -5.040000 68.640358 98.197800 14354.306641
7.000000 -4.880000 -5.000000 1.642937 125.947472 15865.464844
7.000000 -4.880000 -4.960000 -64.515579 97.247688 13619.373047
7.000000 -4.880000 -4.920000 -87.707870 34.886196 8909.716797
7.000000 -4.880000 -4.880000 -62.156647 -15.616238 4107.315430
7.000000 -4.880000 -4.840000 -19.354128 -25.715248 1035.856201
7.000000 -4.880000 -4.800000 3.595328 -4.675209 34.783966
7.000000 -4.840000 -5.200000 -19.484684 4.129950 396.709412
7.000000 -4.840000 -5.160000 1.549356 -12.416836 156.578308
7.000000 -4.840000 -5.120000 31.232944 0.348167 975.618042
7.000000 -4.840000 -5.080000 38.068897 38.373997 2921.804688
7.000000 -4.840000 -5.040000 8.189228 70.873154 5090.067383
7.000000 -4.840000 -5.000000 -39.204899 68.381721 6213.083984
7.000000 -4.840000 -4.960000 -68.410950 30.686790 5621.737305
7.000000 -4.840000 -4.920000 -59.663776 -13.027966 3729.493896
7.000000 -4.840000 -4.880000 -25.738989 -31.470516 1652.888916
7.000000 -4.840000 -4.840000 2.430511 -18.619654 352.598877
7.000000 -4.840000 -4.800000 5.133660 4.679826 48.255238
7.000000 -4.800000 -5.200000 -36.623943 -5.870594 1375.777100
7.000000 -4.800000 -5.160000 -16.146221 -23.529194 814.323486
7.000000 -4.800000 -5.120000 8.779755 -15.756542 325.352722
7.000000 -4.800000 -5.080000 14.579449 8.752438 289.165466
7.000000 -4.800000 -5.040000 -3.203220 25.714439 671.493042
7.000000 -4.800000 -5.000000 -26.468037 19.409119 1077.270874
7.000000 -4.800000 -4.960000 -33.408516 -2.804623 1123.994873
7.000000 -4.800000 -4.920000 -19.643864 -19.531143 767.346924
7.000000 -4.800000 -4.880000 -0.526661 -17.192785 295.869232
7.000000 -4.800000 -4.840000 5.944771 -1.956326 39.167511
7.000000 -4.800000 -4.800000 -3.375501 8.996466 92.330399
7.040000 -5.200000 -5.200000 -0.886967 -8.032902 65.314224
7.040000 -5.200000 -5.160000 9.947677 -12.523737 255.800262
7.040000 -5.200000 -5.120000 19.510487 -7.784246 441.253571
7.040000 -5.200000 -5.080000 22.054636 1.755627 489.489197
7.040000 -5.200000 -5.040000 16.936609 9.503384 377.163025
7.040000 -5.200000 -5.000000 8.186199 10.717487 181.878387
7.040000 -5.200000 -4.960000 1.864357 4.997791 28.453745
7.040000 -5.200000 -4.920000 2.546089 -3.439574 18.313238
7.040000 -5.200000 -4.880000 10.155958 -7.984499 166.895706
7.040000 -5.200000 -4.840000 19.182888 -4.008884 384.054352
7.040000 -5.200000 -4.800000 21.844524 7.020733 526.473938
7.040000 -5.160000 -5.200000 4.580706 1.844276 24.384220
7.040000 -5.160000 -5.160000 6.341274 7.429836 95.414230
7.040000 -5.160000 -5.120000 0.605043 11.373549 129.723679
7.040000 -5.160000 -5.080000 -7.830277 7.944031 124.420868
7.040000 -5.160000 -5.040000 -11.902882 -2.440994 147.637039
7.040000 -5.160000 -5.000000 -7.582897 -14.449978 266.302185
7.040000 -5.160000 -4.960000 4.268112 -21.860771 496.110107
7.040000 -5.160000 -4.920000 19.175808 -20.628738 793.256470
7.040000 -5.160000 -4.880000 31.054184 -10.166023 1067.710449
7.040000 -5.160000 -4.840000 34.209808 6.118279 1207.744385
7.040000 -5.160000 -4.800000 26.053963 21.158737 1126.501099
7.040000 -5.120000 -5.200000 -4.610117 14.616770 234.903137
7.040000 -5.120000 -5.160000 -19.556187 16.195229 644.729858
7.040000 -5.120000 -5.120000 -34.684731 1.756859 1206.117065
7.040000 -5.120000 -5.080000 -35.547493 -24.182741 1848.429199
7.040000 -5.120000 -5.040000 -16.741596 -46.861481 2476.279297
7.040000 -5.120000 -5.000000 13.837292 -52.668884 2965.482178
7.040000 -5.120000 -4.960000 41.400593 -38.535416 3198.987305
7.040000 -5.120000 -4.920000 54.499130 -12.262123 3120.514893
7.040000 -5.120000 -4.880000 50.564556 14.241655 2759.599121
7.040000 -5.120000 -4.840000 34.522236 31.870314 2207.501709
7.040000 -5.120000 -4.800000 14.273069 36.977764 1571.075439
7.040000 -5.080000 -5.200000 -24.909660 14.010115 816.774475
7.040000 -5.080000 -5.160000 -47.674866 -4.090649 2289.626221
7.040000 -5.080000 -5.120000 -51.303032 -42.161926 4409.628906
7.040000 -5.080000 -5.080000 -23.103325 -78.358292 6673.785645
7.040000 -5.080000 -5.040000 27.049458 -87.537277 8394.448242
7.040000 -5.080000 -5.000000 72.798752 -60.964947 9016.382812
7.040000 -5.080000 -4.960000 90.664024 -12.682491 8380.810547
7.040000 -5.080000 -4.920000 75.875793 31.961092 6778.647461
7.040000 -5.080000 -4.880000 42.499146 54.490974 4775.443848
7.040000 -5.080000 -4.840000 10.332548 53.143974 2931.043457
7.040000 -5.080000 -4.800000 -8.719419 38.751183 1577.682495
7.040000 -5.040000 -5.200000 -38.767166 -5.206150 1529.997192
7.040000 -5.040000 -5.160000 -49.757187 -44.525497 4458.297363
7.040000 -5.040000 -5.120000 -23.656643 -90.471016 8744.641602
7.040000 -5.040000 -5.080000 36.499222 -108.946259 13201.480469
7.040000 -5.040000 -5.040000 99.632004 -79.386452 16228.744141
7.040000 -5.040000 -5.000000 128.450851 -13.176895 16673.251953
7.040000 -5.040000 -4.960000 107.578430 53.663963 14452.939453
7.040000 -5.040000 -4.920000 53.897758 87.400764 10543.861328
7.040000 -5.040000 -4.880000 1.253925 79.847977 6377.271484
7.040000 -5.040000 -4.840000 -25.720200 49.445297 3106.366211
7.040000 -5.040000 -4.800000 -26.279480 22.157543 1181.567871
7.040000 -5.000000 -5.200000 -31.796778 -29.407772 1875.852173
7.040000 -5.000000 -5.160000 -17.881592 -74.214142 5827.490234
7.040000 -5.000000 -5.120000 36.017670 -102.465111 11796.371094
7.040000 -5.000000 -5.080000 105.956810 -82.477859 18029.443359
7.040000 -5.000000 -5.040000 148.043594 -13.341969 22094.914062
7.040000 -5.000000 -5.000000 132.173523 69.359314 22280.554688
7.040000 -5.000000 -4.960000 66.875793 118.865784 18601.445312
7.040000 -5.000000 -4.920000 -7.141161 112.575142 12724.158203
7.040000 -5.000000 -4.880000 -49.238319 66.882065 6897.622559
7.040000 -5.000000 -4.840000 -48.396656 19.896566 2738.109619
7.040000 -5.000000 -4.800000 -25.567837 -0.812820 654.375000
7.040000 -4.960000 -5.200000 -8.703582 -38.093262 1526.848877
7.040000 -4.960000 -5.160000 25.080303 -68.812492 5364.180664
7.040000 -4.960000 -5.120000 85.106293 -65.391510 11519.130859
7.040000 -4.960000 -5.080000 134.255219 -11.781328 18163.261719
7.040000 -4.960000 -5.040000 132.901367 69.952965 22556.191406
7.040000 -4.960000 -5.000000 73.281494 131.633301 22697.503906
7.040000 -4.960000 -4.960000 -10.691202 135.945877 18595.583984
7.040000 -4.960000 -4.920000 -69.048538 86.198296 12197.846680
7.040000 -4.960000 -4.880000 -74.898560 22.007645 6094.130859
7.040000 -4.960000 -4.840000 -42.497463 -14.826498 2025.859497
7.040000 -4.960000 -4.800000 -9.699018 -12.973120 262.372803
7.040000 -4.920000 -5.200000 9.607751 -24.597740 697.357727
7.040000 -4.920000 -5.160000 45.680267 -34.663841 3288.268555
7.040000 -4.920000 -5.120000 88.991196 -8.079906 7984.717773
7.040000 -4.920000 -5.080000 103.027893 53.148125 13439.470703
7.040000 -4.920000 -5.040000 65.246262 114.180191 17294.191406
7.040000 -4.920000 -5.000000 -8.828411 132.614777 17664.621094
7.040000 -4.920000 -4.960000 -74.133339 94.444786 14415.569336
7.040000 -4.920000 -4.920000 -92.009239 27.139668 9202.261719
7.040000 -4.920000 -4.880000 -61.321342 -23.354954 4305.760742
7.040000 -4.920000 -4.840000 -16.328882 -30.936298 1223.687012
7.040000 -4.920000 -4.800000 5.635472 -7.898798 94.149559
7.040000 -4.880000 -5.200000 6.307897 -4.022367 55.968998
7.040000 -4.880000 -5.160000 31.610020 -3.335358 1010.317993
7.040000 -4.880000 -5.120000 52.722172 25.553076 3432.587158
7.040000 -4.880000 -5.080000 42.640884 70.093208 6731.302734
7.040000 -4.880000 -5.040000 -3.667072 96.899277 9402.916992
7.040000 -4.880000 -5.000000 -59.381062 80.642464 10029.317383
7.040000 -4.880000 -4.960000 -86.422081 28.842953 8300.691406
7.040000 -4.880000 -4.920000 -68.533211 -22.651909 5209.909668
7.040000 -4.880000 -4.880000 -25.213684 -40.568436 2281.527832
7.040000 -4.880000 -4.840000 6.950665 -22.331652 547.014404
7.040000 -4.880000 -4.800000 7.353773 4.935250 78.434677
7.040000 -4.840000 -5.200000 -13.893755 0.933950 193.908691
7.040000 -4.840000 -5.160000 2.980999 -1.108639 10.115436
7.040000 -4.840000 -5.120000 14.245884 17.123280 496.151917
7.040000 -4.840000 -5.080000 2.074104 41.067337 1690.828003
7.040000 -4.840000 -5.040000 -29.467363 46.075844 2991.308838
7.040000 -4.840000 -5.000000 -55.665054 22.232510 3592.882812
7.040000 -4.840000 -4.960000 -54.122906 -14.185379 3130.513672
7.040000 -4.840000 -4.920000 -26.535412 -35.197994 1943.026855
7.040000 -4.840000 -4.880000 2.907074 -27.434185 761.085571
7.040000 -4.840000 -4.840000 10.960519 -3.852896 134.977783
7.040000 -4.840000 -4.800000 -3.243516 10.356606 117.779671
7.040000 -4.800000 -5.200000 -28.465425 -17.235403 1107.339600
7.040000 -4.800000 -5.160000 -8.433998 -24.062626 650.142273
7.040000 -4.800000 -5.120000 6.571373 -11.939940 185.745117
7.040000 -4.800000 -5.080000 3.535534 4.952667 37.028915
7.040000 -4.800000 -5.040000 -11.576101 9.021072 215.385864
7.040000 -4.800000 -5.000000 -21.175217 -2.633480 455.325012
7.040000 -4.800000 -4.960000 -15.042006 -16.311964 492.342102
7.040000 -4.800000 -4.920000 -0.498127 -17.308353 299.827240
7.040000 -4.800000 -4.880000 6.579710 -5.632534 75.018021
7.040000 -4.800000 -4.840000 -0.673704 4.893343 24.398682
7.040000 -4.800000 -4.800000 -13.204389 2.213044 179.253448
7.080000 -5.200000 -5.200000 4.114346 -6.342377 57.153587
7.080000 -5.200000 -5.160000 12.477314 0.312213 155.780838
7.080000 -5.200000 -5.120000 11.804640 8.432934 210.463898
7.080000 -5.200000 -5.080000 6.455269 11.082987 164.503098
7.080000 -5.200000 -5.040000 3.109535 8.626642 84.088165
7.080000 -5.200000 -5.000000 3.923553 5.973199 51.073376
7.080000 -5.200000 -4.960000 6.076200 6.301084 76.623871
7.080000 -5.200000 -4.920000 6.421204 8.575987 114.779411
7.080000 -5.200000 -4.880000 4.797510 10.361383 130.374374
7.080000 -5.200000 -4.840000 2.633024 11.094036 130.010452
7.080000 -5.200000 -4.800000 0.019447 11.527837 132.891403
7.080000 -5.160000 -5.200000 4.620060 3.296185 32.209785
7.080000 -5.160000 -5.160000 -0.583783 11.395956 130.208618
7.080000 -5.160000 -5.120000 -10.556144 8.885666 190.387238
7.080000 -5.160000 -5.080000 -13.591068 -2.793716 192.521988
7.080000 -5.160000 -5.040000 -5.189156 -13.437321 207.488922
7.080000 -5.160000 -5.000000 8.885448 -14.444916 287.606781
7.080000 -5.160000 -4.960000 19.360474 -5.740643 407.782928
7.080000 -5.160000 -4.920000 21.552952 6.409203 505.607605
7.080000 -5.160000 -4.880000 16.935474 16.177561 548.523804
7.080000 -5.160000 -4.840000 8.924704 21.565815 544.734741
7.080000 -5.160000 -4.800000 -0.425172 22.413315 502.537476
7.080000 -5.120000 -5.200000 -7.583800 9.317112 144.322601
7.080000 -5.120000 -5.160000 -22.770157 4.103567 535.319336
7.080000 -5.120000 -5.120000 -27.678272 -16.186413 1028.086670
7.080000 -5.120000 -5.080000 -12.677002 -36.558788 1497.251465
7.080000 -5.120000 -5.040000 15.321178 -40.418262 1868.374512
7.080000 -5.120000 -5.000000 39.247940 -23.528297 2093.981445
7.080000 -5.120000 -4.960000 46.045631 3.990868 2136.127197
7.080000 -5.120000 -4.920000 35.170891 27.398193 1987.652588
7.080000 -5.120000 -4.880000 15.581528 38.106030 1694.853516
7.080000 -5.120000 -4.840000 -3.012797 36.442898 1337.161743
7.080000 -5.120000 -4.800000 -15.497706 27.205006 980.291199
7.080000 -5.080000 -5.200000 -22.955666 -0.175817 526.993469
7.080000 -5.080000 -5.160000 -32.098381 -24.154512 1613.746582
7.080000 -5.080000 -5.120000 -15.859308 -52.959457 3056.221680
7.080000 -5.080000 -5.080000 22.246204 -62.797073 4438.366211
7.080000 -5.080000 -5.040000 60.262581 -41.579433 5360.427734
7.080000 -5.080000 -5.000000 74.832771 1.037811 5601.020996
7.080000 -5.080000 -4.960000 58.600971 41.662209 5169.813477
7.080000 -5.080000 -4.920000 23.557240 60.848373 4257.468262
7.080000 -5.080000 -4.880000 -10.229031 55.062759 3136.540527
7.080000 -5.080000 -4.840000 -29.044331 34.931561 2063.787109
7.080000 -5.080000 -4.800000 -31.644520 14.455686 1210.342407
7.080000 -5.040000 -5.200000 -24.565401 -22.069334 1090.514404
7.080000 -5.040000 -5.160000 -13.057620 -53.678612 3051.894775
7.080000 -5.040000 -5.120000 26.300549 -70.414169 5649.874023
7.080000 -5.040000 -5.080000 73.328743 -52.056030 8086.934570
7.080000 -5.040000 -5.040000 97.692993 -1.911205 9547.573242
7.080000 -5.040000 -5.000000 81.943756 53.762772 9605.214844
7.080000 -5.040000 -4.960000 34.666538 84.708160 8377.241211
7.080000 -5.040000 -4.920000 -16.743637 78.068680 6375.068359
7.080000 -5.040000 -4.880000 -46.602737 45.205975 4215.395508
7.080000 -5.040000 -4.840000 -47.637810 10.166515 2372.718750
7.080000 -5.040000 -4.800000 -31.763058 -8.929162 1088.621826
7.080000 -5.000000 -5.200000 -6.108812 -38.284096 1502.989624
7.080000 -5.000000 -5.160000 25.215223 -58.382519 4044.326172
7.080000 -5.000000 -5.120000 71.309662 -48.316257 7419.528320
7.080000 -5.000000 -5.080000 102.734489 -2.274059 10559.545898
7.080000 -5.000000 -5.040000 94.060699 58.950912 12322.625000
7.080000 -5.000000 -5.000000 44.675900 100.589348 12114.152344
7.080000 -5.000000 -4.960000 -18.849329 99.020386 10160.333984
7.080000 -5.000000 -4.920000 -61.698845 58.981804 7285.600586
7.080000 -5.000000 -4.880000 -65.869957 8.798864 4416.270996
7.080000 -5.000000 -4.840000 -41.044056 -22.037180 2170.251709
7.080000 -5.000000 -4.800000 -13.473618 -24.055672 760.213745
7.080000 -4.960000 -5.200000 18.916695 -32.917336 1441.392334
7.080000 -4.960000 -5.160000 53.916294 -31.241486 3882.997070
7.080000 -4.960000 -5.120000 84.856125 1.248948 7202.122070
7.080000 -4.960000 -5.080000 85.608467 54.805061 10332.404297
7.080000 -4.960000 -5.040000 45.812355 99.777382 12054.298828
7.080000 -4.960000 -5.000000 -17.188503 106.810822 11703.996094
7.080000 -4.960000 -4.960000 -68.187447 69.931244 9539.906250
7.080000 -4.960000 -4.920000 -79.727356 12.559806 6514.199707
7.080000 -4.960000 -4.880000 -52.560642 -30.013638 3663.439453
7.080000 -4.960000 -4.840000 -13.463200 -37.675373 1600.691406
7.080000 -4.960000 -4.800000 7.850659 -19.220043 431.042908
7.080000 -4.920000 -5.200000 28.528419 -9.666772 907.317200
7.080000 -4.920000 -5.160000 50.504639 6.534681 2593.420654
7.080000 -4.920000 -5.120000 57.264870 41.980358 5041.615723
7.080000 -4.920000 -5.080000 33.934006 79.485161 7469.407227
7.080000 -4.920000 -5.040000 -14.778427 92.971802 8862.158203
7.080000 -4.920000 -5.000000 -62.983398 68.098114 8604.261719
7.080000 -4.920000 -4.960000 -81.226204 16.679728 6875.909668
7.080000 -4.920000 -4.920000 -59.989204 -29.916374 4493.693848
7.080000 -4.920000 -4.880000 -18.113401 -44.952274 2348.802246
7.080000 -4.920000 -4.840000 12.708610 -27.536720 919.779663
7.080000 -4.920000 -4.800000 14.445675 -1.718614 211.631149
7.080000 -4.880000 -5.200000 14.253396 9.620947 295.721924
7.080000 -4.880000 -5.160000 20.754284 23.930592 1003.413513
7.080000 -4.880000 -5.120000 13.305004 45.467842 2244.347900
7.080000 -4.880000 -5.080000 -13.090818 58.945282 3645.916016
7.080000 -4.880000 -5.040000 -46.936344 48.643299 4569.191406
7.080000 -4.880000 -5.000000 -65.844299 14.383728 4542.363281
7.080000 -4.880000 -4.960000 -54.894062 -24.294373 3603.574707
7.080000 -4.880000 -4.920000 -21.223534 -42.460396 2253.323730
7.080000 -4.880000 -4.880000 10.364187 -31.082357 1073.529297
7.080000 -4.880000 -4.840000 18.474932 -5.176231 368.116455
7.080000 -4.880000 -4.800000 3.755886 9.886845 111.856377
7.080000 -4.840000 -5.200000 -8.794249 5.772879 110.664932
7.080000 -4.840000 -5.160000 -5.949444 9.338378 122.601181
7.080000 -4.840000 -5.120000 -10.511120 16.715736 389.899475
7.080000 -4.840000 -5.080000 -23.990440 17.438496 879.642334
7.080000 -4.840000 -5.040000 -36.247112 4.174011 1331.275513
7.080000 -4.840000 -5.000000 -34.092697 -17.240711 1459.554199
7.080000 -4.840000 -4.960000 -15.324089 -30.899343 1189.597168
7.080000 -4.840000 -4.920000 6.875753 -25.647099 705.049683
7.080000 -4.840000 -4.880000 15.315953 -6.877893 281.883850
7.080000 -4.840000 -4.840000 5.413164 7.605619 87.147789
7.080000 -4.840000 -4.800000 -9.917104 4.589343 119.411011
7.080000 -4.800000 -5.200000 -15.528723 -17.763533 556.684326
7.080000 -4.800000 -5.160000 -4.652605 -18.351810 358.435669
7.080000 -4.800000 -5.120000 0.450188 -12.104616 146.724396
7.080000 -4.800000 -5.080000 -1.630461 -7.925644 65.474236
7.080000 -4.800000 -5.040000 -3.796875 -10.190083 118.254044
7.080000 -4.800000 -5.000000 0.289791 -13.908819 193.539230
7.080000 -4.800000 -4.960000 7.949703 -11.201324 188.667435
7.080000 -4.800000 -4.920000 10.163446 -1.677316 106.109032
7.080000 -4.800000 -4.880000 2.445029 5.687389 38.324566
7.080000 -4.800000 -4.840000 -8.493751 2.020024 76.224297
7.080000 -4.800000 -4.800000 -10.677909 -10.810096 230.875916
7.120000 -5.200000 -5.200000 6.306623 -1.375346 41.665062
7.120000 -5.200000 -5.160000 4.740458 8.556345 95.682976
7.120000 -5.200000 -5.120000 -2.260846 9.948792 104.089874
7.120000 -5.200000 -5.080000 -3.974874 4.632706 37.261589
7.120000 -5.200000 -5.040000 1.720385 2.436576 8.896625
7.120000 -5.200000 -5.000000 6.664997 8.752787 121.033463
7.120000 -5.200000 -4.960000 2.633724 18.087200 334.083313
7.120000 -5.200000 -4.920000 -8.866652 20.450655 496.846802
7.120000 -5.200000 -4.880000 -18.227285 12.640868 492.025513
7.120000 -5.200000 -4.840000 -18.356920 1.428929 339.018372
7.120000 -5.200000 -4.800000 -11.798287 -4.446181 158.968109
7.120000 -5.160000 -5.200000 3.267847 5.545668 41.433250
7.120000 -5.160000 -5.160000 -7.980618 8.531628 136.478928
7.120000 -5.160000 -5.120000 -13.919978 -1.398376 195.721252
7.120000 -5.160000 -5.080000 -6.140350 -11.904159 179.412888
7.120000 -5.160000 -5.040000 8.471130 -10.313627 178.130951
7.120000 -5.160000 -5.000000 15.987108 3.274336 266.308899
7.120000 -5.160000 -4.960000 10.049232 17.256716 398.781311
7.120000 -5.160000 -4.920000 -2.984692 21.248161 460.392731
7.120000 -5.160000 -4.880000 -12.425236 15.584259 397.255615
7.120000 -5.160000 -4.840000 -14.327578 8.195589 272.447144
7.120000 -5.160000 -4.800000 -13.020692 4.379596 188.719284
7.120000 -5.120000 -5.200000 -7.303173 4.930188 77.643097
7.120000 -5.120000 -5.160000 -17.642689 -6.014875 347.443176
7.120000 -5.120000 -5.120000 -11.039526 -22.911001 646.785156
7.120000 -5.120000 -5.080000 10.071764 -27.581017 862.152893
7.120000 -5.120000 -5.040000 29.021423 -12.625969 1001.658142
7.120000 -5.120000 -5.000000 30.921757 12.295261 1107.328491
7.120000 -5.120000 -4.960000 15.353043 30.516182 1166.953247
7.120000 -5.120000 -4.920000 -5.749212 33.078941 1127.269775
7.120000 -5.120000 -4.880000 -20.379044 23.665361 975.354736
7.120000 -5.120000 -4.840000 -25.325497 11.435349 772.148010
7.120000 -5.120000 -4.800000 -24.323755 1.816936 594.946350
7.120000 -5.080000 -5.200000 -13.581984 -8.167860 251.184204
7.120000 -5.080000 -5.160000 -10.168806 -27.281254 847.671387
7.120000 -5.080000 -5.120000 12.242956 -37.361717 1545.787964
7.120000 -5.080000 -5.080000 38.662994 -24.758011 2107.786133
7.120000 -5.080000 -5.040000 48.912544 6.120661 2429.899414
7.120000 -5.080000 -5.000000 34.436127 36.691483 2532.111816
7.120000 -5.080000 -4.960000 4.016376 49.494568 2465.843506
7.120000 -5.080000 -4.920000 -24.877262 40.446495 2254.797119
7.120000 -5.080000 -4.880000 -39.485447 18.758196 1910.970337
7.120000 -5.080000 -4.840000 -38.334061 -2.491506 1475.707886
7.120000 -5.080000 -4.800000 -28.124908 -15.249303 1023.551758
7.120000 -5.040000 -5.200000 -4.116542 -24.215782 603.350037
7.120000 -5.040000 -5.160000 15.550437 -36.404724 1567.119995
7.120000 -5.040000 -5.120000 43.354076 -27.735275 2648.821289
7.120000 -5.040000 -5.080000 59.065735 2.765207 3496.407471
7.120000 -5.040000 -5.040000 48.671249 39.344353 3916.868652
7.120000 -5.040000 -5.000000 15.103784 60.816498 3926.770752
7.120000 -5.040000 -4.960000 -24.108158 55.430725 3653.768555
7.120000 -5.040000 -4.920000 -49.276772 27.939968 3208.842041
7.120000 -5.040000 -4.880000 -51.046379 -5.184011 2632.606934
7.120000 -5.040000 -4.840000 -34.533077 -27.388742 1942.676636
7.120000 -5.040000 -4.800000 -13.742933 -31.945274 1209.368774
7.120000 -5.000000 -5.200000 17.976360 -26.479631 1024.320435
7.120000 -5.000000 -5.160000 42.247566 -20.556454 2207.424561
7.120000 -5.000000 -5.120000 58.440269 5.475019 3445.240967
7.120000 -5.000000 -5.080000 52.057148 40.485630 4349.033203
7.120000 -5.000000 -5.040000 21.420162 65.154648 4703.951172
7.120000 -5.000000 -5.000000 -20.087799 64.317818 4540.301270
7.120000 -5.000000 -4.960000 -51.757034 36.990746 4047.105957
7.120000 -5.000000 -4.920000 -58.348572 -2.550617 3411.061523
7.120000 -5.000000 -4.880000 -39.683384 -33.643246 2706.639160
7.120000 -5.000000 -4.840000 -10.462309 -42.573364 1921.951294
7.120000 -5.000000 -4.800000 10.181178 -31.402056 1089.745483
7.120000 -4.960000 -5.200000 34.842171 -8.505743 1286.324463
7.120000 -4.960000 -5.160000 47.563690 12.257601 2412.553467
7.120000 -4.960000 -5.120000 42.766632 40.725052 3487.514648
7.120000 -4.960000 -5.080000 17.847658 62.206142 4188.143066
7.120000 -4.960000 -5.040000 -18.319965 63.370163 4351.398926
7.120000 -4.960000 -5.000000 -49.004143 40.335712 4028.375732
7.120000 -4.960000 -4.960000 -58.490223 2.461807 3427.166748
7.120000 -4.960000 -4.920000 -42.000023 -31.579876 2761.290527
7.120000 -4.960000 -4.880000 -10.197845 -44.900066 2120.011963
7.120000 -4.960000 -4.840000 16.903372 -34.271084 1460.231201
7.120000 -4.960000 -4.800000 24.211231 -13.143255 758.928894
7.120000 -4.920000 -5.200000 30.427067 16.646473 1202.911499
7.120000 -4.920000 -5.160000 25.298870 37.339436 2034.266235
7.120000 -4.920000 -5.120000 5.865170 51.988121 2737.164795
7.120000 -4.920000 -5.080000 -21.244858 51.588104 3112.676514
7.120000 -4.920000 -5.040000 -44.444237 33.311859 3084.970215
7.120000 -4.920000 -5.000000 -52.081673 2.961907 2721.273682
7.120000 -4.920000 -4.960000 -38.876373 -26.132648 2194.287842
7.120000 -4.920000 -4.920000 -10.872708 -39.514347 1679.599487
7.120000 -4.920000 -4.880000 16.156387 -31.317533 1241.816772
7.120000 -4.920000 -4.840000 26.806747 -10.152639 821.677795
7.120000 -4.920000 -4.800000 18.371017 6.030345 373.859344
7.120000 -4.880000 -5.200000 7.832438 27.119438 796.811035
7.120000 -4.880000 -5.160000 -6.595267 35.021412 1269.996826
7.120000 -4.880000 -5.120000 -24.622791 31.819313 1618.750488
7.120000 -4.880000 -5.080000 -38.162945 17.077948 1748.066650
7.120000 -4.880000 -5.040000 -40.337658 -4.327196 1645.851196
7.120000 -4.880000 -5.000000 -28.593121 -23.618580 1375.403809
7.120000 -4.880000 -4.960000 -7.164436 -31.539850 1046.091309
7.120000 -4.880000 -4.920000 13.402040 -23.957439 753.573608
7.120000 -4.880000 -4.880000 21.922947 -6.296405 520.260315
7.120000 -4.880000 -4.840000 15.228237 8.475452 303.732483
7.120000 -4.880000 -4.800000 2.262079 9.426419 93.974388
7.120000 -4.840000 -5.200000 -11.550869 13.927664 327.402405
7.120000 -4.840000 -5.160000 -21.193449 9.786616 544.940186
7.120000 -4.840000 -5.120000 -26.699528 -1.090651 714.054321
7.120000 -4.840000 -5.080000 -23.892057 -14.562256 782.889648
7.120000 -4.840000 -5.040000 -12.389048 -24.239075 741.021240
7.120000 -4.840000 -5.000000 3.368088 -24.614523 617.218750
7.120000 -4.840000 -4.960000 15.583827 -14.728155 459.774231
7.120000 -4.840000 -4.920000 17.533157 -0.103758 307.422394
7.120000 -4.840000 -4.880000 8.940194 9.732174 174.642273
7.120000 -4.840000 -4.840000 -2.336172 8.072424 70.621735
7.120000 -4.840000 -4.800000 -5.448488 -2.637147 36.640568
7.120000 -4.800000 -5.200000 -8.320355 -8.489521 141.300293
7.120000 -4.800000 -5.160000 -7.819615 -12.907696 227.754990
7.120000 -4.800000 -5.120000 -3.679378 -18.394562 351.897705
7.120000 -4.800000 -5.080000 5.373777 -21.236464 479.864868
7.120000 -4.800000 -5.040000 16.420362 -16.983223 558.058167
7.120000 -4.800000 -5.000000 22.742939 -5.045504 542.698364
7.120000 -4.800000 -4.960000 18.782906 8.675164 428.056030
7.120000 -4.800000 -4.920000 6.001212 14.920181 258.626343
7.120000 -4.800000 -4.880000 -6.360697 8.731152 116.691475
7.120000 -4.800000 -4.840000 -7.949689 -4.997915 88.176712
7.120000 -4.800000 -4.800000 3.490055 -14.224682 214.522049
7.160000 -5.200000 -5.200000 4.036606 3.177705 26.392002
7.160000 -5.200000 -5.160000 -4.427707 6.567027 62.730431
7.160000 -5.200000 -5.120000 -7.691243 0.302497 59.246723
7.160000 -5.200000 -5.080000 -0.558041 -3.384475 11.766082
7.160000 -5.200000 -5.040000 7.211648 4.907393 76.090363
7.160000 -5.200000 -5.000000 2.315475 19.467321 384.338013
7.160000 -5.200000 -4.960000 -15.901166 24.642601 860.104858
7.160000 -5.200000 -4.920000 -33.037506 11.954441 1234.385498
7.160000 -5.200000 -4.880000 -34.058796 -9.975544 1259.513062
7.160000 -5.200000 -4.840000 -18.816151 -23.824715 921.664551
7.160000 -5.200000 -4.800000 -1.654940 -21.058882 446.215332
7.160000 -5.160000 -5.200000 -0.005482 6.545324 42.841293
7.160000 -5.160000 -5.160000 -10.117205 1.450992 104.463211
7.160000 -5.160000 -5.120000 -7.085238 -8.942338 130.166000
7.160000 -5.160000 -5.080000 5.635679 -8.784795 108.933502
7.160000 -5.160000 -5.040000 12.128222 5.357803 175.799835
7.160000 -5.160000 -5.000000 2.184324 20.422182 421.836792
7.160000 -5.160000 -4.960000 -17.218128 21.110100 742.100220
7.160000 -5.160000 -4.920000 -29.400545 6.229240 903.195435
7.160000 -5.160000 -4.880000 -25.531855 -10.741450 767.254395
7.160000 -5.160000 -4.840000 -12.645240 -16.542458 433.554993
7.160000 -5.160000 -4.800000 -4.254918 -11.287039 145.501572
7.160000 -5.120000 -5.200000 -5.812977 2.457946 39.832203
7.160000 -5.120000 -5.160000 -8.765656 -9.193491 161.356995
7.160000 -5.120000 -5.120000 2.788401 -16.012207 264.165955
7.160000 -5.120000 -5.080000 16.319897 -6.941916 314.529205
7.160000 -5.120000 -5.040000 16.160744 12.129257 408.288513
7.160000 -5.120000 -5.000000 -0.260492 24.762356 613.242126
7.160000 -5.120000 -4.960000 -20.516705 20.627996 846.449463
7.160000 -5.120000 -4.920000 -30.280159 4.556154 937.646545
7.160000 -5.120000 -4.880000 -26.485256 -10.307699 807.717468
7.160000 -5.120000 -4.840000 -17.310699 -16.071083 557.940063
7.160000 -5.120000 -4.800000 -11.286963 -15.436825 365.691101
7.160000 -5.080000 -5.200000 -3.756760 -7.620435 72.184265
7.160000 -5.080000 -5.160000 3.807332 -16.331711 281.220581
7.160000 -5.080000 -5.120000 17.875076 -12.388507 472.993439
7.160000 -5.080000 -5.080000 23.785095 4.698341 587.805176
7.160000 -5.080000 -5.040000 13.232958 22.698799 690.346680
7.160000 -5.080000 -5.000000 -8.447832 28.058624 858.652222
7.160000 -5.080000 -4.960000 -27.860620 17.258022 1074.053467
7.160000 -5.080000 -4.920000 -35.008438 -2.045177 1229.773438
7.160000 -5.080000 -4.880000 -29.544834 -19.012960 1234.389893
7.160000 -5.080000 -4.840000 -17.876923 -27.666864 1085.039795
7.160000 -5.080000 -4.800000 -6.577108 -28.360535 847.578308
7.160000 -5.040000 -5.200000 9.732364 -12.587605 253.166718
7.160000 -5.040000 -5.160000 21.050077 -9.521637 533.767334
7.160000 -5.040000 -5.120000 26.974165 4.409020 747.045044
7.160000 -5.040000 -5.080000 19.887577 21.169178 843.649780
7.160000 -5.040000 -5.040000 1.257873 29.813593 890.432556
7.160000 -5.040000 -5.000000 -20.034960 24.262878 990.086914
7.160000 -5.040000 -4.960000 -33.890625 6.412783 1189.698242
7.160000 -5.040000 -4.920000 -34.422150 -15.948975 1439.254150
7.160000 -5.040000 -4.880000 -22.208736 -33.465950 1613.197754
7.160000 -5.040000 -4.840000 -3.625134 -39.480965 1571.888184
7.160000 -5.040000 -4.800000 12.054276 -33.276966 1252.661987
7.160000 -5.000000 -5.200000 25.279606 -2.497007 645.293518
7.160000 -5.000000 -5.160000 28.314983 11.715769 938.997498
7.160000 -5.000000 -5.120000 19.670452 25.723717 1048.636230
7.160000 -5.000000 -5.080000 2.891978 31.523495 1002.094238
7.160000 -5.000000 -5.040000 -15.008934 26.270966 915.431763
7.160000 -5.000000 -5.000000 -27.818382 11.476618 905.575134
7.160000 -5.000000 -4.960000 -30.996140 -8.997875 1041.722412
7.160000 -5.000000 -4.920000 -21.902302 -28.879841 1313.756104
7.160000 -5.000000 -4.880000 -2.395908 -39.868946 1595.273193
7.160000 -5.000000 -4.840000 18.900175 -36.126297 1662.325928
7.160000 -5.000000 -4.800000 30.277502 -20.636002 1342.571655
7.160000 -4.960000 -5.200000 27.702219 19.190666 1135.694580
7.160000 -4.960000 -5.160000 15.654162 33.861805 1391.674561
7.160000 -4.960000 -5.120000 -3.473346 36.065784 1312.804932
7.160000 -4.960000 -5.080000 -18.969772 26.152151 1043.787231
7.160000 -4.960000 -5.040000 -25.923487 10.639950 785.235718
7.160000 -4.960000 -5.000000 -25.036554 -5.458733 656.626831
7.160000 -4.960000 -4.960000 -17.126301 -20.106010 697.561829
7.160000 -4.960000 -4.920000 -1.791987 -29.977758 901.877258
7.160000 -4.960000 -4.880000 17.778032 -29.332661 1176.463379
7.160000 -4.960000 -4.840000 32.239578 -16.271313 1304.145996
7.160000 -4.960000 -4.800000 32.732780 1.178009 1072.822632
7.160000 -4.920000 -5.200000 11.562593 36.159889 1441.231201
7.160000 -4.920000 -5.160000 -10.866429 39.375557 1668.513672
7.160000 -4.920000 -5.120000 -28.413912 25.483662 1456.767334
7.160000 -4.920000 -5.080000 -31.566034 5.150076 1022.937866
7.160000 -4.920000 -5.040000 -23.038713 -10.255281 635.953064
7.160000 -4.920000 -5.000000 -10.642247 -17.603693 423.147430
7.160000 -4.920000 -4.960000 1.654714 -19.479244 382.179016
7.160000 -4.920000 -4.920000 13.874823 -16.838488 476.045349
7.160000 -4.920000 -4.880000 23.989967 -8.011277 639.699097
7.160000 -4.920000 -4.840000 26.502768 5.219667 729.641602
7.160000 -4.920000 -4.800000 19.405714 14.707522 592.892944
7.160000 -4.880000 -5.200000 -11.242858 34.286091 1301.937866
7.160000 -4.880000 -5.160000 -32.050476 23.009541 1556.671997
7.160000 -4.880000 -5.120000 -37.474567 -0.378510 1404.486572
7.160000 -4.880000 -5.080000 -25.120039 -19.581379 1014.446777
7.160000 -4.880000 -5.040000 -5.554264 -24.583954 635.220642
7.160000 -4.880000 -5.000000 9.410285 -17.629002 399.335175
7.160000 -4.880000 -4.960000 15.835565 -6.897607 298.342102
7.160000 -4.880000 -4.920000 16.380354 2.261576 273.430725
7.160000 -4.880000 -4.880000 13.928825 8.931217 273.778809
7.160000 -4.880000 -4.840000 9.457753 12.603449 248.296021
7.160000 -4.880000 -4.800000 5.213936 11.748590 165.214478
7.160000 -4.840000 -5.200000 -21.539770 16.598259 739.463867
7.160000 -4.840000 -5.160000 -32.175858 -1.599737 1037.844971
7.160000 -4.840000 -5.120000 -24.444302 -23.066528 1129.588623
7.160000 -4.840000 -5.080000 -2.857668 -32.032616 1034.254761
7.160000 -4.840000 -5.040000 17.830933 -23.168991 854.744263
7.160000 -4.840000 -5.000000 25.529732 -4.430300 671.394775
7.160000 -4.840000 -4.960000 19.243254 11.335516 498.796753
7.160000 -4.840000 -4.920000 7.091859 16.516720 323.096497
7.160000 -4.840000 -4.880000 -1.615476 12.226423 152.095184
7.160000 -4.840000 -4.840000 -2.332212 4.887359 29.325489
7.160000 -4.840000 -4.800000 3.796594 1.191521 15.833845
7.160000 -4.800000 -5.200000 -11.905952 1.853764 145.188141
7.160000 -4.800000 -5.160000 -14.208792 -13.277302 378.176514
7.160000 -4.800000 -5.120000 -1.048911 -26.399071 698.011169
7.160000 -4.800000 -5.080000 20.188929 -24.529301 1009.279419
7.160000 -4.800000 -5.040000 33.993107 -6.300059 1195.222168
7.160000 -4.800000 -5.000000 30.000315 16.233273 1163.537964
7.160000 -4.800000 -4.960000 11.818974 27.592316 901.024048
7.160000 -4.800000 -4.920000 -6.204566 21.589977 504.623749
7.160000 -4.800000 -4.880000 -10.965828 5.863389 154.628708
7.160000 -4.800000 -4.840000 -0.918028 -5.041553 26.260027
7.160000 -4.800000 -4.800000 13.501749 -1.623201 184.932007
7.200000 -5.200000 -5.200000 -0.540506 4.013293 16.398670
7.200000 -5.200000 -5.160000 -6.400455 -1.223061 42.461712
7.200000 -5.200000 -5.120000 -0.838859 -6.921914 48.616581
7.200000 -5.200000 -5.080000 8.602562 -0.346089 74.123856
7.200000 -5.200000 -5.040000 5.876181 16.088909 293.382507
7.200000 -5.200000 -5.000000 -14.187985 24.966509 824.625488
7.200000 -5.200000 -4.960000 -37.186966 12.172567 1531.041870
7.200000 -5.200000 -4.920000 -42.106834 -16.409451 2042.255615
7.200000 -5.200000 -4.880000 -22.859098 -38.762939 2025.103760
7.200000 -5.200000 -4.840000 4.821977 -37.991886 1466.634888
7.200000 -5.200000 -4.800000 18.851057 -18.630024 702.440186
7.200000 -5.160000 -5.200000 -3.638440 4.726278 35.575951
7.200000 -5.160000 -5.160000 -6.367719 -3.960082 56.230087
7.200000 -5.160000 -5.120000 2.268594 -6.993557 54.056358
7.200000 -5.160000 -5.080000 8.720082 3.627284 89.197021
7.200000 -5.160000 -5.040000 -0.435547 17.967381 323.016449
7.200000 -5.160000 -5.000000 -21.702065 18.345680 807.543579
7.200000 -5.160000 -4.960000 -36.585560 -0.709613 1339.006714
7.200000 -5.160000 -4.920000 -30.651287 -25.138687 1571.455078
7.200000 -5.160000 -4.880000 -8.869537 -35.166912 1315.380371
7.200000 -5.160000 -4.840000 9.579663 -25.258698 729.771729
7.200000 -5.160000 -4.800000 11.177180 -8.638290 199.549423
7.200000 -5.120000 -5.200000 -4.765506 0.986425 23.683079
7.200000 -5.120000 -5.160000 -2.487200 -6.379323 46.881920
7.200000 -5.120000 -5.120000 5.418777 -4.171327 46.763103
7.200000 -5.120000 -5.080000 5.483751 7.280354 83.075089
7.200000 -5.120000 -5.040000 -7.755253 15.016958 285.652985
7.200000 -5.120000 -5.000000 -24.692295 7.804774 670.623901
7.200000 -5.120000 -4.960000 -30.368696 -11.224160 1048.239502
7.200000 -5.120000 -4.920000 -19.993916 -27.517582 1156.973999
7.200000 -5.120000 -4.880000 -3.309701 -29.964813 908.844116
7.200000 -5.120000 -4.840000 6.268899 -21.210497 489.184296
7.200000 -5.120000 -4.800000 5.082867 -12.828921 190.416748
7.200000 -5.080000 -5.200000 0.767566 -2.469205 6.686131
7.200000 -5.080000 -5.160000 4.360813 -3.720864 32.861519
7.200000 -5.080000 -5.120000 6.163546 1.757275 41.077316
7.200000 -5.080000 -5.080000 -0.041754 8.290809 68.739258
7.200000 -5.080000 -5.040000 -11.939604 7.435181 197.836060
7.200000 -5.080000 -5.000000 -20.838829 -3.120062 443.991577
7.200000 -5.080000 -4.960000 -20.179144 -17.391829 709.673584
7.200000 -5.080000 -4.920000 -11.084156 -27.152637 860.124268
7.200000 -5.080000 -4.880000 0.032564 -29.001276 841.075073
7.200000 -5.080000 -4.840000 7.930663 -25.446365 710.412964
7.200000 -5.080000 -4.800000 11.775212 -20.499193 558.872559
7.200000 -5.040000 -5.200000 10.161993 2.104529 107.695152
7.200000 -5.040000 -5.160000 8.034159 6.460208 106.281998
7.200000 -5.040000 -5.120000 1.619453 8.718268 78.630829
7.200000 -5.040000 -5.080000 -5.905930 5.856945 69.183807
7.200000 -5.040000 -5.040000 -10.641521 -1.220009 114.730377
7.200000 -5.040000 -5.000000 -11.292540 -9.638874 220.429352
7.200000 -5.040000 -4.960000 -8.544697 -17.657827 384.810699
7.200000 -5.040000 -4.920000 -2.511061 -24.661983 614.518860
7.200000 -5.040000 -4.880000 7.281960 -28.779032 881.259583
7.200000 -5.040000 -4.840000 18.938652 -26.677761 1070.375488
7.200000 -5.040000 -4.800000 26.902254 -17.434517 1027.693604
7.200000 -5.000000 -5.200000 13.665847 16.216076 449.716492
7.200000 -5.000000 -5.160000 1.602551 19.427256 379.986450
7.200000 -5.000000 -5.120000 -8.964054 11.883078 221.561798
7.200000 -5.000000 -5.080000 -10.493319 0.079752 110.116096
7.200000 -5.000000 -5.040000 -5.226008 -7.380094 81.776947
7.200000 -5.000000 -5.000000 -0.605062 -9.514351 90.888969
7.200000 -5.000000 -4.960000 1.032157 -12.241076 150.909302
7.200000 -5.000000 -4.920000 5.183171 -18.580975 372.117889
7.200000 -5.000000 -4.880000 16.691368 -22.767065 796.941040
7.200000 -5.000000 -4.840000 30.803783 -16.621130 1225.135010
7.200000 -5.000000 -4.800000 36.134079 -1.105603 1306.894043
7.200000 -4.960000 -5.200000 4.046335 31.110382 984.228699
7.200000 -4.960000 -5.160000 -15.032894 25.106262 856.312317
7.200000 -4.960000 -5.120000 -21.598623 6.318389 506.422577
7.200000 -4.960000 -5.080000 -12.081829 -8.780263 223.063614
7.200000 -4.960000 -5.040000 1.561648 -10.491499 112.510292
7.200000 -4.960000 -5.000000 7.193212 -4.908890 75.839493
7.200000 -4.960000 -4.960000 6.161108 -3.852404 52.800266
7.200000 -4.960000 -4.920000 9.307351 -9.074750 168.977875
7.200000 -4.960000 -4.880000 21.130154 -10.304846 552.673218
7.200000 -4.960000 -4.840000 32.341770 0.593262 1046.342041
7.200000 -4.960000 -4.800000 30.668303 17.268938 1238.760986
7.200000 -4.920000 -5.200000 -14.681883 34.902275 1433.726562
7.200000 -4.920000 -5.160000 -32.563782 16.769423 1341.613403
7.200000 -4.920000 -5.120000 -28.506119 -8.242054 880.530273
7.200000 -4.920000 -5.080000 -8.161115 -19.279814 438.315002
7.200000 -4.920000 -5.040000 9.146549 -11.830516 223.620468
7.200000 -4.920000 -5.000000 12.133839 0.629735 147.626602
7.200000 -4.920000 -4.960000 7.481561 4.475012 75.999489
7.200000 -4.920000 -4.920000 8.264949 1.104094 69.528404
7.200000 -4.920000 -4.880000 16.631330 2.308184 281.928894
7.200000 -4.920000 -4.840000 21.976847 13.258229 658.762451
7.200000 -4.920000 -4.800000 15.858894 25.044014 878.707153
7.200000 -4.880000 -5.200000 -29.529266 24.544426 1474.406494
7.200000 -4.880000 -5.160000 -39.114059 -1.505176 1532.175171
7.200000 -4.880000 -5.120000 -23.605524 -25.008045 1182.623047
7.200000 -4.880000 -5.080000 2.921133 -27.223845 749.670715
7.200000 -4.880000 -5.040000 18.911716 -10.676362 471.637726
7.200000 -4.880000 -5.000000 16.842201 6.835218 330.379944
7.200000 -4.880000 -4.960000 7.127586 12.446734 205.723679
7.200000 -4.880000 -4.920000 3.128489 9.370692 97.597313
7.200000 -4.880000 -4.880000 6.449294 8.737428 117.936035
7.200000 -4.880000 -4.840000 8.668196 14.650855 289.785156
7.200000 -4.880000 -4.800000 4.457412 20.895645 456.496521
7.200000 -4.840000 -5.200000 -30.853947 9.885637 1049.691772
7.200000 -4.840000 -5.160000 -31.143770 -16.949671 1257.225830
7.200000 -4.840000 -5.120000 -8.565281 -33.907364 1223.073364
7.200000 -4.840000 -5.080000 18.650124 -26.900362 1071.456543
7.200000 -4.840000 -5.040000 30.012367 -3.411466 912.380310
7.200000 -4.840000 -5.000000 21.227505 17.062454 741.734314
7.200000 -4.840000 -4.960000 4.833428 22.128010 513.010864
7.200000 -4.840000 -4.920000 -4.583645 15.340788 256.349579
7.200000 -4.840000 -4.880000 -3.421575 8.533282 84.524086
7.200000 -4.840000 -4.840000 1.527662 8.876625 81.128227
7.200000 -4.840000 -4.800000 2.886227 14.504807 218.719742
7.200000 -4.800000 -5.200000 -22.410583 4.464741 522.168152
7.200000 -4.800000 -5.160000 -17.614822 -19.272861 681.725159
7.200000 -4.800000 -5.120000 6.884208 -29.729362 931.227356
7.200000 -4.800000 -5.080000 31.545427 -15.899559 1247.910034
7.200000 -4.800000 -5.040000 36.707756 12.036754 1492.342773
7.200000 -4.800000 -5.000000 19.977362 32.858482 1478.774780
7.200000 -4.800000 -4.960000 -3.323483 33.497910 1133.155518
7.200000 -4.800000 -4.920000 -15.306011 18.950672 593.401917
7.200000 -4.800000 -4.880000 -10.750895 5.263665 143.287903
7.200000 -4.800000 -4.840000 0.826524 4.292895 19.112091
7.200000 -4.800000 -4.800000 5.766657 14.703245 249.439758
