#kx 	ky 	kz 	real 	imag 	intensity
5.800000 3.800000 -4.200000 -15.575326 -15.695630 488.943573
5.800000 3.800000 -4.160000 -2.378181 -24.060642 584.570251
5.800000 3.800000 -4.120000 10.352659 -17.780788 423.333984
5.800000 3.800000 -4.080000 10.357714 -5.562227 138.220612
5.800000 3.800000 -4.040000 -0.017508 -2.034260 4.138519
5.800000 3.800000 -4.000000 -6.714195 -11.423956 175.587189
5.800000 3.800000 -3.960000 0.188018 -22.927608 525.710571
5.800000 3.800000 -3.920000 15.367911 -22.825417 757.172363
5.800000 3.800000 -3.880000 24.181591 -9.647932 677.831909
5.800000 3.800000 -3.840000 18.698664 4.410217 369.090027
5.800000 3.800000 -3.800000 5.909321 7.091711 85.212440
5.800000 3.840000 -4.200000 -2.366909 -26.976860 733.353210
5.800000 3.840000 -4.160000 13.221961 -30.107159 1081.261230
5.800000 3.840000 -4.120000 24.848129 -21.847073 1094.724121
5.800000 3.840000 -4.080000 26.461792 -10.821409 817.329346
5.800000 3.840000 -4.040000 21.973637 -5.358238 511.551422
5.800000 3.840000 -4.000000 19.154716 -5.761434 400.097290
5.800000 3.840000 -3.960000 20.829235 -6.191203 472.188019
5.800000 3.840000 -3.920000 23.102570 -2.711651 541.081726
5.800000 3.840000 -3.880000 21.529669 2.339825 469.001434
5.800000 3.840000 -3.840000 17.029354 4.184670 307.510376
5.800000 3.840000 -3.800000 14.459492 2.230274 214.051025
5.800000 3.880000 -4.200000 12.498946 -24.815441 772.029785
5.800000 3.880000 -4.160000 28.445206 -23.814627 1376.266113
5.800000 3.880000 -4.120000 40.215668 -13.102777 1788.982666
5.800000 3.880000 -4.080000 43.101921 1.587759 1860.296631
5.800000 3.880000 -4.040000 37.601070 13.826162 1605.003174
5.800000 3.880000 -4.000000 27.665268 19.668072 1152.200073
5.800000 3.880000 -3.960000 18.233204 18.495068 674.517273
5.800000 3.880000 -3.920000 13.420478 12.683950 340.991821
5.800000 3.880000 -3.880000 14.923473 6.794226 268.871552
5.800000 3.880000 -3.840000 20.703087 5.589911 459.864899
5.800000 3.880000 -3.800000 25.473049 10.940730 768.575806
5.800000 3.920000 -4.200000 19.255463 -14.886816 592.390137
5.800000 3.920000 -4.160000 35.350868 -9.811640 1345.952148
5.800000 3.920000 -4.120000 45.765270 5.826366 2128.406494
5.800000 3.920000 -4.080000 43.897354 25.717796 2588.382812
5.800000 3.920000 -4.040000 29.471312 39.815979 2453.870361
5.800000 3.920000 -4.000000 10.217937 40.385319 1735.380249
5.800000 3.920000 -3.960000 -2.191909 28.105869 794.744324
5.800000 3.920000 -3.920000 -0.440189 12.805917 164.185272
5.800000 3.920000 -3.880000 12.250731 6.670270 194.572906
5.800000 3.920000 -3.840000 24.108406 14.586121 793.970215
5.800000 3.920000 -3.800000 24.230408 30.016832 1488.122925
5.800000 3.960000 -4.200000 17.737146 -6.245420 353.611633
5.800000 3.960000 -4.160000 32.167152 4.456772 1054.588501
5.800000 3.960000 -4.120000 35.992760 24.694315 1905.287964
5.800000 3.960000 -4.080000 23.975338 43.546562 2471.119873
5.800000 3.960000 -4.040000 1.677602 48.649872 2369.624512
5.800000 3.960000 -4.000000 -16.610941 36.242760 1589.460938
5.800000 3.960000 -3.960000 -18.424877 15.852613 590.781494
5.800000 3.960000 -3.920000 -3.882897 3.766256 29.261570
5.800000 3.960000 -3.880000 13.559036 9.683076 277.609406
5.800000 3.960000 -3.840000 18.173975 28.317102 1132.151611
5.800000 3.960000 -3.800000 5.291671 44.049427 1968.353882
5.800000 4.000000 -4.200000 13.671091 -2.065108 191.163391
5.800000 4.000000 -4.160000 21.596481 13.654596 652.856018
5.800000 4.000000 -4.120000 14.793469 31.941109 1239.081177
5.800000 4.000000 -4.080000 -4.304835 39.706085 1595.104858
5.800000 4.000000 -4.040000 -22.791183 30.417252 1444.647217
5.800000 4.000000 -4.000000 -26.911285 10.950901 844.139526
5.800000 4.000000 -3.960000 -14.043052 -2.875389 205.475174
5.800000 4.000000 -3.920000 4.178968 0.574042 17.793303
5.800000 4.000000 -3.880000 11.369091 18.499264 471.478973
5.800000 4.000000 -3.840000 0.405137 36.009346 1296.837158
5.800000 4.000000 -3.800000 -20.886806 39.105301 1965.483276
5.800000 4.040000 -4.200000 10.031843 0.513191 100.901245
5.800000 4.040000 -4.160000 7.470788 15.191313 286.588654
5.800000 4.040000 -4.120000 -6.424597 22.156086 532.167603
5.800000 4.040000 -4.080000 -20.545715 14.829460 642.039307
5.800000 4.040000 -4.040000 -22.581190 -1.043819 510.999725
5.800000 4.040000 -4.000000 -10.285612 -11.510118 238.276642
5.800000 4.040000 -3.960000 5.734778 -6.555285 75.859436
5.800000 4.040000 -3.920000 10.957268 10.691499 234.369858
5.800000 4.040000 -3.880000 -0.403255 26.522655 703.613831
5.800000 4.040000 -3.840000 -20.723328 28.536602 1243.793945
5.800000 4.040000 -3.800000 -36.244049 15.700092 1560.124023
5.800000 4.080000 -4.200000 4.402624 3.149457 29.302177
5.800000 4.080000 -4.160000 -5.970336 7.841158 97.128670
5.800000 4.080000 -4.120000 -15.510143 -0.241493 240.622864
5.800000 4.080000 -4.080000 -12.627001 -14.393782 366.622101
5.800000 4.080000 -4.040000 2.968723 -20.339684 422.516052
5.800000 4.080000 -4.000000 18.624062 -9.786926 442.639618
5.800000 4.080000 -3.960000 19.870682 10.928782 514.282227
5.800000 4.080000 -3.920000 3.777763 25.964310 688.416870
5.800000 4.080000 -3.880000 -18.460957 23.973244 915.523315
5.800000 4.080000 -3.840000 -31.870230 7.414526 1070.686768
5.800000 4.080000 -3.800000 -30.430943 -11.303772 1053.817505
5.800000 4.120000 -4.200000 -5.163491 2.033403 30.796366
5.800000 4.120000 -4.160000 -13.231758 -7.630260 233.300278
5.800000 4.120000 -4.120000 -6.959544 -23.408400 596.388428
5.800000 4.120000 -4.080000 13.995361 -28.434217 1004.374817
5.800000 4.120000 -4.040000 33.913139 -12.695780 1311.283936
5.800000 4.120000 -4.000000 34.516949 15.336102 1426.615845
5.800000 4.120000 -3.960000 12.546076 34.756256 1365.401367
5.800000 4.120000 -3.920000 -16.351223 30.841984 1218.590454
5.800000 4.120000 -3.880000 -31.638651 7.988414 1064.818970
5.800000 4.120000 -3.840000 -25.826561 -15.595014 910.215698
5.800000 4.120000 -3.800000 -8.776657 -25.275242 715.867554
5.800000 4.160000 -4.200000 -14.225770 -7.606836 260.236481
5.800000 4.160000 -4.160000 -9.102411 -26.176445 768.060181
5.800000 4.160000 -4.120000 14.764633 -35.158550 1454.118042
5.800000 4.160000 -4.080000 41.531799 -19.637527 2110.522949
5.800000 4.160000 -4.040000 47.781120 14.588001 2495.845215
5.800000 4.160000 -4.000000 24.688143 43.130474 2469.742188
5.800000 4.160000 -3.960000 -12.014791 44.072250 2086.718506
5.800000 4.160000 -3.920000 -35.246170 17.894253 1562.496826
5.800000 4.160000 -3.880000 -30.516155 -13.580894 1115.676392
5.800000 4.160000 -3.840000 -7.091375 -27.785872 822.342224
5.800000 4.160000 -3.800000 13.593765 -20.647951 611.128357
5.800000 4.200000 -4.200000 -14.439444 -23.789314 774.428955
5.800000 4.200000 -4.160000 6.861676 -38.916855 1561.604248
5.800000 4.200000 -4.120000 38.158134 -30.189175 2367.429443
5.800000 4.200000 -4.080000 54.091000 3.724172 2939.705566
5.800000 4.200000 -4.040000 37.887424 40.709812 3092.745605
5.800000 4.200000 -4.000000 -1.304125 52.851631 2794.995605
5.800000 4.200000 -3.960000 -34.696190 31.439865 2192.290527
5.800000 4.200000 -3.920000 -38.871948 -5.110846 1537.149048
5.800000 4.200000 -3.880000 -15.552500 -28.345655 1045.356445
5.800000 4.200000 -3.840000 12.622209 -24.807842 774.749146
5.800000 4.200000 -3.800000 24.579283 -4.776581 626.956848
5.840000 3.800000 -4.200000 13.662480 -9.376163 274.575806
5.840000 3.800000 -4.160000 18.966003 -2.817879 367.649719
5.840000 3.800000 -4.120000 15.380906 5.747625 269.607452
5.840000 3.800000 -4.080000 5.593410 6.480011 73.276787
5.840000 3.800000 -4.040000 0.397683 -2.552094 6.671333
5.840000 3.800000 -4.000000 6.724979 -11.951315 188.059265
5.840000 3.800000 -3.960000 19.062737 -10.698786 477.851929
5.840000 3.800000 -3.920000 24.555792 1.413925 604.986145
5.840000 3.800000 -3.880000 16.786261 12.779866 445.103516
5.840000 3.800000 -3.840000 3.067810 12.048964 154.588974
5.840000 3.800000 -3.800000 -3.109220 0.276957 9.743954
5.840000 3.840000 -4.200000 18.548040 -4.166123 361.386414
5.840000 3.840000 -4.160000 25.248480 -0.799242 638.124512
5.840000 3.840000 -4.120000 28.770496 6.714397 872.824585
5.840000 3.840000 -4.080000 27.537067 15.007999 983.530151
5.840000 3.840000 -4.040000 22.521313 21.469172 968.134888
5.840000 3.840000 -4.000000 15.131096 24.939327 850.920105
5.840000 3.840000 -3.960000 6.614269 24.428246 640.487732
5.840000 3.840000 -3.920000 -0.652904 19.012300 361.893829
5.840000 3.840000 -3.880000 -3.027910 9.893589 107.051346
5.840000 3.840000 -3.840000 1.559742 1.663227 5.199120
5.840000 3.840000 -3.800000 10.409564 -0.323910 108.463943
5.840000 3.880000 -4.200000 16.324547 2.684741 273.698639
5.840000 3.880000 -4.160000 29.247166 6.755825 901.037903
5.840000 3.880000 -4.120000 37.781830 23.158497 1963.782715
5.840000 3.880000 -4.080000 31.680548 45.256939 3051.847656
5.840000 3.880000 -4.040000 9.409859 59.247860 3598.854248
5.840000 3.880000 -4.000000 -18.341585 54.056065 3258.471924
5.840000 3.880000 -3.960000 -35.056305 30.883270 2182.720703
5.840000 3.880000 -3.920000 -30.692789 3.796949 956.464111
5.840000 3.880000 -3.880000 -9.855625 -10.295148 203.123413
5.840000 3.880000 -3.840000 11.626007 -4.573021 156.076569
5.840000 3.880000 -3.800000 19.310526 12.975628 541.263306
5.840000 3.920000 -4.200000 9.780498 4.010035 111.738510
5.840000 3.920000 -4.160000 27.279984 16.685459 1022.602051
5.840000 3.920000 -4.120000 29.172531 45.652111 2935.151855
5.840000 3.920000 -4.080000 4.300758 71.714569 5161.476074
5.840000 3.920000 -4.040000 -37.219498 71.814667 6542.637207
5.840000 3.920000 -4.000000 -68.405312 39.693336 6254.847656
5.840000 3.920000 -3.960000 -66.582619 -5.723793 4466.006836
5.840000 3.920000 -3.920000 -33.197899 -33.981556 2256.846680
5.840000 3.920000 -3.880000 6.521283 -27.918518 821.970825
5.840000 3.920000 -3.840000 24.613590 2.687365 613.050720
5.840000 3.920000 -3.800000 13.135453 31.061068 1137.330078
5.840000 3.960000 -4.200000 6.318595 -0.348823 40.046318
5.840000 3.960000 -4.160000 18.821165 24.481373 953.573853
5.840000 3.960000 -4.120000 2.847532 56.731323 3226.551514
5.840000 3.960000 -4.080000 -39.930393 67.207596 6111.296875
5.840000 3.960000 -4.040000 -81.622917 38.578362 8150.590820
5.840000 3.960000 -4.000000 -89.115753 -15.501906 8181.926758
5.840000 3.960000 -3.960000 -53.414974 -58.200554 6240.463867
5.840000 3.960000 -3.920000 0.446905 -59.702049 3564.534424
5.840000 3.960000 -3.880000 33.781628 -22.598890 1651.908203
5.840000 3.960000 -3.840000 26.727198 21.337963 1169.651733
5.840000 3.960000 -3.800000 -7.138389 39.699509 1627.007568
5.840000 4.000000 -4.200000 8.640973 -3.736472 88.627632
5.840000 4.000000 -4.160000 6.004916 26.289103 727.175964
5.840000 4.000000 -4.120000 -26.673725 45.075928 2743.326904
5.840000 4.000000 -4.080000 -68.917557 28.098148 5539.135254
5.840000 4.000000 -4.040000 -85.378120 -21.401737 7747.457520
5.840000 4.000000 -4.000000 -56.845974 -70.145256 8151.821777
5.840000 4.000000 -3.960000 -0.017312 -81.285339 6607.306641
5.840000 4.000000 -3.920000 44.574097 -46.582661 4156.794434
5.840000 4.000000 -3.880000 46.717995 6.173586 2220.684326
5.840000 4.000000 -3.840000 11.161216 37.747215 1549.425049
5.840000 4.000000 -3.800000 -29.644699 30.644617 1817.900635
5.840000 4.040000 -4.200000 11.342583 -1.392805 130.594086
5.840000 4.040000 -4.160000 -7.076419 19.794518 441.898651
5.840000 4.040000 -4.120000 -40.958603 14.891628 1899.367798
5.840000 4.040000 -4.080000 -60.433247 -21.375853 4109.104492
5.840000 4.040000 -4.040000 -42.210693 -65.094566 6019.045410
5.840000 4.040000 -4.000000 6.924727 -81.014313 6611.270508
5.840000 4.040000 -3.960000 52.724361 -53.547810 5647.226562
5.840000 4.040000 -3.920000 61.913273 -1.761698 3836.356934
5.840000 4.040000 -3.880000 30.458010 36.630608 2269.491699
5.840000 4.040000 -3.840000 -14.624646 37.322075 1606.817505
5.840000 4.040000 -3.800000 -40.495552 7.561081 1697.059692
5.840000 4.080000 -4.200000 7.751257 2.930862 68.671936
5.840000 4.080000 -4.160000 -14.877448 5.321958 249.661697
5.840000 4.080000 -4.120000 -31.291813 -17.132944 1272.715332
5.840000 4.080000 -4.080000 -20.396545 -49.345478 2850.995361
5.840000 4.080000 -4.040000 16.918564 -62.943695 4248.146484
5.840000 4.080000 -4.000000 55.079731 -41.470871 4753.609863
5.840000 4.080000 -3.960000 64.616486 3.177444 4185.386230
5.840000 4.080000 -3.920000 37.795418 39.655502 3001.052490
5.840000 4.080000 -3.880000 -4.987182 43.614811 1927.123657
5.840000 4.080000 -3.840000 -33.629131 16.955502 1418.407471
5.840000 4.080000 -3.800000 -33.318474 -17.147167 1404.145996
5.840000 4.120000 -4.200000 -0.983430 0.763846 1.550597
5.840000 4.120000 -4.160000 -12.266405 -12.683159 311.327209
5.840000 4.120000 -4.120000 -4.164339 -34.085934 1179.192505
5.840000 4.120000 -4.080000 23.759113 -41.830574 2314.292480
5.840000 4.120000 -4.040000 51.993122 -22.434179 3206.577148
5.840000 4.120000 -4.000000 56.765091 15.061584 3449.126953
5.840000 4.120000 -3.960000 31.371471 44.985661 3007.878906
5.840000 4.120000 -3.920000 -7.263494 46.590549 2223.437500
5.840000 4.120000 -3.880000 -33.125488 21.031231 1539.610596
5.840000 4.120000 -3.840000 -32.527824 -11.634970 1193.431885
5.840000 4.120000 -3.800000 -12.480436 -31.001913 1116.879883
5.840000 4.160000 -4.200000 -5.605155 -10.767450 147.355743
5.840000 4.160000 -4.160000 1.789226 -26.190113 689.123352
5.840000 4.160000 -4.120000 24.718834 -29.866230 1503.012451
5.840000 4.160000 -4.080000 46.604309 -10.794590 2288.484863
5.840000 4.160000 -4.040000 47.149429 22.655258 2736.329346
5.840000 4.160000 -4.000000 21.179659 47.526058 2707.304199
5.840000 4.160000 -3.960000 -15.202662 45.515713 2302.801025
5.840000 4.160000 -3.920000 -37.774330 18.654587 1774.893677
5.840000 4.160000 -3.880000 -34.192108 -13.367832 1347.799194
5.840000 4.160000 -3.840000 -12.065469 -30.772694 1092.534180
5.840000 4.160000 -3.800000 10.993891 -28.690340 944.001221
5.840000 4.200000 -4.200000 1.555990 -24.075701 582.060425
5.840000 4.200000 -4.160000 21.670813 -27.861092 1245.864502
5.840000 4.200000 -4.120000 41.756275 -11.087234 1866.513306
5.840000 4.200000 -4.080000 42.794136 19.802109 2223.461670
5.840000 4.200000 -4.040000 18.553627 43.690475 2253.094727
5.840000 4.200000 -4.000000 -16.717966 42.088112 2050.899658
5.840000 4.200000 -3.960000 -39.160976 15.466066 1772.781250
5.840000 4.200000 -3.920000 -35.066975 -17.120796 1522.814453
5.840000 4.200000 -3.880000 -11.044155 -34.542747 1315.174805
5.840000 4.200000 -3.840000 14.141052 -30.189096 1111.350830
5.840000 4.200000 -3.800000 26.529404 -13.597828 888.710205
5.880000 3.800000 -4.200000 26.843487 23.804596 1287.231567
5.880000 3.800000 -4.160000 13.381258 32.955101 1265.096802
5.880000 3.800000 -4.120000 -3.815872 28.869055 847.983154
5.880000 3.800000 -4.080000 -11.633410 13.002514 304.401581
5.880000 3.800000 -4.040000 -3.870071 -1.667219 17.757072
5.880000 3.800000 -4.000000 11.196129 -2.465422 131.431610
5.880000 3.800000 -3.960000 18.007076 9.892639 422.119110
5.880000 3.800000 -3.920000 9.330920 21.331825 542.112854
5.880000 3.800000 -3.880000 -6.037117 18.516634 379.312500
5.880000 3.800000 -3.840000 -12.079895 2.583117 152.596359
5.880000 3.800000 -3.800000 -1.931512 -12.014284 148.073761
5.880000 3.840000 -4.200000 10.322404 31.010464 1068.200928
5.880000 3.840000 -4.160000 6.182581 30.872501 991.335632
5.880000 3.840000 -4.120000 4.343472 31.697268 1023.582520
5.880000 3.840000 -4.080000 1.446381 35.435616 1257.774902
5.880000 3.840000 -4.040000 -6.603024 39.581657 1610.307617
5.880000 3.840000 -4.000000 -19.834850 37.960758 1834.440430
5.880000 3.840000 -3.960000 -31.901011 26.085945 1698.151123
5.880000 3.840000 -3.920000 -33.886425 6.816082 1194.748779
5.880000 3.840000 -3.880000 -22.125460 -9.795502 585.487854
5.880000 3.840000 -3.840000 -2.770818 -13.881214 200.365540
5.880000 3.840000 -3.800000 12.180303 -4.271055 166.601685
5.880000 3.880000 -4.200000 -7.296829 23.681885 614.075378
5.880000 3.880000 -4.160000 2.284543 28.543545 819.953064
5.880000 3.880000 -4.120000 2.193501 47.693336 2279.465820
5.880000 3.880000 -4.080000 -19.656166 66.026627 4745.880371
5.880000 3.880000 -4.040000 -56.400139 62.429581 7078.428223
5.880000 3.880000 -4.000000 -84.223831 29.524010 7965.320801
5.880000 3.880000 -3.960000 -81.277367 -16.633076 6882.669434
5.880000 3.880000 -3.920000 -47.108940 -47.564377 4481.622070
5.880000 3.880000 -3.880000 -4.342426 -45.410938 2081.010010
5.880000 3.880000 -3.840000 19.800821 -17.233414 689.063049
5.880000 3.880000 -3.800000 15.442554 12.378870 391.708923
5.880000 3.920000 -4.200000 -13.526413 5.960616 218.492798
5.880000 3.920000 -4.160000 -1.163820 27.963530 783.313477
5.880000 3.920000 -4.120000 -19.798180 60.051765 3998.182617
5.880000 3.920000 -4.080000 -69.339111 67.444275 9356.642578
5.880000 3.920000 -4.040000 -116.948471 28.541367 14491.554688
5.880000 3.920000 -4.000000 -122.470169 -40.601105 16647.392578
5.880000 3.920000 -3.960000 -74.726151 -95.258980 14658.271484
5.880000 3.920000 -3.920000 -4.013748 -98.860046 9789.418945
5.880000 3.920000 -3.880000 42.512581 -54.069607 4730.841797
5.880000 3.920000 -3.840000 40.239017 1.013641 1620.206055
5.880000 3.920000 -3.800000 4.786716 27.285530 767.412781
5.880000 3.960000 -4.200000 -4.677732 -8.835649 99.949883
5.880000 3.960000 -4.160000 -7.166483 27.371733 800.570190
5.880000 3.960000 -4.120000 -51.441410 50.420563 5188.452148
5.880000 3.960000 -4.080000 -110.393036 23.363951 12732.496094
5.880000 3.960000 -4.040000 -132.678070 -51.389633 20244.365234
5.880000 3.960000 -4.000000 -88.512657 -126.300034 23786.187500
5.880000 3.960000 -3.960000 -0.492264 -146.494995 21461.025391
5.880000 3.960000 -3.920000 72.371735 -97.697960 14782.559570
5.880000 3.960000 -3.880000 84.336632 -18.780045 7465.357422
5.880000 3.960000 -3.840000 40.030525 33.107773 2698.567627
5.880000 3.960000 -3.800000 -14.893792 31.170509 1193.425659
5.880000 4.000000 -4.200000 10.015430 -10.278063 205.947418
5.880000 4.000000 -4.160000 -15.451311 22.704208 754.224121
5.880000 4.000000 -4.120000 -70.335098 16.838282 5230.553711
5.880000 4.000000 -4.080000 -106.661087 -43.352074 13255.990234
5.880000 4.000000 -4.040000 -80.353241 -122.873398 21554.515625
5.880000 4.000000 -4.000000 4.614637 -160.702423 25846.564453
5.880000 4.000000 -3.960000 93.419662 -122.952240 23844.486328
5.880000 4.000000 -3.920000 125.291893 -34.695152 16901.812500
5.880000 4.000000 -3.880000 85.063217 41.034958 8919.619141
5.880000 4.000000 -3.840000 13.072738 57.470879 3473.798340
5.880000 4.000000 -3.800000 -34.136986 20.250109 1575.400635
5.880000 4.040000 -4.200000 17.113930 -0.699378 293.375732
5.880000 4.040000 -4.160000 -21.597061 11.495810 598.586670
5.880000 4.040000 -4.120000 -61.097446 -23.112717 4267.095703
5.880000 4.040000 -4.080000 -55.795715 -89.145081 11060.006836
5.880000 4.040000 -4.040000 8.285502 -134.873260 18259.447266
5.880000 4.040000 -4.000000 93.700287 -115.883736 22208.785156
5.880000 4.040000 -3.960000 139.497070 -37.171776 20841.173828
5.880000 4.040000 -3.920000 113.388512 47.949356 15156.094727
5.880000 4.040000 -3.880000 39.117992 82.833061 8391.533203
5.880000 4.040000 -3.840000 -26.398453 54.174477 3631.752441
5.880000 4.040000 -3.800000 -42.966492 -2.560886 1852.677490
5.880000 4.080000 -4.200000 12.083366 7.567218 203.270523
5.880000 4.080000 -4.160000 -19.892580 -3.839684 410.457916
5.880000 4.080000 -4.120000 -28.219248 -46.550171 2963.244385
5.880000 4.080000 -4.080000 9.096830 -86.858658 7627.178711
5.880000 4.080000 -4.040000 74.555283 -83.512573 12532.839844
5.880000 4.080000 -4.000000 120.569458 -26.548962 15241.841797
5.880000 4.080000 -3.960000 109.433342 49.369072 14412.960938
5.880000 4.080000 -3.920000 47.052044 92.289101 10731.172852
5.880000 4.080000 -3.880000 -21.856363 76.498901 6329.782715
5.880000 4.080000 -3.840000 -52.364594 21.727219 3214.122559
5.880000 4.080000 -3.800000 -34.829018 -28.194504 2007.990479
5.880000 4.120000 -4.200000 3.250062 5.028790 35.851639
5.880000 4.120000 -4.160000 -8.137948 -16.360451 333.890533
5.880000 4.120000 -4.120000 8.580682 -43.144699 1935.093140
5.880000 4.120000 -4.080000 48.940971 -46.198975 4529.563965
5.880000 4.120000 -4.040000 83.186180 -11.413603 7050.210938
5.880000 4.120000 -4.000000 80.100189 43.509995 8309.160156
5.880000 4.120000 -3.960000 35.452194 80.839035 7791.807617
5.880000 4.120000 -3.920000 -22.338232 74.021896 5978.237793
5.880000 4.120000 -3.880000 -55.362213 29.630070 3942.915527
5.880000 4.120000 -3.840000 -46.703251 -19.861916 2575.689209
5.880000 4.120000 -3.800000 -10.526776 -44.239609 2067.956055
5.880000 4.160000 -4.200000 2.540108 -5.401642 35.629887
5.880000 4.160000 -4.160000 9.507223 -19.060926 453.706207
5.880000 4.160000 -4.120000 30.671923 -20.800196 1373.415039
5.880000 4.160000 -4.080000 49.776379 -0.516582 2477.954834
5.880000 4.160000 -4.040000 46.973713 33.208084 3309.306641
5.880000 4.160000 -4.000000 17.098892 57.180492 3561.980713
5.880000 4.160000 -3.960000 -23.423161 52.131775 3266.366455
5.880000 4.160000 -3.920000 -48.573158 19.241135 2729.572998
5.880000 4.160000 -3.880000 -43.209274 -20.615685 2292.047852
5.880000 4.160000 -3.840000 -13.625846 -43.781311 2102.466797
5.880000 4.160000 -3.800000 20.030132 -40.987728 2081.200195
5.880000 4.200000 -4.200000 12.794319 -11.983647 307.302399
5.880000 4.200000 -4.160000 24.486778 -10.215635 703.961487
5.880000 4.200000 -4.120000 33.035492 3.755388 1105.446655
5.880000 4.200000 -4.080000 27.606289 23.767605 1327.006226
5.880000 4.200000 -4.040000 6.396587 35.756660 1319.455200
5.880000 4.200000 -4.000000 -19.640781 28.631708 1205.535034
5.880000 4.200000 -3.960000 -34.054989 3.979458 1175.578369
5.880000 4.200000 -3.920000 -27.277279 -24.328323 1335.917236
5.880000 4.200000 -3.880000 -3.402923 -40.313789 1636.781494
5.880000 4.200000 -3.840000 23.902718 -36.820045 1927.055664
5.880000 4.200000 -3.800000 41.661827 -18.345287 2072.257324
5.920000 3.800000 -4.200000 6.069994 59.203781 3541.932373
5.920000 3.800000 -4.160000 -22.785364 53.942818 3429.000488
5.920000 3.800000 -4.120000 -39.659904 29.206579 2425.932373
5.920000 3.800000 -4.080000 -33.211121 1.905523 1106.609497
5.920000 3.800000 -4.040000 -11.442352 -8.464750 202.579437
5.920000 3.800000 -4.000000 4.878510 1.861542 27.265192
5.920000 3.800000 -3.960000 2.027444 17.351364 305.180359
5.920000 3.800000 -3.920000 -13.494963 18.855026 537.626038
5.920000 3.800000 -3.880000 -22.216763 2.883815 501.900909
5.920000 3.800000 -3.840000 -11.924391 -15.408548 379.614441
5.920000 3.800000 -3.800000 10.178701 -18.289070 438.096039
5.920000 3.840000 -4.200000 -26.937862 48.168175 3045.821533
5.920000 3.840000 -4.160000 -35.332443 36.612061 2588.824707
5.920000 3.840000 -4.120000 -36.129932 28.032387 2091.186768
5.920000 3.840000 -4.080000 -37.118393 25.405811 2023.230469
5.920000 3.840000 -4.040000 -44.253288 22.757423 2476.253906
5.920000 3.840000 -4.000000 -54.108837 11.304993 3055.569336
5.920000 3.840000 -3.960000 -55.606720 -10.177940 3195.697998
5.920000 3.840000 -3.920000 -40.676479 -31.385862 2639.648193
5.920000 3.840000 -3.880000 -13.758289 -38.224503 1650.403076
5.920000 3.840000 -3.840000 10.068686 -25.707031 762.229858
5.920000 3.840000 -3.800000 17.605743 -3.326907 321.030487
5.920000 3.880000 -4.200000 -42.228668 16.749027 2063.790283
5.920000 3.880000 -4.160000 -35.356533 20.451084 1668.331299
5.920000 3.880000 -4.120000 -45.030903 34.223785 3199.049805
5.920000 3.880000 -4.080000 -75.393661 34.619678 6882.726074
5.920000 3.880000 -4.040000 -105.737381 3.975861 11196.201172
5.920000 3.880000 -4.000000 -106.573433 -48.996586 13758.562500
5.920000 3.880000 -3.960000 -67.176193 -92.303818 13032.636719
5.920000 3.880000 -3.920000 -8.150482 -96.825378 9441.584961
5.920000 3.880000 -3.880000 34.260735 -61.665298 4976.407227
5.920000 3.880000 -3.840000 38.262836 -14.732187 1681.082031
5.920000 3.880000 -3.800000 13.094196 12.008574 315.663818
5.920000 3.920000 -4.200000 -30.586287 -14.258068 1138.813477
5.920000 3.920000 -4.160000 -30.234375 11.768681 1052.619263
5.920000 3.920000 -4.120000 -67.791893 28.406233 5402.654785
5.920000 3.920000 -4.080000 -119.336365 -0.737621 14241.711914
5.920000 3.920000 -4.040000 -135.727112 -74.642937 23993.417969
5.920000 3.920000 -4.000000 -87.652138 -147.734787 29508.464844
5.920000 3.920000 -3.960000 3.145267 -166.376587 27691.060547
5.920000 3.920000 -3.920000 78.746307 -116.298935 19726.423828
5.920000 3.920000 -3.880000 93.819687 -35.623680 10071.180664
5.920000 3.920000 -3.840000 52.563572 19.148771 3129.604736
5.920000 3.920000 -3.800000 -0.086447 21.256886 451.862671
5.920000 3.960000 -4.200000 -3.016439 -25.212141 644.750916
5.920000 3.960000 -4.160000 -27.427338 8.064938 817.302063
5.920000 3.960000 -4.120000 -86.084625 -0.579941 7410.898926
5.920000 3.960000 -4.080000 -124.269760 -71.037811 20489.343750
5.920000 3.960000 -4.040000 -90.011604 -163.762222 34920.156250
5.920000 3.960000 -4.000000 12.891760 -207.511475 43227.210938
5.920000 3.960000 -3.960000 120.536240 -162.114655 40810.148438
5.920000 3.960000 -3.920000 161.477783 -56.557716 29273.849609
5.920000 3.960000 -3.880000 117.599701 35.384296 15081.738281
5.920000 3.960000 -3.840000 35.936241 58.969501 4768.815430
5.920000 3.960000 -3.800000 -17.692293 21.015148 754.653687
5.920000 4.000000 -4.200000 19.150372 -13.546040 550.231934
5.920000 4.000000 -4.160000 -27.607344 2.928448 770.741211
5.920000 4.000000 -4.120000 -79.003616 -41.718548 7982.008789
5.920000 4.000000 -4.080000 -72.493973 -130.796722 22363.160156
5.920000 4.000000 -4.040000 14.508583 -195.491791 38427.539062
5.920000 4.000000 -4.000000 134.081635 -173.218750 47982.617188
5.920000 4.000000 -3.960000 203.194733 -67.134720 45795.167969
5.920000 4.000000 -3.920000 175.051483 52.255836 33373.695312
5.920000 4.000000 -3.880000 78.862495 107.108215 17691.462891
5.920000 4.000000 -3.840000 -9.254953 77.056824 6023.408203
5.920000 4.000000 -3.800000 -34.302872 8.573080 1250.184692
5.920000 4.040000 -4.200000 22.703320 5.973267 551.120667
5.920000 4.040000 -4.160000 -25.439228 -6.182001 685.371460
5.920000 4.040000 -4.120000 -43.890987 -69.956085 6820.272949
5.920000 4.040000 -4.080000 8.040195 -138.233398 19173.117188
5.920000 4.040000 -4.040000 111.371628 -143.985107 33135.351562
5.920000 4.040000 -4.000000 194.310089 -62.900703 41712.910156
5.920000 4.040000 -3.960000 192.173904 58.138474 40310.890625
5.920000 4.040000 -3.920000 105.085266 137.740448 30015.343750
5.920000 4.040000 -3.880000 -2.133238 128.984711 16641.605469
5.920000 4.040000 -3.840000 -57.484669 55.704308 6407.457031
5.920000 4.040000 -3.800000 -40.892029 -15.836100 1922.940186
5.920000 4.080000 -4.200000 12.174386 16.181561 410.058563
5.920000 4.080000 -4.160000 -16.345776 -15.036335 493.275757
5.920000 4.080000 -4.120000 0.111767 -68.208244 4652.377441
5.920000 4.080000 -4.080000 67.746025 -91.574326 12975.380859
5.920000 4.080000 -4.040000 141.974121 -47.235386 22387.832031
5.920000 4.080000 -4.000000 161.109711 48.313316 28290.515625
5.920000 4.080000 -3.960000 101.463028 131.810852 27668.847656
5.920000 4.080000 -3.920000 1.107143 145.586563 21196.673828
5.920000 4.080000 -3.880000 -71.820206 86.223190 12592.580078
5.920000 4.080000 -3.840000 -76.373924 4.080936 5849.629883
5.920000 4.080000 -3.800000 -27.954081 -43.517258 2675.182373
5.920000 4.120000 -4.200000 2.504464 12.650578 166.309448
5.920000 4.120000 -4.160000 -2.033070 -16.944923 291.263794
5.920000 4.120000 -4.120000 28.718925 -41.418648 2540.281006
5.920000 4.120000 -4.080000 77.718216 -27.589905 6801.323730
5.920000 4.120000 -4.040000 103.010361 29.298405 11469.531250
5.920000 4.120000 -4.000000 73.942871 94.300690 14360.167969
5.920000 4.120000 -3.960000 1.704330 119.040146 14173.460938
5.920000 4.120000 -3.920000 -66.596962 83.159348 11350.632812
5.920000 4.120000 -3.880000 -86.535683 12.094532 7634.702148
5.920000 4.120000 -3.840000 -51.892242 -45.387955 4752.871094
5.920000 4.120000 -3.800000 4.870681 -57.641891 3346.311279
5.920000 4.160000 -4.200000 3.370079 4.930995 35.672142
5.920000 4.160000 -4.160000 10.474798 -9.438061 198.798386
5.920000 4.160000 -4.120000 32.157463 -10.047422 1135.053101
5.920000 4.160000 -4.080000 49.547333 13.374756 2633.822266
5.920000 4.160000 -4.040000 40.676689 49.212128 4076.426514
5.920000 4.160000 -4.000000 2.102768 69.679504 4859.655273
5.920000 4.160000 -3.960000 -43.837418 53.846233 4821.135742
5.920000 4.160000 -3.920000 -65.223770 7.234001 4306.470703
5.920000 4.160000 -3.880000 -46.514442 -40.945255 3840.107178
5.920000 4.160000 -3.840000 -0.716717 -60.857788 3704.184082
5.920000 4.160000 -3.800000 42.566128 -44.400345 3783.265869
5.920000 4.200000 -4.200000 11.046062 4.425516 141.600693
5.920000 4.200000 -4.160000 14.844127 3.209439 230.648605
5.920000 4.200000 -4.120000 19.542444 8.630210 456.387665
5.920000 4.200000 -4.080000 17.114769 19.822924 685.863647
5.920000 4.200000 -4.040000 3.024082 27.710869 777.037354
5.920000 4.200000 -4.000000 -16.878521 21.450310 745.000244
5.920000 4.200000 -3.960000 -28.295509 -1.119686 801.889587
5.920000 4.200000 -3.920000 -19.281933 -28.881542 1205.936401
5.920000 4.200000 -3.880000 9.170304 -44.127739 2031.351807
5.920000 4.200000 -3.840000 42.368484 -35.576500 3060.775879
5.920000 4.200000 -3.800000 62.057957 -6.724028 3896.402588
5.960000 3.800000 -4.200000 -37.658371 67.210999 5935.471191
5.960000 3.800000 -4.160000 -66.092072 39.369240 5918.099121
5.960000 3.800000 -4.120000 -67.030670 -0.667116 4493.555664
5.960000 3.800000 -4.080000 -41.205723 -26.901691 2421.612549
5.960000 3.800000 -4.040000 -10.614128 -25.118221 743.584778
5.960000 3.800000 -4.000000 1.484374 -5.678711 34.451122
5.960000 3.800000 -3.960000 -7.989689 7.426468 118.987549
5.960000 3.800000 -3.920000 -20.760300 0.547768 431.290100
5.960000 3.800000 -3.880000 -17.221165 -17.045332 587.111816
5.960000 3.800000 -3.840000 3.395128 -24.421558 607.939453
5.960000 3.800000 -3.800000 23.359331 -11.419483 676.062927
5.960000 3.840000 -4.200000 -67.150513 29.757166 5394.680176
5.960000 3.840000 -4.160000 -69.561829 6.715757 4883.949707
5.960000 3.840000 -4.120000 -62.289558 -8.784298 3957.152832
5.960000 3.840000 -4.080000 -55.589222 -16.048901 3347.728760
5.960000 3.840000 -4.040000 -53.788780 -23.163742 3429.791992
5.960000 3.840000 -4.000000 -50.652061 -36.803505 3920.129395
5.960000 3.840000 -3.960000 -36.469078 -52.990215 4137.956543
5.960000 3.840000 -3.920000 -10.168839 -59.163811 3603.761719
5.960000 3.840000 -3.880000 16.486376 -46.510635 2435.039795
5.960000 3.840000 -3.840000 28.139288 -20.237526 1201.376953
5.960000 3.840000 -3.800000 20.002680 3.451827 412.022308
5.960000 3.880000 -4.200000 -60.928883 -16.870649 3996.947510
5.960000 3.880000 -4.160000 -55.157635 -15.852020 3293.651367
5.960000 3.880000 -4.120000 -67.209488 -14.219942 4719.321777
5.960000 3.880000 -4.080000 -87.923248 -34.045341 8889.583008
5.960000 3.880000 -4.040000 -90.007629 -78.055801 14194.082031
5.960000 3.880000 -4.000000 -54.422470 -121.297852 17674.974609
5.960000 3.880000 -3.960000 7.751419 -130.671951 17135.242188
5.960000 3.880000 -3.920000 60.879364 -95.142487 12758.389648
5.960000 3.880000 -3.880000 74.207596 -37.374138 6903.593262
5.960000 3.880000 -3.840000 47.745857 5.140958 2306.096436
5.960000 3.880000 -3.800000 10.215305 11.785095 243.240936
5.960000 3.920000 -4.200000 -25.495613 -42.827827 2484.249023
5.960000 3.920000 -4.160000 -37.305576 -22.888474 1915.588257
5.960000 3.920000 -4.120000 -76.139694 -32.679020 6865.171387
5.960000 3.920000 -4.080000 -99.073944 -89.761955 17872.855469
5.960000 3.920000 -4.040000 -63.935425 -162.891205 30621.283203
5.960000 3.920000 -4.000000 26.017723 -194.047195 38331.234375
5.960000 3.920000 -3.960000 117.694809 -150.598358 36531.933594
5.960000 3.920000 -3.920000 151.744415 -57.488415 26331.285156
5.960000 3.920000 -3.880000 113.668068 22.954563 13447.341797
5.960000 3.920000 -3.840000 43.881702 44.767395 3929.723389
5.960000 3.920000 -3.800000 -1.540968 14.423653 210.416351
5.960000 3.960000 -4.200000 12.695690 -35.760452 1439.990479
5.960000 3.960000 -4.160000 -26.006050 -21.446722 1136.276489
5.960000 3.960000 -4.120000 -70.180176 -64.772705 9120.759766
5.960000 3.960000 -4.080000 -58.165283 -150.302643 25974.085938
5.960000 3.960000 -4.040000 32.253330 -210.150574 45203.539062
5.960000 3.960000 -4.000000 152.881927 -182.752930 56771.515625
5.960000 3.960000 -3.960000 221.013107 -72.594826 54116.800781
5.960000 3.960000 -3.920000 191.238647 48.910347 38964.441406
5.960000 3.960000 -3.880000 94.578491 104.462067 19857.414062
5.960000 3.960000 -3.840000 7.852158 75.712006 5793.963867
5.960000 3.960000 -3.800000 -15.356138 11.148200 360.093323
5.960000 4.000000 -4.200000 29.929943 -8.282763 964.405640
5.960000 4.000000 -4.160000 -20.340347 -20.563288 836.578552
5.960000 4.000000 -4.120000 -38.648411 -91.464600 9859.472656
5.960000 4.000000 -4.080000 23.025270 -167.860016 28707.148438
5.960000 4.000000 -4.040000 143.605286 -172.264618 50297.578125
5.960000 4.000000 -4.000000 240.256332 -76.356476 63553.417969
5.960000 4.000000 -3.960000 238.309052 65.515625 61083.500000
5.960000 4.000000 -3.920000 138.521057 159.328644 44573.703125
5.960000 4.000000 -3.880000 16.252216 151.889587 23334.582031
5.960000 4.000000 -3.840000 -46.276379 72.254089 7362.156250
5.960000 4.000000 -3.800000 -28.469086 -2.803667 818.349365
5.960000 4.040000 -4.200000 22.847916 16.082581 780.676636
5.960000 4.040000 -4.160000 -13.923628 -21.952084 675.761414
5.960000 4.040000 -4.120000 6.683464 -91.483559 8413.910156
5.960000 4.040000 -4.080000 96.283279 -124.078011 24665.822266
5.960000 4.040000 -4.040000 197.502472 -66.993912 43495.410156
5.960000 4.040000 -4.000000 227.575638 60.463696 55446.531250
5.960000 4.040000 -3.960000 152.809265 175.153519 54029.429688
5.960000 4.040000 -3.920000 21.969547 199.757462 40385.703125
5.960000 4.040000 -3.880000 -75.335846 128.676056 22233.017578
5.960000 4.040000 -3.840000 -85.514946 27.782736 8084.686523
5.960000 4.040000 -3.800000 -29.926380 -28.575821 1712.165771
5.960000 4.080000 -4.200000 6.231221 23.570839 594.412598
5.960000 4.080000 -4.160000 -4.317207 -20.679375 446.274811
5.960000 4.080000 -4.120000 40.283665 -62.481266 5526.682617
5.960000 4.080000 -4.080000 118.610657 -47.521698 16326.799805
5.960000 4.080000 -4.040000 166.144455 37.414764 29003.845703
5.960000 4.080000 -4.000000 131.021851 142.146240 37372.277344
5.960000 4.080000 -3.960000 24.924606 191.010712 37106.328125
5.960000 4.080000 -3.920000 -82.313049 148.298584 28767.908203
5.960000 4.080000 -3.880000 -121.532150 48.958122 17166.960938
5.960000 4.080000 -3.840000 -80.980408 -34.253174 7731.106445
5.960000 4.080000 -3.800000 -8.552319 -53.969013 2985.796387
5.960000 4.120000 -4.200000 -3.929005 18.252115 348.576782
5.960000 4.120000 -4.160000 4.086066 -13.082663 187.852005
5.960000 4.120000 -4.120000 45.558388 -23.845528 2644.175781
5.960000 4.120000 -4.080000 88.138374 12.645184 7928.273926
5.960000 4.120000 -4.040000 86.279617 81.989670 14166.478516
5.960000 4.120000 -4.000000 24.762619 133.509003 18437.841797
5.960000 4.120000 -3.960000 -61.437786 122.438942 18765.896484
5.960000 4.120000 -3.920000 -113.381622 50.815670 15437.625000
5.960000 4.120000 -3.880000 -97.615936 -32.678886 10596.781250
5.960000 4.120000 -3.840000 -32.548878 -74.150146 6557.673828
5.960000 4.120000 -3.800000 31.606960 -57.607784 4317.656738
5.960000 4.160000 -4.200000 -4.166808 12.727080 179.340866
5.960000 4.160000 -4.160000 5.645956 -2.071696 36.168747
5.960000 4.160000 -4.120000 28.334393 1.206526 804.293518
5.960000 4.160000 -4.080000 40.284611 29.296703 2481.146729
5.960000 4.160000 -4.040000 20.397457 63.075493 4394.574219
5.960000 4.160000 -4.000000 -26.445198 70.658737 5692.005859
5.960000 4.160000 -3.960000 -68.317474 36.404690 5992.578613
5.960000 4.160000 -3.920000 -71.692505 -21.863739 5617.838379
5.960000 4.160000 -3.880000 -30.596731 -65.401070 5213.459961
5.960000 4.160000 -3.840000 27.963911 -66.081978 5148.808105
5.960000 4.160000 -3.800000 66.959534 -27.817665 5257.401367
5.960000 4.200000 -4.200000 -2.264298 13.654593 191.574966
5.960000 4.200000 -4.160000 0.154934 5.678232 32.266327
5.960000 4.200000 -4.120000 8.461088 5.280172 99.470230
5.960000 4.200000 -4.080000 11.520763 14.660460 347.657104
5.960000 4.200000 -4.040000 1.138458 23.479588 552.587097
5.960000 4.200000 -4.000000 -16.846214 17.478611 589.296753
5.960000 4.200000 -3.960000 -24.811680 -6.257690 654.778137
5.960000 4.200000 -3.920000 -8.870611 -32.955055 1164.723389
5.960000 4.200000 -3.880000 26.711685 -40.667892 2367.391602
5.960000 4.200000 -3.840000 60.586388 -18.872658 4026.887695
5.960000 4.200000 -3.800000 70.745346 22.018614 5489.723145
6.000000 3.800000 -4.200000 -73.432602 40.127632 7002.574219
6.000000 3.800000 -4.160000 -85.215637 -3.339491 7272.856934
6.000000 3.800000 -4.120000 -63.755081 -43.661606 5971.046387
6.000000 3.800000 -4.080000 -23.408985 -56.488831 3738.968750
6.000000 3.800000 -4.040000 7.742672 -39.470612 1617.878174
6.000000 3.800000 -4.000000 12.817055 -13.611992 349.563202
6.000000 3.800000 -3.960000 -0.006874 -2.511881 6.309593
6.000000 3.800000 -3.920000 -8.336552 -10.364176 176.914230
6.000000 3.800000 -3.880000 0.688141 -20.692871 428.668457
6.000000 3.800000 -3.840000 18.417534 -15.876440 591.266907
6.000000 3.800000 -3.800000 25.919762 3.983456 687.701965
6.000000 3.840000 -4.200000 -80.870277 -12.717793 6701.744141
6.000000 3.840000 -4.160000 -70.684692 -39.807476 6580.960938
6.000000 3.840000 -4.120000 -51.634766 -55.189228 5712.000000
6.000000 3.840000 -4.080000 -33.718464 -59.920563 4727.408691
6.000000 3.840000 -4.040000 -20.180664 -61.132553 4144.448242
6.000000 3.840000 -4.000000 -6.546623 -62.825050 3989.845215
6.000000 3.840000 -3.960000 11.584251 -60.937668 3847.594238
6.000000 3.840000 -3.920000 30.625450 -48.442593 3284.603027
6.000000 3.840000 -3.880000 40.271332 -25.159557 2254.783447
6.000000 3.840000 -3.840000 33.566540 -1.264725 1128.312134
6.000000 3.840000 -3.800000 15.258473 10.513500 343.354706
6.000000 3.880000 -4.200000 -48.654518 -53.913475 5273.924805
6.000000 3.880000 -4.160000 -41.352486 -55.854103 4829.708984
6.000000 3.880000 -4.120000 -44.817616 -64.408585 6157.084473
6.000000 3.880000 -4.080000 -42.402214 -89.724289 9848.396484
6.000000 3.880000 -4.040000 -14.863541 -119.444748 14487.972656
6.000000 3.880000 -4.000000 36.781509 -126.690887 17403.460938
6.000000 3.880000 -3.960000 86.496948 -95.402618 16583.380859
6.000000 3.880000 -3.920000 103.584091 -38.355255 12200.790039
6.000000 3.880000 -3.880000 79.741974 11.009071 6479.981934
6.000000 3.880000 -3.840000 36.686096 26.369648 2041.228027
6.000000 3.880000 -3.800000 6.777763 9.826584 142.499832
6.000000 3.920000 -4.200000 -0.441616 -59.075733 3490.137207
6.000000 3.920000 -4.160000 -15.903337 -52.149509 2972.487305
6.000000 3.920000 -4.120000 -35.514206 -80.562492 7751.573730
6.000000 3.920000 -4.080000 -17.825397 -134.509033 18410.423828
6.000000 3.920000 -4.040000 51.501167 -167.562286 30729.488281
6.000000 3.920000 -4.000000 137.623962 -138.152603 38026.500000
6.000000 3.920000 -3.960000 182.254974 -51.819443 35902.128906
6.000000 3.920000 -3.920000 154.950836 38.802849 25515.421875
6.000000 3.920000 -3.880000 80.593567 78.391060 12640.481445
6.000000 3.920000 -3.840000 16.276152 55.635712 3360.245605
6.000000 3.920000 -3.800000 0.562826 8.165876 66.998306
6.000000 3.960000 -4.200000 32.303688 -31.896389 2060.907959
6.000000 3.960000 -4.160000 -2.457197 -40.857601 1675.381470
6.000000 3.960000 -4.120000 -11.127773 -97.120132 9556.147461
6.000000 3.960000 -4.080000 46.540478 -155.526001 26354.353516
6.000000 3.960000 -4.040000 151.039749 -150.631683 45502.910156
6.000000 3.960000 -4.000000 230.542191 -60.617325 56824.164062
6.000000 3.960000 -3.960000 222.490936 64.972252 53723.609375
6.000000 3.960000 -3.920000 131.192871 144.518478 38097.160156
6.000000 3.960000 -3.880000 24.643684 134.796478 18777.400391
6.000000 3.960000 -3.840000 -26.475817 65.112785 4940.643555
6.000000 3.960000 -3.800000 -8.128744 4.220207 83.886635
6.000000 4.000000 -4.200000 35.136757 3.240885 1245.094971
6.000000 4.000000 -4.160000 3.104687 -31.433809 997.723450
6.000000 4.000000 -4.120000 26.979191 -96.315659 10004.583008
6.000000 4.000000 -4.080000 117.846474 -123.070755 29034.203125
6.000000 4.000000 -4.040000 217.304932 -60.084503 50831.582031
6.000000 4.000000 -4.000000 242.871414 70.962662 64022.222656
6.000000 4.000000 -3.960000 163.522522 185.367218 61100.617188
6.000000 4.000000 -3.920000 31.355555 207.329498 43968.691406
6.000000 4.000000 -3.880000 -63.304867 135.367798 22331.947266
6.000000 4.000000 -3.840000 -70.297577 38.664879 6436.722656
6.000000 4.000000 -3.800000 -16.291857 -9.464344 354.998413
6.000000 4.040000 -4.200000 17.328049 23.988089 875.689697
6.000000 4.040000 -4.160000 7.106049 -23.980942 625.581482
6.000000 4.040000 -4.120000 59.583237 -68.976067 8307.859375
6.000000 4.040000 -4.080000 149.769531 -48.168869 24751.152344
6.000000 4.040000 -4.040000 202.751984 52.769871 43893.027344
6.000000 4.040000 -4.000000 159.691986 174.569153 55975.921875
6.000000 4.040000 -3.960000 36.350204 230.244019 54333.644531
6.000000 4.040000 -3.920000 -85.632217 181.366730 40226.765625
6.000000 4.040000 -3.880000 -128.825867 71.253830 21673.210938
6.000000 4.040000 -3.840000 -84.456795 -16.576021 7407.714844
6.000000 4.040000 -3.800000 -10.855045 -32.508560 1174.638550
6.000000 4.080000 -4.200000 -2.083551 25.821795 671.106262
6.000000 4.080000 -4.160000 9.660817 -14.742836 310.682617
6.000000 4.080000 -4.120000 66.413475 -27.393391 5161.147461
6.000000 4.080000 -4.080000 124.007149 24.047718 15956.065430
6.000000 4.080000 -4.040000 120.903732 119.393211 28872.453125
6.000000 4.080000 -4.000000 37.700394 190.022552 37529.890625
6.000000 4.080000 -3.960000 -77.568085 177.124496 37389.894531
6.000000 4.080000 -3.920000 -147.038361 85.683914 28962.011719
6.000000 4.080000 -3.880000 -129.628174 -18.911324 17161.101562
6.000000 4.080000 -3.840000 -53.150055 -68.601318 7531.069336
6.000000 4.080000 -3.800000 16.795073 -48.475334 2631.932373
6.000000 4.120000 -4.200000 -12.166479 18.789604 501.072449
6.000000 4.120000 -4.160000 6.699720 -4.484662 64.998444
6.000000 4.120000 -4.120000 46.061752 3.819826 2136.276123
6.000000 4.120000 -4.080000 65.880356 53.541710 7206.935547
6.000000 4.120000 -4.040000 32.279335 111.783943 13537.605469
6.000000 4.120000 -4.000000 -45.085709 126.855843 18125.126953
6.000000 4.120000 -3.960000 -114.439926 75.515129 18799.031250
6.000000 4.120000 -3.920000 -124.682945 -12.413322 15699.927734
6.000000 4.120000 -3.880000 -69.834335 -77.770981 10925.160156
6.000000 4.120000 -3.840000 7.381468 -82.132339 6800.207031
6.000000 4.120000 -3.800000 54.866417 -36.605713 4350.301758
6.000000 4.160000 -4.200000 -15.100252 13.079653 399.094910
6.000000 4.160000 -4.160000 -2.182470 1.023769 5.811280
6.000000 4.160000 -4.120000 17.567204 9.899883 406.614319
6.000000 4.160000 -4.080000 19.179886 38.202332 1827.286133
6.000000 4.160000 -4.040000 -10.371849 60.170277 3728.037354
6.000000 4.160000 -4.000000 -54.211334 47.813457 5224.995117
6.000000 4.160000 -3.960000 -76.254456 -0.476425 5814.969238
6.000000 4.160000 -3.920000 -52.942947 -53.954399 5714.032715
6.000000 4.160000 -3.880000 4.222778 -74.141037 5514.725586
6.000000 4.160000 -3.840000 57.547325 -47.351276 5553.837891
6.000000 4.160000 -3.800000 74.827347 5.494476 5629.321289
6.000000 4.200000 -4.200000 -17.514925 9.930550 405.388397
6.000000 4.200000 -4.160000 -10.917720 -1.819874 122.508553
6.000000 4.200000 -4.120000 2.025787 -2.011175 8.148640
6.000000 4.200000 -4.080000 6.910202 9.120808 130.940033
6.000000 4.200000 -4.040000 -3.130924 17.396587 312.443939
6.000000 4.200000 -4.000000 -17.708996 8.731148 389.841461
6.000000 4.200000 -3.960000 -17.371368 -14.476601 511.336395
6.000000 4.200000 -3.920000 6.959736 -32.378014 1096.773682
6.000000 4.200000 -3.880000 42.720589 -24.661037 2433.215332
6.000000 4.200000 -3.840000 64.628632 10.326931 4283.505371
6.000000 4.200000 -3.800000 55.808605 52.966434 5920.043457
6.040000 3.800000 -4.200000 -77.865662 -1.538692 6065.428711
6.040000 3.800000 -4.160000 -68.116867 -44.526115 6622.482422
6.040000 3.800000 -4.120000 -30.506758 -70.917671 5959.978027
6.040000 3.800000 -4.080000 13.029263 -64.802856 4369.171875
6.040000 3.800000 -4.040000 36.547157 -34.415611 2520.128906
6.040000 3.800000 -4.000000 32.042740 -4.563238 1047.560303
6.040000 3.800000 -3.960000 14.331589 5.959150 240.905914
6.040000 3.800000 -3.920000 4.550293 -0.328617 20.813154
6.040000 3.800000 -3.880000 9.577681 -6.061554 128.474396
6.040000 3.800000 -3.840000 18.046329 0.937996 326.549835
6.040000 3.800000 -3.800000 15.349664 15.519653 476.471802
6.040000 3.840000 -4.200000 -60.797367 -49.330177 6129.786133
6.040000 3.840000 -4.160000 -39.031155 -71.125221 6582.228027
6.040000 3.840000 -4.120000 -10.453329 -78.333099 6245.346191
6.040000 3.840000 -4.080000 14.999142 -71.563614 5346.325195
6.040000 3.840000 -4.040000 31.905125 -57.142799 4283.236328
6.040000 3.840000 -4.000000 40.918060 -41.027977 3357.582520
6.040000 3.840000 -3.960000 44.685055 -25.031780 2623.344238
6.040000 3.840000 -3.920000 43.378948 -8.761082 1958.489746
6.040000 3.840000 -3.880000 35.138458 5.861969 1269.073975
6.040000 3.840000 -3.840000 20.712570 13.778768 618.864990
6.040000 3.840000 -3.800000 6.128907 11.421707 168.018906
6.040000 3.880000 -4.200000 -15.569171 -69.752869 5107.861816
6.040000 3.880000 -4.160000 -4.278446 -72.679146 5300.563477
6.040000 3.880000 -4.120000 6.138002 -80.755081 6559.058594
6.040000 3.880000 -4.080000 27.395061 -91.240295 9075.281250
6.040000 3.880000 -4.040000 62.209869 -89.133682 11814.880859
6.040000 3.880000 -4.000000 96.165604 -61.940857 13084.493164
6.040000 3.880000 -3.960000 107.410294 -15.227867 11768.858398
6.040000 3.880000 -3.920000 86.329620 27.819187 8226.709961
6.040000 3.880000 -3.880000 46.125641 44.287941 4088.996582
6.040000 3.880000 -3.840000 13.092649 30.754770 1117.273315
6.040000 3.880000 -3.800000 4.935591 5.556448 55.234169
6.040000 3.920000 -4.200000 27.281925 -53.323051 3587.651367
6.040000 3.920000 -4.160000 19.104240 -56.792023 3590.305664
6.040000 3.920000 -4.120000 24.879120 -82.669411 7453.202148
6.040000 3.920000 -4.080000 65.590149 -105.273560 15384.589844
6.040000 3.920000 -4.040000 127.487411 -88.645164 24111.005859
6.040000 3.920000 -4.000000 167.843170 -23.927181 28743.839844
6.040000 3.920000 -3.960000 152.244781 55.880951 26301.152344
6.040000 3.920000 -3.920000 87.925369 101.330505 17998.742188
6.040000 3.920000 -3.880000 19.500463 89.281792 8351.505859
6.040000 3.920000 -3.840000 -9.817325 41.971981 1858.027100
6.040000 3.920000 -3.800000 5.649761 4.430930 51.552944
6.040000 3.960000 -4.200000 43.932407 -16.787519 2211.877197
6.040000 3.960000 -4.160000 27.823309 -37.322372 2167.095947
6.040000 3.960000 -4.120000 50.461140 -76.786766 8442.534180
6.040000 3.960000 -4.080000 118.058884 -86.047348 21342.046875
6.040000 3.960000 -4.040000 186.356812 -30.003712 35629.082031
6.040000 3.960000 -4.000000 195.876923 71.585220 43492.214844
6.040000 3.960000 -3.960000 127.952240 154.241837 40162.320312
6.040000 3.960000 -3.920000 25.822195 163.962128 27550.365234
6.040000 3.960000 -3.880000 -42.037178 104.852432 12761.156250
6.040000 3.960000 -3.840000 -41.556465 32.921768 2810.782715
6.040000 3.960000 -3.800000 1.676747 3.107800 12.469899
6.040000 4.000000 -4.200000 33.154385 14.591003 1312.110596
6.040000 4.000000 -4.160000 27.942524 -21.464500 1241.509521
6.040000 4.000000 -4.120000 74.496086 -53.281914 8388.628906
6.040000 4.000000 -4.080000 149.860840 -27.813095 23231.839844
6.040000 4.000000 -4.040000 189.059525 64.489502 39902.398438
6.040000 4.000000 -4.000000 143.793472 169.647339 49456.781250
6.040000 4.000000 -3.960000 32.198067 212.713806 46283.878906
6.040000 4.000000 -3.920000 -72.173126 164.695801 32333.667969
6.040000 4.000000 -3.880000 -104.140457 68.498184 15537.236328
6.040000 4.000000 -3.840000 -62.073685 -1.663479 3855.909424
6.040000 4.000000 -3.800000 -2.009178 -6.814169 50.469696
6.040000 4.040000 -4.200000 10.661955 27.300503 858.994751
6.040000 4.040000 -4.160000 23.987661 -8.588984 649.178528
6.040000 4.040000 -4.120000 80.063049 -15.605652 6653.627930
6.040000 4.040000 -4.080000 133.662003 40.781693 19528.677734
6.040000 4.040000 -4.040000 124.201294 137.630966 34368.242188
6.040000 4.040000 -4.000000 35.850731 205.198227 43391.585938
6.040000 4.040000 -3.960000 -79.782974 187.390213 41480.417969
6.040000 4.040000 -3.920000 -145.118027 94.395340 29969.722656
6.040000 4.040000 -3.880000 -124.202187 -5.349092 15454.795898
6.040000 4.040000 -3.840000 -51.028397 -46.626694 4777.945801
6.040000 4.040000 -3.800000 7.334475 -22.080162 541.328064
6.040000 4.080000 -4.200000 -8.107822 24.517179 666.828857
6.040000 4.080000 -4.160000 15.225015 1.838400 235.180786
6.040000 4.080000 -4.120000 59.501595 17.020742 3830.145264
6.040000 4.080000 -4.080000 77.414421 78.614273 12173.197266
6.040000 4.080000 -4.040000 32.182194 145.627380 22243.027344
6.040000 4.080000 -4.000000 -60.589375 158.881958 28914.548828
6.040000 4.080000 -3.960000 -139.059860 96.224243 28596.750000
6.040000 4.080000 -3.920000 -147.691086 -3.238338 21823.142578
6.040000 4.080000 -3.880000 -86.250000 -71.924576 12612.207031
6.040000 4.080000 -3.840000 -7.492209 -72.466858 5307.578613
6.040000 4.080000 -3.800000 32.839699 -25.530033 1730.228394
6.040000 4.120000 -4.200000 -18.538015 15.922544 597.185425
6.040000 4.120000 -4.160000 1.558899 5.735553 35.326729
6.040000 4.120000 -4.120000 25.446224 25.662010 1306.049072
6.040000 4.120000 -4.080000 19.312279 68.150742 5017.487305
6.040000 4.120000 -4.040000 -29.250946 95.178391 9914.543945
6.040000 4.120000 -4.000000 -91.725098 71.974579 13593.833008
6.040000 4.120000 -3.960000 -119.356079 3.135010 14255.702148
6.040000 4.120000 -3.920000 -86.786125 -66.584061 11965.268555
6.040000 4.120000 -3.880000 -15.998455 -90.053177 8365.525391
6.040000 4.120000 -3.840000 43.379555 -57.995399 5245.251953
6.040000 4.120000 -3.800000 57.650101 -3.106732 3333.186035
6.040000 4.160000 -4.200000 -23.538788 6.746485 599.589600
6.040000 4.160000 -4.160000 -11.006231 -0.686530 121.608452
6.040000 4.160000 -4.120000 1.277018 9.979605 101.223289
6.040000 4.160000 -4.080000 -5.961815 29.594620 911.384705
6.040000 4.160000 -4.040000 -33.881084 33.749611 2286.964111
6.040000 4.160000 -4.000000 -59.211056 7.347572 3559.936035
6.040000 4.160000 -3.960000 -53.966423 -36.654247 4255.908691
6.040000 4.160000 -3.920000 -12.942791 -65.334511 4436.113770
6.040000 4.160000 -3.880000 38.824169 -54.535538 4481.440918
6.040000 4.160000 -3.840000 67.001076 -10.404108 4597.389648
6.040000 4.160000 -3.800000 56.838081 37.042450 4602.710449
6.040000 4.200000 -4.200000 -24.924015 -3.127358 630.986938
6.040000 4.200000 -4.160000 -14.071365 -13.646970 384.243103
6.040000 4.200000 -4.120000 -0.147890 -11.279348 127.245575
6.040000 4.200000 -4.080000 3.956242 -0.498985 15.900834
6.040000 4.200000 -4.040000 -3.473721 4.614742 33.362579
6.040000 4.200000 -4.000000 -9.740318 -4.117779 111.829903
6.040000 4.200000 -3.960000 -0.574795 -18.407261 339.157623
6.040000 4.200000 -3.920000 23.775436 -19.987064 964.754089
6.040000 4.200000 -3.880000 46.201138 1.528961 2136.882812
6.040000 4.200000 -3.840000 47.268166 37.354763 3629.657715
6.040000 4.200000 -3.800000 22.456520 66.154434 4880.704590
6.080000 3.800000 -4.200000 -54.248093 -28.579262 3759.629639
6.080000 3.800000 -4.160000 -31.343300 -58.212845 4371.137695
6.080000 3.800000 -4.120000 9.137501 -65.918236 4428.708008
6.080000 3.800000 -4.080000 44.682110 -43.950932 3928.175293
6.080000 3.800000 -4.040000 54.698120 -6.060212 3028.610352
6.080000 3.800000 -4.000000 37.820061 23.315403 1973.964966
6.080000 3.800000 -3.960000 11.937445 29.609999 1019.254578
6.080000 3.800000 -3.920000 -3.023202 18.739552 360.310547
6.080000 3.800000 -3.880000 -2.300880 8.119364 71.218117
6.080000 3.800000 -3.840000 2.967685 8.363194 78.750175
6.080000 3.800000 -3.800000 0.475011 14.483412 209.994843
6.080000 3.840000 -4.200000 -26.082848 -58.262733 4074.861084
6.080000 3.840000 -4.160000 0.343884 -69.664291 4853.231445
6.080000 3.840000 -4.120000 31.025173 -64.390167 5108.655273
6.080000 3.840000 -4.080000 53.623283 -42.670406 4696.220215
6.080000 3.840000 -4.040000 59.543240 -13.900895 3738.632324
6.080000 3.840000 -4.000000 49.673187 9.691261 2561.346191
6.080000 3.840000 -3.960000 32.537537 21.206020 1508.386597
6.080000 3.840000 -3.920000 17.065706 21.910969 771.328857
6.080000 3.840000 -3.880000 7.054127 17.277386 348.268768
6.080000 3.840000 -3.840000 1.643393 11.345716 131.426025
6.080000 3.840000 -3.800000 -0.539314 5.116813 26.472637
6.080000 3.880000 -4.200000 14.032857 -58.884445 3664.299072
6.080000 3.880000 -4.160000 29.455198 -59.200653 4372.326172
6.080000 3.880000 -4.120000 48.116119 -56.011810 5452.483887
6.080000 3.880000 -4.080000 69.266273 -43.438972 6684.760742
6.080000 3.880000 -4.040000 84.645462 -17.544575 7472.666016
6.080000 3.880000 -4.000000 83.323181 16.297436 7208.358887
6.080000 3.880000 -3.960000 61.742813 43.845486 5734.601562
6.080000 3.880000 -3.920000 29.384796 51.694141 3535.750488
6.080000 3.880000 -3.880000 3.483828 38.249355 1475.150269
6.080000 3.880000 -3.840000 -3.610764 15.750750 261.123718
6.080000 3.880000 -3.800000 6.407744 0.901773 41.872383
6.080000 3.920000 -4.200000 41.261654 -33.392490 2817.582520
6.080000 3.920000 -4.160000 44.613605 -37.104790 3367.139160
6.080000 3.920000 -4.120000 62.927719 -43.630157 5863.488770
6.080000 3.920000 -4.080000 95.095795 -32.464920 10097.180664
6.080000 3.920000 -4.040000 118.869270 7.492619 14186.042969
6.080000 3.920000 -4.000000 109.173233 61.509583 15702.223633
6.080000 3.920000 -3.960000 63.418743 97.192604 13468.339844
6.080000 3.920000 -3.920000 7.956169 92.013443 8529.774414
6.080000 3.920000 -3.880000 -22.765694 54.152374 3450.756592
6.080000 3.920000 -3.840000 -15.546515 15.796062 491.209717
6.080000 3.920000 -3.800000 11.609354 4.679739 156.677063
6.080000 3.960000 -4.200000 43.926754 -0.552787 1929.865234
6.080000 3.960000 -4.160000 46.002289 -14.593470 2329.180176
6.080000 3.960000 -4.120000 75.084152 -23.370699 6183.819336
6.080000 3.960000 -4.080000 115.741013 2.273861 13401.153320
6.080000 3.960000 -4.040000 129.415100 64.204544 20870.492188
6.080000 3.960000 -4.000000 90.559692 126.938118 24314.343750
6.080000 3.960000 -3.960000 15.332657 145.644806 21447.500000
6.080000 3.960000 -3.920000 -48.162636 107.231422 13818.217773
6.080000 3.960000 -3.880000 -61.345150 43.729115 5675.462891
6.080000 3.960000 -3.840000 -28.623997 3.610329 832.367676
6.080000 3.960000 -3.800000 9.615258 8.548748 165.534286
6.080000 4.000000 -4.200000 27.834171 22.133091 1264.614746
6.080000 4.000000 -4.160000 38.375305 3.533411 1485.149048
6.080000 4.000000 -4.120000 75.917130 5.837181 5797.483398
6.080000 4.000000 -4.080000 107.954056 51.692947 14326.239258
6.080000 4.000000 -4.040000 92.506454 122.264496 23506.050781
6.080000 4.000000 -4.000000 21.652376 166.440002 28171.099609
6.080000 4.000000 -3.960000 -63.702274 146.046692 25387.617188
6.080000 4.000000 -3.920000 -106.692604 73.400604 16770.960938
6.080000 4.000000 -3.880000 -85.050354 2.286924 7238.792480
6.080000 4.000000 -3.840000 -29.715006 -20.387217 1298.620117
6.080000 4.000000 -3.800000 6.715699 4.988137 69.982124
6.080000 4.040000 -4.200000 6.132037 29.097319 884.255798
6.080000 4.040000 -4.160000 24.228523 15.928935 840.752319
6.080000 4.040000 -4.120000 56.948116 33.376480 4357.077148
6.080000 4.040000 -4.080000 65.344650 86.863556 11815.201172
6.080000 4.040000 -4.040000 20.802074 140.650009 20215.152344
6.080000 4.040000 -4.000000 -60.265770 145.876373 24911.878906
6.080000 4.040000 -3.960000 -124.015213 87.680489 23067.640625
6.080000 4.040000 -3.920000 -125.881454 3.436432 15857.949219
6.080000 4.040000 -3.880000 -71.316978 -48.855953 7473.015625
6.080000 4.040000 -3.840000 -9.621003 -42.224899 1875.505859
6.080000 4.040000 -3.800000 13.068233 -1.564915 173.227692
6.080000 4.080000 -4.200000 -11.972531 24.162626 727.174011
6.080000 4.080000 -4.160000 5.285717 19.352154 402.444672
6.080000 4.080000 -4.120000 23.169127 42.339066 2329.404785
6.080000 4.080000 -4.080000 10.099524 83.433945 7063.223633
6.080000 4.080000 -4.040000 -42.513508 104.898834 12811.164062
6.080000 4.080000 -4.000000 -103.583878 75.706161 16461.042969
6.080000 4.080000 -3.960000 -126.044327 5.402496 15916.358398
6.080000 4.080000 -3.920000 -90.260971 -59.529205 11690.769531
6.080000 4.080000 -3.880000 -23.600241 -76.166779 6358.349121
6.080000 4.080000 -3.840000 24.616224 -43.009727 2455.795166
6.080000 4.080000 -3.800000 27.935802 2.254025 785.489685
6.080000 4.120000 -4.200000 -23.447300 12.506311 706.183716
6.080000 4.120000 -4.160000 -12.233891 10.276205 255.268494
6.080000 4.120000 -4.120000 -6.036085 25.946945 709.678284
6.080000 4.120000 -4.080000 -23.418505 45.473206 2616.238770
6.080000 4.120000 -4.040000 -59.937038 41.837646 5342.836914
6.080000 4.120000 -4.000000 -86.233292 3.663395 7449.601074
6.080000 4.120000 -3.960000 -74.078827 -48.311066 7821.631348
6.080000 4.120000 -3.920000 -25.103552 -76.640114 6503.895508
6.080000 4.120000 -3.880000 28.051382 -60.932991 4499.709473
6.080000 4.120000 -3.840000 50.676292 -16.217682 2831.099854
6.080000 4.120000 -3.800000 36.171135 22.575241 1817.992432
6.080000 4.160000 -4.200000 -27.061689 -2.537462 738.773743
6.080000 4.160000 -4.160000 -18.654278 -8.199135 415.207886
6.080000 4.160000 -4.120000 -12.562485 -2.974151 166.661591
6.080000 4.160000 -4.080000 -18.718718 3.344124 361.573547
6.080000 4.160000 -4.040000 -31.437096 -3.874203 1003.300415
6.080000 4.160000 -4.000000 -32.759911 -26.212524 1760.308228
6.080000 4.160000 -3.960000 -11.103291 -46.722221 2306.249023
6.080000 4.160000 -3.920000 24.371906 -44.588215 2582.098633
6.080000 4.160000 -3.880000 49.811295 -15.620890 2725.177246
6.080000 4.160000 -3.840000 47.878460 22.715443 2808.338379
6.080000 4.160000 -3.800000 22.633621 47.063522 2727.255859
6.080000 4.200000 -4.200000 -21.380493 -16.770353 738.370239
6.080000 4.200000 -4.160000 -9.621952 -24.488071 692.247620
6.080000 4.200000 -4.120000 3.277014 -21.822235 486.948761
6.080000 4.200000 -4.080000 9.163167 -13.594776 268.781555
6.080000 4.200000 -4.040000 8.909157 -8.542484 152.347107
6.080000 4.200000 -4.000000 10.620319 -8.886627 191.763336
6.080000 4.200000 -3.960000 19.355717 -7.439119 429.984253
6.080000 4.200000 -3.920000 29.926517 4.280474 913.918884
6.080000 4.200000 -3.880000 30.961376 25.736357 1620.966797
6.080000 4.200000 -3.840000 16.079834 46.105186 2384.249268
6.080000 4.200000 -3.800000 -9.572433 53.389069 2942.024170
6.120000 3.800000 -4.200000 -26.306999 -28.360388 1496.369873
6.120000 3.800000 -4.160000 -3.575256 -43.114372 1871.631592
6.120000 3.800000 -4.120000 28.868996 -37.662109 2251.853271
6.120000 3.800000 -4.080000 50.668697 -8.445974 2638.651367
6.120000 3.800000 -4.040000 45.476978 28.676655 2890.506104
6.120000 3.800000 -4.000000 16.515497 50.069832 2779.749756
6.120000 3.800000 -3.960000 -15.284293 44.419163 2206.671631
6.120000 3.800000 -3.920000 -29.569143 21.729662 1346.512451
6.120000 3.800000 -3.880000 -23.543200 2.521206 560.638733
6.120000 3.800000 -3.840000 -11.260237 -1.636947 129.472534
6.120000 3.800000 -3.800000 -7.214059 3.364011 63.359211
6.120000 3.840000 -4.200000 -3.030964 -42.565788 1821.033081
6.120000 3.840000 -4.160000 20.572514 -45.060860 2453.709473
6.120000 3.840000 -4.120000 45.148903 -29.620234 2915.781738
6.120000 3.840000 -4.080000 55.012165 0.937199 3027.216797
6.120000 3.840000 -4.040000 42.076527 30.941103 2727.785889
6.120000 3.840000 -4.000000 14.003861 43.675583 2103.664551
6.120000 3.840000 -3.960000 -11.567301 34.906616 1352.274292
6.120000 3.840000 -3.920000 -21.452553 15.254118 692.900146
6.120000 3.840000 -3.880000 -16.219456 -0.350410 263.193542
6.120000 3.840000 -3.840000 -6.292776 -5.216429 66.810158
6.120000 3.840000 -3.800000 -0.338440 -3.496159 12.337667
6.120000 3.880000 -4.200000 23.578995 -36.480759 1886.814697
6.120000 3.880000 -4.160000 40.146858 -31.636322 2612.627197
6.120000 3.880000 -4.120000 55.240589 -15.635294 3295.985107
6.120000 3.880000 -4.080000 59.533005 9.569145 3635.747314
6.120000 3.880000 -4.040000 47.532024 34.192329 3428.408691
6.120000 3.880000 -4.000000 23.179884 46.505878 2700.103516
6.120000 3.880000 -3.960000 -1.686665 41.262295 1705.421875
6.120000 3.880000 -3.920000 -15.234543 23.591217 788.636841
6.120000 3.880000 -3.880000 -13.398657 5.149675 206.043152
6.120000 3.880000 -3.840000 -1.559609 -4.049312 18.829309
6.120000 3.880000 -3.800000 10.470484 -1.523192 111.951141
6.120000 3.920000 -4.200000 38.926819 -15.028697 1741.158936
6.120000 3.920000 -4.160000 48.174805 -10.253731 2425.950684
6.120000 3.920000 -4.120000 59.543598 1.806301 3548.702881
6.120000 3.920000 -4.080000 64.801659 24.513588 4800.170898
6.120000 3.920000 -4.040000 53.917732 51.391182 5548.175293
6.120000 3.920000 -4.000000 25.745577 67.696625 5245.667969
6.120000 3.920000 -3.960000 -7.115376 61.788857 3868.491455
6.120000 3.920000 -3.920000 -26.040245 36.572899 2015.671265
6.120000 3.920000 -3.880000 -21.366352 9.335644 543.675232
6.120000 3.920000 -3.840000 -1.058018 -1.522323 3.436868
6.120000 3.920000 -3.800000 15.660097 8.441772 316.502136
6.120000 3.960000 -4.200000 37.474289 9.769608 1499.767578
6.120000 3.960000 -4.160000 43.804283 11.592917 2053.210938
6.120000 3.960000 -4.120000 55.829498 22.582481 3626.901367
6.120000 3.960000 -4.080000 60.412117 48.787823 6029.875488
6.120000 3.960000 -4.040000 42.432934 79.546562 8128.209473
6.120000 3.960000 -4.000000 2.661053 92.488373 8561.179688
6.120000 3.960000 -3.960000 -37.356739 73.730408 6831.698730
6.120000 3.960000 -3.920000 -51.685074 33.696266 3806.785156
6.120000 3.960000 -3.880000 -33.616982 0.822029 1130.777222
6.120000 3.960000 -3.840000 -2.970591 -3.059684 18.186073
6.120000 3.960000 -3.800000 11.610461 17.650509 446.343262
6.120000 4.000000 -4.200000 22.551353 27.537251 1266.863770
6.120000 4.000000 -4.160000 28.554605 28.233875 1612.517212
6.120000 4.000000 -4.120000 39.131874 41.905220 3287.351074
6.120000 4.000000 -4.080000 35.917061 70.891884 6315.694336
6.120000 4.000000 -4.040000 5.377770 96.432281 9328.105469
6.120000 4.000000 -4.000000 -41.955399 93.024910 10413.889648
6.120000 4.000000 -3.960000 -75.359146 54.706856 8671.840820
6.120000 4.000000 -3.920000 -70.846092 5.398266 5048.310059
6.120000 4.000000 -3.880000 -35.064560 -20.358490 1643.991455
6.120000 4.000000 -3.840000 -0.622413 -9.087963 82.978470
6.120000 4.000000 -3.800000 4.361101 19.302202 391.594208
6.120000 4.040000 -4.200000 1.351299 33.073208 1095.663086
6.120000 4.040000 -4.160000 5.702522 34.019012 1189.812012
6.120000 4.040000 -4.120000 10.269018 48.362000 2444.335693
6.120000 4.040000 -4.080000 -3.178684 71.461639 5116.870117
6.120000 4.040000 -4.040000 -39.681400 80.486145 8052.632812
6.120000 4.040000 -4.000000 -78.788223 56.461391 9395.472656
6.120000 4.040000 -3.960000 -89.812973 7.437791 8121.690918
6.120000 4.040000 -3.920000 -61.752590 -33.966736 4967.121582
6.120000 4.040000 -3.880000 -16.614296 -39.528030 1838.500000
6.120000 4.040000 -3.840000 9.901333 -12.428076 252.493454
6.120000 4.040000 -3.800000 2.170136 16.160671 265.876801
6.120000 4.080000 -4.200000 -18.395630 25.515491 989.439453
6.120000 4.080000 -4.160000 -17.020212 24.501060 889.989563
6.120000 4.080000 -4.120000 -17.998884 33.240143 1428.866943
6.120000 4.080000 -4.080000 -34.090858 42.920876 3004.388184
6.120000 4.080000 -4.040000 -61.595242 34.674614 4996.302734
6.120000 4.080000 -4.000000 -78.312096 1.643141 6135.483887
6.120000 4.080000 -3.960000 -64.227142 -38.297138 5591.796875
6.120000 4.080000 -3.920000 -24.086258 -56.011230 3717.405762
6.120000 4.080000 -3.880000 13.709976 -39.009777 1709.726074
6.120000 4.080000 -3.840000 23.132509 -4.599200 556.265625
6.120000 4.080000 -3.800000 5.228392 16.850965 311.291138
6.120000 4.120000 -4.200000 -29.257469 7.867369 917.895020
6.120000 4.120000 -4.160000 -28.236710 2.035872 801.456543
6.120000 4.120000 -4.120000 -27.934729 2.312192 785.695312
6.120000 4.120000 -4.080000 -35.251385 1.216187 1244.139282
6.120000 4.120000 -4.040000 -43.957371 -11.743797 2070.167236
6.120000 4.120000 -4.000000 -39.101658 -34.608307 2726.674561
6.120000 4.120000 -3.960000 -14.272240 -50.479939 2751.920898
6.120000 4.120000 -3.920000 17.801697 -43.155243 2179.275391
6.120000 4.120000 -3.880000 34.963226 -14.841324 1442.692139
6.120000 4.120000 -3.840000 26.825298 14.113247 918.780334
6.120000 4.120000 -3.800000 4.866727 24.528412 625.328064
6.120000 4.160000 -4.200000 -26.174109 -12.190386 833.689453
6.120000 4.160000 -4.160000 -20.712002 -21.429611 888.215271
6.120000 4.160000 -4.120000 -12.818409 -24.674431 773.139160
6.120000 4.160000 -4.080000 -7.276994 -25.316975 693.903870
6.120000 4.160000 -4.040000 -1.696878 -27.774864 774.322449
6.120000 4.160000 -4.000000 9.208689 -29.662477 964.662476
6.120000 4.160000 -3.960000 24.458252 -23.243971 1138.488281
6.120000 4.160000 -3.920000 34.639824 -5.123640 1226.169067
6.120000 4.160000 -3.880000 30.532145 17.350424 1233.249023
6.120000 4.160000 -3.840000 13.278911 31.476290 1167.086304
6.120000 4.160000 -3.800000 -5.899318 31.183807 1007.231812
6.120000 4.200000 -4.200000 -10.694174 -24.128010 696.526184
6.120000 4.200000 -4.160000 0.387460 -31.071718 965.601807
6.120000 4.200000 -4.120000 14.615272 -29.777702 1100.317749
6.120000 4.200000 -4.080000 26.022650 -20.891342 1113.626465
6.120000 4.200000 -4.040000 31.772535 -8.114058 1075.331909
6.120000 4.200000 -4.000000 31.951752 5.512781 1051.305176
6.120000 4.200000 -3.960000 27.024551 18.416597 1069.497437
6.120000 4.200000 -3.920000 17.013233 28.778299 1117.640625
6.120000 4.200000 -3.880000 3.168602 33.921349 1160.697876
6.120000 4.200000 -3.840000 -11.067351 32.276260 1164.243164
6.120000 4.200000 -3.800000 -22.012451 25.309082 1125.097656
6.160000 3.800000 -4.200000 -15.058741 -12.108771 373.388000
6.160000 3.800000 -4.160000 -0.464600 -20.004583 400.399200
6.160000 3.800000 -4.120000 21.159168 -11.133953 571.675293
6.160000 3.800000 -4.080000 30.295685 16.400990 1186.820923
6.160000 3.800000 -4.040000 13.513335 44.894356 2198.113281
6.160000 3.800000 -4.000000 -21.034988 51.546410 3099.502930
6.160000 3.800000 -3.960000 -48.834499 30.162411 3294.579346
6.160000 3.800000 -3.920000 -51.042507 -2.361400 2610.913818
6.160000 3.800000 -3.880000 -31.287575 -21.978054 1461.947266
6.160000 3.800000 -3.840000 -10.195921 -19.755928 494.253479
6.160000 3.800000 -3.800000 -3.912626 -7.761862 75.555145
6.160000 3.840000 -4.200000 -2.400151 -23.022732 535.806946
6.160000 3.840000 -4.160000 15.061838 -22.383713 727.889587
6.160000 3.840000 -4.120000 29.919966 -4.113339 912.123901
6.160000 3.840000 -4.080000 25.665491 23.695374 1220.188110
6.160000 3.840000 -4.040000 -0.052894 40.785507 1663.460449
6.160000 3.840000 -4.000000 -30.752626 32.985981 2033.799072
6.160000 3.840000 -3.960000 -44.951611 5.896219 2055.412842
6.160000 3.840000 -3.920000 -35.167152 -20.093868 1640.492188
6.160000 3.840000 -3.880000 -13.236803 -28.467882 985.633240
6.160000 3.840000 -3.840000 2.684811 -20.063425 409.749237
6.160000 3.840000 -3.800000 5.263950 -8.618986 101.996086
6.160000 3.880000 -4.200000 15.948853 -21.885544 733.342896
6.160000 3.880000 -4.160000 29.716337 -12.893864 1049.312378
6.160000 3.880000 -4.120000 33.878056 7.449281 1203.214478
6.160000 3.880000 -4.080000 20.926838 27.147736 1174.932129
6.160000 3.880000 -4.040000 -3.272857 32.089474 1040.445923
6.160000 3.880000 -4.000000 -23.344742 18.453114 885.494385
6.160000 3.880000 -3.960000 -27.022064 -3.853074 745.038147
6.160000 3.880000 -3.920000 -14.698690 -19.815657 608.711731
6.160000 3.880000 -3.880000 2.556983 -21.416193 465.191467
6.160000 3.880000 -3.840000 13.442646 -12.076644 326.550049
6.160000 3.880000 -3.800000 14.705564 -0.822512 216.930161
6.160000 3.920000 -4.200000 30.012020 -7.313947 954.215210
6.160000 3.920000 -4.160000 35.641132 5.886796 1304.944702
6.160000 3.920000 -4.120000 31.163710 21.657917 1440.242188
6.160000 3.920000 -4.080000 16.978455 31.826778 1301.211792
6.160000 3.920000 -4.040000 -0.533002 30.882816 954.032471
6.160000 3.920000 -4.000000 -12.892980 19.473932 545.462952
6.160000 3.920000 -3.960000 -14.514416 3.951012 226.278748
6.160000 3.920000 -3.920000 -5.734723 -7.311361 86.343048
6.160000 3.920000 -3.880000 7.468265 -8.520033 128.365936
6.160000 3.920000 -3.840000 16.771820 0.349759 281.416290
6.160000 3.920000 -3.800000 16.215649 13.415761 442.929901
6.160000 3.960000 -4.200000 30.964203 14.806476 1178.013550
6.160000 3.960000 -4.160000 27.510668 26.626553 1465.810181
6.160000 3.960000 -4.120000 18.912676 34.911263 1576.485596
6.160000 3.960000 -4.080000 7.567968 38.624775 1549.147461
6.160000 3.960000 -4.040000 -4.980788 36.789543 1378.278687
6.160000 3.960000 -4.000000 -15.600262 27.978531 1026.166382
6.160000 3.960000 -3.960000 -18.778645 13.742903 541.504883
6.160000 3.960000 -3.920000 -11.058414 1.266694 123.893044
6.160000 3.960000 -3.880000 3.154543 -0.461299 10.163939
6.160000 3.960000 -3.840000 12.269718 10.651249 263.995087
6.160000 3.960000 -3.800000 6.850235 25.272839 685.642090
6.160000 4.000000 -4.200000 15.995708 33.334991 1367.084351
6.160000 4.000000 -4.160000 5.752719 38.796722 1538.279419
6.160000 4.000000 -4.120000 -3.009048 39.347321 1557.265991
6.160000 4.000000 -4.080000 -10.992680 38.893631 1633.553467
6.160000 4.000000 -4.040000 -21.094891 35.773033 1724.704346
6.160000 4.000000 -4.000000 -30.471413 25.232277 1565.174805
6.160000 4.000000 -3.960000 -30.748383 8.558755 1018.715332
6.160000 4.000000 -3.920000 -18.061226 -3.662164 339.619324
6.160000 4.000000 -3.880000 -1.078095 -0.830444 1.851926
6.160000 4.000000 -3.840000 4.637552 14.777493 239.881210
6.160000 4.000000 -3.800000 -7.545733 27.064913 789.447632
6.160000 4.040000 -4.200000 -8.714582 37.296825 1466.997192
6.160000 4.040000 -4.160000 -20.946131 33.469471 1558.945801
6.160000 4.040000 -4.120000 -26.511452 26.993155 1431.487427
6.160000 4.040000 -4.080000 -30.167574 22.607407 1421.177368
6.160000 4.040000 -4.040000 -35.798016 16.439396 1551.751709
6.160000 4.040000 -4.000000 -38.624634 3.787864 1506.210205
6.160000 4.040000 -3.960000 -30.549809 -10.718904 1048.185669
6.160000 4.040000 -3.920000 -12.625728 -14.999800 384.402985
6.160000 4.040000 -3.880000 1.694595 -3.287412 13.678732
6.160000 4.040000 -3.840000 -0.829879 14.216362 202.793655
6.160000 4.040000 -3.800000 -17.513493 19.319672 679.972168
6.160000 4.080000 -4.200000 -29.894703 23.043400 1424.691528
6.160000 4.080000 -4.160000 -38.135986 10.452159 1563.601074
6.160000 4.080000 -4.120000 -36.979568 -0.922174 1368.338989
6.160000 4.080000 -4.080000 -33.265625 -7.631598 1164.843140
6.160000 4.080000 -4.040000 -30.091780 -13.791753 1095.727661
6.160000 4.080000 -4.000000 -23.254433 -21.478897 1002.111633
6.160000 4.080000 -3.960000 -9.447794 -24.764135 702.523193
6.160000 4.080000 -3.920000 5.113823 -16.308641 292.122955
6.160000 4.080000 -3.880000 8.499180 1.092768 73.430199
6.160000 4.080000 -3.840000 -3.234457 13.559974 194.334610
6.160000 4.080000 -3.800000 -18.702394 9.650732 442.916199
6.160000 4.120000 -4.200000 -34.896881 -1.645049 1220.498535
6.160000 4.120000 -4.160000 -34.645214 -18.435175 1540.146606
6.160000 4.120000 -4.120000 -24.527409 -29.944027 1498.238525
6.160000 4.120000 -4.080000 -11.796328 -33.546234 1264.503174
6.160000 4.120000 -4.040000 -0.196995 -31.950167 1020.851990
6.160000 4.120000 -4.000000 10.507804 -26.411829 807.998657
6.160000 4.120000 -3.960000 18.862236 -15.249577 588.333496
6.160000 4.120000 -3.920000 19.523233 0.555055 381.464722
6.160000 4.120000 -3.880000 9.243248 13.458739 266.575287
6.160000 4.120000 -3.840000 -6.260374 14.751509 256.799286
6.160000 4.120000 -3.800000 -14.943755 4.663220 245.061432
6.160000 4.160000 -4.200000 -21.064987 -21.300674 897.452393
6.160000 4.160000 -4.160000 -12.292963 -35.609783 1419.173584
6.160000 4.160000 -4.120000 4.921684 -41.317448 1731.354492
6.160000 4.160000 -4.080000 22.812309 -35.631954 1790.037598
6.160000 4.160000 -4.040000 34.888771 -20.989494 1657.785156
6.160000 4.160000 -4.000000 37.618587 -2.118802 1419.647461
6.160000 4.160000 -3.960000 30.050167 15.355846 1138.814575
6.160000 4.160000 -3.920000 14.478782 25.440914 856.875244
6.160000 4.160000 -3.880000 -2.588504 24.323357 598.326050
6.160000 4.160000 -3.840000 -12.860388 14.261763 368.787445
6.160000 4.160000 -3.800000 -12.544867 3.777532 171.643417
6.160000 4.200000 -4.200000 1.100930 -23.559109 556.243652
6.160000 4.200000 -4.160000 13.393219 -30.910458 1134.834717
6.160000 4.200000 -4.120000 31.585377 -27.998089 1781.529053
6.160000 4.200000 -4.080000 46.557251 -11.981482 2311.133545
6.160000 4.200000 -4.040000 49.180107 12.340674 2570.975098
6.160000 4.200000 -4.000000 36.102272 34.506310 2494.059570
6.160000 4.200000 -3.960000 12.556737 44.225143 2113.534912
6.160000 4.200000 -3.920000 -10.123851 37.975796 1544.653320
6.160000 4.200000 -3.880000 -21.653519 21.735647 941.313232
6.160000 4.200000 -3.840000 -19.973827 6.917610 446.807098
6.160000 4.200000 -3.800000 -12.527424 1.705802 159.846115
6.200000 3.800000 -4.200000 -22.256111 -0.311324 495.431396
6.200000 3.800000 -4.160000 -14.377073 -10.586185 318.767578
6.200000 3.800000 -4.120000 0.797455 -5.128586 26.938326
6.200000 3.800000 -4.080000 3.009236 15.645336 253.832047
6.200000 3.800000 -4.040000 -17.525227 31.807594 1318.856689
6.200000 3.800000 -4.000000 -47.105133 23.559513 2773.944336
6.200000 3.800000 -3.960000 -60.301033 -7.278672 3689.193604
6.200000 3.800000 -3.920000 -45.100044 -37.467518 3437.829102
6.200000 3.800000 -3.880000 -14.913638 -44.805084 2229.912109
6.200000 3.800000 -3.840000 5.424652 -29.393667 893.414551
6.200000 3.800000 -3.800000 4.637481 -11.370310 150.790176
6.200000 3.840000 -4.200000 -14.283416 -17.119455 497.091705
6.200000 3.840000 -4.160000 -0.854245 -18.822929 355.032410
6.200000 3.840000 -4.120000 7.529975 -4.654072 78.360909
6.200000 3.840000 -4.080000 -2.713005 12.761085 170.205673
6.200000 3.840000 -4.040000 -26.728262 13.984078 909.954407
6.200000 3.840000 -4.000000 -44.079597 -6.992992 1991.912842
6.200000 3.840000 -3.960000 -38.350986 -35.373604 2722.090088
6.200000 3.840000 -3.920000 -13.340459 -49.281174 2606.601807
6.200000 3.840000 -3.880000 11.062096 -40.535118 1765.465820
6.200000 3.840000 -3.840000 18.666508 -20.971863 788.257568
6.200000 3.840000 -3.800000 11.474546 -8.529842 204.423431
6.200000 3.880000 -4.200000 6.112335 -21.900654 516.999268
6.200000 3.880000 -4.160000 15.901806 -12.691728 413.947388
6.200000 3.880000 -4.120000 12.333567 2.228868 157.084717
6.200000 3.880000 -4.080000 -4.133126 7.838851 78.530319
6.200000 3.880000 -4.040000 -19.735199 -3.660104 402.874451
6.200000 3.880000 -4.000000 -20.076494 -24.599758 1008.213684
6.200000 3.880000 -3.960000 -3.649969 -38.661095 1508.002563
6.200000 3.880000 -3.920000 17.191723 -35.812328 1578.078125
6.200000 3.880000 -3.880000 28.248888 -20.384655 1213.533813
6.200000 3.880000 -3.840000 25.786469 -5.062008 690.565857
6.200000 3.880000 -3.800000 17.232273 1.823439 300.276154
6.200000 3.920000 -4.200000 24.674551 -7.482093 664.815186
6.200000 3.920000 -4.160000 22.482115 6.686312 550.152283
6.200000 3.920000 -4.120000 9.378825 13.022964 257.559937
6.200000 3.920000 -4.080000 -3.386003 5.835757 45.521080
6.200000 3.920000 -4.040000 -5.042009 -8.793076 102.740036
6.200000 3.920000 -4.000000 5.453714 -19.082653 393.890656
6.200000 3.920000 -3.960000 19.783876 -17.945337 713.436890
6.200000 3.920000 -3.920000 28.525654 -7.592789 871.363403
6.200000 3.920000 -3.880000 28.378683 4.613410 826.633240
6.200000 3.920000 -3.840000 22.140759 13.179709 663.917969
6.200000 3.920000 -3.800000 13.763679 17.088860 481.467957
6.200000 3.960000 -4.200000 25.584373 18.519276 997.523743
6.200000 3.960000 -4.160000 10.327345 26.848457 827.493713
6.200000 3.960000 -4.120000 -4.021203 19.822933 409.118744
6.200000 3.960000 -4.080000 -6.145857 5.574959 68.851723
6.200000 3.960000 -4.040000 3.261381 -3.277153 21.376339
6.200000 3.960000 -4.000000 14.620457 -1.314104 215.484619
6.200000 3.960000 -3.960000 19.941189 7.237782 450.036499
6.200000 3.960000 -3.920000 18.697411 15.650952 594.545471
6.200000 3.960000 -3.880000 14.317190 21.507418 667.550903
6.200000 3.960000 -3.840000 7.996282 25.746218 726.808289
6.200000 3.960000 -3.800000 -1.538970 27.276352 746.367798
6.200000 4.000000 -4.200000 4.956912 37.585743 1437.259033
6.200000 4.000000 -4.160000 -15.861325 31.740742 1259.056274
6.200000 4.000000 -4.120000 -22.439642 13.516436 686.231567
6.200000 4.000000 -4.080000 -12.752045 -0.206163 162.657135
6.200000 4.000000 -4.040000 1.416221 -0.138998 2.025002
6.200000 4.000000 -4.000000 8.280525 9.191987 153.059723
6.200000 4.000000 -3.960000 6.405095 17.968246 363.883118
6.200000 4.000000 -3.920000 1.569320 22.250015 497.525940
6.200000 4.000000 -3.880000 -3.111455 24.770721 623.269775
6.200000 4.000000 -3.840000 -10.219351 26.770765 821.109009
6.200000 4.000000 -3.800000 -20.956282 23.456825 989.388428
6.200000 4.040000 -4.200000 -24.178371 34.554802 1778.627930
6.200000 4.040000 -4.160000 -39.321205 14.332895 1751.589111
6.200000 4.040000 -4.120000 -33.070877 -7.876988 1155.729858
6.200000 4.040000 -4.080000 -14.434647 -15.544006 449.975159
6.200000 4.040000 -4.040000 0.277882 -7.560564 57.239346
6.200000 4.040000 -4.000000 3.245355 5.222493 37.806755
6.200000 4.040000 -3.960000 -1.532497 13.619262 187.832825
6.200000 4.040000 -3.920000 -7.640750 17.229082 355.222351
6.200000 4.040000 -3.880000 -14.370378 18.939186 565.200562
6.200000 4.040000 -3.840000 -23.641815 17.000614 847.956299
6.200000 4.040000 -3.800000 -31.782890 6.787184 1056.218018
6.200000 4.080000 -4.200000 -41.181213 10.643639 1809.179321
6.200000 4.080000 -4.160000 -43.004204 -16.180916 2111.183594
6.200000 4.080000 -4.120000 -24.618607 -34.169487 1773.629639
6.200000 4.080000 -4.080000 -1.200813 -32.905045 1084.183838
6.200000 4.080000 -4.040000 12.364178 -17.786823 469.243988
6.200000 4.080000 -4.000000 12.448858 -0.989165 155.952530
6.200000 4.080000 -3.960000 4.330485 10.009588 118.944954
6.200000 4.080000 -3.920000 -6.621879 14.433929 252.187592
6.200000 4.080000 -3.880000 -18.187134 12.594482 489.392822
6.200000 4.080000 -3.840000 -27.209930 3.296916 751.249939
6.200000 4.080000 -3.800000 -27.292175 -11.485077 876.769836
6.200000 4.120000 -4.200000 -34.424408 -16.705523 1464.114380
6.200000 4.120000 -4.160000 -23.296156 -39.940285 2137.937256
6.200000 4.120000 -4.120000 1.941026 -48.189083 2325.955322
6.200000 4.120000 -4.080000 25.587603 -36.952011 2020.176514
6.200000 4.120000 -4.040000 35.523270 -14.221389 1464.150635
6.200000 4.120000 -4.000000 29.561283 7.842585 935.375610
6.200000 4.120000 -3.960000 13.073729 20.600380 595.298035
6.200000 4.120000 -3.920000 -6.098204 20.842047 471.578979
6.200000 4.120000 -3.880000 -20.172239 9.754459 502.068726
6.200000 4.120000 -3.840000 -22.793707 -7.002469 568.587646
6.200000 4.120000 -3.800000 -12.518406 -19.611786 541.332642
6.200000 4.160000 -4.200000 -10.921000 -27.865547 895.756958
6.200000 4.160000 -4.160000 6.188311 -41.518070 1762.045288
6.200000 4.160000 -4.120000 31.292383 -39.157364 2512.512451
6.200000 4.160000 -4.080000 50.232071 -19.021954 2885.095703
6.200000 4.160000 -4.040000 51.943459 9.918164 2796.492676
6.200000 4.160000 -4.000000 34.821159 33.611122 2342.220703
6.200000 4.160000 -3.960000 7.354781 40.797447 1718.524414
6.200000 4.160000 -3.920000 -16.498161 29.160694 1122.535400
6.200000 4.160000 -3.880000 -25.042900 6.920481 675.039917
6.200000 4.160000 -3.840000 -16.093533 -11.609853 393.790466
6.200000 4.160000 -3.800000 0.982779 -15.141460 230.229675
6.200000 4.200000 -4.200000 9.810233 -17.059067 387.252441
6.200000 4.200000 -4.160000 24.980614 -22.255404 1119.333984
6.200000 4.200000 -4.120000 44.627087 -12.842830 2156.515137
6.200000 4.200000 -4.080000 54.950348 12.140682 3166.937012
6.200000 4.200000 -4.040000 45.023865 41.623085 3759.629639
6.200000 4.200000 -4.000000 16.146236 58.512367 3684.397949
6.200000 4.200000 -3.960000 -16.894606 51.835777 2972.375488
6.200000 4.200000 -3.920000 -35.347672 25.937613 1922.217651
6.200000 4.200000 -3.880000 -30.473064 -1.656400 931.351318
6.200000 4.200000 -3.840000 -10.550725 -13.339787 289.267700
6.200000 4.200000 -3.800000 5.852927 -5.282866 62.165436
