#kx 	ky 	kz 	real 	imag 	intensity
0.800000 4.800000 2.800000 5.647102 -10.958492 151.978317
0.800000 4.800000 2.840000 2.329573 -3.798164 19.852964
0.800000 4.800000 2.880000 -5.694849 -4.273979 50.698204
0.800000 4.800000 2.920000 -9.232283 -13.324779 262.784790
0.800000 4.800000 2.960000 -2.214954 -23.352827 550.260559
0.800000 4.800000 3.000000 12.288145 -24.709808 761.573120
0.800000 4.800000 3.040000 24.403389 -14.370543 802.037903
0.800000 4.800000 3.080000 26.050255 1.423892 680.643250
0.800000 4.800000 3.120000 17.622139 12.989977 479.279297
0.800000 4.800000 3.160000 6.510967 15.648226 287.259674
0.800000 4.800000 3.200000 -0.527056 12.528786 157.248260
0.800000 4.840000 2.800000 4.299603 -9.794518 114.419159
0.800000 4.840000 2.840000 0.412168 -5.997754 36.142933
0.800000 4.840000 2.880000 -5.163366 -9.441923 115.810257
0.800000 4.840000 2.920000 -4.186579 -18.564318 362.161316
0.800000 4.840000 2.960000 6.464138 -24.594902 646.694275
0.800000 4.840000 3.000000 20.410772 -19.569592 799.568542
0.800000 4.840000 3.040000 26.827507 -4.590673 740.789429
0.800000 4.840000 3.080000 20.497145 10.388773 528.059570
0.800000 4.840000 3.120000 6.817631 15.599680 289.830109
0.800000 4.840000 3.160000 -3.583133 10.373899 120.456635
0.800000 4.840000 3.200000 -5.182194 2.775145 34.556564
0.800000 4.880000 2.800000 5.767139 -13.740969 222.074127
0.800000 4.880000 2.840000 4.196775 -11.636570 153.022690
0.800000 4.880000 2.880000 2.386304 -14.841827 225.974289
0.800000 4.880000 2.920000 6.600657 -20.549740 465.860474
0.800000 4.880000 2.960000 17.068659 -21.013168 732.892334
0.800000 4.880000 3.000000 26.268425 -11.878794 831.135864
0.800000 4.880000 3.040000 25.953737 2.166970 678.292236
0.800000 4.880000 3.080000 15.866665 11.145658 375.976746
0.800000 4.880000 3.120000 4.522404 9.645561 113.488983
0.800000 4.880000 3.160000 0.645072 2.250898 5.482661
0.800000 4.880000 3.200000 4.255280 -1.620279 20.732710
0.800000 4.920000 2.800000 14.739958 -15.824848 467.692200
0.800000 4.920000 2.840000 15.061329 -11.923677 369.017700
0.800000 4.920000 2.880000 14.635214 -12.049613 359.382660
0.800000 4.920000 2.920000 18.198212 -13.518442 513.923157
0.800000 4.920000 2.960000 24.876690 -10.723442 733.841858
0.800000 4.920000 3.000000 28.739264 -2.118248 830.432251
0.800000 4.920000 3.040000 25.512314 7.319830 704.458069
0.800000 4.920000 3.080000 17.752270 11.306140 442.971863
0.800000 4.920000 3.120000 12.198962 9.307132 235.437378
0.800000 4.920000 3.160000 12.050533 7.113599 195.818634
0.800000 4.920000 3.200000 13.118786 9.817837 268.492462
0.800000 4.960000 2.800000 26.183989 -7.884711 747.769897
0.800000 4.960000 2.840000 24.627892 -1.020938 607.575317
0.800000 4.960000 2.880000 21.685293 1.067521 471.391541
0.800000 4.960000 2.920000 21.772667 0.798855 474.687195
0.800000 4.960000 2.960000 24.609589 2.575564 612.265381
0.800000 4.960000 3.000000 26.522114 7.776238 763.892456
0.800000 4.960000 3.040000 25.077579 13.947315 823.412598
0.800000 4.960000 3.080000 21.349733 18.455912 796.431763
0.800000 4.960000 3.120000 17.427715 21.567701 768.890991
0.800000 4.960000 3.160000 12.873691 24.968332 789.149536
0.800000 4.960000 3.200000 5.228526 27.778961 799.008118
0.800000 5.000000 2.800000 29.181850 9.529774 942.396973
0.800000 5.000000 2.840000 22.530350 16.120039 767.472290
0.800000 5.000000 2.880000 15.857467 16.204826 514.055664
0.800000 5.000000 2.920000 13.742191 13.005942 358.002380
0.800000 5.000000 2.960000 16.361122 11.546196 401.000946
0.800000 5.000000 3.000000 20.295435 14.794756 630.789490
0.800000 5.000000 3.040000 21.490164 22.271408 957.842773
0.800000 5.000000 3.080000 17.494970 31.161819 1277.133057
0.800000 5.000000 3.120000 8.003593 37.885616 1499.377441
0.800000 5.000000 3.160000 -5.229720 39.065582 1553.469727
0.800000 5.000000 3.200000 -18.305164 32.521393 1392.719971
0.800000 5.040000 2.800000 17.920818 25.911358 992.554199
0.800000 5.040000 2.840000 7.355693 27.172956 792.475769
0.800000 5.040000 2.880000 0.260164 21.709713 471.379333
0.800000 5.040000 2.920000 0.414664 14.539170 211.559418
0.800000 5.040000 2.960000 6.600562 11.970576 186.862122
0.800000 5.040000 3.000000 13.078590 17.490353 476.961975
0.800000 5.040000 3.040000 13.011938 29.121504 1017.372559
0.800000 5.040000 3.080000 2.937853 40.057457 1613.230835
0.800000 5.040000 3.120000 -14.406626 42.584885 2021.023315
0.800000 5.040000 3.160000 -31.104595 33.107498 2063.602295
0.800000 5.040000 3.200000 -38.673492 14.930953 1718.572388
0.800000 5.080000 2.800000 -1.797768 30.092140 908.768921
0.800000 5.080000 2.840000 -11.049377 23.935909 695.016479
0.800000 5.080000 2.880000 -13.398682 13.784924 369.548798
0.800000 5.080000 2.920000 -7.517111 6.119624 93.956749
0.800000 5.080000 2.960000 2.265998 7.042119 54.726189
0.800000 5.080000 3.000000 7.536484 17.486015 362.559326
0.800000 5.080000 3.040000 1.325515 30.976915 961.326294
0.800000 5.080000 3.080000 -15.893192 36.988197 1620.720215
0.800000 5.080000 3.120000 -35.065128 28.534241 2043.766113
0.800000 5.080000 3.160000 -44.319481 8.150846 2030.652710
0.800000 5.080000 3.200000 -37.724674 -13.126918 1595.467041
0.800000 5.120000 2.800000 -17.550827 20.628603 733.570801
0.800000 5.120000 2.840000 -20.636122 10.046103 526.773682
0.800000 5.120000 2.880000 -15.862450 0.057408 251.620605
0.800000 5.120000 2.920000 -5.264054 -3.056146 37.050293
0.800000 5.120000 2.960000 3.942310 4.016140 31.671192
0.800000 5.120000 3.000000 3.291994 17.365074 312.383026
0.800000 5.120000 3.040000 -9.918861 26.660522 809.167236
0.800000 5.120000 3.080000 -28.576494 22.333717 1315.410889
0.800000 5.120000 3.120000 -39.744690 3.954502 1595.278442
0.800000 5.120000 3.160000 -34.553093 -18.028521 1518.943848
0.800000 5.120000 3.200000 -15.788836 -29.803341 1137.526489
0.800000 5.160000 2.800000 -21.721264 6.538264 514.562195
0.800000 5.160000 2.840000 -18.174555 -3.168883 340.356262
0.800000 5.160000 2.880000 -8.685139 -8.356819 145.268066
0.800000 5.160000 2.920000 1.887591 -4.804942 26.650465
0.800000 5.160000 2.960000 5.701759 6.356037 72.909264
0.800000 5.160000 3.000000 -2.034829 17.085648 296.059875
0.800000 5.160000 3.040000 -17.455563 17.412918 607.906372
0.800000 5.160000 3.080000 -29.158087 4.015877 866.321289
0.800000 5.160000 3.120000 -26.845543 -15.455288 959.549072
0.800000 5.160000 3.160000 -10.421635 -27.497223 864.707764
0.800000 5.160000 3.200000 9.111579 -23.703905 644.895996
0.800000 5.200000 2.800000 -17.605232 -2.088925 314.307831
0.800000 5.200000 2.840000 -10.908479 -8.030603 183.485504
0.800000 5.200000 2.880000 -1.328173 -7.729899 61.515381
0.800000 5.200000 2.920000 4.925121 -0.013319 24.256992
0.800000 5.200000 2.960000 2.176852 10.024734 105.233986
0.800000 5.200000 3.000000 -8.714365 13.593773 260.730835
0.800000 5.200000 3.040000 -19.198088 5.692531 400.971466
0.800000 5.200000 3.080000 -19.374609 -9.248510 460.910431
0.800000 5.200000 3.120000 -6.945452 -19.866407 442.913422
0.800000 5.200000 3.160000 9.833584 -17.284924 395.467957
0.800000 5.200000 3.200000 18.647858 -3.043503 357.005493
0.840000 4.800000 2.800000 9.621777 0.980246 93.539467
0.840000 4.800000 2.840000 2.064373 2.011996 8.309765
0.840000 4.800000 2.880000 -2.765042 -3.731642 21.570606
0.840000 4.800000 2.920000 -0.536995 -11.412243 130.527649
0.840000 4.800000 2.960000 7.621149 -14.908352 280.340881
0.840000 4.800000 3.000000 16.629841 -11.404425 406.612488
0.840000 4.800000 3.040000 21.576633 -2.671177 472.686310
0.840000 4.800000 3.080000 20.663401 7.205967 478.902100
0.840000 4.800000 3.120000 15.064587 14.865755 447.932434
0.840000 4.800000 3.160000 6.942681 18.818718 402.344971
0.840000 4.800000 3.200000 -1.853234 18.678425 352.318024
0.840000 4.840000 2.800000 5.060266 0.079809 25.612656
0.840000 4.840000 2.840000 5.367131 -2.979596 37.684090
0.840000 4.840000 2.880000 9.401993 -3.810016 102.913689
0.840000 4.840000 2.920000 13.389305 -0.038064 179.274948
0.840000 4.840000 2.960000 13.398144 6.331781 219.601700
0.840000 4.840000 3.000000 9.071635 11.063741 204.700928
0.840000 4.840000 3.040000 3.591703 11.792416 151.961395
0.840000 4.840000 3.080000 0.240143 9.892700 97.923187
0.840000 4.840000 3.120000 -0.700275 8.468946 72.213440
0.840000 4.840000 3.160000 -1.669963 8.872101 81.502945
0.840000 4.840000 3.200000 -4.758627 9.360723 110.267677
0.840000 4.880000 2.800000 7.060017 -4.876120 73.620377
0.840000 4.880000 2.840000 16.257322 -2.086688 268.654816
0.840000 4.880000 2.880000 20.764940 9.752679 526.297485
0.840000 4.880000 2.920000 13.687101 23.141399 722.861084
0.840000 4.880000 2.960000 -2.336452 27.379124 755.075378
0.840000 4.880000 3.000000 -16.484924 18.402412 610.401489
0.840000 4.880000 3.040000 -19.062382 2.846970 371.479614
0.840000 4.880000 3.080000 -9.918283 -7.694694 157.580658
0.840000 4.880000 3.120000 1.903255 -6.712980 48.686481
0.840000 4.880000 3.160000 6.524417 2.260861 47.679520
0.840000 4.880000 3.200000 1.526636 9.805958 98.487427
0.840000 4.920000 2.800000 15.980270 -3.913157 270.681854
0.840000 4.920000 2.840000 24.864630 11.526329 751.106079
0.840000 4.920000 2.880000 16.969233 32.471790 1342.371948
0.840000 4.920000 2.920000 -7.464369 41.627113 1788.533325
0.840000 4.920000 2.960000 -32.675205 28.432907 1876.099365
0.840000 4.920000 3.000000 -39.813667 0.036831 1585.129395
0.840000 4.920000 3.040000 -23.474665 -23.492893 1102.975830
0.840000 4.920000 3.080000 3.290497 -25.968725 685.202087
0.840000 4.920000 3.120000 20.266697 -8.408977 481.449890
0.840000 4.920000 3.160000 17.029293 13.071938 460.872375
0.840000 4.920000 3.200000 0.132589 21.951092 481.868011
0.840000 4.960000 2.800000 21.926495 7.923987 543.560730
0.840000 4.960000 2.840000 18.566982 31.421921 1332.069946
0.840000 4.960000 2.880000 -6.468767 47.149719 2264.940918
0.840000 4.960000 2.920000 -39.380657 37.347488 2945.670898
0.840000 4.960000 2.960000 -55.211018 3.258884 3058.876709
0.840000 4.960000 3.000000 -39.395939 -32.513954 2609.197266
0.840000 4.960000 3.040000 -2.054618 -43.806965 1923.271606
0.840000 4.960000 3.080000 29.364313 -23.252808 1402.955933
0.840000 4.960000 3.120000 33.056648 11.618290 1227.726562
0.840000 4.960000 3.160000 10.340216 34.016743 1264.058838
0.840000 4.960000 3.200000 -17.728662 30.336861 1234.630615
0.840000 5.000000 2.800000 14.908229 23.428923 771.169739
0.840000 5.000000 2.840000 -3.781608 41.516266 1737.900879
0.840000 5.000000 2.880000 -36.216301 38.866356 2822.214111
0.840000 5.000000 2.920000 -59.035088 8.550139 3558.246582
0.840000 5.000000 2.960000 -50.635502 -32.373100 3611.971680
0.840000 5.000000 3.000000 -12.350631 -53.884544 3056.082275
0.840000 5.000000 3.040000 29.321163 -38.421864 2335.970215
0.840000 5.000000 3.080000 43.774689 2.710964 1923.572754
0.840000 5.000000 3.120000 22.107288 38.204174 1948.291138
0.840000 5.000000 3.160000 -16.150299 43.205685 2127.563477
0.840000 5.000000 3.200000 -41.122112 19.037331 2053.447998
0.840000 5.040000 2.800000 -3.743005 29.242262 869.119934
0.840000 5.040000 2.840000 -28.127508 31.255133 1768.040039
0.840000 5.040000 2.880000 -50.935097 10.366827 2701.855225
0.840000 5.040000 2.920000 -50.857140 -25.954039 3260.060791
0.840000 5.040000 2.960000 -20.668274 -52.649845 3199.183594
0.840000 5.040000 3.000000 21.746136 -46.871273 2669.810547
0.840000 5.040000 3.040000 45.187660 -9.676766 2135.564453
0.840000 5.040000 3.080000 31.349586 32.027039 2008.527832
0.840000 5.040000 3.120000 -8.669532 47.200356 2303.034424
0.840000 5.040000 3.160000 -43.673607 26.761086 2623.539551
0.840000 5.040000 3.200000 -49.139870 -9.993612 2514.599121
0.840000 5.080000 2.800000 -21.325134 19.189049 822.980957
0.840000 5.080000 2.840000 -37.178352 6.789289 1428.324341
0.840000 5.080000 2.880000 -40.450806 -18.641541 1983.774658
0.840000 5.080000 2.920000 -21.364096 -42.189346 2236.365479
0.840000 5.080000 2.960000 12.487841 -43.984215 2090.557373
0.840000 5.080000 3.000000 37.670967 -17.653637 1730.752686
0.840000 5.080000 3.040000 33.304935 20.170788 1516.079468
0.840000 5.080000 3.080000 0.525675 41.121788 1691.277832
0.840000 5.080000 3.120000 -36.327045 28.894314 2154.535645
0.840000 5.080000 3.160000 -49.672405 -6.310683 2507.172607
0.840000 5.080000 3.200000 -31.940540 -36.755562 2371.169434
0.840000 5.120000 2.800000 -25.726364 0.807158 662.497314
0.840000 5.120000 2.840000 -26.543480 -14.062631 902.313904
0.840000 5.120000 2.880000 -15.234896 -28.820963 1062.750000
0.840000 5.120000 2.920000 6.396973 -31.966101 1062.752808
0.840000 5.120000 2.960000 25.503387 -16.562517 924.739746
0.840000 5.120000 3.000000 26.362389 10.177019 798.547241
0.840000 5.120000 3.040000 4.850373 29.073181 868.776001
0.840000 5.120000 3.080000 -24.887281 24.037582 1197.182129
0.840000 5.120000 3.120000 -40.278000 -2.954951 1631.048950
0.840000 5.120000 3.160000 -29.322964 -31.963579 1881.506592
0.840000 5.120000 3.200000 -1.197173 -41.591988 1731.326660
0.840000 5.160000 2.800000 -16.982229 -12.045637 433.493469
0.840000 5.160000 2.840000 -8.382001 -18.463913 411.174011
0.840000 5.160000 2.880000 3.712187 -18.360683 350.895020
0.840000 5.160000 2.920000 13.655200 -9.210724 271.301941
0.840000 5.160000 2.960000 13.894685 5.766958 226.320084
0.840000 5.160000 3.000000 1.453926 16.798878 284.316193
0.840000 5.160000 3.040000 -16.843008 13.941111 478.041504
0.840000 5.160000 3.080000 -27.360872 -3.593232 761.528625
0.840000 5.160000 3.120000 -20.401556 -24.448320 1013.943848
0.840000 5.160000 3.160000 0.549240 -33.184444 1101.509033
0.840000 5.160000 3.200000 20.562790 -23.232224 962.564575
0.840000 5.200000 2.800000 -6.349883 -12.817122 204.599640
0.840000 5.200000 2.840000 1.138142 -9.929907 99.898415
0.840000 5.200000 2.880000 4.574137 -2.997976 29.910589
0.840000 5.200000 2.920000 1.882054 4.325760 22.254324
0.840000 5.200000 2.960000 -6.066456 7.260031 89.509933
0.840000 5.200000 3.000000 -14.616414 2.427438 219.532013
0.840000 5.200000 3.040000 -17.131908 -8.916213 373.001160
0.840000 5.200000 3.080000 -9.654224 -20.088961 496.770386
0.840000 5.200000 3.120000 4.956086 -22.882769 548.183899
0.840000 5.200000 3.160000 17.807873 -14.028032 513.906006
0.840000 5.200000 3.200000 20.292675 1.310822 413.510925
0.880000 4.800000 2.800000 3.062334 12.234920 159.071136
0.880000 4.800000 2.840000 -2.145895 5.259375 32.265888
0.880000 4.800000 2.880000 -0.051046 -1.596991 2.552985
0.880000 4.800000 2.920000 5.380501 -3.501690 41.211620
0.880000 4.800000 2.960000 9.179260 -1.411110 86.250053
0.880000 4.800000 3.000000 10.627625 0.952736 113.854111
0.880000 4.800000 3.040000 12.433081 2.701881 161.881653
0.880000 4.800000 3.080000 15.388972 6.789360 282.915863
0.880000 4.800000 3.120000 15.593729 15.144637 472.524414
0.880000 4.800000 3.160000 8.382033 24.011024 646.787781
0.880000 4.800000 3.200000 -5.172532 25.856300 695.303345
0.880000 4.840000 2.800000 -2.254616 6.576262 48.330517
0.880000 4.840000 2.840000 8.367405 4.410721 89.467926
0.880000 4.840000 2.880000 15.642862 16.491470 516.667725
0.880000 4.840000 2.920000 7.094818 32.567600 1110.984985
0.880000 4.840000 2.960000 -14.059010 35.745445 1475.392578
0.880000 4.840000 3.000000 -30.697342 20.150482 1348.368652
0.880000 4.840000 3.040000 -28.599100 -2.073402 822.207520
0.880000 4.840000 3.080000 -10.915691 -12.262569 269.522919
0.880000 4.840000 3.120000 4.881832 -3.628111 36.995476
0.880000 4.840000 3.160000 4.469388 12.517073 176.652542
0.880000 4.840000 3.200000 -9.573740 18.795502 444.927368
0.880000 4.880000 2.800000 1.670800 0.820690 3.465106
0.880000 4.880000 2.840000 17.925505 18.475796 662.678772
0.880000 4.880000 2.880000 8.455559 49.642857 2535.909912
0.880000 4.880000 2.920000 -30.122135 63.694328 4964.310547
0.880000 4.880000 2.960000 -71.241142 39.930515 6669.746094
0.880000 4.880000 3.000000 -81.024757 -9.813885 6661.323730
0.880000 4.880000 3.040000 -50.286278 -49.586281 4987.508789
0.880000 4.880000 3.080000 -3.803375 -51.649635 2682.150391
0.880000 4.880000 3.120000 22.646454 -21.047329 955.851929
0.880000 4.880000 3.160000 14.563503 11.377501 341.543152
0.880000 4.880000 3.200000 -11.195075 19.196621 493.839966
0.880000 4.920000 2.800000 9.024781 4.349973 100.368942
0.880000 4.920000 2.840000 10.079439 41.255245 1803.590332
0.880000 4.920000 2.880000 -30.313307 70.159790 5841.292480
0.880000 4.920000 2.920000 -89.771484 53.378746 10908.209961
0.880000 4.920000 2.960000 -119.987350 -10.838745 14514.442383
0.880000 4.920000 3.000000 -90.552299 -80.619919 14699.290039
0.880000 4.920000 3.040000 -19.275337 -105.368790 11474.121094
0.880000 4.920000 3.080000 42.018105 -70.722000 6767.122070
0.880000 4.920000 3.120000 53.227268 -10.021486 2933.572266
0.880000 4.920000 3.160000 19.038771 27.950472 1143.703613
0.880000 4.920000 3.200000 -21.031973 22.290306 939.201660
0.880000 4.960000 2.800000 8.017618 15.599427 307.624329
0.880000 4.960000 2.840000 -18.571877 52.341087 3084.503906
0.880000 4.960000 2.880000 -79.423325 52.226280 9035.648438
0.880000 4.960000 2.920000 -127.345474 -5.899939 16251.679688
0.880000 4.960000 2.960000 -113.843956 -91.207710 21279.292969
0.880000 4.960000 3.000000 -36.711205 -141.854523 21470.417969
0.880000 4.960000 3.040000 52.703602 -118.924789 16920.775391
0.880000 4.960000 3.080000 92.549179 -41.885078 10319.709961
0.880000 4.960000 3.120000 63.562607 29.175478 4891.413574
0.880000 4.960000 3.160000 1.898318 47.052898 2217.578857
0.880000 4.960000 3.200000 -38.198593 15.065429 1686.099731
0.880000 5.000000 2.800000 -5.470371 22.238523 524.476929
0.880000 5.000000 2.840000 -50.495949 36.094093 3852.624512
0.880000 5.000000 2.880000 -102.036133 -0.909185 10412.198242
0.880000 5.000000 2.920000 -108.526688 -79.234772 18056.191406
0.880000 5.000000 2.960000 -46.635792 -144.863708 23160.390625
0.880000 5.000000 3.000000 50.002235 -143.523392 23099.187500
0.880000 5.000000 3.040000 114.593727 -70.937477 18163.847656
0.880000 5.000000 3.080000 104.170029 20.455128 11269.806641
0.880000 5.000000 3.120000 36.051689 66.549438 5728.551758
0.880000 5.000000 3.160000 -30.567287 45.841640 3035.815186
0.880000 5.000000 3.200000 -48.638428 -7.853746 2427.377930
0.880000 5.040000 2.800000 -21.704014 13.993082 666.870544
0.880000 5.040000 2.840000 -60.887844 -0.945171 3708.222900
0.880000 5.040000 2.880000 -78.477768 -55.231918 9209.325195
0.880000 5.040000 2.920000 -42.208714 -116.296204 15306.381836
0.880000 5.040000 2.960000 37.919666 -132.959259 19116.064453
0.880000 5.040000 3.000000 109.675148 -81.815186 18722.363281
0.880000 5.040000 3.040000 120.637398 6.701246 14598.288086
0.880000 5.040000 3.080000 64.564941 70.923752 9198.810547
0.880000 5.040000 3.120000 -12.682503 70.173782 5085.205566
0.880000 5.040000 3.160000 -53.903568 17.746092 3220.518555
0.880000 5.040000 3.200000 -39.051212 -35.578144 2790.801514
0.880000 5.080000 2.800000 -26.018202 -5.523361 707.454346
0.880000 5.080000 2.840000 -40.858978 -33.375420 2783.374512
0.880000 5.080000 2.880000 -25.515703 -74.235291 6161.929688
0.880000 5.080000 2.920000 25.211664 -94.940659 9649.356445
0.880000 5.080000 2.960000 83.044182 -68.516617 11590.863281
0.880000 5.080000 3.000000 105.047058 -3.102047 11044.507812
0.880000 5.080000 3.040000 71.069260 58.782318 8506.201172
0.880000 5.080000 3.080000 4.373104 74.177856 5521.478516
0.880000 5.080000 3.120000 -46.443211 36.570602 3494.380859
0.880000 5.080000 3.160000 -48.685738 -19.313715 2743.320557
0.880000 5.080000 3.200000 -11.543161 -49.384850 2572.107910
0.880000 5.120000 2.800000 -13.926838 -21.295013 647.434448
0.880000 5.120000 2.840000 -6.666729 -39.387878 1595.850220
0.880000 5.120000 2.880000 17.885548 -50.832451 2903.830811
0.880000 5.120000 2.920000 50.207947 -39.560219 4085.848633
0.880000 5.120000 2.960000 67.556473 -3.393402 4575.392090
0.880000 5.120000 3.000000 52.137718 37.963398 4159.561035
0.880000 5.120000 3.040000 9.617405 55.560795 3179.496338
0.880000 5.120000 3.080000 -31.624702 35.711266 2275.416260
0.880000 5.120000 3.120000 -42.830345 -6.494638 1876.618774
0.880000 5.120000 3.160000 -19.241295 -38.989426 1890.402710
0.880000 5.120000 3.200000 16.522732 -39.982704 1871.617188
0.880000 5.160000 2.800000 3.831315 -21.735722 487.120575
0.880000 5.160000 2.840000 15.150374 -20.498514 649.722900
0.880000 5.160000 2.880000 25.226799 -11.925926 778.619141
0.880000 5.160000 2.920000 28.538040 3.183018 824.551331
0.880000 5.160000 2.960000 20.115326 18.865150 760.520264
0.880000 5.160000 3.000000 1.182880 25.164703 634.661499
0.880000 5.160000 3.040000 -18.168743 15.293250 563.986755
0.880000 5.160000 3.080000 -24.529192 -6.752882 647.282715
0.880000 5.160000 3.120000 -12.148607 -26.707436 860.875732
0.880000 5.160000 3.160000 10.759464 -30.493656 1045.629150
0.880000 5.160000 3.200000 27.608130 -16.163200 1023.457886
0.880000 5.200000 2.800000 12.125490 -10.326117 253.656189
0.880000 5.200000 2.840000 12.315274 1.180107 153.058640
0.880000 5.200000 2.880000 4.009100 8.259699 84.295509
0.880000 5.200000 2.920000 -6.328049 6.661991 84.426331
0.880000 5.200000 2.960000 -12.156639 -1.697039 150.663818
0.880000 5.200000 3.000000 -10.864170 -11.654930 253.867584
0.880000 5.200000 3.040000 -3.723230 -18.639462 361.291992
0.880000 5.200000 3.080000 6.211816 -20.217257 447.324097
0.880000 5.200000 3.120000 15.477391 -15.815464 489.678528
0.880000 5.200000 3.160000 20.546646 -6.680923 466.799408
0.880000 5.200000 3.200000 18.913700 3.610701 370.765228
0.920000 4.800000 2.800000 -9.677986 15.921155 347.146576
0.920000 4.800000 2.840000 -7.326527 5.321383 81.995102
0.920000 4.800000 2.880000 0.081413 2.834383 8.040355
0.920000 4.800000 2.920000 3.181000 6.843895 56.957657
0.920000 4.800000 2.960000 0.143402 8.788994 77.266975
0.920000 4.800000 3.000000 -1.663931 4.351570 21.704828
0.920000 4.800000 3.040000 4.580782 -0.404892 21.147499
0.920000 4.800000 3.080000 15.248753 4.282528 250.864502
0.920000 4.800000 3.120000 18.314770 19.433441 713.089417
0.920000 4.800000 3.160000 6.257719 33.537209 1163.903442
0.920000 4.800000 3.200000 -14.118129 32.995186 1288.003784
0.920000 4.840000 2.800000 -12.355480 6.023596 188.941605
0.920000 4.840000 2.840000 3.903692 14.803038 234.368744
0.920000 4.840000 2.880000 0.107956 39.020828 1522.636597
0.920000 4.840000 2.920000 -29.863316 51.069424 3499.903564
0.920000 4.840000 2.960000 -63.030251 30.635704 4911.358887
0.920000 4.840000 3.000000 -68.181549 -12.010086 4792.965820
0.920000 4.840000 3.040000 -37.509438 -43.268536 3279.124023
0.920000 4.840000 3.080000 3.995804 -38.203018 1475.437012
0.920000 4.840000 3.120000 22.024956 -4.811478 508.248993
0.920000 4.840000 3.160000 5.711584 24.369213 626.480713
0.920000 4.840000 3.200000 -23.632420 24.485126 1158.012695
0.920000 4.880000 2.800000 -6.438062 0.728162 41.978859
0.920000 4.880000 2.840000 -0.551737 37.473564 1404.572510
0.920000 4.880000 2.880000 -41.187626 69.196106 6484.521484
0.920000 4.880000 2.920000 -105.091644 51.242512 13670.048828
0.920000 4.880000 2.960000 -137.049789 -20.092430 19186.349609
0.920000 4.880000 3.000000 -101.757118 -97.101631 19783.238281
0.920000 4.880000 3.040000 -20.332748 -121.730484 15231.731445
0.920000 4.880000 3.080000 46.771343 -79.048553 8436.232422
0.920000 4.880000 3.120000 54.681507 -10.000935 3090.085938
0.920000 4.880000 3.160000 12.570685 28.674397 980.243164
0.920000 4.880000 3.200000 -30.853598 16.310322 1217.971069
0.920000 4.920000 2.800000 -1.845299 4.702221 25.516010
0.920000 4.920000 2.840000 -29.832520 51.615002 3554.087646
0.920000 4.920000 2.880000 -105.280098 53.598797 13956.730469
0.920000 4.920000 2.920000 -166.617706 -20.273834 28172.490234
0.920000 4.920000 2.960000 -148.537140 -130.861649 39188.054688
0.920000 4.920000 3.000000 -47.174011 -196.516525 40844.132812
0.920000 4.920000 3.040000 69.758255 -165.996185 32420.949219
0.920000 4.920000 3.080000 121.276581 -65.870193 19046.890625
0.920000 4.920000 3.120000 84.040710 24.568756 7666.464844
0.920000 4.920000 3.160000 7.491405 45.601189 2135.589600
0.920000 4.920000 3.200000 -38.294853 5.434159 1496.025757
0.920000 4.960000 2.800000 -7.088787 10.310406 156.555374
0.920000 4.960000 2.840000 -67.640556 34.960747 5797.498535
0.920000 4.960000 2.880000 -142.729523 -15.049103 20598.191406
0.920000 4.960000 2.920000 -153.842865 -128.734116 40240.101562
0.920000 4.960000 2.960000 -63.709167 -226.351868 55294.027344
0.920000 4.960000 3.000000 79.272705 -226.468216 57572.011719
0.920000 4.960000 3.040000 176.848999 -121.847939 46122.488281
0.920000 4.960000 3.080000 166.211639 11.116884 27749.894531
0.920000 4.960000 3.120000 72.996010 80.090164 11742.851562
0.920000 4.960000 3.160000 -17.928823 55.915657 3448.003418
0.920000 4.960000 3.200000 -42.048992 -11.759024 1906.392456
0.920000 5.000000 2.800000 -18.271358 5.823017 367.750061
0.920000 5.000000 2.840000 -82.770889 -10.653301 6964.512695
0.920000 5.000000 2.880000 -116.143402 -96.604027 22821.628906
0.920000 5.000000 2.920000 -60.080299 -199.011414 43215.183594
0.920000 5.000000 2.960000 71.965088 -230.856873 58473.867188
0.920000 5.000000 3.000000 194.343079 -150.622864 60456.476562
0.920000 5.000000 3.040000 220.010712 -6.164408 48442.714844
0.920000 5.000000 3.080000 137.147354 103.233223 29466.496094
0.920000 5.000000 3.120000 17.667900 112.297073 12922.787109
0.920000 5.000000 3.160000 -49.595146 41.360527 4170.371582
0.920000 5.000000 3.200000 -34.973209 -32.284309 2265.401855
0.920000 5.040000 2.800000 -21.855640 -10.474051 587.374756
0.920000 5.040000 2.840000 -57.835388 -55.867416 6466.100586
0.920000 5.040000 2.880000 -37.338345 -134.305908 19432.228516
0.920000 5.040000 2.920000 55.098900 -180.091980 35469.007812
0.920000 5.040000 2.960000 167.726593 -137.389343 47008.042969
0.920000 5.040000 3.000000 218.384399 -17.382755 47993.906250
0.920000 5.040000 3.040000 166.212875 103.015366 38238.886719
0.920000 5.040000 3.080000 49.945377 144.569519 23394.886719
0.920000 5.040000 3.120000 -45.519302 92.670670 10659.859375
0.920000 5.040000 3.160000 -62.670273 4.729603 3949.932129
0.920000 5.040000 3.200000 -15.145863 -46.308464 2373.871094
0.920000 5.080000 2.800000 -9.225572 -26.268061 775.122192
0.920000 5.080000 2.840000 -7.900356 -68.105705 4700.802734
0.920000 5.080000 2.880000 39.665314 -104.394852 12471.622070
0.920000 5.080000 2.920000 115.413109 -90.736961 21553.382812
0.920000 5.080000 2.960000 165.611328 -15.297760 27661.132812
0.920000 5.080000 3.000000 145.038818 81.312737 27648.021484
0.920000 5.080000 3.040000 60.067871 134.763885 21769.453125
0.920000 5.080000 3.080000 -32.453297 111.136124 13404.455078
0.920000 5.080000 3.120000 -72.285782 35.803581 6507.130859
0.920000 5.080000 3.160000 -45.424477 -30.509459 2994.210205
0.920000 5.080000 3.200000 9.630642 -45.101051 2126.854004
0.920000 5.120000 2.800000 12.627247 -26.926748 884.497070
0.920000 5.120000 2.840000 31.160086 -41.202026 2668.557861
0.920000 5.120000 2.880000 65.193924 -36.722092 5598.759766
0.920000 5.120000 2.920000 93.081100 -1.544205 8666.475586
0.920000 5.120000 2.960000 87.946907 51.845451 10422.609375
0.920000 5.120000 3.000000 42.695858 90.326683 9981.845703
0.920000 5.120000 3.040000 -18.624611 85.678604 7687.699219
0.920000 5.120000 3.080000 -57.088425 39.862839 4848.133789
0.920000 5.120000 3.120000 -50.402039 -14.606636 2753.719238
0.920000 5.120000 3.160000 -10.905596 -41.311310 1825.556274
0.920000 5.120000 3.200000 26.763376 -29.442762 1583.154541
0.920000 5.160000 2.800000 26.752869 -11.030964 837.398193
0.920000 5.160000 2.840000 34.609138 -0.905739 1198.612793
0.920000 5.160000 2.880000 35.811203 13.788593 1472.567627
0.920000 5.160000 2.920000 27.660320 28.755478 1591.970825
0.920000 5.160000 2.960000 10.145462 37.446594 1505.177856
0.920000 5.160000 3.000000 -11.345497 33.276218 1236.027100
0.920000 5.160000 3.040000 -26.334213 14.976288 917.779968
0.920000 5.160000 3.080000 -25.279011 -9.509224 729.453735
0.920000 5.160000 3.120000 -7.741068 -26.342876 753.871277
0.920000 5.160000 3.160000 15.317165 -25.640949 892.073792
0.920000 5.160000 3.200000 29.003986 -9.761066 936.509644
0.920000 5.200000 2.800000 23.147182 7.239779 588.206421
0.920000 5.200000 2.840000 10.080050 19.592657 485.479645
0.920000 5.200000 2.880000 -7.974413 16.528345 336.777466
0.920000 5.200000 2.920000 -16.713905 0.817471 280.022888
0.920000 5.200000 2.960000 -10.891167 -14.943609 341.928986
0.920000 5.200000 3.000000 2.659702 -20.568384 430.132446
0.920000 5.200000 3.040000 13.448904 -16.235977 444.479980
0.920000 5.200000 3.080000 17.241102 -9.252327 382.861176
0.920000 5.200000 3.120000 17.466158 -4.955711 329.625763
0.920000 5.200000 3.160000 18.539045 -2.243088 348.727631
0.920000 5.200000 3.200000 19.961123 2.464134 404.518372
0.960000 4.800000 2.800000 -21.700573 10.918199 590.121948
0.960000 4.800000 2.840000 -12.367910 2.983538 161.866699
0.960000 4.800000 2.880000 -4.895798 6.333553 64.082733
0.960000 4.800000 2.920000 -7.133362 11.511662 183.403198
0.960000 4.800000 2.960000 -13.283588 7.891754 238.733505
0.960000 4.800000 3.000000 -10.761404 -2.780815 123.540749
0.960000 4.800000 3.040000 3.964142 -6.861816 62.798946
0.960000 4.800000 3.080000 18.675110 5.908751 383.673065
0.960000 4.800000 3.120000 16.732716 28.877504 1113.894043
0.960000 4.800000 3.160000 -4.655057 42.614338 1837.651367
0.960000 4.800000 3.200000 -29.311951 33.900578 2008.439575
0.960000 4.840000 2.800000 -20.509499 -0.640528 421.049805
0.960000 4.840000 2.840000 -10.713215 19.999165 514.739563
0.960000 4.840000 2.880000 -33.300728 41.973286 2870.695312
0.960000 4.840000 2.920000 -74.584656 31.285553 6541.656738
0.960000 4.840000 2.960000 -94.665215 -17.125519 9254.786133
0.960000 4.840000 3.000000 -66.798042 -68.868225 9204.810547
0.960000 4.840000 3.040000 -7.040642 -80.669647 6557.162598
0.960000 4.840000 3.080000 38.069057 -42.595634 3263.641113
0.960000 4.840000 3.120000 35.044247 11.404469 1358.161133
0.960000 4.840000 3.160000 -5.548546 36.048950 1330.313232
0.960000 4.840000 3.200000 -41.688713 17.351429 2039.020996
0.960000 4.880000 2.800000 -13.743076 -5.375401 217.767075
0.960000 4.880000 2.840000 -33.179100 35.819633 2383.898926
0.960000 4.880000 2.880000 -97.824570 39.254852 11110.589844
0.960000 4.880000 2.920000 -151.775894 -26.183586 23721.501953
0.960000 4.880000 2.960000 -133.574081 -125.543686 33603.250000
0.960000 4.880000 3.000000 -39.159180 -182.711166 34916.812500
0.960000 4.880000 3.040000 67.500412 -150.106903 27088.386719
0.960000 4.880000 3.080000 110.314392 -54.501614 15139.690430
0.960000 4.880000 3.120000 69.496826 27.688614 5596.468262
0.960000 4.880000 3.160000 -4.717263 40.988342 1702.296753
0.960000 4.880000 3.200000 -44.376659 -2.780391 1977.018433
0.960000 4.920000 2.800000 -10.639736 -4.024515 129.400711
0.960000 4.920000 2.840000 -70.444061 24.434410 5559.406250
0.960000 4.920000 2.880000 -149.055908 -26.307354 22909.740234
0.960000 4.920000 2.920000 -160.479080 -146.580017 47239.234375
0.960000 4.920000 2.960000 -62.932800 -250.119537 66520.320312
0.960000 4.920000 3.000000 91.118652 -248.128860 69870.539062
0.960000 4.920000 3.040000 194.569687 -133.451401 55666.640625
0.960000 4.920000 3.080000 180.215363 9.545219 32568.687500
0.960000 4.920000 3.120000 78.463142 80.759018 12678.484375
0.960000 4.920000 3.160000 -16.908413 51.452400 2933.243896
0.960000 4.920000 3.200000 -37.746284 -20.891277 1861.227417
0.960000 4.960000 2.800000 -13.578908 -5.463467 214.236206
0.960000 4.960000 2.840000 -90.809692 -20.741940 8676.628906
0.960000 4.960000 2.880000 -132.898926 -123.282455 32860.687500
0.960000 4.960000 2.920000 -65.247192 -248.392105 65955.835938
0.960000 4.960000 2.960000 96.767784 -287.541779 92044.281250
0.960000 4.960000 3.000000 247.209900 -188.868820 96784.164062
0.960000 4.960000 3.040000 278.862823 -11.811630 77903.992188
0.960000 4.960000 3.080000 178.469635 121.479469 46608.671875
0.960000 4.960000 3.120000 35.349804 132.760834 18875.048828
0.960000 4.960000 3.160000 -43.193371 49.584377 4324.277344
0.960000 4.960000 3.200000 -24.835825 -33.363731 1729.956787
0.960000 5.000000 2.800000 -14.294272 -15.233688 436.391479
0.960000 5.000000 2.840000 -68.300941 -73.765198 10106.322266
0.960000 5.000000 2.880000 -43.908157 -183.414032 35568.632812
0.960000 5.000000 2.920000 83.782127 -249.983902 69511.398438
0.960000 5.000000 2.960000 242.356812 -192.609207 95835.132812
0.960000 5.000000 3.000000 315.718109 -26.052423 100356.648438
0.960000 5.000000 3.040000 246.542572 142.286102 81028.570312
0.960000 5.000000 3.080000 88.901535 202.999969 49112.472656
0.960000 5.000000 3.120000 -40.828274 137.380798 20540.431641
0.960000 5.000000 3.160000 -66.443626 24.506271 5015.312500
0.960000 5.000000 3.200000 -9.138418 -39.021397 1606.180176
0.960000 5.040000 2.800000 -3.253435 -26.878983 733.064514
0.960000 5.040000 2.840000 -10.243155 -95.172318 9162.691406
0.960000 5.040000 2.880000 62.587078 -160.326050 29621.583984
0.960000 5.040000 2.920000 187.392776 -144.484344 55991.777344
0.960000 5.040000 2.960000 274.296051 -24.957256 75861.187500
0.960000 5.040000 3.000000 247.236588 132.699707 78735.140625
0.960000 5.040000 3.040000 115.277863 224.040176 63482.984375
0.960000 5.040000 3.080000 -31.336651 194.609482 38854.835938
0.960000 5.040000 3.120000 -98.676025 84.239433 16833.240234
0.960000 5.040000 3.160000 -66.403183 -14.070751 4607.368652
0.960000 5.040000 3.200000 6.550130 -38.033638 1489.461792
0.960000 5.080000 2.800000 17.736259 -27.072027 1047.469482
0.960000 5.080000 2.840000 44.919964 -67.418701 6563.084473
0.960000 5.080000 2.880000 115.554802 -72.242493 18571.890625
0.960000 5.080000 2.920000 182.198944 -8.516785 33268.992188
0.960000 5.080000 2.960000 183.413651 100.693047 43779.656250
0.960000 5.080000 3.000000 100.357986 186.072937 44694.863281
0.960000 5.080000 3.040000 -20.078857 188.252319 35842.097656
0.960000 5.080000 3.080000 -101.282791 109.269852 22198.105469
0.960000 5.080000 3.120000 -100.287476 10.228645 10162.203125
0.960000 5.080000 3.160000 -39.643642 -42.515053 3379.147949
0.960000 5.080000 3.200000 19.810951 -31.087381 1358.899048
0.960000 5.120000 2.800000 34.487885 -10.116863 1291.765137
0.960000 5.120000 2.840000 60.185928 -12.189135 3770.920898
0.960000 5.120000 2.880000 89.209358 13.783844 8148.303711
0.960000 5.120000 2.920000 93.125725 65.372505 12945.964844
0.960000 5.120000 2.960000 54.312576 114.062859 15960.191406
0.960000 5.120000 3.000000 -13.910629 124.564178 15709.740234
0.960000 5.120000 3.040000 -72.738136 84.613556 12450.290039
0.960000 5.120000 3.080000 -87.269981 17.802277 7932.970703
0.960000 5.120000 3.120000 -54.407307 -34.112968 4123.849609
0.960000 5.120000 3.160000 -3.842972 -44.316292 1978.702148
0.960000 5.120000 3.200000 28.297794 -19.764925 1191.417358
0.960000 5.160000 2.800000 33.659439 13.960855 1327.863403
0.960000 5.160000 2.840000 32.390415 28.585800 1866.286987
0.960000 5.160000 2.880000 21.776188 41.482277 2194.981689
0.960000 5.160000 2.920000 4.284233 47.379040 2263.128174
0.960000 5.160000 2.960000 -15.449493 43.026695 2089.983398
0.960000 5.160000 3.000000 -31.200912 27.679871 1739.672119
0.960000 5.160000 3.040000 -36.139400 4.653191 1327.708496
0.960000 5.160000 3.080000 -26.263378 -17.761501 1005.235962
0.960000 5.160000 3.120000 -4.652447 -29.290615 879.585388
0.960000 5.160000 3.160000 18.212713 -24.330275 923.665161
0.960000 5.160000 3.200000 30.508421 -6.978909 979.468872
0.960000 5.200000 2.800000 16.828884 27.753122 1053.447144
0.960000 5.200000 2.840000 -7.009968 30.211630 961.882202
0.960000 5.200000 2.880000 -24.240456 11.394414 717.432373
0.960000 5.200000 2.920000 -20.070770 -13.877934 595.432861
0.960000 5.200000 2.960000 0.794342 -25.739964 663.176697
0.960000 5.200000 3.000000 20.015921 -18.219261 732.578552
0.960000 5.200000 3.040000 24.414539 -3.040268 605.312927
0.960000 5.200000 3.080000 17.588329 4.468624 329.317932
0.960000 5.200000 3.120000 13.156857 1.284378 174.752502
0.960000 5.200000 3.160000 18.459393 -2.314062 346.104065
0.960000 5.200000 3.200000 26.989830 3.777198 742.718140
1.000000 4.800000 2.800000 -28.462069 0.611259 810.463013
1.000000 4.800000 2.840000 -16.883278 -2.068111 289.322174
1.000000 4.800000 2.880000 -12.783581 3.696819 177.086411
1.000000 4.800000 2.920000 -17.728636 5.263321 342.007080
1.000000 4.800000 2.960000 -20.292559 -3.484215 423.927673
1.000000 4.800000 3.000000 -9.741882 -13.395782 274.351257
1.000000 4.800000 3.040000 9.419891 -9.087881 171.323944
1.000000 4.800000 3.080000 19.236458 12.925980 537.122253
1.000000 4.800000 3.120000 6.381273 37.153175 1421.079102
1.000000 4.800000 3.160000 -22.260796 42.529461 2304.298096
1.000000 4.800000 3.200000 -44.099854 23.535110 2498.698486
1.000000 4.840000 2.800000 -24.516722 -11.057007 723.327026
1.000000 4.840000 2.840000 -28.540474 10.912632 933.644165
1.000000 4.840000 2.880000 -61.290989 15.064758 3983.532227
1.000000 4.840000 2.920000 -90.775406 -20.799095 8672.776367
1.000000 4.840000 2.960000 -78.125259 -77.639946 12131.517578
1.000000 4.840000 3.000000 -19.409256 -108.201645 12084.314453
1.000000 4.840000 3.040000 44.823021 -82.038086 8739.350586
1.000000 4.840000 3.080000 65.157639 -17.352058 4546.611816
1.000000 4.840000 3.120000 29.800003 34.145775 2053.974121
1.000000 4.840000 3.160000 -24.996338 35.375648 1876.253418
1.000000 4.840000 3.200000 -50.965061 -3.155970 2607.397705
1.000000 4.880000 2.800000 -16.929188 -16.773701 567.954468
1.000000 4.880000 2.840000 -57.453060 6.089176 3337.932129
1.000000 4.880000 2.880000 -115.442947 -30.714996 14270.485352
1.000000 4.880000 2.920000 -122.840401 -122.193581 30021.035156
1.000000 4.880000 2.960000 -45.141464 -200.733215 42331.574219
1.000000 4.880000 3.000000 76.226212 -195.195862 43911.859375
1.000000 4.880000 3.040000 154.897247 -100.281204 34049.476562
1.000000 4.880000 3.080000 137.158722 14.440544 19021.044922
1.000000 4.880000 3.120000 50.019688 67.034042 6995.532227
1.000000 4.880000 3.160000 -27.463802 35.906815 2043.559814
1.000000 4.880000 3.200000 -39.310143 -28.085852 2334.102539
1.000000 4.920000 2.800000 -11.122344 -19.024418 485.635010
1.000000 4.920000 2.840000 -78.708527 -30.075935 7099.594238
1.000000 4.920000 2.880000 -116.450012 -122.032166 28452.455078
1.000000 4.920000 2.920000 -53.295345 -235.875031 58477.425781
1.000000 4.920000 2.960000 97.317078 -269.855988 82292.875000
1.000000 4.920000 3.000000 235.899979 -175.292252 86376.171875
1.000000 4.920000 3.040000 261.873291 -9.012749 68658.843750
1.000000 4.920000 3.080000 164.443573 113.253708 39868.093750
1.000000 4.920000 3.120000 30.071316 119.058395 15079.185547
1.000000 4.920000 3.160000 -39.644058 37.663776 2990.211426
1.000000 4.920000 3.200000 -17.038685 -38.943027 1806.876221
1.000000 4.960000 2.800000 -5.856746 -22.738766 551.352905
1.000000 4.960000 2.840000 -63.197071 -81.102135 10571.425781
1.000000 4.960000 2.880000 -38.360229 -196.115570 39932.824219
1.000000 4.960000 2.920000 97.225403 -266.387634 80415.156250
1.000000 4.960000 2.960000 266.053528 -204.218460 112489.656250
1.000000 4.960000 3.000000 343.151154 -25.677320 118412.039062
1.000000 4.960000 3.040000 267.813904 153.230072 95203.742188
1.000000 4.960000 3.080000 99.836784 215.839737 56554.175781
1.000000 4.960000 3.120000 -35.539440 144.749786 22215.550781
1.000000 4.960000 3.160000 -59.195419 27.006042 4233.423828
1.000000 4.960000 3.200000 2.200961 -34.934479 1225.262085
1.000000 5.000000 2.800000 4.556795 -27.025940 751.165833
1.000000 5.000000 2.840000 -8.041142 -108.999847 11945.626953
1.000000 5.000000 2.880000 78.729736 -190.457977 42472.613281
1.000000 5.000000 2.920000 231.746246 -173.001831 83635.953125
1.000000 5.000000 2.960000 339.311646 -27.355913 115880.734375
1.000000 5.000000 3.000000 307.231689 165.415604 121753.632812
1.000000 5.000000 3.040000 147.503738 276.932709 98449.078125
1.000000 5.000000 3.080000 -28.694187 242.155243 59462.515625
1.000000 5.000000 3.120000 -108.413857 111.861893 24266.648438
1.000000 5.000000 3.160000 -70.606804 -1.216141 4986.799805
1.000000 5.000000 3.200000 11.133146 -25.661098 782.438965
1.000000 5.040000 2.800000 21.189882 -24.114147 1030.503174
1.000000 5.040000 2.840000 54.500774 -87.300842 10591.771484
1.000000 5.040000 2.880000 156.702515 -101.127625 34782.476562
1.000000 5.040000 2.920000 257.407043 -13.005718 66427.531250
1.000000 5.040000 2.960000 264.161163 144.472427 90653.398438
1.000000 5.040000 3.000000 148.371719 269.543274 94667.750000
1.000000 5.040000 3.040000 -21.740887 276.200378 76759.312500
1.000000 5.040000 3.080000 -136.590637 168.722260 47124.203125
1.000000 5.040000 3.120000 -137.613144 34.654076 20138.281250
1.000000 5.040000 3.160000 -59.432533 -35.071339 4762.224609
1.000000 5.040000 3.200000 13.700683 -20.453413 606.050781
1.000000 5.080000 2.800000 35.556587 -8.055022 1329.154297
1.000000 5.080000 2.840000 81.987411 -27.380993 7471.654297
1.000000 5.080000 2.880000 146.004501 9.927883 21415.876953
1.000000 5.080000 2.920000 166.631638 104.851364 38759.914062
1.000000 5.080000 2.960000 104.002319 201.589447 51454.789062
1.000000 5.080000 3.000000 -18.256111 229.605652 53052.039062
1.000000 5.080000 3.040000 -126.386826 164.640778 43080.214844
1.000000 5.080000 3.080000 -156.423340 51.037109 27073.048828
1.000000 5.080000 3.120000 -105.428566 -36.341908 12435.916992
1.000000 5.080000 3.160000 -27.450340 -54.226341 3694.017334
1.000000 5.080000 3.200000 18.426851 -19.479853 719.013550
1.000000 5.120000 2.800000 36.013855 16.198154 1559.378052
1.000000 5.120000 2.840000 58.700012 29.107239 4292.922852
1.000000 5.120000 2.880000 67.714096 68.068115 9218.466797
1.000000 5.120000 2.920000 40.634506 114.036613 14655.512695
1.000000 5.120000 2.960000 -20.568405 133.266663 18183.062500
1.000000 5.120000 3.000000 -85.255966 104.398842 18167.697266
1.000000 5.120000 3.040000 -115.375587 38.420250 14787.641602
1.000000 5.120000 3.080000 -95.006714 -27.663712 9791.556641
1.000000 5.120000 3.120000 -42.146526 -58.942715 5250.573242
1.000000 5.120000 3.160000 7.290436 -47.865482 2344.254883
1.000000 5.120000 3.200000 28.041933 -15.379282 1022.872314
1.000000 5.160000 2.800000 19.906513 34.548592 1589.874512
1.000000 5.160000 2.840000 8.994469 46.157681 2211.431885
1.000000 5.160000 2.880000 -8.976181 49.282104 2509.297607
1.000000 5.160000 2.920000 -26.771820 41.649628 2451.421875
1.000000 5.160000 2.960000 -38.710327 25.858673 2167.160400
1.000000 5.160000 3.000000 -42.130829 5.894989 1809.757568
1.000000 5.160000 3.040000 -35.759026 -14.335236 1484.206909
1.000000 5.160000 3.080000 -19.311485 -29.773991 1259.424072
1.000000 5.160000 3.120000 4.026962 -34.158676 1183.031616
1.000000 5.160000 3.160000 25.918776 -23.892452 1242.632202
1.000000 5.160000 3.200000 36.333557 -2.796024 1327.945068
1.000000 5.200000 2.800000 -1.893723 36.275688 1319.511719
1.000000 5.200000 2.840000 -26.073196 23.577579 1235.713867
1.000000 5.200000 2.880000 -30.584278 -6.029341 971.751038
1.000000 5.200000 2.920000 -9.523758 -28.210590 886.539368
1.000000 5.200000 2.960000 19.241556 -25.500969 1020.536926
1.000000 5.200000 3.000000 32.324680 -4.263290 1063.060669
1.000000 5.200000 3.040000 24.117134 13.241379 756.970276
1.000000 5.200000 3.080000 10.569832 12.693041 272.834625
1.000000 5.200000 3.120000 10.291790 1.684433 108.758255
1.000000 5.200000 3.160000 24.105251 -0.520189 581.333679
1.000000 5.200000 3.200000 35.002480 14.774961 1443.473022
1.040000 4.800000 2.800000 -29.078260 -10.812965 962.465454
1.040000 4.800000 2.840000 -18.834867 -10.368135 462.250458
1.040000 4.800000 2.880000 -16.683102 -6.068245 315.149475
1.040000 4.800000 2.920000 -19.081945 -7.864334 425.968384
1.040000 4.800000 2.960000 -15.124504 -15.650879 473.700623
1.040000 4.800000 3.000000 -0.626572 -17.841965 318.728271
1.040000 4.800000 3.040000 14.044518 -4.300934 215.746506
1.040000 4.800000 3.080000 12.749451 19.941277 560.203003
1.040000 4.800000 3.120000 -9.008615 36.318604 1400.196167
1.040000 4.800000 3.160000 -36.753769 29.930340 2246.664795
1.040000 4.800000 3.200000 -49.168240 5.085536 2443.378662
1.040000 4.840000 2.800000 -23.167051 -23.248110 1077.186890
1.040000 4.840000 2.840000 -35.646000 -11.926205 1412.871704
1.040000 4.840000 2.880000 -60.000683 -27.057640 4332.197754
1.040000 4.840000 2.920000 -61.739777 -69.793976 8682.999023
1.040000 4.840000 2.960000 -20.849808 -106.641830 11807.195312
1.040000 4.840000 3.000000 42.202255 -99.295105 11640.547852
1.040000 4.840000 3.040000 80.514359 -44.137177 8430.652344
1.040000 4.840000 3.080000 63.877434 19.848396 4474.285645
1.040000 4.840000 3.120000 8.247816 45.251915 2115.762207
1.040000 4.840000 3.160000 -38.869347 19.565166 1893.621826
1.040000 4.840000 3.200000 -42.970520 -25.471481 2495.261963
1.040000 4.880000 2.800000 -12.301286 -30.735752 1096.008057
1.040000 4.880000 2.840000 -51.643990 -36.145069 3973.567627
1.040000 4.880000 2.880000 -73.863884 -94.439621 14374.714844
1.040000 4.880000 2.920000 -29.851143 -167.845764 29063.291016
1.040000 4.880000 2.960000 72.634064 -187.206268 40321.894531
1.040000 4.880000 3.000000 165.461578 -118.608383 41445.480469
1.040000 4.880000 3.040000 178.628677 -1.836075 31911.576172
1.040000 4.880000 3.080000 105.264954 81.198174 17673.855469
1.040000 4.880000 3.120000 8.175858 79.385086 6368.836426
1.040000 4.880000 3.160000 -38.920708 15.384401 1751.501343
1.040000 4.880000 3.200000 -16.832710 -42.156643 2060.522705
1.040000 4.920000 2.800000 0.311301 -33.063652 1093.302002
1.040000 4.920000 2.840000 -42.069515 -76.316345 7594.028809
1.040000 4.920000 2.880000 -20.717209 -165.211517 27724.048828
1.040000 4.920000 2.920000 88.779427 -218.586655 55661.910156
1.040000 4.920000 2.960000 224.140503 -165.101013 77497.312500
1.040000 4.920000 3.000000 283.587921 -18.067543 80748.546875
1.040000 4.920000 3.040000 218.143204 126.914566 63693.765625
1.040000 4.920000 3.080000 78.546135 174.188263 36511.046875
1.040000 4.920000 3.120000 -30.768673 111.271927 13328.152344
1.040000 4.920000 3.160000 -45.253788 12.710428 2209.460205
1.040000 4.920000 3.200000 9.997103 -35.522312 1361.776733
1.040000 4.960000 2.800000 13.721127 -30.614685 1125.528198
1.040000 4.960000 2.840000 2.393494 -103.279282 10672.338867
1.040000 4.960000 2.880000 82.647598 -176.812378 38093.242188
1.040000 4.960000 2.920000 224.530609 -158.677643 75592.593750
1.040000 4.960000 2.960000 323.336578 -21.181301 104995.187500
1.040000 4.960000 3.000000 290.919189 159.055145 109932.515625
1.040000 4.960000 3.040000 139.903824 261.265747 87832.867188
1.040000 4.960000 3.080000 -23.813133 225.881744 51589.628906
1.040000 4.960000 3.120000 -94.658760 103.313171 19633.892578
1.040000 4.960000 3.160000 -55.929729 0.833691 3128.829590
1.040000 4.960000 3.200000 19.899162 -16.490616 667.917053
1.040000 5.000000 2.800000 26.929302 -21.816193 1201.133545
1.040000 5.000000 2.840000 60.409592 -89.238037 11612.746094
1.040000 5.000000 2.880000 169.699097 -104.984558 39819.539062
1.040000 5.000000 2.920000 278.544159 -10.370817 77694.406250
1.040000 5.000000 2.960000 285.915527 159.483063 107182.531250
1.040000 5.000000 3.000000 161.145157 293.764709 112265.468750
1.040000 5.000000 3.040000 -20.714867 300.048889 90458.445312
1.040000 5.000000 3.080000 -141.312988 185.225067 54277.687500
1.040000 5.000000 3.120000 -140.199173 45.314617 21709.222656
1.040000 5.000000 3.160000 -58.231674 -23.550697 3945.563232
1.040000 5.000000 3.200000 13.375061 -4.582577 199.892273
1.040000 5.040000 2.800000 35.663948 -5.212908 1299.091675
1.040000 5.040000 2.840000 93.576462 -35.266792 10000.300781
1.040000 5.040000 2.880000 178.844406 8.356226 32055.148438
1.040000 5.040000 2.920000 209.971436 129.514008 60861.882812
1.040000 5.040000 2.960000 133.014893 255.321381 82881.968750
1.040000 5.040000 3.000000 -21.424362 293.370483 86525.242188
1.040000 5.040000 3.040000 -157.506897 213.114807 70226.343750
1.040000 5.040000 3.080000 -194.474457 73.255875 43186.734375
1.040000 5.040000 3.120000 -132.112564 -31.105011 18421.251953
1.040000 5.040000 3.160000 -41.134571 -49.368336 4129.285645
1.040000 5.040000 3.200000 6.770479 -7.988453 109.654770
1.040000 5.080000 2.800000 33.775581 15.916664 1394.130127
1.040000 5.080000 2.840000 78.874786 25.502449 6871.606934
1.040000 5.080000 2.880000 107.834602 87.812195 19339.283203
1.040000 5.080000 2.920000 73.602921 171.468903 34818.972656
1.040000 5.080000 2.960000 -24.908295 213.472931 46191.113281
1.040000 5.080000 3.000000 -133.659500 172.987793 47789.640625
1.040000 5.080000 3.040000 -185.353943 69.245895 39151.078125
1.040000 5.080000 3.080000 -154.650101 -33.166046 25016.640625
1.040000 5.080000 3.120000 -75.706146 -77.937408 11805.660156
1.040000 5.080000 3.160000 -8.060913 -59.253044 3575.901611
1.040000 5.080000 3.200000 14.002053 -16.121384 455.956512
1.040000 5.120000 2.800000 19.219864 32.848145 1448.403809
1.040000 5.120000 2.840000 29.411114 54.608932 3847.149170
1.040000 5.120000 2.880000 15.108021 88.703781 8096.613281
1.040000 5.120000 2.920000 -29.760330 108.749313 12712.089844
1.040000 5.120000 2.960000 -85.794693 91.408722 15716.284180
1.040000 5.120000 3.000000 -120.232063 37.212372 15840.509766
1.040000 5.120000 3.040000 -111.719872 -27.413818 13232.847656
1.040000 5.120000 3.080000 -66.415825 -69.267471 9209.044922
1.040000 5.120000 3.120000 -12.023167 -72.097870 5342.659668
1.040000 5.120000 3.160000 23.814142 -45.209991 2611.056641
1.040000 5.120000 3.200000 31.567146 -11.940714 1139.065430
1.040000 5.160000 2.800000 -1.814363 37.347351 1398.116455
1.040000 5.160000 2.840000 -17.217709 40.526062 1938.811157
1.040000 5.160000 2.880000 -33.384026 31.965660 2136.296631
1.040000 5.160000 2.920000 -41.879585 15.026459 1979.694092
1.040000 5.160000 2.960000 -40.609329 -3.031357 1658.306763
1.040000 5.160000 3.000000 -32.529240 -17.858833 1377.089355
1.040000 5.160000 3.040000 -19.893120 -29.033882 1238.702515
1.040000 5.160000 3.080000 -2.228989 -35.424175 1259.840576
1.040000 5.160000 3.120000 19.319588 -32.410873 1423.711182
1.040000 5.160000 3.160000 37.577454 -16.165583 1673.391113
1.040000 5.160000 3.200000 42.258595 9.314095 1872.541138
1.040000 5.200000 2.800000 -18.453777 29.185373 1192.327881
1.040000 5.200000 2.840000 -32.184860 5.898756 1070.660522
1.040000 5.200000 2.880000 -20.076803 -21.894909 882.465088
1.040000 5.200000 2.920000 10.440763 -29.425564 974.873352
1.040000 5.200000 2.960000 33.837341 -10.686264 1259.161987
1.040000 5.200000 3.000000 32.489140 15.323673 1290.359131
1.040000 5.200000 3.040000 14.356552 24.819605 822.123352
1.040000 5.200000 3.080000 3.245907 14.153816 210.866425
1.040000 5.200000 3.120000 12.386120 2.546263 159.899429
1.040000 5.200000 3.160000 30.125944 9.972797 1007.029175
1.040000 5.200000 3.200000 33.067329 34.593815 2290.180176
1.080000 4.800000 2.800000 -24.633287 -20.466057 1025.658325
1.080000 4.800000 2.840000 -15.262247 -19.770535 623.810181
1.080000 4.800000 2.880000 -11.445019 -16.779121 412.527344
1.080000 4.800000 2.920000 -9.427795 -17.121666 382.034790
1.080000 4.800000 2.960000 -2.882996 -18.451756 348.778961
1.080000 4.800000 3.000000 7.509064 -12.795357 220.107208
1.080000 4.800000 3.040000 12.160252 2.976250 156.729782
1.080000 4.800000 3.080000 2.027937 20.404236 420.445374
1.080000 4.800000 3.120000 -20.089094 25.294624 1043.389648
1.080000 4.800000 3.160000 -39.360481 11.587764 1683.523682
1.080000 4.800000 3.200000 -41.728027 -11.271444 1868.273682
1.080000 4.840000 2.800000 -15.275057 -34.383621 1415.560791
1.080000 4.840000 2.840000 -23.282299 -35.194473 1780.716431
1.080000 4.840000 2.880000 -27.742897 -54.859734 3779.258789
1.080000 4.840000 2.920000 -7.577454 -80.955513 6611.212891
1.080000 4.840000 2.960000 36.135468 -84.934509 8519.642578
1.080000 4.840000 3.000000 74.816475 -50.929615 8191.330566
1.080000 4.840000 3.040000 76.501358 4.122162 5869.450195
1.080000 4.840000 3.080000 37.079689 41.907188 3131.115723
1.080000 4.840000 3.120000 -13.389404 36.775024 1531.678589
1.080000 4.840000 3.160000 -37.206989 -0.887194 1385.147217
1.080000 4.840000 3.200000 -22.800074 -35.419624 1774.393188
1.080000 4.880000 2.800000 1.801790 -41.085770 1691.286987
1.080000 4.880000 2.840000 -15.458881 -61.985809 4081.217529
1.080000 4.880000 2.880000 -0.007748 -107.126938 11476.180664
1.080000 4.880000 2.920000 63.078518 -132.374802 21501.988281
1.080000 4.880000 2.960000 139.399734 -97.075645 28855.964844
1.080000 4.880000 3.000000 170.336090 -8.604782 29088.425781
1.080000 4.880000 3.040000 127.111130 76.788498 22053.712891
1.080000 4.880000 3.080000 40.350090 101.771919 11985.653320
1.080000 4.880000 3.120000 -25.978626 58.904854 4144.670898
1.080000 4.880000 3.160000 -31.662853 -5.199150 1029.567383
1.080000 4.880000 3.200000 7.427727 -35.738251 1332.393677
1.080000 4.920000 2.800000 20.887270 -36.997913 1805.123657
1.080000 4.920000 2.840000 17.341728 -81.309883 6912.032227
1.080000 4.920000 2.880000 73.378487 -125.962563 21250.968750
1.080000 4.920000 2.920000 169.530701 -108.554543 40524.746094
1.080000 4.920000 2.960000 234.427551 -10.254852 55061.437500
1.080000 4.920000 3.000000 207.572311 115.588860 56447.050781
1.080000 4.920000 3.040000 98.727280 184.674103 43851.601562
1.080000 4.920000 3.080000 -16.702480 155.951660 24599.892578
1.080000 4.920000 3.120000 -63.924576 66.642212 8527.536133
1.080000 4.920000 3.160000 -32.326630 -5.599756 1076.368286
1.080000 4.920000 3.200000 24.149040 -14.335176 788.673462
1.080000 4.960000 2.800000 35.307060 -22.674507 1760.721802
1.080000 4.960000 2.840000 62.749310 -71.191246 9005.668945
1.080000 4.960000 2.880000 148.703796 -79.447739 28424.761719
1.080000 4.960000 2.920000 233.039856 -0.778542 54308.179688
1.080000 4.960000 2.960000 235.369904 136.414642 74007.945312
1.080000 4.960000 3.000000 132.081451 242.912445 76451.968750
1.080000 4.960000 3.040000 -15.051006 245.065765 60283.761719
1.080000 4.960000 3.080000 -110.134995 150.423645 34756.992188
1.080000 4.960000 3.120000 -105.899925 38.479713 12695.482422
1.080000 4.960000 3.160000 -38.292732 -13.095934 1637.836914
1.080000 4.960000 3.200000 16.952488 6.567030 330.512726
1.080000 5.000000 2.800000 39.945824 -2.464576 1601.742920
1.080000 5.000000 2.840000 92.127106 -28.133089 9278.874023
1.080000 5.000000 2.880000 169.881195 13.621300 29045.160156
1.080000 5.000000 2.920000 197.276596 126.954834 55035.585938
1.080000 5.000000 2.960000 124.117859 243.684326 74787.296875
1.080000 5.000000 3.000000 -20.074675 277.690277 77514.882812
1.080000 5.000000 3.040000 -145.123169 201.992401 61861.664062
1.080000 5.000000 3.080000 -176.892426 73.417664 36681.082031
1.080000 5.000000 3.120000 -118.258644 -19.148312 14351.764648
1.080000 5.000000 3.160000 -37.457039 -31.484753 2394.319336
1.080000 5.000000 3.200000 -0.014914 7.589583 57.601997
1.080000 5.040000 2.800000 33.174755 17.045162 1391.101929
1.080000 5.040000 2.840000 83.595001 25.326628 7629.562012
1.080000 5.040000 2.880000 118.308083 93.986969 22830.353516
1.080000 5.040000 2.920000 82.293945 188.578186 42334.023438
1.080000 5.040000 2.960000 -26.621983 237.192490 56969.007812
1.080000 5.040000 3.000000 -146.986511 193.540588 59062.996094
1.080000 5.040000 3.040000 -203.149200 80.562881 47759.976562
1.080000 5.040000 3.080000 -168.968933 -28.394329 29356.738281
1.080000 5.040000 3.120000 -85.604279 -72.510612 12585.880859
1.080000 5.040000 3.160000 -19.314934 -50.096245 2882.700439
1.080000 5.040000 3.200000 -3.426773 -7.762835 72.004372
1.080000 5.080000 2.800000 17.691479 29.551910 1186.303833
1.080000 5.080000 2.840000 41.922516 56.905388 4995.720703
1.080000 5.080000 2.880000 31.245232 111.254562 13353.842773
1.080000 5.080000 2.920000 -30.399067 150.378326 23537.744141
1.080000 5.080000 2.960000 -114.810432 133.190796 30921.224609
1.080000 5.080000 3.000000 -169.005829 58.038059 31931.386719
1.080000 5.080000 3.040000 -158.895020 -33.056679 26340.371094
1.080000 5.080000 3.080000 -96.531937 -88.631470 17173.953125
1.080000 5.080000 3.120000 -26.716211 -88.156143 8485.261719
1.080000 5.080000 3.160000 11.962994 -52.179604 2865.824219
1.080000 5.080000 3.200000 14.235094 -17.105366 495.231445
1.080000 5.120000 2.800000 -0.489205 31.909935 1018.483276
1.080000 5.120000 2.840000 -4.531811 51.010368 2622.594971
1.080000 5.120000 2.880000 -30.482277 66.174728 5308.263672
1.080000 5.120000 2.920000 -69.097153 57.772709 8112.102539
1.080000 5.120000 2.960000 -97.329834 20.823326 9906.708008
1.080000 5.120000 3.000000 -95.851921 -29.329666 10047.820312
1.080000 5.120000 3.040000 -63.604500 -67.951759 8662.973633
1.080000 5.120000 3.080000 -17.497654 -78.375885 6448.947266
1.080000 5.120000 3.120000 20.767525 -61.431614 4205.133301
1.080000 5.120000 3.160000 38.503181 -31.123497 2451.166992
1.080000 5.120000 3.200000 36.280899 -3.049206 1325.601196
1.080000 5.160000 2.800000 -15.106251 25.732197 890.344727
1.080000 5.160000 2.840000 -27.889904 20.478943 1197.233887
1.080000 5.160000 2.880000 -34.871269 5.756016 1249.137085
1.080000 5.160000 2.920000 -31.119461 -10.398827 1076.556396
1.080000 5.160000 2.960000 -20.384275 -20.632095 841.202026
1.080000 5.160000 3.000000 -9.004261 -24.797012 695.968567
1.080000 5.160000 3.040000 1.840546 -26.826921 723.071350
1.080000 5.160000 3.080000 15.621689 -26.700640 956.961304
1.080000 5.160000 3.120000 32.362297 -18.468563 1388.406006
1.080000 5.160000 3.160000 43.657730 1.944839 1909.779785
1.080000 5.160000 3.200000 38.744968 28.055737 2288.296875
1.080000 5.200000 2.800000 -23.253780 16.025373 797.550903
1.080000 5.200000 2.840000 -23.148338 -7.249491 588.400696
1.080000 5.200000 2.880000 -1.314021 -22.411198 503.988434
1.080000 5.200000 2.920000 25.191036 -13.484627 816.423462
1.080000 5.200000 2.960000 33.510490 12.172253 1271.116699
1.080000 5.200000 3.000000 19.092773 30.914057 1320.212891
1.080000 5.200000 3.040000 0.472534 27.884369 777.761292
1.080000 5.200000 3.080000 -1.143520 12.859798 166.682053
1.080000 5.200000 3.120000 14.574989 9.097496 295.194763
1.080000 5.200000 3.160000 26.379406 27.063055 1428.281982
1.080000 5.200000 3.200000 14.766554 51.842941 2905.741699
1.120000 4.800000 2.800000 -16.778393 -26.427551 979.929932
1.120000 4.800000 2.840000 -6.134247 -25.261580 675.776367
1.120000 4.800000 2.880000 0.043957 -20.075439 403.025177
1.120000 4.800000 2.920000 2.740288 -15.309753 241.897720
1.120000 4.800000 2.960000 5.228233 -11.084078 150.191208
1.120000 4.800000 3.000000 7.448128 -4.273556 73.737885
1.120000 4.800000 3.040000 4.942695 5.686474 56.766220
1.120000 4.800000 3.080000 -5.692600 13.385937 211.589005
1.120000 4.800000 3.120000 -20.842567 11.458239 565.703857
1.120000 4.800000 3.160000 -30.945845 -1.479612 959.834595
1.120000 4.800000 3.200000 -28.714506 -17.697567 1137.726807
1.120000 4.840000 2.800000 -1.704971 -39.921421 1596.626831
1.120000 4.840000 2.840000 2.221251 -42.740398 1831.675659
1.120000 4.840000 2.880000 11.684361 -49.898083 2626.342773
1.120000 4.840000 2.920000 32.053688 -51.317337 3660.907959
1.120000 4.840000 2.960000 54.831718 -35.067272 4236.230957
1.120000 4.840000 3.000000 62.050610 -2.384560 3855.964111
1.120000 4.840000 3.040000 43.171188 28.628448 2683.339600
1.120000 4.840000 3.080000 7.720901 36.925308 1423.090698
1.120000 4.840000 3.120000 -20.470959 17.708220 732.641174
1.120000 4.840000 3.160000 -23.545523 -12.287939 705.385132
1.120000 4.840000 3.200000 -4.988107 -29.577267 899.695923
1.120000 4.880000 2.800000 21.196152 -40.736103 2108.707031
1.120000 4.880000 2.840000 26.967575 -53.524757 3592.149902
1.120000 4.880000 2.880000 54.049114 -64.905380 7134.015137
1.120000 4.880000 2.920000 95.126328 -50.046379 11553.658203
1.120000 4.880000 2.960000 120.272255 -1.166290 14466.775391
1.120000 4.880000 3.000000 103.079102 58.115555 14002.718750
1.120000 4.880000 3.040000 48.102592 89.312531 10290.587891
1.120000 4.880000 3.080000 -9.177517 72.856277 5392.264160
1.120000 4.880000 3.120000 -32.146706 26.268547 1723.447266
1.120000 4.880000 3.160000 -14.468885 -11.855316 349.897156
1.120000 4.880000 3.200000 17.242668 -16.661076 574.901001
1.120000 4.920000 2.800000 40.792702 -25.844137 2331.963867
1.120000 4.920000 2.840000 59.228794 -43.189518 5373.384766
1.120000 4.920000 2.880000 104.522133 -39.125992 12455.718750
1.120000 4.920000 2.920000 145.755142 9.673914 21338.144531
1.120000 4.920000 2.960000 140.988602 87.273193 27494.394531
1.120000 4.920000 3.000000 78.628105 145.106888 27238.388672
1.120000 4.920000 3.040000 -6.255856 143.187866 20541.900391
1.120000 4.920000 3.080000 -59.711258 86.768326 11094.176758
1.120000 4.920000 3.120000 -55.341507 21.781902 3537.133545
1.120000 4.920000 3.160000 -14.597756 -6.843088 259.922363
1.120000 4.920000 3.200000 17.696442 6.921727 361.074341
1.120000 4.960000 2.800000 46.856499 -1.538683 2197.898926
1.120000 4.960000 2.840000 79.122696 -9.636410 6353.261230
1.120000 4.960000 2.880000 124.221130 23.133139 15966.031250
1.120000 4.960000 2.920000 135.521225 98.374062 28043.457031
1.120000 4.960000 2.960000 82.782753 172.472061 36599.593750
1.120000 4.960000 3.000000 -13.491165 191.137604 36715.593750
1.120000 4.960000 3.040000 -94.555939 138.784439 28201.945312
1.120000 4.960000 3.080000 -113.289635 54.008842 15751.496094
1.120000 4.960000 3.120000 -73.577576 -4.843895 5437.123047
1.120000 4.960000 3.160000 -21.754765 -10.216026 577.636963
1.120000 4.960000 3.200000 -0.790323 16.626301 277.058472
1.120000 5.000000 2.800000 37.030525 20.436977 1788.929810
1.120000 5.000000 2.840000 71.069061 31.194685 6023.919922
1.120000 5.000000 2.880000 92.239197 84.756683 15691.764648
1.120000 5.000000 2.920000 60.548843 155.249115 27768.449219
1.120000 5.000000 2.960000 -24.295788 189.233444 36399.582031
1.120000 5.000000 3.000000 -115.197945 153.444550 36815.796875
1.120000 5.000000 3.040000 -155.786835 67.206039 28786.189453
1.120000 5.000000 3.080000 -128.649826 -13.231443 16725.847656
1.120000 5.000000 3.120000 -67.268417 -43.432854 6411.452637
1.120000 5.000000 3.160000 -21.930075 -25.317949 1121.926758
1.120000 5.000000 3.200000 -15.061337 3.587237 239.712128
1.120000 5.040000 2.800000 18.053734 30.893358 1280.336914
1.120000 5.040000 2.840000 38.004112 55.907429 4569.953125
1.120000 5.040000 2.880000 26.976259 105.251251 11805.544922
1.120000 5.040000 2.920000 -30.164106 140.575531 20671.353516
1.120000 5.040000 2.960000 -107.393982 124.330353 26991.503906
1.120000 5.040000 3.000000 -156.029114 55.921539 27472.302734
1.120000 5.040000 3.040000 -146.109451 -25.030834 21974.515625
1.120000 5.040000 3.080000 -91.071915 -72.065498 13487.529297
1.120000 5.040000 3.120000 -32.990444 -69.526794 5922.344727
1.120000 5.040000 3.160000 -4.750660 -39.533253 1585.446777
1.120000 5.040000 3.200000 -6.350422 -15.382477 276.948456
1.120000 5.080000 2.800000 0.160193 28.932938 837.140503
1.120000 5.080000 2.840000 0.207060 52.235352 2728.574951
1.120000 5.080000 2.880000 -27.940006 75.585861 6493.866699
1.120000 5.080000 2.920000 -76.044670 71.312485 10868.262695
1.120000 5.080000 2.960000 -114.167328 29.652218 13913.432617
1.120000 5.080000 3.000000 -115.398987 -30.249050 14231.930664
1.120000 5.080000 3.040000 -78.433792 -75.328560 11826.251953
1.120000 5.080000 3.080000 -27.190338 -85.048828 7972.617676
1.120000 5.080000 3.120000 10.388117 -64.693268 4293.131836
1.120000 5.080000 3.160000 23.094620 -35.627682 1802.693115
1.120000 5.080000 3.200000 18.916164 -15.126143 586.621460
1.120000 5.120000 2.800000 -10.577024 20.801067 544.557861
1.120000 5.120000 2.840000 -21.204323 28.388727 1255.543213
1.120000 5.120000 2.880000 -41.022575 24.809727 2298.374268
1.120000 5.120000 2.920000 -57.236755 4.605995 3297.261230
1.120000 5.120000 2.960000 -57.296104 -25.044350 3910.062988
1.120000 5.120000 3.000000 -38.688229 -50.015659 3998.345215
1.120000 5.120000 3.040000 -9.598267 -59.615437 3646.126953
1.120000 5.120000 3.080000 18.173840 -52.197681 3054.886230
1.120000 5.120000 3.120000 36.265461 -33.125221 2412.463867
1.120000 5.120000 3.160000 41.557384 -9.794598 1822.950439
1.120000 5.120000 3.200000 34.590652 10.980289 1317.079956
1.120000 5.160000 2.800000 -15.448698 13.284093 415.129395
1.120000 5.160000 2.840000 -20.923006 4.231974 455.681793
1.120000 5.160000 2.880000 -17.910101 -7.841793 382.265442
1.120000 5.160000 2.920000 -7.646850 -14.652317 273.164703
1.120000 5.160000 2.960000 2.425880 -13.779099 195.748459
1.120000 5.160000 3.000000 7.853851 -10.449023 170.865067
1.120000 5.160000 3.040000 12.169296 -9.595234 240.160278
1.120000 5.160000 3.080000 21.047792 -8.181782 509.951111
1.120000 5.160000 3.120000 32.442635 1.881687 1056.065308
1.120000 5.160000 3.160000 35.450104 22.455307 1760.950684
1.120000 5.160000 3.200000 21.250610 42.864288 2288.935547
1.120000 5.200000 2.800000 -19.503960 7.838204 441.841888
1.120000 5.200000 2.840000 -10.658538 -6.868967 160.787140
1.120000 5.200000 2.880000 9.177152 -7.651361 142.763443
1.120000 5.200000 2.920000 22.035896 9.248638 571.118042
1.120000 5.200000 2.960000 15.694984 29.101162 1093.210205
1.120000 5.200000 3.000000 -2.294109 33.885998 1153.523804
1.120000 5.200000 3.040000 -12.262939 22.221704 644.183838
1.120000 5.200000 3.080000 -4.304523 11.420647 148.960083
1.120000 5.200000 3.120000 9.841290 18.280296 431.020203
1.120000 5.200000 3.160000 8.983263 39.356232 1629.611938
1.120000 5.200000 3.200000 -13.797545 52.986473 2997.938721
1.160000 4.800000 2.800000 -8.026224 -27.397717 815.055176
1.160000 4.800000 2.840000 3.547367 -23.345177 557.581055
1.160000 4.800000 2.880000 8.558218 -14.145639 273.342224
1.160000 4.800000 2.920000 6.925594 -6.338472 88.140091
1.160000 4.800000 2.960000 3.237754 -2.818035 18.424372
1.160000 4.800000 3.000000 1.026979 -1.291439 2.722500
1.160000 4.800000 3.040000 -0.864516 1.438194 2.815791
1.160000 4.800000 3.080000 -5.883128 4.526859 55.103653
1.160000 4.800000 3.120000 -14.205866 3.441442 213.650146
1.160000 4.800000 3.160000 -20.772387 -4.562188 452.305603
1.160000 4.800000 3.200000 -19.692694 -16.066746 645.942505
1.160000 4.840000 2.800000 12.432905 -36.392601 1478.998535
1.160000 4.840000 2.840000 23.240322 -30.415308 1465.203491
1.160000 4.840000 2.880000 30.152061 -21.557484 1373.871826
1.160000 4.840000 2.920000 33.783073 -11.055063 1263.510498
1.160000 4.840000 2.960000 33.309010 1.221176 1110.981323
1.160000 4.840000 3.000000 26.256041 13.393368 868.761963
1.160000 4.840000 3.040000 12.256065 20.220938 559.097473
1.160000 4.840000 3.080000 -3.641121 16.718134 292.753754
1.160000 4.840000 3.120000 -12.957871 3.708286 181.657822
1.160000 4.840000 3.160000 -10.509155 -10.960047 230.564972
1.160000 4.840000 3.200000 0.592688 -18.036461 325.665222
1.160000 4.880000 2.800000 36.203293 -27.908684 2089.573242
1.160000 4.880000 2.840000 46.933197 -20.089746 2606.322998
1.160000 4.880000 2.880000 56.637165 -7.032551 3257.225342
1.160000 4.880000 2.920000 60.600132 13.143120 3845.117676
1.160000 4.880000 2.960000 51.918190 36.135159 4001.248047
1.160000 4.880000 3.000000 29.271145 51.134258 3471.512207
1.160000 4.880000 3.040000 1.674517 48.659626 2370.563232
1.160000 4.880000 3.080000 -16.347855 29.799147 1155.241455
1.160000 4.880000 3.120000 -16.211739 7.136519 313.750366
1.160000 4.880000 3.160000 -2.626645 -4.952093 31.422489
1.160000 4.880000 3.200000 10.719888 -2.054912 119.138657
1.160000 4.920000 2.800000 48.621483 -4.071624 2380.626709
1.160000 4.920000 2.840000 58.805965 7.094579 3508.474609
1.160000 4.920000 2.880000 66.254974 28.197834 5184.839355
1.160000 4.920000 2.920000 59.852539 57.198311 6853.973145
1.160000 4.920000 2.960000 33.506527 80.587494 7617.031738
1.160000 4.920000 3.000000 -4.287634 82.800140 6874.247070
1.160000 4.920000 3.040000 -34.061260 60.645836 4838.086914
1.160000 4.920000 3.080000 -40.658588 28.144608 2445.239746
1.160000 4.920000 3.120000 -26.049929 5.677005 710.827148
1.160000 4.920000 3.160000 -6.928258 3.068145 57.414272
1.160000 4.920000 3.200000 0.788518 12.753527 163.274216
1.160000 4.960000 2.800000 41.688774 21.891087 2217.173584
1.160000 4.960000 2.840000 48.439869 37.044697 3718.730469
1.160000 4.960000 2.880000 45.967819 63.413906 6134.363770
1.160000 4.960000 2.920000 22.848040 90.101334 8640.283203
1.160000 4.960000 2.960000 -17.734224 98.129822 9943.964844
1.160000 4.960000 3.000000 -56.225281 77.624557 9186.853516
1.160000 4.960000 3.040000 -71.592010 38.857101 6635.290527
1.160000 4.960000 3.080000 -59.250977 4.988196 3535.560303
1.160000 4.960000 3.120000 -34.419342 -7.268717 1237.525391
1.160000 4.960000 3.160000 -17.550371 -0.531993 308.298553
1.160000 4.960000 3.200000 -16.382427 8.868565 347.035339
1.160000 5.000000 2.800000 20.694193 35.486298 1687.526978
1.160000 5.000000 2.840000 20.709137 51.925316 3125.106934
1.160000 5.000000 2.880000 5.598031 74.207962 5538.159668
1.160000 5.000000 2.920000 -28.337648 85.353836 8088.299805
1.160000 5.000000 2.960000 -67.049057 70.747467 9500.780273
1.160000 5.000000 3.000000 -88.448967 33.447975 8941.986328
1.160000 5.000000 3.040000 -81.327179 -6.348496 6654.413086
1.160000 5.000000 3.080000 -54.866112 -28.000805 3794.335449
1.160000 5.000000 3.120000 -29.468731 -27.058556 1600.571533
1.160000 5.000000 3.160000 -18.485144 -16.012913 598.113892
1.160000 5.000000 3.200000 -18.897078 -9.816040 453.454193
1.160000 5.040000 2.800000 -0.364429 32.254349 1040.475830
1.160000 5.040000 2.840000 -7.231071 44.646935 2045.637207
1.160000 5.040000 2.880000 -28.579824 54.036514 3736.751221
1.160000 5.040000 2.920000 -58.217216 46.109543 5515.333984
1.160000 5.040000 2.960000 -78.876556 17.695709 6534.649414
1.160000 5.040000 3.000000 -77.019615 -18.331774 6268.074707
1.160000 5.040000 3.040000 -54.724510 -43.373619 4876.042969
1.160000 5.040000 3.080000 -27.068260 -48.335716 3069.032227
1.160000 5.040000 3.120000 -8.415504 -38.998924 1591.736816
1.160000 5.040000 3.160000 -1.690014 -27.661301 768.003723
1.160000 5.040000 3.200000 -0.206062 -21.028690 442.248260
1.160000 5.080000 2.800000 -10.750127 20.137486 521.083557
1.160000 5.080000 2.840000 -20.122484 24.311533 995.965027
1.160000 5.080000 2.880000 -36.268692 20.301929 1727.586304
1.160000 5.080000 2.920000 -49.390217 3.341307 2450.557861
1.160000 5.080000 2.960000 -49.354637 -20.735229 2865.829834
1.160000 5.080000 3.000000 -34.734673 -40.184315 2821.276611
1.160000 5.080000 3.040000 -13.315319 -47.067936 2392.688232
1.160000 5.080000 3.080000 5.323505 -42.140305 1804.145020
1.160000 5.080000 3.120000 16.751825 -31.346939 1263.254272
1.160000 5.080000 3.160000 21.804541 -19.413418 852.318787
1.160000 5.080000 3.200000 22.026154 -7.768723 545.504456
1.160000 5.120000 2.800000 -11.256369 10.741380 242.083069
1.160000 5.120000 2.840000 -16.818333 7.088091 333.097351
1.160000 5.120000 2.880000 -20.231802 -1.765718 412.443573
1.160000 5.120000 2.920000 -17.466766 -12.415194 459.224945
1.160000 5.120000 2.960000 -9.210548 -19.925165 481.846405
1.160000 5.120000 3.000000 0.880550 -22.472866 505.805084
1.160000 5.120000 3.040000 10.577148 -21.302639 565.678467
1.160000 5.120000 3.080000 20.043566 -16.926487 688.250488
1.160000 5.120000 3.120000 28.333382 -7.572243 860.119385
1.160000 5.120000 3.160000 30.909042 7.211386 1007.372986
1.160000 5.120000 3.200000 23.048080 22.304516 1028.705444
1.160000 5.160000 2.800000 -11.007572 8.062296 186.167267
1.160000 5.160000 2.840000 -8.801840 1.286842 79.128342
1.160000 5.160000 2.880000 -1.365842 -1.847305 5.278061
1.160000 5.160000 2.920000 5.465696 1.779907 33.041908
1.160000 5.160000 2.960000 6.210960 7.843858 100.102135
1.160000 5.160000 3.000000 2.901615 9.373177 96.275810
1.160000 5.160000 3.040000 3.292311 5.843498 44.985783
1.160000 5.160000 3.080000 10.974625 5.275484 148.273117
1.160000 5.160000 3.120000 18.900341 15.275453 590.562378
1.160000 5.160000 3.160000 15.247948 32.407249 1282.729736
1.160000 5.160000 3.200000 -3.250965 42.788513 1841.425537
1.160000 5.200000 2.800000 -16.389133 5.808297 302.340027
1.160000 5.200000 2.840000 -6.936068 1.405513 50.084499
1.160000 5.200000 2.880000 2.947727 8.432546 79.796921
1.160000 5.200000 2.920000 2.028912 21.781853 478.565582
1.160000 5.200000 2.960000 -10.112925 28.249718 900.317810
1.160000 5.200000 3.000000 -21.177460 21.287848 901.657227
1.160000 5.200000 3.040000 -19.355604 9.549446 465.831329
1.160000 5.200000 3.080000 -7.548206 8.227813 124.672318
1.160000 5.200000 3.120000 -1.739661 21.588402 469.085510
1.160000 5.200000 3.160000 -13.795298 36.285164 1506.923340
1.160000 5.200000 3.200000 -37.011475 34.268608 2544.186768
1.200000 4.800000 2.800000 -1.896790 -23.914127 575.483337
1.200000 4.800000 2.840000 7.323093 -16.654785 331.009552
1.200000 4.800000 2.880000 7.774569 -6.544744 103.277596
1.200000 4.800000 2.920000 1.767350 -1.432966 5.176919
1.200000 4.800000 2.960000 -3.309436 -3.133137 20.768913
1.200000 4.800000 3.000000 -2.876026 -6.318659 48.196976
1.200000 4.800000 3.040000 0.160749 -4.992663 24.952528
1.200000 4.800000 3.080000 -0.895381 0.342926 0.919306
1.200000 4.800000 3.120000 -8.345127 2.870149 77.878899
1.200000 4.800000 3.160000 -16.501348 -3.026240 281.452637
1.200000 4.800000 3.200000 -16.901871 -14.849915 506.193207
1.200000 4.840000 2.800000 19.950558 -25.850735 1066.285278
1.200000 4.840000 2.840000 26.465298 -10.735944 815.672485
1.200000 4.840000 2.880000 20.754807 2.570174 437.367798
1.200000 4.840000 2.920000 9.903058 6.283432 137.552063
1.200000 4.840000 2.960000 3.297106 2.084348 15.215414
1.200000 4.840000 3.000000 3.673578 -2.093645 17.878525
1.200000 4.840000 3.040000 5.782335 -1.106602 34.659969
1.200000 4.840000 3.080000 3.505514 2.326351 17.700533
1.200000 4.840000 3.120000 -2.713455 1.644053 10.065750
1.200000 4.840000 3.160000 -6.314137 -5.318871 68.158707
1.200000 4.840000 3.200000 -2.144516 -13.184301 178.424759
1.200000 4.880000 2.800000 38.464417 -9.868868 1576.905884
1.200000 4.880000 2.840000 36.094238 10.138156 1405.576294
1.200000 4.880000 2.880000 21.985260 21.374954 940.240356
1.200000 4.880000 2.920000 7.505840 19.558876 438.887268
1.200000 4.880000 2.960000 1.654209 11.037002 124.551811
1.200000 4.880000 3.000000 3.898404 5.423592 44.612900
1.200000 4.880000 3.040000 6.846004 6.330630 86.944656
1.200000 4.880000 3.080000 4.966922 9.387724 112.799683
1.200000 4.880000 3.120000 -0.047355 8.580087 73.620132
1.200000 4.880000 3.160000 -2.363163 3.286418 16.385084
1.200000 4.880000 3.200000 0.843439 -1.445073 2.799626
1.200000 4.920000 2.800000 40.179672 15.861827 1866.003540
1.200000 4.920000 2.840000 26.535564 33.208271 1806.925537
1.200000 4.920000 2.880000 6.672394 36.141041 1350.695679
1.200000 4.920000 2.920000 -6.700476 26.338993 738.638916
1.200000 4.920000 2.960000 -7.967529 14.253396 266.640808
1.200000 4.920000 3.000000 -2.032182 9.297883 90.580399
1.200000 4.920000 3.040000 1.837241 12.264469 153.792664
1.200000 4.920000 3.080000 -1.008443 16.538168 274.527954
1.200000 4.920000 3.120000 -7.418802 15.764523 303.558807
1.200000 4.920000 3.160000 -11.068657 9.802465 218.603485
1.200000 4.920000 3.200000 -9.159107 3.633352 97.090492
1.200000 4.960000 2.800000 23.326754 35.034584 1771.559570
1.200000 4.960000 2.840000 2.680161 42.121899 1781.437622
1.200000 4.960000 2.880000 -15.795609 34.053307 1409.128906
1.200000 4.960000 2.920000 -22.154331 18.339865 827.165039
1.200000 4.960000 2.960000 -16.446575 6.895451 318.037079
1.200000 4.960000 3.000000 -7.753515 6.117144 97.536453
1.200000 4.960000 3.040000 -5.597566 12.348088 183.808029
1.200000 4.960000 3.080000 -11.824785 16.424055 409.575134
1.200000 4.960000 3.120000 -20.113653 12.460459 559.822083
1.200000 4.960000 3.160000 -22.696037 2.610379 521.924194
1.200000 4.960000 3.200000 -17.374027 -5.903755 336.711121
1.200000 5.000000 2.800000 -0.072571 36.504036 1332.549927
1.200000 5.000000 2.840000 -18.880541 31.203213 1330.115356
1.200000 5.000000 2.880000 -28.616327 15.704896 1065.537964
1.200000 5.000000 2.920000 -25.154032 0.455142 632.932495
1.200000 5.000000 2.960000 -14.330603 -5.007147 230.437683
1.200000 5.000000 3.000000 -7.023661 0.086180 49.339237
1.200000 5.000000 3.040000 -9.697888 7.436887 149.356323
1.200000 5.000000 3.080000 -18.972822 7.475230 415.847046
1.200000 5.000000 3.120000 -25.210489 -1.956901 639.398254
1.200000 5.000000 3.160000 -21.580351 -14.006133 661.883301
1.200000 5.000000 3.200000 -10.067087 -19.405083 477.903473
1.200000 5.040000 2.800000 -14.652582 23.496941 766.804382
1.200000 5.040000 2.840000 -24.179077 10.806124 701.400024
1.200000 5.040000 2.880000 -22.723198 -4.169948 533.732239
1.200000 5.040000 2.920000 -12.380623 -12.200482 302.131592
1.200000 5.040000 2.960000 -2.234025 -9.323521 91.918907
1.200000 5.040000 3.000000 -0.857739 -0.866673 1.486839
1.200000 5.040000 3.040000 -8.465740 2.996960 80.650520
1.200000 5.040000 3.080000 -16.470507 -3.334679 282.397675
1.200000 5.040000 3.120000 -15.490484 -15.413353 477.526550
1.200000 5.040000 3.160000 -4.363880 -22.769958 537.514465
1.200000 5.040000 3.200000 8.640440 -18.773552 427.103455
1.200000 5.080000 2.800000 -15.143434 9.479843 319.191010
1.200000 5.080000 2.840000 -14.247556 -2.358595 208.555817
1.200000 5.080000 2.880000 -5.642268 -9.908397 130.011505
1.200000 5.080000 2.920000 4.549282 -8.320305 89.923439
1.200000 5.080000 2.960000 8.117826 -0.053569 65.901978
1.200000 5.080000 3.000000 2.477151 6.146039 43.910065
1.200000 5.080000 3.040000 -5.993483 3.136050 45.756641
1.200000 5.080000 3.080000 -7.467579 -7.179135 107.304718
1.200000 5.080000 3.120000 1.564246 -14.939888 225.647125
1.200000 5.080000 3.160000 14.170527 -11.745798 338.767639
1.200000 5.080000 3.200000 19.241642 0.822746 370.917694
1.200000 5.120000 2.800000 -9.672782 4.574814 114.491638
1.200000 5.120000 2.840000 -3.115200 -1.046871 10.800410
1.200000 5.120000 2.880000 5.519241 0.243230 30.521185
1.200000 5.120000 2.920000 9.372248 7.944302 150.950958
1.200000 5.120000 2.960000 4.690968 15.153192 251.624390
1.200000 5.120000 3.000000 -4.186486 14.363050 223.823898
1.200000 5.120000 3.040000 -7.835617 5.508195 91.737114
1.200000 5.120000 3.080000 -1.155394 -2.632173 8.263268
1.200000 5.120000 3.120000 10.405622 -0.622101 108.663986
1.200000 5.120000 3.160000 15.231647 11.555857 365.540894
1.200000 5.120000 3.200000 7.088321 23.400894 597.846130
1.200000 5.160000 2.800000 -9.635811 6.106276 130.135468
1.200000 5.160000 2.840000 -3.068784 6.329368 49.478329
1.200000 5.160000 2.880000 0.810961 12.616636 159.837158
1.200000 5.160000 2.920000 -2.912511 20.077864 411.603333
1.200000 5.160000 2.960000 -12.150219 20.935383 585.918091
1.200000 5.160000 3.000000 -18.103607 12.940313 495.192322
1.200000 5.160000 3.040000 -13.851290 3.414698 203.518387
1.200000 5.160000 3.080000 -2.772147 2.904593 16.121458
1.200000 5.160000 3.120000 3.288169 13.808952 201.499222
1.200000 5.160000 3.160000 -4.279098 26.252264 707.492065
1.200000 5.160000 3.200000 -20.971684 26.992407 1168.401611
1.200000 5.200000 2.800000 -16.720943 2.986613 288.509796
1.200000 5.200000 2.840000 -12.016272 5.508404 174.733292
1.200000 5.200000 2.880000 -12.724602 12.010917 306.177612
1.200000 5.200000 2.920000 -20.430901 14.982783 641.905518
1.200000 5.200000 2.960000 -28.235098 9.003037 878.275452
1.200000 5.200000 3.000000 -27.170979 -1.733346 741.266602
1.200000 5.200000 3.040000 -16.832632 -6.183927 321.578430
1.200000 5.200000 3.080000 -7.856415 1.750708 64.788231
1.200000 5.200000 3.120000 -11.714637 14.959908 361.031555
1.200000 5.200000 3.160000 -27.724224 18.727669 1119.358154
1.200000 5.200000 3.200000 -41.781532 5.838904 1779.789185
