#kx 	ky 	kz 	real 	imag 	intensity
0.800000 4.800000 2.983333 -95.612411 -55.531410 12225.470703
0.800000 4.800000 2.991667 50.146507 -35.021458 3741.174561
0.800000 4.800000 3.000000 -83.415039 56.964256 10202.995117
0.800000 4.800000 3.008333 -80.575989 -141.188736 26426.750000
0.800000 4.800000 3.016667 97.459091 -59.149223 12996.905273
0.800000 4.900000 2.983333 -7.558754 -97.150459 9495.346680
0.800000 4.900000 2.991667 37.146954 -1.250816 1381.460693
0.800000 4.900000 3.000000 -61.667542 -73.389847 9188.955078
0.800000 4.900000 3.008333 86.823654 -112.856567 20274.951172
0.800000 4.900000 3.016667 85.272591 4.425666 7291.000977
0.800000 5.000000 2.983333 41.164116 -46.130249 3822.484375
0.800000 5.000000 2.991667 97.378700 -46.496834 11644.566406
0.800000 5.000000 3.000000 87.113525 47.734524 9867.350586
0.800000 5.000000 3.008333 61.759636 -7.747780 3874.280762
0.800000 5.000000 3.016667 117.024597 123.392914 28920.566406
0.800000 5.100000 2.983333 12.438759 -9.147293 238.395691
0.800000 5.100000 2.991667 138.631393 109.020920 31104.224609
0.800000 5.100000 3.000000 -151.261902 131.877350 40271.796875
0.800000 5.100000 3.008333 25.285049 -39.281544 2182.373535
0.800000 5.100000 3.016667 -129.123688 126.368294 32641.871094
0.800000 5.200000 2.983333 18.708515 -24.413742 946.039368
0.800000 5.200000 2.991667 -26.253204 133.226425 18438.511719
0.800000 5.200000 3.000000 -127.835274 -133.832016 34252.867188
0.800000 5.200000 3.008333 98.430450 -22.432077 10191.751953
0.800000 5.200000 3.016667 -23.124512 -81.278717 7140.973145
0.900000 4.800000 2.983333 -27.848434 -37.962185 2216.662598
0.900000 4.800000 2.991667 -20.690645 -88.292313 8223.634766
0.900000 4.800000 3.000000 19.135773 -19.348488 740.541748
0.900000 4.800000 3.008333 3.826935 -122.646690 15056.856445
0.900000 4.800000 3.016667 168.421906 32.827900 29443.609375
0.900000 4.900000 2.983333 455.191772 -705.760620 705297.625000
0.900000 4.900000 2.991667 -141.864182 863.055664 764990.500000
0.900000 4.900000 3.000000 -986.482788 -554.769836 1280917.875000
0.900000 4.900000 3.008333 -22.879395 -676.283203 457882.437500
0.900000 4.900000 3.016667 190.279022 -771.681580 631698.562500
0.900000 5.000000 2.983333 1184.620361 460.831909 1615691.375000
0.900000 5.000000 2.991667 -1312.808594 -35.409332 1724720.250000
0.900000 5.000000 3.000000 586.469971 -1590.185303 2872636.250000
0.900000 5.000000 3.008333 986.460754 -322.063202 1076829.500000
0.900000 5.000000 3.016667 1383.916992 122.002205 1930110.750000
0.900000 5.100000 2.983333 -77.382278 799.911621 645846.625000
0.900000 5.100000 2.991667 -138.924911 -692.566284 498948.187500
0.900000 5.100000 3.000000 945.600708 164.580170 921247.312500
0.900000 5.100000 3.008333 344.177185 559.055603 431001.093750
0.900000 5.100000 3.016667 30.033836 908.852112 826914.250000
0.900000 5.200000 2.983333 3.196861 148.065811 21933.705078
0.900000 5.200000 2.991667 -199.958969 -14.838898 40203.781250
0.900000 5.200000 3.000000 46.028305 -132.686676 19724.359375
0.900000 5.200000 3.008333 4.111354 45.655144 2101.295410
0.900000 5.200000 3.016667 -11.107453 -43.091465 1980.249878
1.000000 4.800000 2.983333 -63.205467 -95.886917 13189.232422
1.000000 4.800000 2.991667 140.452576 -108.870300 31579.667969
1.000000 4.800000 3.000000 13.454353 59.504570 3721.813477
1.000000 4.800000 3.008333 63.910397 -118.144318 18042.619141
1.000000 4.800000 3.016667 124.788757 119.692909 29898.626953
1.000000 4.900000 2.983333 1233.646729 441.261536 1716596.000000
1.000000 4.900000 2.991667 -1318.701904 -20.569519 1739397.875000
1.000000 4.900000 3.000000 582.123047 -1700.190796 3229516.000000
1.000000 4.900000 3.008333 1108.406982 -323.616425 1333293.625000
1.000000 4.900000 3.016667 1366.171265 123.951576 1881787.875000
1.000000 5.000000 2.983333 -414.339081 1945.003052 3954713.500000
1.000000 5.000000 2.991667 -201.579895 -2088.039307 4400542.500000
1.000000 5.000000 3.000000 2700.091064 549.859375 7592837.500000
1.000000 5.000000 3.008333 777.662415 1456.927002 2727395.000000
1.000000 5.000000 3.016667 279.091553 2228.364746 5043501.500000
1.000000 5.100000 2.983333 -1265.592529 21.796921 1602199.625000
1.000000 5.100000 2.991667 1201.555786 -326.371460 1550254.625000
1.000000 5.100000 3.000000 -127.538452 1674.243896 2819358.500000
1.000000 5.100000 3.008333 -796.913635 601.880005 997330.875000
1.000000 5.100000 3.016667 -1425.949463 395.120483 2189452.000000
1.000000 5.200000 2.983333 -166.595795 6.722660 27799.351562
1.000000 5.200000 2.991667 -4.889626 -140.621048 19798.187500
1.000000 5.200000 3.000000 50.059235 -59.937641 6098.447754
1.000000 5.200000 3.008333 40.835751 -41.341293 3376.661133
1.000000 5.200000 3.016667 60.667854 -73.833771 9132.014648
1.100000 4.800000 2.983333 94.505119 -92.791245 17541.433594
1.100000 4.800000 2.991667 78.978638 62.002026 10081.875977
1.100000 4.800000 3.000000 -17.939835 36.448280 1650.314819
1.100000 4.800000 3.008333 64.910118 -39.753063 5793.629395
1.100000 4.800000 3.016667 67.040329 147.945450 26382.261719
1.100000 4.900000 2.983333 -144.581635 917.869934 863389.062500
1.100000 4.900000 2.991667 -124.969696 -848.990723 736402.687500
1.100000 4.900000 3.000000 1145.892334 234.312424 1367971.500000
1.100000 4.900000 3.008333 344.176819 674.418701 573298.250000
1.100000 4.900000 3.016667 40.378017 971.394714 945238.062500
1.100000 5.000000 2.983333 -1360.249634 -109.471802 1862263.250000
1.100000 5.000000 2.991667 1306.960693 -349.161041 1830059.625000
1.100000 5.000000 3.000000 -116.523888 1781.516602 3187379.250000
1.100000 5.000000 3.008333 -870.627930 605.245605 1124315.250000
1.100000 5.000000 3.016667 -1376.808472 402.479431 2057591.250000
1.100000 5.100000 2.983333 -62.596596 -853.531738 732434.750000
1.100000 5.100000 2.991667 325.382660 750.317383 668850.062500
1.100000 5.100000 3.000000 -1090.167725 38.681675 1189961.875000
1.100000 5.100000 3.008333 -404.153015 -485.555267 399103.562500
1.100000 5.100000 3.016667 -364.889465 -826.151489 815670.625000
1.100000 5.200000 2.983333 23.395756 -30.711554 1490.560913
1.100000 5.200000 2.991667 30.889116 -3.886173 969.239868
1.100000 5.200000 3.000000 84.630150 1.466654 7164.413086
1.100000 5.200000 3.008333 54.930878 60.260849 6648.771484
1.100000 5.200000 3.016667 63.254150 75.622063 9719.784180
1.200000 4.800000 2.983333 36.145950 57.797852 4647.121094
1.200000 4.800000 2.991667 8.079870 -53.173325 2892.686523
1.200000 4.800000 3.000000 -4.534353 15.567432 262.905304
1.200000 4.800000 3.008333 82.283966 -51.731754 9446.825195
1.200000 4.800000 3.016667 -17.268337 158.440979 25401.738281
1.200000 4.900000 2.983333 -150.796112 -17.119406 23032.541016
1.200000 4.900000 2.991667 81.752960 -39.271221 8225.775391
1.200000 4.900000 3.000000 -42.592384 43.874218 3739.058105
1.200000 4.900000 3.008333 23.948261 16.125820 833.561279
1.200000 4.900000 3.016667 -103.688873 14.010126 10947.666016
1.200000 5.000000 2.983333 77.124283 -170.429077 34994.226562
1.200000 5.000000 2.991667 60.589947 16.803276 3953.491699
1.200000 5.000000 3.000000 -6.665291 -56.289360 3212.917969
1.200000 5.000000 3.008333 70.067841 -26.723846 5623.666504
1.200000 5.000000 3.016667 27.262806 16.635260 1019.992432
1.200000 5.100000 2.983333 121.424614 108.421181 26499.089844
1.200000 5.100000 2.991667 24.381310 11.479578 726.228943
1.200000 5.100000 3.000000 80.488228 40.665764 8132.059570
1.200000 5.100000 3.008333 57.484715 76.170654 9106.460938
1.200000 5.100000 3.016667 -29.002316 100.259697 10893.140625
1.200000 5.200000 2.983333 -92.889709 87.332939 16255.541016
1.200000 5.200000 2.991667 0.455036 -23.057938 531.875488
1.200000 5.200000 3.000000 -26.390392 64.525566 4860.001465
1.200000 5.200000 3.008333 -22.573511 23.548380 1064.089600
1.200000 5.200000 3.016667 -88.948433 35.556934 9176.119141
