#kx 	ky 	kz 	real 	imag 	intensity
3.800000 -8.200000 1.800000 -51.863914 -9.103661 2772.742432
3.800000 -8.200000 1.840000 -34.022636 -22.654030 1670.744873
3.800000 -8.200000 1.880000 -19.055580 -16.752275 643.753906
3.800000 -8.200000 1.920000 -21.185148 -5.620489 480.400421
3.800000 -8.200000 1.960000 -34.033527 -8.030663 1222.772583
3.800000 -8.200000 2.000000 -37.744377 -26.426674 2123.007080
3.800000 -8.200000 2.040000 -20.860846 -43.553936 2332.120117
3.800000 -8.200000 2.080000 6.422191 -40.328629 1667.642822
3.800000 -8.200000 2.120000 21.721153 -15.959103 726.501465
3.800000 -8.200000 2.160000 12.508154 10.693598 270.806946
3.800000 -8.200000 2.200000 -12.203564 19.367634 524.032227
3.800000 -8.160000 1.800000 -36.782120 -33.685844 2487.660400
3.800000 -8.160000 1.840000 -14.614693 -32.574368 1274.678711
3.800000 -8.160000 1.880000 -7.470743 -18.506737 398.311310
3.800000 -8.160000 1.920000 -16.715338 -11.079404 402.155701
3.800000 -8.160000 1.960000 -26.368826 -20.145136 1101.141479
3.800000 -8.160000 2.000000 -20.901171 -36.146286 1743.412842
3.800000 -8.160000 2.040000 -1.808235 -41.049156 1688.302979
3.800000 -8.160000 2.080000 14.206009 -27.705715 969.417297
3.800000 -8.160000 2.120000 12.718665 -7.178722 213.298508
3.800000 -8.160000 2.160000 -4.092996 2.773252 24.443537
3.800000 -8.160000 2.200000 -20.603577 -4.900844 448.525665
3.800000 -8.120000 1.800000 -9.917475 -38.508865 1581.289062
3.800000 -8.120000 1.840000 4.513580 -24.984528 644.599060
3.800000 -8.120000 1.880000 1.086634 -10.961821 121.342285
3.800000 -8.120000 1.920000 -10.332820 -10.110936 208.998199
3.800000 -8.120000 1.960000 -14.554763 -20.618416 636.960205
3.800000 -8.120000 2.000000 -6.713512 -29.469954 913.549377
3.800000 -8.120000 2.040000 4.413528 -27.399647 770.219910
3.800000 -8.120000 2.080000 7.481920 -18.049961 381.780212
3.800000 -8.120000 2.120000 0.904181 -12.592487 159.388275
3.800000 -8.120000 2.160000 -6.489331 -17.126041 335.412720
3.800000 -8.120000 2.200000 -5.740538 -26.878887 755.428345
3.800000 -8.080000 1.800000 7.667744 -22.705256 574.322937
3.800000 -8.080000 1.840000 9.144939 -7.444036 139.043594
3.800000 -8.080000 1.880000 -0.399370 -0.433545 0.347458
3.800000 -8.080000 1.920000 -9.270334 -4.580921 106.923935
3.800000 -8.080000 1.960000 -10.612435 -12.770835 275.718018
3.800000 -8.080000 2.000000 -7.003336 -17.749249 364.082550
3.800000 -8.080000 2.040000 -4.231268 -19.459408 396.572174
3.800000 -8.080000 2.080000 -3.190633 -22.428041 513.197144
3.800000 -8.080000 2.120000 0.483532 -28.039099 786.424866
3.800000 -8.080000 2.160000 9.627872 -31.769119 1101.972900
3.800000 -8.080000 2.200000 20.710381 -28.518204 1242.207764
3.800000 -8.040000 1.800000 4.276497 -3.906710 33.550804
3.800000 -8.040000 1.840000 -1.850467 3.516498 15.789982
3.800000 -8.040000 1.880000 -9.954733 2.965606 107.891525
3.800000 -8.040000 1.920000 -14.774656 -2.266024 223.425323
3.800000 -8.040000 1.960000 -16.725273 -8.495097 351.901459
3.800000 -8.040000 2.000000 -17.317507 -16.188513 561.963989
3.800000 -8.040000 2.040000 -14.127911 -26.798782 917.772583
3.800000 -8.040000 2.080000 -2.907505 -36.954857 1374.115112
3.800000 -8.040000 2.120000 15.416405 -38.866489 1748.269531
3.800000 -8.040000 2.160000 32.187374 -28.040787 1822.312744
3.800000 -8.040000 2.200000 37.699280 -9.556288 1512.558350
3.800000 -8.000000 1.800000 -10.799223 -0.527689 116.901672
3.800000 -8.000000 1.840000 -14.820118 -1.422850 221.660400
3.800000 -8.000000 1.880000 -17.379402 -4.264891 320.232910
3.800000 -8.000000 1.920000 -19.986309 -7.716422 458.995728
3.800000 -8.000000 1.960000 -23.332190 -14.620945 758.163086
3.800000 -8.000000 2.000000 -22.579247 -27.564079 1269.600830
3.800000 -8.000000 2.040000 -10.699953 -41.944244 1873.808594
3.800000 -8.000000 2.080000 12.282038 -46.584419 2320.956543
3.800000 -8.000000 2.120000 35.251045 -33.758499 2382.272461
3.800000 -8.000000 2.160000 43.887711 -8.599058 2000.074951
3.800000 -8.000000 2.200000 33.873981 13.443995 1328.187622
3.800000 -7.960000 1.800000 -17.703533 -12.939125 480.836060
3.800000 -7.960000 1.840000 -15.299973 -14.947136 457.506042
3.800000 -7.960000 1.880000 -14.505407 -14.744815 427.816406
3.800000 -7.960000 1.920000 -17.632200 -16.498600 583.098267
3.800000 -7.960000 1.960000 -20.413296 -25.492411 1066.565674
3.800000 -7.960000 2.000000 -13.801702 -39.930588 1784.938721
3.800000 -7.960000 2.040000 6.257422 -48.688271 2409.702881
3.800000 -7.960000 2.080000 31.231180 -40.294090 2599.000488
3.800000 -7.960000 2.120000 44.838177 -15.334912 2245.621582
3.800000 -7.960000 2.160000 37.526413 11.396863 1538.120117
3.800000 -7.960000 2.200000 16.239658 23.205654 802.228882
3.800000 -7.920000 1.800000 -7.667018 -24.059090 637.622925
3.800000 -7.920000 1.840000 -3.135303 -21.194973 459.057007
3.800000 -7.920000 1.880000 -4.054305 -17.742561 331.235870
3.800000 -7.920000 1.920000 -8.584477 -19.949825 471.688782
3.800000 -7.920000 1.960000 -8.769036 -29.799255 964.891602
3.800000 -7.920000 2.000000 2.554681 -40.154945 1618.946045
3.800000 -7.920000 2.040000 22.757664 -39.211876 2055.482422
3.800000 -7.920000 2.080000 38.827831 -22.002354 1991.704102
3.800000 -7.920000 2.120000 38.161308 2.646527 1463.289551
3.800000 -7.920000 2.160000 21.023058 18.453396 782.496826
3.800000 -7.920000 2.200000 1.344637 16.533096 275.151306
3.800000 -7.880000 1.800000 7.731573 -18.935535 418.331726
3.800000 -7.880000 1.840000 7.699728 -13.086867 230.551910
3.800000 -7.880000 1.880000 3.152599 -10.820322 127.018250
3.800000 -7.880000 1.920000 -1.100945 -15.095097 229.074020
3.800000 -7.880000 1.960000 1.293092 -23.419731 550.155884
3.800000 -7.880000 2.000000 12.236421 -27.938999 930.317627
3.800000 -7.880000 2.040000 25.466843 -21.735092 1120.974365
3.800000 -7.880000 2.080000 30.645351 -6.296450 978.782837
3.800000 -7.880000 2.120000 22.933016 8.179130 592.821411
3.800000 -7.880000 2.160000 8.535150 11.679491 209.259277
3.800000 -7.880000 2.200000 -0.645076 4.275099 18.692596
3.800000 -7.840000 1.800000 9.902926 -1.758718 101.161049
3.800000 -7.840000 1.840000 4.709249 -0.133528 22.194857
3.800000 -7.840000 1.880000 0.109855 -2.693569 7.267381
3.800000 -7.840000 1.920000 -1.348756 -8.124499 67.826637
3.800000 -7.840000 1.960000 1.848906 -13.552795 187.096725
3.800000 -7.840000 2.000000 8.648295 -15.226785 306.647980
3.800000 -7.840000 2.040000 14.929657 -11.246305 349.374023
3.800000 -7.840000 2.080000 16.279202 -4.053070 281.439758
3.800000 -7.840000 2.120000 12.329277 1.035153 153.082626
3.800000 -7.840000 2.160000 7.612212 1.032635 59.012108
3.800000 -7.840000 2.200000 6.802635 -1.221279 47.767365
3.800000 -7.800000 1.800000 -5.610346 8.475188 103.304810
3.800000 -7.800000 1.840000 -9.067165 1.983450 86.147560
3.800000 -7.800000 1.880000 -8.292382 -3.668444 82.221085
3.800000 -7.800000 1.920000 -6.202859 -7.175268 89.959938
3.800000 -7.800000 1.960000 -4.126469 -9.913649 115.308167
3.800000 -7.800000 2.000000 -1.138066 -12.645965 161.215622
3.800000 -7.800000 2.040000 3.552453 -14.178949 213.662521
3.800000 -7.800000 2.080000 8.907137 -12.994797 248.201843
3.800000 -7.800000 2.120000 12.999861 -9.056490 251.016388
3.800000 -7.800000 2.160000 14.613654 -3.459461 225.526749
3.800000 -7.800000 2.200000 13.169174 2.714802 180.797302
3.840000 -8.200000 1.800000 -49.590034 -20.475609 2878.422119
3.840000 -8.200000 1.840000 -32.938545 -26.863153 1806.576782
3.840000 -8.200000 1.880000 -25.280537 -22.066404 1126.031738
3.840000 -8.200000 1.920000 -28.763664 -21.633953 1295.376343
3.840000 -8.200000 1.960000 -29.933807 -33.259235 2002.209595
3.840000 -8.200000 2.000000 -15.975907 -46.797832 2445.266602
3.840000 -8.200000 2.040000 8.808167 -44.776737 2082.540039
3.840000 -8.200000 2.080000 25.112368 -22.397036 1132.258179
3.840000 -8.200000 2.120000 17.953209 4.945847 346.779114
3.840000 -8.200000 2.160000 -7.207315 15.492058 291.949249
3.840000 -8.200000 2.200000 -28.897766 2.175899 839.815430
3.840000 -8.160000 1.800000 -26.469357 -45.069111 2731.851562
3.840000 -8.160000 1.840000 -8.333790 -37.714035 1491.800415
3.840000 -8.160000 1.880000 -5.235905 -27.081047 760.797791
3.840000 -8.160000 1.920000 -9.291636 -26.205830 773.080017
3.840000 -8.160000 1.960000 -6.632008 -33.434631 1161.858154
3.840000 -8.160000 2.000000 6.305351 -35.767029 1319.037842
3.840000 -8.160000 2.040000 18.609749 -24.681931 955.520447
3.840000 -8.160000 2.080000 17.183626 -6.781673 341.268097
3.840000 -8.160000 2.120000 1.705205 2.419655 8.762453
3.840000 -8.160000 2.160000 -14.063730 -5.308121 225.964661
3.840000 -8.160000 2.200000 -15.948780 -22.308228 752.020630
3.840000 -8.120000 1.800000 5.418268 -44.289352 1990.904419
3.840000 -8.120000 1.840000 16.379251 -27.100319 1002.707153
3.840000 -8.120000 1.880000 13.545186 -13.521610 366.306000
3.840000 -8.120000 1.920000 6.885620 -9.503040 137.719543
3.840000 -8.120000 1.960000 4.184917 -10.566816 129.171143
3.840000 -8.120000 2.000000 4.536573 -10.106941 122.730759
3.840000 -8.120000 2.040000 2.662370 -7.776604 67.563782
3.840000 -8.120000 2.080000 -2.467531 -8.743801 82.542763
3.840000 -8.120000 2.120000 -5.365532 -15.794671 278.260559
3.840000 -8.120000 2.160000 -0.439809 -24.369545 594.068115
3.840000 -8.120000 2.200000 10.790567 -26.555904 821.652405
3.840000 -8.080000 1.800000 22.518370 -22.840652 1028.772461
3.840000 -8.080000 1.840000 24.238312 -3.283438 598.276672
3.840000 -8.080000 1.880000 15.061189 11.117217 350.431915
3.840000 -8.080000 1.920000 0.611950 16.630323 276.942139
3.840000 -8.080000 1.960000 -13.942188 12.649475 354.393829
3.840000 -8.080000 2.000000 -23.688051 0.171951 561.153320
3.840000 -8.080000 2.040000 -23.717054 -17.075855 854.083496
3.840000 -8.080000 2.080000 -11.957905 -31.575605 1140.010376
3.840000 -8.080000 2.120000 7.149828 -35.203014 1290.372192
3.840000 -8.080000 2.160000 23.596426 -25.503170 1207.203003
3.840000 -8.080000 2.200000 28.666847 -8.850206 900.114319
3.840000 -8.040000 1.800000 16.993559 -2.381420 294.452209
3.840000 -8.040000 1.840000 12.733917 15.233325 394.206848
3.840000 -8.040000 1.880000 -3.430362 28.253822 810.045898
3.840000 -8.040000 1.920000 -27.724251 27.881943 1546.036865
3.840000 -8.040000 1.960000 -48.728027 8.927372 2454.118652
3.840000 -8.040000 2.000000 -52.049290 -22.938484 3235.302734
3.840000 -8.040000 2.040000 -31.378305 -50.873833 3572.745117
3.840000 -8.040000 2.080000 3.734901 -57.458115 3315.384277
3.840000 -8.040000 2.120000 32.703529 -38.707733 2567.809570
3.840000 -8.040000 2.160000 39.404030 -8.364782 1622.647217
3.840000 -8.040000 2.200000 24.899324 13.034028 789.862305
3.840000 -8.000000 1.800000 2.808768 0.917183 8.730404
3.840000 -8.000000 1.840000 -4.704834 17.048470 312.785767
3.840000 -8.000000 1.880000 -27.826660 25.092968 1403.979980
3.840000 -8.000000 1.920000 -56.328426 11.102518 3296.157471
3.840000 -8.000000 1.960000 -69.028160 -25.448643 5412.520020
3.840000 -8.000000 2.000000 -50.260548 -65.511894 6817.930664
3.840000 -8.000000 2.040000 -5.961309 -82.315475 6811.374512
3.840000 -8.000000 2.080000 37.507263 -63.322208 5416.497070
3.840000 -8.000000 2.120000 53.548046 -22.095100 3355.586670
3.840000 -8.000000 2.160000 37.126022 12.407631 1532.290894
3.840000 -8.000000 2.200000 7.758698 20.197708 468.144806
3.840000 -7.960000 1.800000 -1.125170 -8.144072 67.591911
3.840000 -7.960000 1.840000 -13.011760 7.342670 223.220703
3.840000 -7.960000 1.880000 -40.245678 6.113909 1657.094482
3.840000 -7.960000 1.920000 -62.056618 -22.343624 4350.261719
3.840000 -7.960000 1.960000 -54.733143 -65.477478 7283.017578
3.840000 -7.960000 2.000000 -14.005418 -93.683395 8972.729492
3.840000 -7.960000 2.040000 37.270348 -84.278473 8491.939453
3.840000 -7.960000 2.080000 66.021637 -42.202965 6139.946777
3.840000 -7.960000 2.120000 56.555447 2.929003 3207.097656
3.840000 -7.960000 2.160000 23.255383 22.031704 1026.208740
3.840000 -7.960000 2.200000 -3.737997 10.694206 128.338669
3.840000 -7.920000 1.800000 8.117689 -11.796458 205.053314
3.840000 -7.920000 1.840000 -10.070144 -0.100043 101.417801
3.840000 -7.920000 1.880000 -35.144512 -12.565728 1393.034180
3.840000 -7.920000 1.920000 -41.879272 -47.463146 4006.623535
3.840000 -7.920000 1.960000 -15.983425 -80.945717 6807.678711
3.840000 -7.920000 2.000000 30.633587 -85.602631 8266.227539
3.840000 -7.920000 2.040000 67.464539 -54.664272 7539.646484
3.840000 -7.920000 2.080000 70.755157 -9.087868 5088.881836
3.840000 -7.920000 2.120000 43.614300 20.158813 2308.584961
3.840000 -7.920000 2.160000 11.955892 18.657454 491.043945
3.840000 -7.920000 2.200000 0.238879 -0.910026 0.885210
3.840000 -7.880000 1.800000 15.647846 -1.151087 246.180084
3.840000 -7.880000 1.840000 -6.131443 1.189654 39.009865
3.840000 -7.880000 1.880000 -22.048765 -19.333023 859.913818
3.840000 -7.880000 1.920000 -13.969208 -49.115719 2607.492432
3.840000 -7.880000 1.960000 17.555880 -64.303528 4443.152832
3.840000 -7.880000 2.000000 52.218632 -50.876770 5315.231445
3.840000 -7.880000 2.040000 66.494476 -17.081278 4713.285156
3.840000 -7.880000 2.080000 53.408859 13.589070 3037.169189
3.840000 -7.880000 2.120000 27.501823 22.751423 1273.977539
3.840000 -7.880000 2.160000 10.568821 12.136346 258.990875
3.840000 -7.880000 2.200000 11.828759 -0.443640 140.116364
3.840000 -7.840000 1.800000 7.494685 13.010190 225.435349
3.840000 -7.840000 1.840000 -9.795107 4.356655 114.924568
3.840000 -7.840000 1.880000 -13.391362 -16.473316 450.698730
3.840000 -7.840000 1.920000 1.413836 -33.941895 1154.051147
3.840000 -7.840000 1.960000 25.229027 -34.957455 1858.527466
3.840000 -7.840000 2.000000 42.353462 -18.998751 2154.768311
3.840000 -7.840000 2.040000 43.336784 2.328690 1883.499756
3.840000 -7.840000 2.080000 31.653866 15.578631 1244.661011
3.840000 -7.840000 2.120000 19.092278 16.423088 634.232910
3.840000 -7.840000 2.160000 14.437061 11.737065 346.187439
3.840000 -7.840000 2.200000 15.959809 11.352960 383.605225
3.840000 -7.800000 1.800000 -11.736420 12.607061 296.681549
3.840000 -7.800000 1.840000 -17.120581 -0.821549 293.789246
3.840000 -7.800000 1.880000 -11.638355 -13.976587 330.796295
3.840000 -7.800000 1.920000 0.370555 -19.948853 398.094025
3.840000 -7.800000 1.960000 12.151525 -17.658836 459.494080
3.840000 -7.800000 2.000000 19.461855 -10.487919 488.760254
3.840000 -7.800000 2.040000 21.986794 -2.413252 489.242889
3.840000 -7.800000 2.080000 21.498837 4.688271 484.179871
3.840000 -7.800000 2.120000 19.243568 11.015105 491.647461
3.840000 -7.800000 2.160000 14.805484 16.988518 507.812073
3.840000 -7.800000 2.200000 7.038090 21.445507 509.444458
3.880000 -8.200000 1.800000 -46.375111 -35.279579 3395.299561
3.880000 -8.200000 1.840000 -31.061371 -39.351257 2513.330322
3.880000 -8.200000 1.880000 -23.088947 -38.637703 2025.971558
3.880000 -8.200000 1.920000 -18.098244 -42.343388 2120.509033
3.880000 -8.200000 1.960000 -6.186642 -48.370026 2377.934082
3.880000 -8.200000 2.000000 13.441441 -44.952473 2201.397217
3.880000 -8.200000 2.040000 27.871969 -25.515503 1427.887573
3.880000 -8.200000 2.080000 22.848099 0.102869 522.046204
3.880000 -8.200000 2.120000 -0.450743 12.223036 149.605774
3.880000 -8.200000 2.160000 -23.283680 0.455749 542.337463
3.880000 -8.200000 2.200000 -25.910088 -24.597675 1276.378296
3.880000 -8.160000 1.800000 -11.343027 -55.054504 3159.662842
3.880000 -8.160000 1.840000 4.080164 -44.849400 2028.116333
3.880000 -8.160000 1.880000 8.995384 -34.944832 1302.058228
3.880000 -8.160000 1.920000 11.356899 -30.291647 1046.562988
3.880000 -8.160000 1.960000 16.866150 -25.874910 953.978027
3.880000 -8.160000 2.000000 21.571320 -15.438644 703.673584
3.880000 -8.160000 2.040000 17.052555 -1.698551 293.674713
3.880000 -8.160000 2.080000 2.236482 4.443567 24.747141
3.880000 -8.160000 2.120000 -12.177724 -4.338112 167.116180
3.880000 -8.160000 2.160000 -12.930643 -22.029869 652.516663
3.880000 -8.160000 2.200000 2.121365 -33.132484 1102.261719
3.880000 -8.120000 1.800000 25.246092 -42.947105 2481.819092
3.880000 -8.120000 1.840000 33.413925 -21.335154 1571.679199
3.880000 -8.120000 1.880000 29.075878 -2.442635 851.373169
3.880000 -8.120000 1.920000 17.646671 9.029987 392.945679
3.880000 -8.120000 1.960000 3.920765 12.466621 170.789047
3.880000 -8.120000 2.000000 -8.811714 8.219906 145.213165
3.880000 -8.120000 2.040000 -16.778667 -2.978092 290.392700
3.880000 -8.120000 2.080000 -15.638054 -17.595884 554.163879
3.880000 -8.120000 2.120000 -4.149652 -28.343048 820.547974
3.880000 -8.120000 2.160000 12.374404 -28.111103 943.359985
3.880000 -8.120000 2.200000 24.044098 -16.159285 839.241089
3.880000 -8.080000 1.800000 38.856392 -11.689778 1646.470093
3.880000 -8.080000 1.840000 35.726845 16.354034 1543.861938
3.880000 -8.080000 1.880000 14.845797 38.493546 1702.150757
3.880000 -8.080000 1.920000 -17.477648 42.826237 2139.554688
3.880000 -8.080000 1.960000 -46.366177 24.014622 2726.524414
3.880000 -8.080000 2.000000 -55.617516 -10.444050 3202.386230
3.880000 -8.080000 2.040000 -38.933277 -42.217388 3298.107910
3.880000 -8.080000 2.080000 -5.989315 -53.488636 2896.906006
3.880000 -8.080000 2.120000 23.269506 -39.692337 2116.951416
3.880000 -8.080000 2.160000 32.850952 -12.750870 1241.769775
3.880000 -8.080000 2.200000 21.896217 8.545327 552.466919
3.880000 -8.040000 1.800000 27.025585 12.991677 899.165955
3.880000 -8.040000 1.840000 10.655651 42.175041 1892.276978
3.880000 -8.040000 1.880000 -29.022743 55.487591 3921.192383
3.880000 -8.040000 1.920000 -74.002258 34.839619 6690.133789
3.880000 -8.040000 1.960000 -94.435150 -16.713905 9197.352539
3.880000 -8.040000 2.000000 -71.958405 -71.132538 10237.849609
3.880000 -8.040000 2.040000 -17.557720 -94.332794 9206.949219
3.880000 -8.040000 2.080000 34.403812 -73.319443 6559.363281
3.880000 -8.040000 2.120000 52.884155 -26.930670 3521.994873
3.880000 -8.040000 2.160000 34.267479 10.366682 1281.728271
3.880000 -8.040000 2.200000 2.279842 17.075226 296.761017
3.880000 -8.000000 1.800000 8.343182 17.282547 368.295105
3.880000 -8.000000 1.840000 -21.642874 41.317322 2175.535156
3.880000 -8.000000 1.880000 -72.146812 33.289120 6313.328125
3.880000 -8.000000 1.920000 -107.810341 -18.303961 11958.104492
3.880000 -8.000000 1.960000 -94.321129 -88.565918 16740.398438
3.880000 -8.000000 2.000000 -31.056946 -131.119751 18156.921875
3.880000 -8.000000 2.040000 43.423477 -116.071938 15358.292969
3.880000 -8.000000 2.080000 81.463028 -56.447754 9822.574219
3.880000 -8.000000 2.120000 65.592606 2.751796 4309.962402
3.880000 -8.000000 2.160000 20.719183 23.285400 971.494446
3.880000 -8.000000 2.200000 -11.269582 4.055927 143.454010
3.880000 -7.960000 1.800000 0.964386 9.698740 94.995598
3.880000 -7.960000 1.840000 -39.502110 21.191456 2009.494385
3.880000 -7.960000 1.880000 -84.611885 -12.068869 7304.828613
3.880000 -7.960000 1.920000 -90.508896 -80.852386 14728.968750
3.880000 -7.960000 1.960000 -37.896019 -139.405457 20869.988281
3.880000 -7.960000 2.000000 45.410797 -142.388092 22336.509766
3.880000 -7.960000 2.040000 104.546783 -85.505280 18241.183594
3.880000 -7.960000 2.080000 103.847504 -10.599644 10896.656250
3.880000 -7.960000 2.120000 56.201653 30.817406 4108.338379
3.880000 -7.960000 2.160000 8.172707 21.256725 518.641479
3.880000 -7.960000 2.200000 -3.525320 -12.538166 169.633499
3.880000 -7.920000 1.800000 4.544198 7.421597 75.729843
3.880000 -7.920000 1.840000 -37.931484 1.092379 1439.990723
3.880000 -7.920000 1.880000 -62.545219 -48.325920 6247.298828
3.880000 -7.920000 1.920000 -35.433510 -109.407623 13225.561523
3.880000 -7.920000 1.960000 35.990097 -132.932800 18966.416016
3.880000 -7.920000 2.000000 105.053345 -95.638237 20182.878906
3.880000 -7.920000 2.040000 125.068756 -22.463127 16146.785156
3.880000 -7.920000 2.080000 89.540573 34.992786 9242.009766
3.880000 -7.920000 2.120000 35.318291 43.677689 3155.122070
3.880000 -7.920000 2.160000 6.779942 15.045481 272.334106
3.880000 -7.920000 2.200000 16.533066 -11.289554 400.796265
3.880000 -7.880000 1.800000 4.523030 15.214031 251.924545
3.880000 -7.880000 1.840000 -28.478792 -7.305044 864.405273
3.880000 -7.880000 1.880000 -28.317091 -55.810375 3916.655762
3.880000 -7.880000 1.920000 15.956694 -91.050262 8544.766602
3.880000 -7.880000 1.960000 76.947189 -80.392868 12383.882812
3.880000 -7.880000 2.000000 111.411018 -27.693718 13179.357422
3.880000 -7.880000 2.040000 97.878067 29.842056 10470.664062
3.880000 -7.880000 2.080000 53.918480 54.954037 5927.148438
3.880000 -7.880000 2.120000 17.450012 41.867821 2057.417480
3.880000 -7.880000 2.160000 11.382550 16.852814 413.579773
3.880000 -7.880000 2.200000 25.822021 9.599222 758.921875
3.880000 -7.840000 1.800000 -7.756234 20.810631 493.241547
3.880000 -7.840000 1.840000 -23.348890 -8.096136 610.718079
3.880000 -7.840000 1.880000 -7.061546 -41.454811 1768.366821
3.880000 -7.840000 1.920000 32.574364 -50.796436 3641.366943
3.880000 -7.840000 1.960000 67.299652 -26.679962 5241.063477
3.880000 -7.840000 2.000000 73.617363 13.734024 5608.139648
3.880000 -7.840000 2.040000 52.005276 42.905273 4545.411133
3.880000 -7.840000 2.080000 23.530142 46.960529 2758.958984
3.880000 -7.840000 2.120000 8.687618 34.969582 1298.346313
3.880000 -7.840000 2.160000 9.615471 26.363228 787.477051
3.880000 -7.840000 2.200000 11.933231 30.552895 1075.881348
3.880000 -7.800000 1.800000 -22.974684 11.115766 651.396362
3.880000 -7.800000 1.840000 -22.492153 -11.346693 634.644409
3.880000 -7.800000 1.880000 -4.658745 -26.205032 708.407654
3.880000 -7.800000 1.920000 18.203529 -23.667614 891.524414
3.880000 -7.800000 1.960000 32.111736 -7.215809 1083.231445
3.880000 -7.800000 2.000000 32.021622 11.584665 1159.588745
3.880000 -7.800000 2.040000 23.080055 23.669867 1092.951538
3.880000 -7.800000 2.080000 13.226078 28.346609 978.459412
3.880000 -7.800000 2.120000 5.519115 30.246450 945.308411
3.880000 -7.800000 2.160000 -2.649414 32.120865 1038.769409
3.880000 -7.800000 2.200000 -14.008324 31.380871 1180.992188
3.920000 -8.200000 1.800000 -33.372444 -54.297436 4061.931396
3.920000 -8.200000 1.840000 -15.291466 -56.045959 3374.978516
3.920000 -8.200000 1.880000 -1.850326 -52.886936 2800.451660
3.920000 -8.200000 1.920000 9.891283 -48.721603 2471.632080
3.920000 -8.200000 1.960000 22.592476 -40.379120 2140.893311
3.920000 -8.200000 2.000000 31.206717 -23.492914 1525.776123
3.920000 -8.200000 2.040000 26.435949 -2.413166 704.682800
3.920000 -8.200000 2.080000 6.811999 9.178148 130.641739
3.920000 -8.200000 2.120000 -14.727174 0.597627 217.246811
3.920000 -8.200000 2.160000 -19.770485 -22.717556 906.959412
3.920000 -8.200000 2.200000 -1.983929 -40.755348 1664.934326
3.920000 -8.160000 1.800000 12.174410 -59.256950 3659.602539
3.920000 -8.160000 1.840000 26.837135 -44.528183 2702.990723
3.920000 -8.160000 1.880000 32.053104 -28.402451 1834.100708
3.920000 -8.160000 1.920000 31.195620 -14.326357 1178.411133
3.920000 -8.160000 1.960000 25.886189 -2.100815 674.508179
3.920000 -8.160000 2.000000 14.935091 6.911156 270.821014
3.920000 -8.160000 2.040000 -0.544005 7.598816 58.037945
3.920000 -8.160000 2.080000 -12.969227 -3.678032 181.728775
3.920000 -8.160000 2.120000 -12.336733 -21.877388 630.815063
3.920000 -8.160000 2.160000 3.776415 -33.690933 1149.340332
3.920000 -8.160000 2.200000 24.871838 -27.902992 1397.185303
3.920000 -8.120000 1.800000 45.838364 -29.593590 2976.936035
3.920000 -8.120000 1.840000 48.037880 -1.577763 2310.127197
3.920000 -8.120000 1.880000 33.614189 22.676620 1644.142822
3.920000 -8.120000 1.920000 7.866032 33.425026 1179.106812
3.920000 -8.120000 1.960000 -18.464691 26.176704 1026.164673
3.920000 -8.120000 2.000000 -33.765522 4.413132 1159.586182
3.920000 -8.120000 2.040000 -31.188618 -21.323446 1427.419189
3.920000 -8.120000 2.080000 -12.628105 -38.228580 1620.893311
3.920000 -8.120000 2.120000 11.620029 -37.996826 1578.783936
3.920000 -8.120000 2.160000 28.232597 -21.825535 1273.433472
3.920000 -8.120000 2.200000 28.722273 0.006865 824.968994
3.920000 -8.080000 1.800000 46.687622 11.624294 2314.858398
3.920000 -8.080000 1.840000 29.319889 45.119331 2895.409912
3.920000 -8.080000 1.880000 -11.579004 61.845810 3958.977539
3.920000 -8.080000 1.920000 -58.014812 45.407261 5427.538086
3.920000 -8.080000 1.960000 -82.528168 -0.941353 6811.784668
3.920000 -8.080000 2.000000 -68.359726 -52.374275 7416.117188
3.920000 -8.080000 2.040000 -23.778725 -78.882874 6787.935547
3.920000 -8.080000 2.080000 22.942684 -67.401054 5069.269043
3.920000 -8.080000 2.120000 44.637562 -30.845100 2943.932129
3.920000 -8.080000 2.160000 34.625092 3.472200 1210.953125
3.920000 -8.080000 2.200000 8.515976 15.446404 311.113220
3.920000 -8.040000 1.800000 21.332596 35.899841 1743.878174
3.920000 -8.040000 1.840000 -17.898592 62.851192 4270.631836
3.920000 -8.040000 1.880000 -77.501389 52.205067 8731.833984
3.920000 -8.040000 1.920000 -118.749588 -5.915943 14136.462891
3.920000 -8.040000 1.960000 -106.328102 -83.349251 18252.761719
3.920000 -8.040000 2.000000 -40.998558 -131.263885 18911.087891
3.920000 -8.040000 2.040000 36.735973 -119.217270 15562.289062
3.920000 -8.040000 2.080000 78.104233 -60.648705 9778.536133
3.920000 -8.040000 2.120000 65.026459 -0.809069 4229.095215
3.920000 -8.040000 2.160000 21.422831 21.707130 930.137207
3.920000 -8.040000 2.200000 -11.721397 4.334629 156.180176
3.920000 -8.000000 1.800000 -5.585952 34.044525 1190.232544
3.920000 -8.000000 1.840000 -60.787979 41.573311 5423.518555
3.920000 -8.000000 1.880000 -116.455643 -6.080479 13598.889648
3.920000 -8.000000 1.920000 -120.882668 -94.133141 23473.667969
3.920000 -8.000000 1.960000 -54.161316 -166.112579 30526.835938
3.920000 -8.000000 2.000000 47.454681 -169.131897 30857.544922
3.920000 -8.000000 2.040000 117.939262 -100.852554 24080.906250
3.920000 -8.000000 2.080000 116.546463 -12.699635 13744.358398
3.920000 -8.000000 2.120000 60.383858 34.734169 4852.672852
3.920000 -8.000000 2.160000 4.726793 22.191940 514.824768
3.920000 -8.000000 2.200000 -8.083715 -18.385405 403.369568
3.920000 -7.960000 1.800000 -16.292522 20.070620 668.276062
3.920000 -7.960000 1.840000 -73.350647 0.973959 5381.266113
3.920000 -7.960000 1.880000 -100.575699 -73.376175 15499.535156
3.920000 -7.960000 1.920000 -55.510696 -157.656097 27936.882812
3.920000 -7.960000 1.960000 47.206913 -185.497604 36637.851562
3.920000 -7.960000 2.000000 141.358429 -129.029816 36630.898438
3.920000 -7.960000 2.040000 164.500946 -26.634964 27769.982422
3.920000 -7.960000 2.080000 111.732819 49.675941 14951.921875
3.920000 -7.960000 2.120000 36.655407 56.799576 4569.810547
3.920000 -7.960000 2.160000 0.068285 13.682619 187.218735
3.920000 -7.960000 2.200000 17.114670 -24.027225 870.219482
3.920000 -7.920000 1.800000 -14.226601 12.457518 357.585907
3.920000 -7.920000 1.840000 -56.690765 -29.336458 4074.470703
3.920000 -7.920000 1.880000 -45.743004 -105.134560 13145.697266
3.920000 -7.920000 1.920000 31.702862 -153.752380 24644.867188
3.920000 -7.920000 1.960000 129.030884 -126.868309 32744.535156
3.920000 -7.920000 2.000000 177.296082 -35.735031 32710.892578
3.920000 -7.920000 2.040000 146.010498 56.310329 24489.919922
3.920000 -7.920000 2.080000 68.890877 89.755890 12802.072266
3.920000 -7.920000 2.120000 10.224804 59.523323 3647.572510
3.920000 -7.920000 2.160000 5.967438 12.693163 196.726685
3.920000 -7.920000 2.200000 36.636711 -0.909004 1343.074951
3.920000 -7.880000 1.800000 -14.647861 14.371430 421.097839
3.920000 -7.880000 1.840000 -32.734222 -35.991707 2366.932129
3.920000 -7.880000 1.880000 5.248589 -89.759857 8084.379883
3.920000 -7.880000 1.920000 81.655014 -95.101570 15711.849609
3.920000 -7.880000 1.960000 141.065598 -37.172005 21281.259766
3.920000 -7.880000 2.000000 139.160568 45.986229 21480.396484
3.920000 -7.880000 2.040000 82.112030 97.120560 16174.789062
3.920000 -7.880000 2.080000 18.475368 90.491348 8530.023438
3.920000 -7.880000 2.120000 -7.222309 50.752350 2627.962891
3.920000 -7.880000 2.160000 7.085824 23.943516 623.500854
3.920000 -7.880000 2.200000 26.372988 32.070946 1724.080078
3.920000 -7.840000 1.800000 -24.131332 13.639908 768.368286
3.920000 -7.840000 1.840000 -20.258060 -28.879095 1244.391113
3.920000 -7.840000 1.880000 22.354954 -53.438297 3355.395508
3.920000 -7.840000 1.920000 73.176041 -33.719406 6491.731445
3.920000 -7.840000 1.960000 92.837311 19.589821 9002.527344
3.920000 -7.840000 2.000000 68.184944 68.637459 9360.287109
3.920000 -7.840000 2.040000 21.985844 82.890442 7354.202637
3.920000 -7.840000 2.080000 -10.845463 64.437897 4269.866699
3.920000 -7.840000 2.120000 -15.589699 40.753082 1903.852417
3.920000 -7.840000 2.160000 -7.009736 34.799042 1260.109619
3.920000 -7.840000 2.200000 -9.113555 43.802727 2001.735718
3.920000 -7.800000 1.800000 -32.632759 0.550154 1065.199585
3.920000 -7.800000 1.840000 -18.865265 -24.839804 972.914062
3.920000 -7.800000 1.880000 10.975666 -30.117502 1027.529175
3.920000 -7.800000 1.920000 34.844398 -10.872879 1332.351562
3.920000 -7.800000 1.960000 37.302696 18.400127 1730.055786
3.920000 -7.800000 2.000000 20.951622 38.773838 1942.380981
3.920000 -7.800000 2.040000 0.390995 42.915516 1841.894287
3.920000 -7.800000 2.080000 -13.163311 37.610683 1587.836182
3.920000 -7.800000 2.120000 -20.454758 32.689335 1486.989746
3.920000 -7.800000 2.160000 -28.748724 29.732508 1710.511230
3.920000 -7.800000 2.200000 -40.425278 22.237644 2128.715820
3.960000 -8.200000 1.800000 -4.534468 -65.625381 4327.252441
3.960000 -8.200000 1.840000 16.727997 -59.239166 3789.104736
3.960000 -8.200000 1.880000 30.517433 -45.459206 2997.853027
3.960000 -8.200000 1.920000 36.688965 -29.479572 2215.125488
3.960000 -8.200000 1.960000 36.268204 -13.205884 1489.777954
3.960000 -8.200000 2.000000 28.066284 1.459900 789.847595
3.960000 -8.200000 2.040000 11.956500 8.768909 219.851685
3.960000 -8.200000 2.080000 -5.323950 2.309406 33.677799
3.960000 -8.200000 2.120000 -11.308761 -16.243809 391.749390
3.960000 -8.200000 2.160000 1.634673 -33.457375 1122.067993
3.960000 -8.200000 2.200000 26.207052 -32.983864 1774.744873
3.960000 -8.160000 1.800000 40.146473 -47.916195 3907.700928
3.960000 -8.160000 1.840000 50.754620 -25.211418 3211.646973
3.960000 -8.160000 1.880000 47.272720 -1.620148 2237.335205
3.960000 -8.160000 1.920000 32.679203 14.912212 1290.304443
3.960000 -8.160000 1.960000 13.088949 20.300430 583.428101
3.960000 -8.160000 2.000000 -4.964988 13.960083 219.535019
3.960000 -8.160000 2.040000 -15.069250 -1.771172 230.219360
3.960000 -8.160000 2.080000 -12.009869 -20.565990 567.196899
3.960000 -8.160000 2.120000 4.400963 -32.257996 1059.946777
3.960000 -8.160000 2.160000 25.831356 -27.859388 1443.404541
3.960000 -8.160000 2.200000 38.079941 -7.401820 1504.868896
3.960000 -8.120000 1.800000 57.251518 -2.827156 3285.729248
3.960000 -8.120000 1.840000 47.136868 28.938570 3059.325195
3.960000 -8.120000 1.880000 16.681335 48.707748 2650.711670
3.960000 -8.120000 1.920000 -20.772640 43.851173 2354.427979
3.960000 -8.120000 1.960000 -45.814217 15.497147 2339.104004
3.960000 -8.120000 2.000000 -45.609848 -21.251560 2531.887207
3.960000 -8.120000 2.040000 -22.019699 -46.907257 2685.157959
3.960000 -8.120000 2.080000 10.316906 -49.569046 2563.528809
3.960000 -8.120000 2.120000 33.666264 -31.074097 2099.016846
3.960000 -8.120000 2.160000 37.492950 -4.263173 1423.895996
3.960000 -8.120000 2.200000 23.155422 15.564499 778.427246
3.960000 -8.080000 1.800000 36.784264 38.192150 2811.722412
3.960000 -8.080000 1.840000 0.877729 64.972336 4222.174805
3.960000 -8.080000 1.880000 -52.808662 58.923138 6260.690918
3.960000 -8.080000 1.920000 -92.024139 12.418159 8622.653320
3.960000 -8.080000 1.960000 -88.088600 -51.992783 10462.851562
3.960000 -8.080000 2.000000 -40.407169 -95.857010 10821.305664
3.960000 -8.080000 2.040000 21.238453 -94.045486 9295.625977
3.960000 -8.080000 2.080000 59.468395 -53.567383 6405.954590
3.960000 -8.080000 2.120000 57.260841 -5.944984 3314.146729
3.960000 -8.080000 2.160000 27.401749 18.804214 1104.454346
3.960000 -8.080000 2.200000 -2.306942 13.293171 182.030365
3.960000 -8.040000 1.800000 -2.432754 49.709167 2476.919434
3.960000 -8.040000 1.840000 -58.664459 54.807953 6445.430664
3.960000 -8.040000 1.880000 -113.134529 7.599741 12857.177734
3.960000 -8.040000 1.920000 -118.802948 -76.643135 19988.310547
3.960000 -8.040000 1.960000 -58.507408 -145.978897 24732.955078
3.960000 -8.040000 2.000000 34.694366 -152.682632 24515.685547
3.960000 -8.040000 2.040000 101.622208 -94.084152 19178.902344
3.960000 -8.040000 2.080000 105.040962 -14.946018 11256.987305
3.960000 -8.040000 2.120000 57.853378 31.036476 4310.276367
3.960000 -8.040000 2.160000 6.933222 24.492216 647.938232
3.960000 -8.040000 2.200000 -9.631453 -10.138453 195.553116
3.960000 -8.000000 1.800000 -31.262028 32.521137 2034.938721
3.960000 -8.000000 1.840000 -90.949707 5.617794 8303.409180
3.960000 -8.000000 1.880000 -116.096115 -76.323227 19303.542969
3.960000 -8.000000 1.920000 -65.574547 -165.168396 31580.621094
3.960000 -8.000000 1.960000 43.197994 -193.497528 39307.359375
3.960000 -8.000000 2.000000 141.552582 -134.461899 38117.132812
3.960000 -8.000000 2.040000 166.098343 -28.457245 28398.474609
3.960000 -8.000000 2.080000 112.306244 50.777630 15191.060547
3.960000 -8.000000 2.120000 34.742455 59.083984 4697.955078
3.960000 -8.000000 2.160000 -4.550856 14.842443 241.008377
3.960000 -8.000000 2.200000 11.214580 -26.189266 811.644470
3.960000 -7.960000 1.800000 -36.123138 8.580685 1378.509277
3.960000 -7.960000 1.840000 -78.513496 -46.491116 8325.792969
3.960000 -7.960000 1.880000 -57.353931 -135.263123 21585.585938
3.960000 -7.960000 1.920000 38.644012 -187.566315 36674.480469
3.960000 -7.960000 1.960000 153.218140 -150.290924 46063.160156
3.960000 -7.960000 2.000000 206.690308 -39.807892 44305.550781
3.960000 -7.960000 2.040000 165.876678 68.378525 32190.695312
3.960000 -7.960000 2.080000 72.484146 105.163208 16313.251953
3.960000 -7.960000 2.120000 2.844149 66.005905 4364.868652
3.960000 -7.960000 2.160000 -0.801825 7.311798 54.105312
3.960000 -7.960000 2.200000 38.561764 -11.530483 1619.961670
3.960000 -7.920000 1.800000 -27.240076 -2.592250 748.741516
3.960000 -7.920000 1.840000 -39.620842 -68.749420 6296.293945
3.960000 -7.920000 1.880000 19.096821 -132.950867 18040.623047
3.960000 -7.920000 1.920000 122.648132 -129.785553 31886.853516
3.960000 -7.920000 1.960000 196.955627 -43.790070 40709.089844
3.960000 -7.920000 2.000000 185.232224 70.625351 39298.917969
3.960000 -7.920000 2.040000 99.972725 135.504135 28355.917969
3.960000 -7.920000 2.080000 10.434986 118.121368 14061.545898
3.960000 -7.920000 2.120000 -21.699497 55.682209 3571.376465
3.960000 -7.920000 2.160000 4.987299 14.271261 228.542053
3.960000 -7.920000 2.200000 39.775597 25.522524 2233.497314
3.960000 -7.880000 1.800000 -23.051235 -1.375865 533.252441
3.960000 -7.880000 1.840000 -7.859541 -58.482689 3481.997314
3.960000 -7.880000 1.880000 61.207840 -84.145317 10826.833984
3.960000 -7.880000 1.920000 135.597260 -40.825493 20053.337891
3.960000 -7.880000 1.960000 154.217667 50.477730 26331.089844
3.960000 -7.880000 2.000000 100.040909 126.074570 25902.980469
3.960000 -7.880000 2.040000 15.760307 136.844315 18974.753906
3.960000 -7.880000 2.080000 -37.014297 90.822708 9618.823242
3.960000 -7.880000 2.120000 -33.875816 40.163242 2760.656982
3.960000 -7.880000 2.160000 -4.076172 28.174736 810.430908
3.960000 -7.880000 2.200000 5.414454 50.694550 2599.253662
3.960000 -7.840000 1.800000 -29.017181 -2.620821 848.865540
3.960000 -7.840000 1.840000 -0.360554 -39.217422 1538.136230
3.960000 -7.840000 1.880000 53.874680 -35.834206 4186.571289
3.960000 -7.840000 1.920000 88.558388 14.193928 8044.055664
3.960000 -7.840000 1.960000 72.780045 76.107674 11089.312500
3.960000 -7.840000 2.000000 18.279541 105.464539 11456.910156
3.960000 -7.840000 2.040000 -33.323997 88.311249 8909.365234
3.960000 -7.840000 2.080000 -50.593105 50.143021 5073.984863
3.960000 -7.840000 2.120000 -38.787704 26.845501 2225.166992
3.960000 -7.840000 2.160000 -28.068527 29.284910 1645.448242
3.960000 -7.840000 2.200000 -38.869450 37.227341 2896.708984
3.960000 -7.800000 1.800000 -33.445320 -15.465512 1357.771484
3.960000 -7.800000 1.840000 -6.521661 -32.942047 1127.710571
3.960000 -7.800000 1.880000 25.108177 -21.156082 1078.000366
3.960000 -7.800000 1.920000 36.068783 11.509949 1433.436035
3.960000 -7.800000 1.960000 19.460228 40.527439 2021.173706
3.960000 -7.800000 2.000000 -9.613297 48.196194 2415.288574
3.960000 -7.800000 2.040000 -31.147888 37.225758 2355.947998
3.960000 -7.800000 2.080000 -38.822182 22.876518 2030.496826
3.960000 -7.800000 2.120000 -41.358173 14.629566 1924.522705
3.960000 -7.800000 2.160000 -47.992283 7.869244 2365.184326
3.960000 -7.800000 2.200000 -56.000175 -6.954068 3184.378906
4.000000 -8.200000 1.800000 30.360935 -54.125122 3851.315186
4.000000 -8.200000 1.840000 47.382729 -35.476822 3503.728027
4.000000 -8.200000 1.880000 49.983742 -12.279445 2649.159180
4.000000 -8.200000 1.920000 40.525429 5.734262 1675.192139
4.000000 -8.200000 1.960000 25.623779 14.444054 865.208740
4.000000 -8.200000 2.000000 10.631321 14.213596 315.051300
4.000000 -8.200000 2.040000 -0.796743 6.211224 39.214100
4.000000 -8.200000 2.080000 -4.265919 -7.431708 73.428352
4.000000 -8.200000 2.120000 4.130205 -20.340496 430.794373
4.000000 -8.200000 2.160000 22.026043 -22.417023 987.669495
4.000000 -8.200000 2.200000 37.739521 -7.606603 1482.131836
4.000000 -8.160000 1.800000 57.711815 -17.654751 3642.343750
4.000000 -8.160000 1.840000 56.831726 11.007985 3351.020752
4.000000 -8.160000 1.880000 37.776173 32.875786 2507.856445
4.000000 -8.160000 1.920000 10.389807 37.588284 1520.827148
4.000000 -8.160000 1.960000 -11.966914 25.047798 770.599243
4.000000 -8.160000 2.000000 -20.526302 3.415836 432.997040
4.000000 -8.160000 2.040000 -13.929741 -16.876646 478.858856
4.000000 -8.160000 2.080000 3.398670 -27.448549 764.973816
4.000000 -8.160000 2.120000 23.368378 -23.730785 1109.231201
4.000000 -8.160000 2.160000 35.957703 -6.602499 1336.549438
4.000000 -8.160000 2.200000 32.924881 15.958294 1338.714844
4.000000 -8.120000 1.800000 49.051941 28.423964 3214.014648
4.000000 -8.120000 1.840000 23.791771 54.697357 3557.849121
4.000000 -8.120000 1.880000 -17.136072 56.997414 3542.350098
4.000000 -8.120000 1.920000 -50.487331 29.344070 3410.045166
4.000000 -8.120000 1.960000 -56.126045 -13.786919 3340.212158
4.000000 -8.120000 2.000000 -31.860893 -47.846169 3304.372314
4.000000 -8.120000 2.040000 6.126595 -55.639076 3133.241943
4.000000 -8.120000 2.080000 35.967888 -37.455990 2696.640137
4.000000 -8.120000 2.120000 44.327671 -7.757501 2025.121216
4.000000 -8.120000 2.160000 32.020344 16.215553 1288.246582
4.000000 -8.120000 2.200000 9.898973 24.237589 685.450378
4.000000 -8.080000 1.800000 10.224464 52.818756 2894.360840
4.000000 -8.080000 1.840000 -36.305199 59.872688 4902.806152
4.000000 -8.080000 1.880000 -82.263100 25.620863 7423.646484
4.000000 -8.080000 1.920000 -91.992218 -38.215904 9923.023438
4.000000 -8.080000 1.960000 -52.315178 -93.525490 11483.895508
4.000000 -8.080000 2.000000 14.181774 -105.322754 11294.005859
4.000000 -8.080000 2.040000 66.318321 -69.540764 9234.037109
4.000000 -8.080000 2.080000 76.447586 -14.546524 6055.834961
4.000000 -8.080000 2.120000 49.183014 23.393105 2966.206055
4.000000 -8.080000 2.160000 12.471527 27.548733 914.471680
4.000000 -8.080000 2.200000 -7.605499 8.193717 124.980621
4.000000 -8.040000 1.800000 -30.606258 41.849213 2688.099609
4.000000 -8.040000 1.840000 -82.793945 17.260666 7152.768066
4.000000 -8.040000 1.880000 -105.016701 -52.994591 13836.934570
4.000000 -8.040000 1.920000 -64.360962 -128.734772 20714.974609
4.000000 -8.040000 1.960000 24.598152 -155.305969 24725.011719
4.000000 -8.040000 2.000000 106.777657 -110.848907 23688.949219
4.000000 -8.040000 2.040000 131.188492 -26.520260 17913.744141
4.000000 -8.040000 2.080000 92.323807 39.894455 10115.252930
4.000000 -8.040000 2.120000 30.715199 52.047020 3652.315674
4.000000 -8.040000 2.160000 -5.372635 20.612658 453.746857
4.000000 -8.040000 2.200000 0.442167 -13.961834 195.128311
4.000000 -8.000000 1.800000 -47.299305 9.737312 2332.039551
4.000000 -8.000000 1.840000 -83.241074 -44.878304 8943.138672
4.000000 -8.000000 1.880000 -60.134064 -127.282219 19816.869141
4.000000 -8.000000 1.920000 30.022869 -174.268402 31270.849609
4.000000 -8.000000 1.960000 135.517075 -139.351105 37783.609375
4.000000 -8.000000 2.000000 184.935455 -38.300629 35668.058594
4.000000 -8.000000 2.040000 148.767914 60.945797 25846.283203
4.000000 -8.000000 2.080000 63.980690 96.192474 13346.521484
4.000000 -8.000000 2.120000 -1.309566 62.088257 3856.666504
4.000000 -8.000000 2.160000 -7.913573 7.519302 119.164551
4.000000 -8.000000 2.200000 26.471817 -14.210653 902.699768
4.000000 -7.960000 1.800000 -37.224648 -16.325432 1652.194092
4.000000 -7.960000 1.840000 -41.693501 -84.069946 8806.103516
4.000000 -7.960000 1.880000 23.866226 -145.044678 21607.556641
4.000000 -7.960000 1.920000 130.645874 -135.766083 35500.773438
4.000000 -7.960000 1.960000 203.908524 -43.618317 43481.246094
4.000000 -7.960000 2.000000 187.999100 74.600456 40908.886719
4.000000 -7.960000 2.040000 97.476624 139.777298 29039.386719
4.000000 -7.960000 2.080000 3.807688 119.331497 14254.503906
4.000000 -7.960000 2.120000 -29.539108 51.774628 3553.170898
4.000000 -7.960000 2.160000 -0.337639 5.395428 29.224640
4.000000 -7.960000 2.200000 39.909882 14.330295 1798.156006
4.000000 -7.920000 1.800000 -19.733624 -21.585083 855.331665
4.000000 -7.920000 1.840000 6.327160 -80.372681 6499.800293
4.000000 -7.920000 1.880000 88.154419 -99.670090 17705.328125
4.000000 -7.920000 1.920000 169.620056 -40.770782 30433.218750
4.000000 -7.920000 1.960000 182.665771 68.773987 38096.648438
4.000000 -7.920000 2.000000 111.229950 154.242661 36162.898438
4.000000 -7.920000 2.040000 8.134109 159.880859 25628.052734
4.000000 -7.920000 2.080000 -53.068016 97.801239 12381.296875
4.000000 -7.920000 2.120000 -43.940025 32.140816 2963.757812
4.000000 -7.920000 2.160000 -0.687124 16.266844 265.082336
4.000000 -7.920000 2.200000 18.248243 46.283661 2475.175537
4.000000 -7.880000 1.800000 -14.299676 -14.766443 422.528564
4.000000 -7.880000 1.840000 27.542727 -51.009537 3360.574707
4.000000 -7.880000 1.880000 95.661804 -34.009346 10307.816406
4.000000 -7.880000 1.920000 131.094620 40.865952 18855.824219
4.000000 -7.880000 1.960000 95.878868 123.829498 24526.503906
4.000000 -7.880000 2.000000 11.100941 154.272568 23923.255859
4.000000 -7.880000 2.040000 -61.702705 116.374207 17350.179688
4.000000 -7.880000 2.080000 -77.667984 51.211266 8654.910156
4.000000 -7.880000 2.120000 -47.112827 14.394308 2426.814453
4.000000 -7.880000 2.160000 -18.578255 23.402067 892.808289
4.000000 -7.880000 2.200000 -27.077930 46.970268 2939.420410
4.000000 -7.840000 1.800000 -21.122803 -14.853115 666.787842
4.000000 -7.840000 1.840000 19.700148 -29.306267 1246.953125
4.000000 -7.840000 1.880000 60.622845 1.662094 3677.891846
4.000000 -7.840000 1.920000 61.020020 59.898014 7311.214844
4.000000 -7.840000 1.960000 14.292931 100.244293 10253.206055
4.000000 -7.840000 2.000000 -45.401268 92.929985 10697.257812
4.000000 -7.840000 2.040000 -76.392624 50.210983 8356.975586
4.000000 -7.840000 2.080000 -68.163567 10.925041 4765.628418
4.000000 -7.840000 2.120000 -46.433064 0.643921 2156.443848
4.000000 -7.840000 2.160000 -42.023338 9.326168 1852.938354
4.000000 -7.840000 2.200000 -58.327019 7.572958 3459.390625
4.000000 -7.800000 1.800000 -23.706177 -28.685993 1384.869019
4.000000 -7.800000 1.840000 7.512129 -30.837013 1007.353455
4.000000 -7.800000 1.880000 27.871248 -5.351501 805.445007
4.000000 -7.800000 1.920000 19.524139 26.899761 1104.789185
4.000000 -7.800000 1.960000 -9.900528 40.797062 1762.420776
4.000000 -7.800000 2.000000 -37.238953 29.974472 2285.208496
4.000000 -7.800000 2.040000 -47.376034 8.849770 2322.806885
4.000000 -7.800000 2.080000 -44.985641 -5.993210 2059.626465
4.000000 -7.800000 2.120000 -43.779968 -13.076752 2087.687012
4.000000 -7.800000 2.160000 -47.808048 -23.488852 2837.335449
4.000000 -7.800000 2.200000 -46.770081 -43.703163 4097.406738
4.040000 -8.200000 1.800000 49.163124 -19.585037 2800.586426
4.040000 -8.200000 1.840000 52.297585 6.227826 2773.823242
4.040000 -8.200000 1.880000 38.043278 26.669907 2158.574951
4.040000 -8.200000 1.920000 16.567629 32.132713 1306.997559
4.040000 -8.200000 1.960000 -0.081625 24.231451 587.169861
4.040000 -8.200000 2.000000 -6.632483 11.133999 167.955750
4.040000 -8.200000 2.040000 -4.668114 -0.430723 21.976809
4.040000 -8.200000 2.080000 2.720533 -7.706326 66.788765
4.040000 -8.200000 2.120000 13.453033 -8.828072 258.918945
4.040000 -8.200000 2.160000 23.739508 -1.205464 565.017334
4.040000 -8.200000 2.200000 26.203205 14.553354 898.408081
4.040000 -8.160000 1.800000 50.228146 18.800114 2876.311035
4.040000 -8.160000 1.840000 34.281715 43.836044 3096.834717
4.040000 -8.160000 1.880000 4.229633 51.240356 2643.464111
4.040000 -8.160000 1.920000 -22.191818 36.562523 1829.294922
4.040000 -8.160000 1.960000 -31.131729 10.092213 1071.037354
4.040000 -8.160000 2.000000 -21.448324 -12.730826 622.104553
4.040000 -8.160000 2.040000 -2.073711 -22.232452 498.582245
4.040000 -8.160000 2.080000 16.378330 -17.689711 581.175537
4.040000 -8.160000 2.120000 26.935074 -3.672284 738.983887
4.040000 -8.160000 2.160000 26.280361 13.670676 877.544800
4.040000 -8.160000 2.200000 14.047207 27.163063 935.156006
4.040000 -8.120000 1.800000 21.418489 47.242413 2690.597168
4.040000 -8.120000 1.840000 -12.664883 58.105671 3536.668213
4.040000 -8.120000 1.880000 -48.602013 38.929447 3877.657227
4.040000 -8.120000 1.920000 -61.387032 -2.350735 3773.893555
4.040000 -8.120000 1.960000 -41.878822 -40.830547 3420.969238
4.040000 -8.120000 2.000000 -3.361858 -54.413582 2972.139893
4.040000 -8.120000 2.040000 30.380941 -39.415226 2476.561523
4.040000 -8.120000 2.080000 42.931824 -9.844620 1940.057983
4.040000 -8.120000 2.120000 33.850407 15.770582 1394.561279
4.040000 -8.120000 2.160000 13.959936 26.672180 906.285034
4.040000 -8.120000 2.200000 -4.654890 22.682781 536.176575
4.040000 -8.080000 1.800000 -19.093082 45.655445 2448.965576
4.040000 -8.080000 1.840000 -59.856834 30.577993 4517.854492
4.040000 -8.080000 1.880000 -80.156685 -18.441635 6765.187988
4.040000 -8.080000 1.920000 -56.685757 -73.230820 8576.027344
4.040000 -8.080000 1.960000 1.181145 -96.462357 9306.381836
4.040000 -8.080000 2.000000 57.566154 -72.787872 8611.936523
4.040000 -8.080000 2.040000 79.136971 -20.681355 6690.378418
4.040000 -8.080000 2.080000 60.269058 24.470558 4231.167480
4.040000 -8.080000 2.120000 23.053940 38.956741 2049.111816
4.040000 -8.080000 2.160000 -4.420226 25.377020 663.531555
4.040000 -8.080000 2.200000 -9.681180 3.808081 108.226723
4.040000 -8.040000 1.800000 -44.001999 16.574694 2210.896484
4.040000 -8.040000 1.840000 -72.550293 -25.450790 5911.287598
4.040000 -8.040000 1.880000 -56.679443 -88.448685 11035.729492
4.040000 -8.040000 1.920000 9.120182 -125.697014 15882.916992
4.040000 -8.040000 1.960000 87.245026 -103.369202 18296.886719
4.040000 -8.040000 2.000000 126.379593 -32.228081 17010.451172
4.040000 -8.040000 2.040000 104.595016 40.188759 12555.253906
4.040000 -8.040000 2.080000 46.027382 69.655472 6970.404297
4.040000 -8.040000 2.120000 -2.926484 50.019058 2510.470459
4.040000 -8.040000 2.160000 -13.608242 12.088596 331.318420
4.040000 -8.040000 2.200000 5.780514 -8.277308 101.928162
4.040000 -8.000000 1.800000 -39.649666 -16.811922 1854.736694
4.040000 -8.000000 1.840000 -40.584702 -72.332092 6879.049805
4.040000 -8.000000 1.880000 14.154349 -120.701920 14769.298828
4.040000 -8.000000 1.920000 100.612228 -112.281769 22730.015625
4.040000 -8.000000 1.960000 159.607544 -38.053642 26922.648438
4.040000 -8.000000 2.000000 147.575058 56.887432 25014.578125
4.040000 -8.000000 2.040000 75.771790 110.280052 17903.054688
4.040000 -8.000000 2.080000 -0.154031 95.737221 9165.638672
4.040000 -8.000000 2.120000 -29.809204 41.891525 2643.488525
4.040000 -8.000000 2.160000 -9.106222 1.584867 85.435081
4.040000 -8.000000 2.200000 24.108828 3.421188 592.940125
4.040000 -7.960000 1.800000 -16.964590 -31.327682 1269.220947
4.040000 -7.960000 1.840000 11.044306 -79.736420 6479.873047
4.040000 -7.960000 1.880000 84.778320 -91.375931 15536.923828
4.040000 -7.960000 1.920000 154.704803 -34.883743 25150.451172
4.040000 -7.960000 1.960000 162.518692 63.807304 30483.699219
4.040000 -7.960000 2.000000 95.838554 138.845428 28463.082031
4.040000 -7.960000 2.040000 2.117181 141.746765 20096.626953
4.040000 -7.960000 2.080000 -53.308365 83.604172 9831.439453
4.040000 -7.960000 2.120000 -44.526440 21.497292 2444.737305
4.040000 -7.960000 2.160000 -2.750233 4.060373 24.050411
4.040000 -7.960000 2.200000 19.606823 30.139400 1292.811035
4.040000 -7.920000 1.800000 0.390215 -24.131046 582.459656
4.040000 -7.920000 1.840000 44.324989 -51.059341 4571.761230
4.040000 -7.920000 1.880000 108.301834 -25.869530 12398.519531
4.040000 -7.920000 1.920000 135.899567 52.618980 21237.449219
4.040000 -7.920000 1.960000 92.807747 133.864822 26533.070312
4.040000 -7.920000 2.000000 2.919640 158.622116 25169.500000
4.040000 -7.920000 2.040000 -70.774918 113.304947 17847.099609
4.040000 -7.920000 2.080000 -83.141998 41.510460 8635.709961
4.040000 -7.920000 2.120000 -45.542572 1.406403 2076.104004
4.040000 -7.920000 2.160000 -9.224174 12.207170 234.100403
4.040000 -7.920000 2.200000 -12.847228 42.138420 1940.697754
4.040000 -7.880000 1.800000 -0.539785 -12.970748 168.531662
4.040000 -7.880000 1.840000 42.575001 -18.027500 2137.621582
4.040000 -7.880000 1.880000 79.595955 24.613419 6941.336426
4.040000 -7.880000 1.920000 67.767349 91.414124 12948.955078
4.040000 -7.880000 1.960000 4.062153 130.439056 17030.849609
4.040000 -7.880000 2.000000 -68.291435 109.944633 16751.542969
4.040000 -7.880000 2.040000 -99.333740 48.726841 12241.497070
4.040000 -7.880000 2.080000 -78.429604 -2.992224 6160.156250
4.040000 -7.880000 2.120000 -40.475349 -12.271559 1788.845093
4.040000 -7.880000 2.160000 -27.667980 8.023630 829.895813
4.040000 -7.880000 2.200000 -47.707382 18.041233 2601.480469
4.040000 -7.840000 1.800000 -10.257209 -16.128624 365.342834
4.040000 -7.840000 1.840000 22.990498 -8.657192 603.509949
4.040000 -7.840000 1.880000 36.103615 30.138628 2211.807861
4.040000 -7.840000 1.920000 8.863472 68.849937 4818.875000
4.040000 -7.840000 1.960000 -41.943295 72.884727 7071.423828
4.040000 -7.840000 2.000000 -78.193161 38.315575 7582.253906
4.040000 -7.840000 2.040000 -77.504456 -5.564091 6037.899414
4.040000 -7.840000 2.080000 -52.842583 -27.014702 3522.132812
4.040000 -7.840000 2.120000 -35.177494 -22.701908 1752.832764
4.040000 -7.840000 2.160000 -39.446274 -16.647406 1833.144653
4.040000 -7.840000 2.200000 -50.633377 -30.684847 3505.298584
4.040000 -7.800000 1.800000 -8.627251 -32.623363 1138.713257
4.040000 -7.800000 1.840000 15.375395 -21.152679 683.838623
4.040000 -7.800000 1.880000 18.562504 5.699181 377.047211
4.040000 -7.800000 1.920000 -2.148705 23.615421 562.305054
4.040000 -7.800000 1.960000 -28.421186 18.206917 1139.255615
4.040000 -7.800000 2.000000 -40.533611 -2.724350 1650.395752
4.040000 -7.800000 2.040000 -36.300079 -20.947147 1756.478760
4.040000 -7.800000 2.080000 -28.752083 -28.586147 1643.850098
4.040000 -7.800000 2.120000 -27.440487 -34.083900 1914.692627
4.040000 -7.800000 2.160000 -26.307606 -47.994781 2995.589111
4.040000 -7.800000 2.200000 -12.125639 -66.777466 4606.261230
4.080000 -8.200000 1.800000 37.273857 17.239471 1686.539795
4.080000 -8.200000 1.840000 24.845289 37.725029 2040.466309
4.080000 -8.200000 1.880000 1.483742 42.952225 1847.095093
4.080000 -8.200000 1.920000 -17.174900 31.101978 1262.310303
4.080000 -8.200000 1.960000 -21.497231 12.815525 626.368591
4.080000 -8.200000 2.000000 -14.129765 0.149490 199.672607
4.080000 -8.200000 2.040000 -4.119797 -3.097330 26.566175
4.080000 -8.200000 2.080000 2.712645 -0.703677 7.853602
4.080000 -8.200000 2.120000 6.479301 3.449751 53.882126
4.080000 -8.200000 2.160000 8.129631 9.379192 154.060150
4.080000 -8.200000 2.200000 5.175988 17.270084 325.046692
4.080000 -8.160000 1.800000 19.484482 38.835804 1887.864746
4.080000 -8.160000 1.840000 -5.119872 50.108997 2537.124756
4.080000 -8.160000 1.880000 -31.836800 39.073097 2540.288574
4.080000 -8.160000 1.920000 -42.630440 12.517617 1974.045166
4.080000 -8.160000 1.960000 -32.609631 -11.999756 1207.382202
4.080000 -8.160000 2.000000 -11.719076 -21.455280 597.665771
4.080000 -8.160000 2.040000 6.159184 -15.703930 284.548950
4.080000 -8.160000 2.080000 14.078424 -3.099924 207.811539
4.080000 -8.160000 2.120000 13.174412 8.875906 252.346832
4.080000 -8.160000 2.160000 6.691266 17.404572 347.692139
4.080000 -8.160000 2.200000 -3.746578 21.119234 460.058868
4.080000 -8.120000 1.800000 -10.472325 41.584312 1838.924561
4.080000 -8.120000 1.840000 -40.496700 35.357670 2890.147461
4.080000 -8.120000 1.880000 -58.057915 4.889987 3394.633301
4.080000 -8.120000 1.920000 -47.576942 -30.904366 3218.645264
4.080000 -8.120000 1.960000 -15.185295 -48.519745 2584.758789
4.080000 -8.120000 2.000000 17.694000 -39.154346 1846.140503
4.080000 -8.120000 2.040000 32.732162 -13.321650 1248.860718
4.080000 -8.120000 2.080000 27.168692 10.832093 855.472046
4.080000 -8.120000 2.120000 11.057817 22.153099 613.035156
4.080000 -8.120000 2.160000 -4.156131 20.938219 455.682465
4.080000 -8.120000 2.200000 -13.237419 13.097078 346.762726
4.080000 -8.080000 1.800000 -33.738297 21.681164 1608.345581
4.080000 -8.080000 1.840000 -56.326099 -4.207168 3190.329590
4.080000 -8.080000 1.880000 -50.380306 -45.777790 4633.781250
4.080000 -8.080000 1.920000 -11.868717 -72.763313 5435.366211
4.080000 -8.080000 1.960000 36.094479 -63.730881 5364.436523
4.080000 -8.080000 2.000000 62.652000 -24.606316 4530.744141
4.080000 -8.080000 2.040000 54.534134 17.531082 3281.310547
4.080000 -8.080000 2.080000 24.224094 37.812050 2016.557861
4.080000 -8.080000 2.120000 -4.077658 31.739450 1024.020020
4.080000 -8.080000 2.160000 -15.045127 13.459496 407.513855
4.080000 -8.080000 2.200000 -10.643398 -0.275397 113.357773
4.080000 -8.040000 1.800000 -35.085838 -7.643761 1289.443115
4.080000 -8.040000 1.840000 -37.958427 -44.813171 3449.062500
4.080000 -8.040000 1.880000 -3.801503 -78.460289 6170.468750
4.080000 -8.040000 1.920000 52.028221 -75.911636 8469.512695
4.080000 -8.040000 1.960000 91.685638 -30.920515 9362.333984
4.080000 -8.040000 2.000000 87.306259 28.670408 8444.375000
4.080000 -8.040000 2.040000 44.857891 64.296249 6146.238281
4.080000 -8.040000 2.080000 -2.585769 58.788216 3462.740479
4.080000 -8.040000 2.120000 -24.369520 27.577850 1354.411377
4.080000 -8.040000 2.160000 -16.078276 0.929942 259.375763
4.080000 -8.040000 2.200000 2.596964 -3.402987 18.324539
4.080000 -8.000000 1.800000 -16.224129 -25.907940 934.443726
4.080000 -8.000000 1.840000 3.433225 -58.830021 3472.758545
4.080000 -8.000000 1.880000 54.083691 -66.528908 7351.141602
4.080000 -8.000000 1.920000 101.940094 -27.928944 11171.808594
4.080000 -8.000000 1.960000 107.641785 39.337112 13134.162109
4.080000 -8.000000 2.000000 62.694790 90.953186 12203.119141
4.080000 -8.000000 2.040000 -1.459566 93.986382 8835.569336
4.080000 -8.000000 2.080000 -40.971756 54.815197 4683.390625
4.080000 -8.000000 2.120000 -37.163208 10.734360 1496.330444
4.080000 -8.000000 2.160000 -8.864073 -5.049212 104.066322
4.080000 -8.000000 2.200000 9.731427 9.210788 179.539276
4.080000 -7.960000 1.800000 5.115216 -23.024361 556.286621
4.080000 -7.960000 1.840000 38.105434 -39.176010 2986.783936
4.080000 -7.960000 1.880000 83.586014 -17.387310 7288.939941
4.080000 -7.960000 1.920000 100.874130 41.973061 11937.328125
4.080000 -7.960000 1.960000 65.951370 101.454193 14642.536133
4.080000 -7.960000 2.000000 -2.783922 117.822952 13889.998047
4.080000 -7.960000 2.040000 -58.499512 81.409103 10049.634766
4.080000 -7.960000 2.080000 -67.280823 24.692539 5136.430664
4.080000 -7.960000 2.120000 -36.782803 -8.333828 1422.427246
4.080000 -7.960000 2.160000 -5.153965 -1.561235 29.000811
4.080000 -7.960000 2.200000 -3.100407 22.881384 533.170288
4.080000 -7.920000 1.800000 11.408471 -8.393976 200.612061
4.080000 -7.920000 1.840000 43.751190 -6.301125 1953.870850
4.080000 -7.920000 1.880000 67.892319 31.791969 5620.096191
4.080000 -7.920000 1.920000 51.453365 85.437782 9947.063477
4.080000 -7.920000 1.960000 -5.582413 112.778168 12750.078125
4.080000 -7.920000 2.000000 -66.334671 89.491425 12409.003906
4.080000 -7.920000 2.040000 -89.376816 33.012516 9078.041016
4.080000 -7.920000 2.080000 -66.523262 -13.306958 4602.419434
4.080000 -7.920000 2.120000 -28.319277 -20.629753 1227.568115
4.080000 -7.920000 2.160000 -12.512543 0.708588 157.065811
4.080000 -7.920000 2.200000 -28.174473 15.672577 1039.430542
4.080000 -7.880000 1.800000 2.164633 -1.384480 6.602419
4.080000 -7.880000 1.840000 25.512524 11.125317 774.661499
4.080000 -7.880000 1.880000 27.937609 47.204067 3008.733887
4.080000 -7.880000 1.920000 -5.568195 77.389267 6020.103516
4.080000 -7.880000 1.960000 -56.217491 71.461731 8267.185547
4.080000 -7.880000 2.000000 -86.966446 29.251930 8418.837891
4.080000 -7.880000 2.040000 -77.765244 -17.918137 6368.492676
4.080000 -7.880000 2.080000 -44.145851 -37.491573 3354.474121
4.080000 -7.880000 2.120000 -20.006252 -26.411959 1097.841675
4.080000 -7.880000 2.160000 -23.111149 -10.918184 653.331909
4.080000 -7.880000 2.200000 -39.262684 -17.048260 1832.201538
4.080000 -7.840000 1.800000 -5.766550 -11.325773 161.526230
4.080000 -7.840000 1.840000 9.315315 3.657576 100.152962
4.080000 -7.840000 1.880000 1.291183 28.385971 807.430542
4.080000 -7.840000 1.920000 -28.730862 36.793758 2179.243164
4.080000 -7.840000 1.960000 -56.809887 16.547192 3501.172852
4.080000 -7.840000 2.000000 -60.232597 -17.868481 3947.248535
4.080000 -7.840000 2.040000 -40.197281 -40.421444 3249.714600
4.080000 -7.840000 2.080000 -18.673313 -40.430191 1983.292969
4.080000 -7.840000 2.120000 -13.510740 -31.697182 1187.251465
4.080000 -7.840000 2.160000 -19.631695 -34.762032 1593.802246
4.080000 -7.840000 2.200000 -16.554407 -52.763916 3058.079102
4.080000 -7.800000 1.800000 3.986569 -27.047510 747.460571
4.080000 -7.800000 1.840000 14.607273 -11.195276 338.706635
4.080000 -7.800000 1.880000 6.030579 4.988409 61.252102
4.080000 -7.800000 1.920000 -12.195927 5.318005 177.021805
4.080000 -7.800000 1.960000 -22.433914 -9.496616 593.466248
4.080000 -7.800000 2.000000 -18.034128 -24.965538 948.507812
4.080000 -7.800000 2.040000 -8.179790 -30.685883 1008.532410
4.080000 -7.800000 2.080000 -3.984787 -31.363148 999.525574
4.080000 -7.800000 2.120000 -3.456585 -38.312248 1479.776367
4.080000 -7.800000 2.160000 6.106809 -52.403809 2783.452393
4.080000 -7.800000 2.200000 31.007410 -59.804852 4538.080078
4.120000 -8.200000 1.800000 4.163065 30.558357 951.144287
4.120000 -8.200000 1.840000 -14.029144 36.487011 1528.118896
4.120000 -8.200000 1.880000 -31.345703 26.030201 1660.124512
4.120000 -8.200000 1.920000 -35.290596 6.901091 1293.051147
4.120000 -8.200000 1.960000 -25.568790 -7.073846 703.802368
4.120000 -8.200000 2.000000 -12.562896 -8.970678 238.299423
4.120000 -8.200000 2.040000 -5.980522 -3.341808 46.934326
4.120000 -8.200000 2.080000 -6.365294 1.081211 41.685993
4.120000 -8.200000 2.120000 -7.693390 1.182494 60.586540
4.120000 -8.200000 2.160000 -6.394957 0.783254 41.508957
4.120000 -8.200000 2.200000 -5.467936 3.401551 41.468872
4.120000 -8.160000 1.800000 -13.295111 29.325901 1036.768433
4.120000 -8.160000 1.840000 -33.684448 25.813177 1800.962158
4.120000 -8.160000 1.880000 -45.131535 6.024046 2073.144531
4.120000 -8.160000 1.920000 -38.247295 -16.037560 1720.058838
4.120000 -8.160000 1.960000 -19.230885 -25.632181 1026.835693
4.120000 -8.160000 2.000000 -2.325874 -20.036448 406.868927
4.120000 -8.160000 2.040000 3.797716 -8.184328 81.405869
4.120000 -8.160000 2.080000 1.513253 0.265727 2.360546
4.120000 -8.160000 2.120000 -2.204062 3.424069 16.582144
4.120000 -8.160000 2.160000 -4.653329 5.060987 47.267059
4.120000 -8.160000 2.200000 -8.331551 6.792372 115.551056
4.120000 -8.120000 1.800000 -26.203093 16.315739 952.805420
4.120000 -8.120000 1.840000 -42.532204 2.220690 1813.919922
4.120000 -8.120000 1.880000 -41.589630 -22.841034 2251.410156
4.120000 -8.120000 1.920000 -21.104860 -39.927170 2039.593994
4.120000 -8.120000 1.960000 4.775091 -36.973148 1389.815186
4.120000 -8.120000 2.000000 19.217693 -18.509697 711.928589
4.120000 -8.120000 2.040000 16.908485 0.789479 286.520172
4.120000 -8.120000 2.080000 5.461503 10.150415 132.858948
4.120000 -8.120000 2.120000 -4.765087 9.770694 118.172508
4.120000 -8.120000 2.160000 -9.973242 5.958725 134.971954
4.120000 -8.120000 2.200000 -12.572770 2.486338 164.256424
4.120000 -8.080000 1.800000 -26.755375 -2.024677 719.949402
4.120000 -8.080000 1.840000 -32.353127 -22.729057 1563.334961
4.120000 -8.080000 1.880000 -16.332218 -43.727409 2178.827637
4.120000 -8.080000 1.920000 13.198446 -45.781681 2270.161377
4.120000 -8.080000 1.960000 35.526764 -24.979050 1886.104004
4.120000 -8.080000 2.000000 35.955311 4.194822 1310.380981
4.120000 -8.080000 2.040000 17.585327 22.523748 816.562988
4.120000 -8.080000 2.080000 -3.838871 22.182877 506.816956
4.120000 -8.080000 2.120000 -14.968796 10.328867 330.750336
4.120000 -8.080000 2.160000 -14.455811 -0.711060 209.476059
4.120000 -8.080000 2.200000 -9.778055 -4.909072 119.709358
4.120000 -8.040000 1.800000 -14.633300 -14.610559 427.601929
4.120000 -8.040000 1.840000 -7.253368 -33.422470 1169.672852
4.120000 -8.040000 1.880000 18.342146 -40.413589 1969.692505
4.120000 -8.040000 1.920000 44.394547 -22.965359 2498.283447
4.120000 -8.040000 1.960000 49.646202 10.579718 2576.675781
4.120000 -8.040000 2.000000 28.828667 37.544502 2240.681641
4.120000 -8.040000 2.040000 -2.815960 40.798042 1672.409912
4.120000 -8.040000 2.080000 -23.612278 22.680733 1071.955322
4.120000 -8.040000 2.120000 -23.886120 0.673931 571.000854
4.120000 -8.040000 2.160000 -11.603417 -9.408051 223.150711
4.120000 -8.040000 2.200000 -1.955421 -5.934340 39.040070
4.120000 -8.000000 1.800000 1.069958 -13.753860 190.313477
4.120000 -8.000000 1.840000 16.560955 -22.884167 797.950317
4.120000 -8.000000 1.880000 39.800476 -12.832140 1748.741699
4.120000 -8.000000 1.920000 49.236462 17.232571 2721.190674
4.120000 -8.000000 1.960000 31.515781 48.111053 3307.917969
4.120000 -8.000000 2.000000 -4.491163 56.840736 3251.040039
4.120000 -8.000000 2.040000 -34.451176 37.468102 2590.742188
4.120000 -8.000000 2.080000 -39.850353 6.215762 1626.686401
4.120000 -8.000000 2.120000 -23.379511 -13.667720 733.408081
4.120000 -8.000000 2.160000 -4.310512 -12.310870 170.138031
4.120000 -8.000000 2.200000 0.405311 0.317187 0.264885
4.120000 -7.960000 1.800000 8.161064 -2.471814 72.712830
4.120000 -7.960000 1.840000 23.103111 -0.521200 534.025391
4.120000 -7.960000 1.880000 33.724380 19.672935 1524.358276
4.120000 -7.960000 1.920000 22.792740 47.395733 2765.864502
4.120000 -7.960000 1.960000 -9.662721 60.113434 3706.993164
4.120000 -7.960000 2.000000 -43.389420 44.510529 3863.828857
4.120000 -7.960000 2.040000 -55.150810 10.176144 3145.165771
4.120000 -7.960000 2.080000 -39.754086 -18.274971 1914.361938
4.120000 -7.960000 2.120000 -14.192995 -23.388617 748.468506
4.120000 -7.960000 2.160000 -1.039068 -9.698120 95.133202
4.120000 -7.960000 2.200000 -7.705680 2.663408 66.471252
4.120000 -7.920000 1.800000 2.316472 6.837913 52.123093
4.120000 -7.920000 1.840000 11.102276 14.799809 342.294861
4.120000 -7.920000 1.880000 7.818803 33.716972 1197.967896
4.120000 -7.920000 1.920000 -14.839278 46.868111 2416.823975
4.120000 -7.920000 1.960000 -44.920834 37.680267 3437.683838
4.120000 -7.920000 2.000000 -60.335709 7.481337 3696.368164
4.120000 -7.920000 2.040000 -49.653229 -23.703520 3027.300049
4.120000 -7.920000 2.080000 -23.420923 -35.272820 1792.711426
4.120000 -7.920000 2.120000 -4.034871 -25.117456 647.166809
4.120000 -7.920000 2.160000 -4.299179 -10.400646 126.656380
4.120000 -7.920000 2.200000 -16.210690 -9.706881 357.010010
4.120000 -7.880000 1.800000 -7.589338 3.582545 70.432678
4.120000 -7.880000 1.840000 -4.143492 11.932901 159.562653
4.120000 -7.880000 1.880000 -14.387030 22.730785 723.675232
4.120000 -7.880000 1.920000 -35.276814 20.340458 1658.187866
4.120000 -7.880000 1.960000 -50.105244 -0.592777 2510.886719
4.120000 -7.880000 2.000000 -44.899303 -27.599209 2777.663818
4.120000 -7.880000 2.040000 -23.215630 -41.765690 2283.338379
4.120000 -7.880000 2.080000 -2.967373 -36.519440 1342.474731
4.120000 -7.880000 2.120000 1.753394 -23.737722 566.553894
4.120000 -7.880000 2.160000 -5.380993 -20.691534 457.094666
4.120000 -7.880000 2.200000 -7.886641 -31.768133 1071.413452
4.120000 -7.840000 1.800000 -6.959711 -9.524944 139.162140
4.120000 -7.840000 1.840000 -5.349579 -1.514299 30.911095
4.120000 -7.840000 1.880000 -15.329418 2.609793 241.802078
4.120000 -7.840000 1.920000 -26.988634 -6.866262 775.531921
4.120000 -7.840000 1.960000 -26.658850 -25.143654 1342.897583
4.120000 -7.840000 2.000000 -12.338066 -37.562679 1563.182739
4.120000 -7.840000 2.040000 3.860334 -35.763680 1293.942993
4.120000 -7.840000 2.080000 9.474120 -26.879280 812.254700
4.120000 -7.840000 2.120000 5.966312 -24.920683 656.637329
4.120000 -7.840000 2.160000 7.000006 -34.019398 1206.319580
4.120000 -7.840000 2.200000 22.323351 -42.735611 2324.664307
4.120000 -7.800000 1.800000 9.476735 -17.042025 380.239105
4.120000 -7.800000 1.840000 9.102942 -6.558998 125.884018
4.120000 -7.800000 1.880000 0.436655 -4.404835 19.593237
4.120000 -7.800000 1.920000 -4.208797 -12.732151 179.821640
4.120000 -7.800000 1.960000 1.659180 -21.572227 468.113861
4.120000 -7.800000 2.000000 11.478153 -21.787621 606.448425
4.120000 -7.800000 2.040000 14.887421 -16.581772 496.590454
4.120000 -7.800000 2.080000 12.037344 -17.096153 437.176086
4.120000 -7.800000 2.120000 14.843801 -26.924215 945.251831
4.120000 -7.800000 2.160000 32.383141 -34.627144 2247.707031
4.120000 -7.800000 2.200000 57.276859 -24.804686 3895.911133
4.160000 -8.200000 1.800000 -22.587357 13.377666 689.150635
4.160000 -8.200000 1.840000 -33.268768 7.611313 1164.743042
4.160000 -8.200000 1.880000 -35.981575 -6.226867 1333.447632
4.160000 -8.200000 1.920000 -27.481709 -17.764786 1070.831909
4.160000 -8.200000 1.960000 -14.915972 -19.162205 589.676270
4.160000 -8.200000 2.000000 -8.131230 -12.625445 225.518768
4.160000 -8.200000 2.040000 -9.678179 -7.172654 145.114105
4.160000 -8.200000 2.080000 -13.193155 -8.593525 247.908020
4.160000 -8.200000 2.120000 -11.368958 -13.738642 318.003479
4.160000 -8.200000 2.160000 -4.255970 -15.057228 244.833405
4.160000 -8.200000 2.200000 1.308859 -9.717441 96.141762
4.160000 -8.160000 1.800000 -23.915657 0.341305 572.075195
4.160000 -8.160000 1.840000 -31.648684 -7.932966 1064.571045
4.160000 -8.160000 1.880000 -29.018234 -21.368820 1298.684326
4.160000 -8.160000 1.920000 -16.481707 -28.578823 1088.395752
4.160000 -8.160000 1.960000 -3.796769 -24.593601 619.260681
4.160000 -8.160000 2.000000 0.574627 -15.099979 228.339584
4.160000 -8.160000 2.040000 -2.419159 -9.225798 90.967674
4.160000 -8.160000 2.080000 -5.194786 -9.656096 120.225983
4.160000 -8.160000 2.120000 -3.121801 -11.076635 132.437500
4.160000 -8.160000 2.160000 0.479756 -7.936096 63.211792
4.160000 -8.160000 2.200000 -0.667604 -1.761559 3.548784
4.160000 -8.120000 1.800000 -16.949821 -8.693134 362.867035
4.160000 -8.120000 1.840000 -21.084137 -17.743328 759.366516
4.160000 -8.120000 1.880000 -14.267567 -27.928656 983.573303
4.160000 -8.120000 1.920000 -0.907027 -29.091772 847.153870
4.160000 -8.120000 1.960000 8.486600 -20.172159 478.938385
4.160000 -8.120000 2.000000 8.225790 -9.166871 151.695145
4.160000 -8.120000 2.040000 2.080645 -3.986248 20.219252
4.160000 -8.120000 2.080000 -2.467106 -4.868663 29.790489
4.160000 -8.120000 2.120000 -2.774225 -6.218966 46.371861
4.160000 -8.120000 2.160000 -2.642276 -4.511201 27.332554
4.160000 -8.120000 2.200000 -6.058987 -2.441355 42.671532
4.160000 -8.080000 1.800000 -7.304755 -9.940325 152.169495
4.160000 -8.080000 1.840000 -8.243494 -17.700386 381.258881
4.160000 -8.080000 1.880000 -0.092012 -22.908768 524.820129
4.160000 -8.080000 1.920000 10.141254 -18.688196 452.093719
4.160000 -8.080000 1.960000 13.366039 -7.717628 238.212769
4.160000 -8.080000 2.000000 7.436047 1.254163 56.867714
4.160000 -8.080000 2.040000 -1.728722 2.397012 8.734144
4.160000 -8.080000 2.080000 -7.025024 -2.391239 55.068985
4.160000 -8.080000 2.120000 -6.949486 -7.087440 98.527153
4.160000 -8.080000 2.160000 -5.386371 -8.463866 100.650024
4.160000 -8.080000 2.200000 -5.882209 -8.570191 108.048569
4.160000 -8.040000 1.800000 -0.924279 -4.495165 21.060804
4.160000 -8.040000 1.840000 -0.560095 -9.544136 91.404236
4.160000 -8.040000 1.880000 5.366541 -10.411410 137.197235
4.160000 -8.040000 1.920000 9.661123 -4.227747 111.211151
4.160000 -8.040000 1.960000 6.446010 4.029757 57.789978
4.160000 -8.040000 2.000000 -2.858971 6.776992 54.101334
4.160000 -8.040000 2.040000 -11.119854 1.320632 125.395226
4.160000 -8.040000 2.080000 -12.484561 -7.909138 218.418732
4.160000 -8.040000 2.120000 -7.510993 -14.099592 255.213531
4.160000 -8.040000 2.160000 -1.710258 -14.443146 211.529449
4.160000 -8.040000 2.200000 0.312811 -11.918812 142.155930
4.160000 -8.000000 1.800000 -1.204845 3.074419 10.903701
4.160000 -8.000000 1.840000 -1.947712 0.179214 3.825701
4.160000 -8.000000 1.880000 -0.351754 0.519448 0.393557
4.160000 -8.000000 1.920000 -1.590786 3.935927 18.022125
4.160000 -8.000000 1.960000 -7.691073 5.426735 88.602051
4.160000 -8.000000 2.000000 -14.793407 0.552541 219.150208
4.160000 -8.000000 2.040000 -16.602993 -9.495242 365.818970
4.160000 -8.000000 2.080000 -10.583001 -18.393414 450.317566
4.160000 -8.000000 2.120000 -0.734081 -20.373753 415.628662
4.160000 -8.000000 2.160000 5.936944 -15.590091 278.298248
4.160000 -8.000000 2.200000 5.834815 -9.887769 131.813034
4.160000 -7.960000 1.800000 -7.437573 7.013466 104.506203
4.160000 -7.960000 1.840000 -10.073822 4.007046 117.538300
4.160000 -7.960000 1.880000 -11.776424 1.978329 142.597961
4.160000 -7.960000 1.920000 -14.718799 -0.390775 216.795746
4.160000 -7.960000 1.960000 -17.894308 -5.891466 354.915649
4.160000 -7.960000 2.000000 -17.430178 -14.710960 520.223450
4.160000 -7.960000 2.040000 -10.689413 -22.794827 633.867676
4.160000 -7.960000 2.080000 0.127260 -24.938877 621.963745
4.160000 -7.960000 2.120000 8.913547 -19.835133 472.883789
4.160000 -7.960000 2.160000 10.847034 -11.986972 261.345642
4.160000 -7.960000 2.200000 6.954506 -8.089289 113.801743
4.160000 -7.920000 1.800000 -14.505023 3.532137 222.871689
4.160000 -7.920000 1.840000 -17.327099 -1.107289 301.454468
4.160000 -7.920000 1.880000 -19.081932 -6.644368 408.267731
4.160000 -7.920000 1.920000 -19.085598 -13.905262 557.616333
4.160000 -7.920000 1.960000 -15.163057 -22.133518 719.810913
4.160000 -7.920000 2.000000 -6.375678 -27.977219 823.374084
4.160000 -7.920000 2.040000 4.620459 -27.876751 798.461853
4.160000 -7.920000 2.080000 12.686774 -21.740585 633.607300
4.160000 -7.920000 2.120000 14.414950 -13.931928 401.889404
4.160000 -7.920000 2.160000 11.372074 -9.945066 228.228424
4.160000 -7.920000 2.200000 9.019766 -11.645222 216.967377
4.160000 -7.880000 1.800000 -15.218940 -5.690671 263.999878
4.160000 -7.880000 1.840000 -16.212761 -10.578846 374.765594
4.160000 -7.880000 1.880000 -15.785959 -17.636694 560.249512
4.160000 -7.880000 1.920000 -10.857812 -25.994949 793.629456
4.160000 -7.880000 1.960000 -0.311042 -31.180477 972.318909
4.160000 -7.880000 2.000000 11.923374 -28.939257 979.647461
4.160000 -7.880000 2.040000 19.293804 -20.277763 783.438599
4.160000 -7.880000 2.080000 18.813936 -11.663630 490.004456
4.160000 -7.880000 2.120000 14.482206 -9.273875 295.739075
4.160000 -7.880000 2.160000 13.737282 -12.854382 353.948029
4.160000 -7.880000 2.200000 20.125847 -15.823522 655.433533
4.160000 -7.840000 1.800000 -5.900014 -12.700686 196.117584
4.160000 -7.840000 1.840000 -6.114425 -14.831858 257.370209
4.160000 -7.840000 1.880000 -4.531178 -21.017860 462.282043
4.160000 -7.840000 1.920000 3.705226 -27.315161 759.846680
4.160000 -7.840000 1.960000 16.583307 -26.423292 973.196411
4.160000 -7.840000 2.000000 25.485640 -16.606197 925.283569
4.160000 -7.840000 2.040000 24.221153 -5.423188 616.075195
4.160000 -7.840000 2.080000 16.885082 -2.610003 291.918091
4.160000 -7.840000 2.120000 14.710106 -9.109430 299.368958
4.160000 -7.840000 2.160000 24.133083 -14.765104 800.414001
4.160000 -7.840000 2.200000 38.886139 -8.433329 1583.252930
4.160000 -7.800000 1.800000 8.473085 -8.258211 139.991226
4.160000 -7.800000 1.840000 4.610678 -7.308321 74.669907
4.160000 -7.800000 1.880000 4.691248 -13.253213 197.655472
4.160000 -7.800000 1.920000 13.595071 -17.476091 490.239716
4.160000 -7.800000 1.960000 24.585159 -11.750231 742.497986
4.160000 -7.800000 2.000000 26.676952 0.546507 711.958435
4.160000 -7.800000 2.040000 18.606009 6.996344 395.132385
4.160000 -7.800000 2.080000 12.300833 0.889770 152.102173
4.160000 -7.800000 2.120000 20.024755 -8.835432 479.055695
4.160000 -7.800000 2.160000 38.858810 -5.524590 1540.528320
4.160000 -7.800000 2.200000 51.019642 16.593252 2878.339844
4.200000 -8.200000 1.800000 -21.838915 -15.213356 708.384399
4.200000 -8.200000 1.840000 -20.321945 -20.309010 825.437317
4.200000 -8.200000 1.880000 -14.166080 -24.330647 792.658203
4.200000 -8.200000 1.920000 -6.428467 -23.016319 571.076172
4.200000 -8.200000 1.960000 -2.745845 -17.288927 306.446686
4.200000 -8.200000 2.000000 -5.043603 -12.991661 194.221191
4.200000 -8.200000 2.040000 -8.793943 -14.843499 297.662903
4.200000 -8.200000 2.080000 -7.306563 -21.004162 494.560669
4.200000 -8.200000 2.120000 1.139343 -24.342621 593.861267
4.200000 -8.200000 2.160000 10.978819 -19.559788 503.119751
4.200000 -8.200000 2.200000 14.585836 -8.748356 289.280365
4.200000 -8.160000 1.800000 -6.702624 -22.209335 538.179749
4.200000 -8.160000 1.840000 -5.341582 -22.909643 553.384277
4.200000 -8.160000 1.880000 -1.341667 -23.040451 532.662415
4.200000 -8.160000 1.920000 2.622352 -19.719902 395.751282
4.200000 -8.160000 1.960000 2.737190 -14.826284 227.310913
4.200000 -8.160000 2.000000 -0.507081 -13.101769 171.913483
4.200000 -8.160000 2.040000 -2.007553 -16.100245 263.248138
4.200000 -8.160000 2.080000 2.172066 -19.373755 380.060242
4.200000 -8.160000 2.120000 9.514807 -16.838968 374.082397
4.200000 -8.160000 2.160000 12.811717 -7.848620 225.740936
4.200000 -8.160000 2.200000 7.692596 1.128178 60.448826
4.200000 -8.120000 1.800000 6.564610 -14.569249 255.357132
4.200000 -8.120000 1.840000 3.862525 -12.711600 176.503876
4.200000 -8.120000 1.880000 2.844981 -12.569607 166.088928
4.200000 -8.120000 1.920000 2.525966 -11.897221 147.924362
4.200000 -8.120000 1.960000 1.295996 -11.431694 132.363235
4.200000 -8.120000 2.000000 0.196187 -12.908383 166.664841
4.200000 -8.120000 2.040000 1.858509 -15.366293 239.577011
4.200000 -8.120000 2.080000 6.361061 -15.097581 268.400055
4.200000 -8.120000 2.120000 9.616920 -10.006907 192.623337
4.200000 -8.120000 2.160000 7.132466 -3.179384 60.980560
4.200000 -8.120000 2.200000 -0.596085 -0.786474 0.973859
4.200000 -8.080000 1.800000 7.751223 -0.339246 60.196541
4.200000 -8.080000 1.840000 -0.254620 -0.284376 0.145701
4.200000 -8.080000 1.880000 -5.129235 -4.771900 49.080078
4.200000 -8.080000 1.920000 -5.865941 -10.264096 139.760925
4.200000 -8.080000 1.960000 -3.627901 -14.509403 223.684448
4.200000 -8.080000 2.000000 0.208797 -16.674124 278.070007
4.200000 -8.080000 2.040000 4.466778 -16.317324 286.207184
4.200000 -8.080000 2.080000 7.474985 -13.382325 234.962021
4.200000 -8.080000 2.120000 7.386600 -9.280003 140.680313
4.200000 -8.080000 2.160000 3.973491 -6.967984 64.341431
4.200000 -8.080000 2.200000 -0.171624 -8.809012 77.628159
4.200000 -8.040000 1.800000 -2.511470 8.487732 78.349075
4.200000 -8.040000 1.840000 -13.302613 2.726849 184.395218
4.200000 -8.040000 1.880000 -17.202534 -8.772201 372.878662
4.200000 -8.040000 1.920000 -12.785707 -19.499104 543.689331
4.200000 -8.040000 1.960000 -3.589560 -24.488125 612.553223
4.200000 -8.040000 2.000000 5.054214 -23.133488 560.703369
4.200000 -8.040000 2.040000 9.769230 -18.451521 435.896484
4.200000 -8.040000 2.080000 10.573557 -14.096304 310.505890
4.200000 -8.040000 2.120000 9.559078 -11.919743 233.456238
4.200000 -8.040000 2.160000 8.743919 -11.706332 213.494324
4.200000 -8.040000 2.200000 8.975478 -12.411610 234.607269
4.200000 -8.000000 1.800000 -15.072344 6.015619 263.363220
4.200000 -8.000000 1.840000 -23.836525 -6.447536 609.750671
4.200000 -8.000000 1.880000 -21.615646 -22.754717 985.013306
4.200000 -8.000000 1.920000 -9.106806 -33.645164 1214.931030
4.200000 -8.000000 1.960000 6.230313 -33.967686 1192.620483
4.200000 -8.000000 2.000000 16.355186 -26.222107 955.091003
4.200000 -8.000000 2.040000 18.791517 -17.389902 655.529785
4.200000 -8.000000 2.080000 17.139698 -12.485180 449.648987
4.200000 -8.000000 2.120000 16.246996 -11.138112 388.022400
4.200000 -8.000000 2.160000 17.454605 -9.935907 403.385498
4.200000 -8.000000 2.200000 18.594059 -7.140310 396.723083
4.200000 -7.960000 1.800000 -20.845297 -4.393435 453.828674
4.200000 -7.960000 1.840000 -23.590267 -20.550554 978.826050
4.200000 -7.960000 1.880000 -13.565683 -36.303905 1502.001221
4.200000 -7.960000 1.920000 5.094897 -41.935753 1784.565430
4.200000 -7.960000 1.960000 22.112038 -34.725410 1694.796387
4.200000 -7.960000 2.000000 29.489281 -20.935898 1307.929443
4.200000 -7.960000 2.040000 27.569843 -9.712823 854.435181
4.200000 -7.960000 2.080000 23.009224 -5.156424 556.013062
4.200000 -7.960000 2.120000 21.383759 -4.276031 475.549561
4.200000 -7.960000 2.160000 22.387783 -2.107434 505.654114
4.200000 -7.960000 2.200000 22.099314 2.328175 493.800079
4.200000 -7.920000 1.800000 -17.139681 -14.681360 509.310974
4.200000 -7.920000 1.840000 -13.468607 -29.496304 1051.435303
4.200000 -7.920000 1.880000 1.423314 -40.142513 1613.447266
4.200000 -7.920000 1.920000 21.249149 -38.667953 1946.736938
4.200000 -7.920000 1.960000 35.378693 -25.192810 1886.329590
4.200000 -7.920000 2.000000 37.518017 -8.160052 1474.187988
4.200000 -7.920000 2.040000 30.535311 2.965584 941.199890
4.200000 -7.920000 2.080000 22.817928 5.473431 550.616272
4.200000 -7.920000 2.120000 20.126732 4.185248 422.601624
4.200000 -7.920000 2.160000 21.213039 5.166013 476.680725
4.200000 -7.920000 2.200000 21.060177 9.493337 533.654480
4.200000 -7.880000 1.800000 -7.625048 -18.435001 397.990631
4.200000 -7.880000 1.840000 -1.184852 -28.372799 806.419617
4.200000 -7.880000 1.880000 13.546608 -33.445065 1302.083008
4.200000 -7.880000 1.920000 30.612446 -27.274258 1681.006958
4.200000 -7.880000 1.960000 40.214237 -10.977762 1737.696045
4.200000 -7.880000 2.000000 37.113716 6.354013 1417.801514
4.200000 -7.880000 2.040000 25.662228 15.048601 885.010315
4.200000 -7.880000 2.080000 15.951529 13.270581 430.559570
4.200000 -7.880000 2.120000 14.553635 8.044647 276.524628
4.200000 -7.880000 2.160000 18.951941 7.869023 421.097595
4.200000 -7.880000 2.200000 21.158600 14.417887 655.561768
4.200000 -7.840000 1.800000 1.464802 -13.816178 193.032425
4.200000 -7.840000 1.840000 5.554186 -19.625313 416.001862
4.200000 -7.840000 1.880000 17.111719 -22.691998 807.737671
4.200000 -7.840000 1.920000 31.272617 -15.568810 1220.364502
4.200000 -7.840000 1.960000 37.558086 1.195699 1412.039551
4.200000 -7.840000 2.000000 30.370588 17.284597 1221.129883
4.200000 -7.840000 2.040000 15.962225 21.829922 731.338135
4.200000 -7.840000 2.080000 7.275285 14.573224 265.308624
4.200000 -7.840000 2.120000 11.066294 6.751616 168.047180
4.200000 -7.840000 2.160000 20.714466 9.733621 523.832458
4.200000 -7.840000 2.200000 22.973896 23.042864 1058.773438
4.200000 -7.800000 1.800000 4.532423 -3.140509 30.405653
4.200000 -7.800000 1.840000 3.740729 -9.621752 106.571167
4.200000 -7.800000 1.880000 13.492615 -14.899835 404.055725
4.200000 -7.800000 1.920000 27.421400 -8.279654 820.485840
4.200000 -7.800000 1.960000 31.880749 9.052019 1098.321167
4.200000 -7.800000 2.000000 21.364485 23.380688 1003.097778
4.200000 -7.800000 2.040000 6.110025 22.904198 561.934692
4.200000 -7.800000 2.080000 1.943370 11.587671 138.050812
4.200000 -7.800000 2.120000 12.520304 6.024800 193.056229
4.200000 -7.800000 2.160000 23.962879 17.388365 876.574829
4.200000 -7.800000 2.200000 19.138891 37.959007 1807.183350
