#kx 	ky 	kz 	real 	imag 	intensity
4.800000 0.800000 2.983333 -40.710884 -34.893291 2874.917969
4.800000 0.800000 2.991667 -31.626194 5.682650 1032.508667
4.800000 0.800000 3.000000 1.135224 -78.310242 6133.782715
4.800000 0.800000 3.008333 32.366394 41.042274 2732.051758
4.800000 0.800000 3.016667 -60.187256 -18.502001 3964.829834
4.800000 0.900000 2.983333 12.064941 -3.772320 159.793198
4.800000 0.900000 2.991667 10.999022 49.823799 2603.389404
4.800000 0.900000 3.000000 -37.289169 40.563320 3035.865234
4.800000 0.900000 3.008333 -62.050365 5.161919 3876.893311
4.800000 0.900000 3.016667 -21.212639 -74.080963 5937.965332
4.800000 1.000000 2.983333 -4.851314 -10.009848 123.732300
4.800000 1.000000 2.991667 -35.902401 15.531346 1530.205078
4.800000 1.000000 3.000000 -24.885551 -32.249943 1659.349487
4.800000 1.000000 3.008333 -5.383078 -39.098259 1557.651367
4.800000 1.000000 3.016667 84.425079 5.023980 7152.834473
4.800000 1.100000 2.983333 26.786404 2.414867 723.343018
4.800000 1.100000 2.991667 56.103889 52.849403 5940.706055
4.800000 1.100000 3.000000 -85.366653 88.984116 15205.638672
4.800000 1.100000 3.008333 -29.525251 -45.907196 2979.211182
4.800000 1.100000 3.016667 -72.324959 84.371597 12349.466797
4.800000 1.200000 2.983333 13.001274 22.360428 669.021851
4.800000 1.200000 2.991667 -59.252731 127.071587 19658.074219
4.800000 1.200000 3.000000 -161.237411 -129.347641 42728.312500
4.800000 1.200000 3.008333 85.598663 -74.651588 12899.991211
4.800000 1.200000 3.016667 -37.687519 -80.133186 7841.676758
4.900000 0.800000 2.983333 -75.035645 38.867088 7140.998535
4.900000 0.800000 2.991667 -87.452065 -144.570679 28548.544922
4.900000 0.800000 3.000000 99.608971 26.878382 10644.394531
4.900000 0.800000 3.008333 -161.035034 -15.392639 26169.216797
4.900000 0.800000 3.016667 63.095505 -127.384171 20207.769531
4.900000 0.900000 2.983333 108.824356 -672.418457 463989.343750
4.900000 0.900000 2.991667 -168.971405 813.776001 690782.687500
4.900000 0.900000 3.000000 -1313.642090 -656.111328 2156137.500000
4.900000 0.900000 3.008333 178.975372 -1098.351562 1238408.250000
4.900000 0.900000 3.016667 453.064941 -533.733765 490139.562500
4.900000 1.000000 2.983333 1047.091431 56.174957 1099556.125000
4.900000 1.000000 2.991667 -1380.040527 -75.796265 1910257.000000
4.900000 1.000000 3.000000 695.919067 -2113.703125 4952044.500000
4.900000 1.000000 3.008333 1532.735107 -10.832550 2349394.250000
4.900000 1.000000 3.016667 965.457825 464.227997 1147616.500000
4.900000 1.100000 2.983333 112.729645 687.338989 485142.843750
4.900000 1.100000 2.991667 -180.015503 -781.430908 643039.812500
4.900000 1.100000 3.000000 1274.031250 119.316742 1637392.125000
4.900000 1.100000 3.008333 227.959198 879.397034 825304.500000
4.900000 1.100000 3.016667 -215.396729 666.665222 490838.281250
4.900000 1.200000 2.983333 2.993862 133.153839 17738.908203
4.900000 1.200000 2.991667 -222.571899 -84.067352 56605.570312
4.900000 1.200000 3.000000 153.592926 -177.750687 55186.093750
4.900000 1.200000 3.008333 42.558411 127.982803 18190.816406
4.900000 1.200000 3.016667 -25.776714 -69.164780 5448.205566
5.000000 0.800000 2.983333 -138.848373 -132.238068 36765.777344
5.000000 0.800000 2.991667 178.532074 -141.733490 51962.085938
5.000000 0.800000 3.000000 -29.811562 88.357857 8695.839844
5.000000 0.800000 3.008333 7.759594 -215.178558 46362.023438
5.000000 0.800000 3.016667 199.689713 18.978912 40236.179688
5.000000 0.900000 2.983333 1048.616211 -44.002869 1101532.250000
5.000000 0.900000 2.991667 -1236.409668 -27.103333 1529443.500000
5.000000 0.900000 3.000000 649.109253 -2110.453369 4875356.500000
5.000000 0.900000 3.008333 1685.884766 3.361816 2842218.750000
5.000000 0.900000 3.016667 912.375854 554.304138 1139682.750000
5.000000 1.000000 2.983333 166.116241 1571.094727 2495933.250000
5.000000 1.000000 2.991667 -212.312622 -2060.530762 4290863.500000
5.000000 1.000000 3.000000 3332.179199 525.535889 11379606.000000
5.000000 1.000000 3.008333 381.586487 2321.006104 5532678.000000
5.000000 1.000000 3.016667 -443.375549 1552.386841 2606487.000000
5.000000 1.100000 2.983333 -998.198242 302.036987 1087626.125000
5.000000 1.100000 2.991667 1196.463501 -410.411682 1599962.625000
5.000000 1.100000 3.000000 49.470551 2035.108887 4144115.500000
5.000000 1.100000 3.008333 -1321.453613 498.726318 1994967.500000
5.000000 1.100000 3.016667 -1085.435181 -108.908058 1190030.500000
5.000000 1.200000 2.983333 -172.245132 14.078297 29866.583984
5.000000 1.200000 2.991667 73.671890 -225.331192 56201.691406
5.000000 1.200000 3.000000 153.886414 81.158325 30267.701172
5.000000 1.200000 3.008333 -74.336266 23.730387 6089.011719
5.000000 1.200000 3.016667 69.296684 -113.291931 17637.091797
5.100000 0.800000 2.983333 101.891594 -106.718002 21770.628906
5.100000 0.800000 2.991667 51.888161 127.007462 18823.277344
5.100000 0.800000 3.000000 -73.906631 -15.788410 5711.463867
5.100000 0.800000 3.008333 105.817245 -59.435211 14729.833984
5.100000 0.800000 3.016667 95.783890 159.951721 34759.105469
5.100000 0.900000 2.983333 139.119492 626.476929 411827.562500
5.100000 0.900000 2.991667 -92.733093 -795.768738 641847.312500
5.100000 0.900000 3.000000 1382.369019 169.662216 1939729.375000
5.100000 0.900000 3.008333 212.092316 1049.672852 1146796.250000
5.100000 0.900000 3.016667 -295.886261 655.200562 516836.468750
5.100000 1.000000 2.983333 -923.279663 210.793869 896879.375000
5.100000 1.000000 2.991667 1258.516968 -292.358826 1669338.625000
5.100000 1.000000 3.000000 5.519455 2105.061279 4431313.500000
5.100000 1.000000 3.008333 -1424.252930 476.735596 2255773.250000
5.100000 1.000000 3.016667 -978.932617 -163.280182 984969.500000
5.100000 1.100000 2.983333 -233.827881 -626.379639 447026.906250
5.100000 1.100000 2.991667 358.793976 690.047791 604899.062500
5.100000 1.100000 3.000000 -1231.059937 182.341858 1548757.125000
5.100000 1.100000 3.008333 -388.711609 -789.971313 775151.375000
5.100000 1.100000 3.016667 -10.077402 -662.720215 439299.656250
5.100000 1.200000 2.983333 63.563740 -119.477463 18315.212891
5.100000 1.200000 2.991667 161.209579 53.682594 28870.349609
5.100000 1.200000 3.000000 48.668980 113.447464 15238.997070
5.100000 1.200000 3.008333 -14.123085 47.721283 2476.782227
5.100000 1.200000 3.016667 96.056114 48.878975 11615.931641
5.200000 0.800000 2.983333 -2.227928 60.965309 3721.732422
5.200000 0.800000 2.991667 -70.583122 -93.726768 13766.683594
5.200000 0.800000 3.000000 29.149580 -69.729568 5711.911133
5.200000 0.800000 3.008333 95.439453 -33.276554 10216.018555
5.200000 0.800000 3.016667 -24.125984 128.407242 17070.482422
5.200000 0.900000 2.983333 29.317860 -40.954056 2536.771484
5.200000 0.900000 2.991667 110.018410 28.064077 12891.643555
5.200000 0.900000 3.000000 44.179230 57.806274 5293.369629
5.200000 0.900000 3.008333 -7.162248 85.917755 7433.158691
5.200000 0.900000 3.016667 -40.603477 -46.917484 3849.892578
5.200000 1.000000 2.983333 109.684929 25.963953 12704.910156
5.200000 1.000000 2.991667 -45.570198 61.454834 5853.339844
5.200000 1.000000 3.000000 -14.101803 1.414921 200.862839
5.200000 1.000000 3.008333 -10.978296 -37.074871 1495.068970
5.200000 1.000000 3.016667 74.077980 50.765057 8064.638672
5.200000 1.100000 2.983333 91.396568 52.397125 11098.791992
5.200000 1.100000 2.991667 53.604088 16.382463 3141.783203
5.200000 1.100000 3.000000 67.084061 60.588871 8171.282227
5.200000 1.100000 3.008333 33.223763 84.646332 8268.820312
5.200000 1.100000 3.016667 -44.793453 71.086182 7059.698730
5.200000 1.200000 2.983333 81.250343 148.831345 28752.386719
5.200000 1.200000 2.991667 -49.540295 105.481750 13580.640625
5.200000 1.200000 3.000000 -59.116100 119.506081 17776.416016
5.200000 1.200000 3.008333 -133.134933 14.699364 17940.980469
5.200000 1.200000 3.016667 -41.398834 6.745021 1759.358887
