#kx 	ky 	kz 	real 	imag 	intensity
4.800000 0.800000 2.800000 -28.449902 14.583742 1022.082458
4.800000 0.800000 2.840000 -27.979782 2.379672 788.531067
4.800000 0.800000 2.880000 -22.872559 -5.054164 548.698486
4.800000 0.800000 2.920000 -17.900896 -8.746589 396.944885
4.800000 0.800000 2.960000 -13.251206 -11.865637 316.387817
4.800000 0.800000 3.000000 -6.279435 -14.201637 241.117813
4.800000 0.800000 3.040000 2.965021 -12.000989 152.815094
4.800000 0.800000 3.080000 9.714656 -3.179123 104.481369
4.800000 0.800000 3.120000 8.748322 8.677327 151.829132
4.800000 0.800000 3.160000 0.033703 16.658592 277.509827
4.800000 0.800000 3.200000 -10.854946 16.760605 398.747742
4.800000 0.840000 2.800000 -30.078102 -8.523525 977.342651
4.800000 0.840000 2.840000 -22.468445 -15.942775 759.003113
4.800000 0.840000 2.880000 -14.587675 -17.933334 534.404785
4.800000 0.840000 2.920000 -8.654671 -16.741899 355.194519
4.800000 0.840000 2.960000 -4.806755 -14.092601 221.706284
4.800000 0.840000 3.000000 -3.054993 -10.781637 125.576675
4.800000 0.840000 3.040000 -3.572788 -8.023013 77.133553
4.800000 0.840000 3.080000 -5.246410 -7.419770 82.577812
4.800000 0.840000 3.120000 -5.518578 -8.944194 110.453300
4.800000 0.840000 3.160000 -2.941891 -9.803410 104.761566
4.800000 0.840000 3.200000 0.216211 -6.908932 47.780087
4.800000 0.880000 2.800000 -14.536940 -25.986422 886.616760
4.800000 0.880000 2.840000 -4.783072 -25.297693 662.851074
4.800000 0.880000 2.880000 1.730720 -20.805389 435.859619
4.800000 0.880000 2.920000 4.075406 -14.416699 224.450150
4.800000 0.880000 2.960000 1.232871 -8.708460 77.357246
4.800000 0.880000 3.000000 -5.726644 -8.003770 96.854782
4.800000 0.880000 3.040000 -11.198650 -15.250176 357.977661
4.800000 0.880000 3.080000 -7.719894 -26.972862 787.132080
4.800000 0.880000 3.120000 6.598919 -33.220268 1147.131958
4.800000 0.880000 3.160000 23.436863 -25.400467 1194.470215
4.800000 0.880000 3.200000 29.319643 -5.645920 891.517883
4.800000 0.920000 2.800000 7.942721 -26.440647 762.194702
4.800000 0.920000 2.840000 13.850090 -18.634745 539.078735
4.800000 0.920000 2.880000 14.585315 -10.103529 314.812683
4.800000 0.920000 2.920000 9.581619 -2.912856 100.292160
4.800000 0.920000 2.960000 -0.754724 -1.834906 3.936487
4.800000 0.920000 3.000000 -10.137466 -11.769975 241.300537
4.800000 0.920000 3.040000 -7.663452 -29.985550 957.861694
4.800000 0.920000 3.080000 12.184672 -43.080822 2004.423584
4.800000 0.920000 3.120000 40.221161 -36.039116 2916.559570
4.800000 0.920000 3.160000 56.111355 -7.210600 3200.476807
4.800000 0.920000 3.200000 44.999371 26.235277 2713.233154
4.800000 0.960000 2.800000 21.981194 -10.934351 602.732910
4.800000 0.960000 2.840000 20.320202 -0.881533 413.687714
4.800000 0.960000 2.880000 13.751558 6.110002 226.437485
4.800000 0.960000 2.920000 2.887103 7.356295 62.450436
4.800000 0.960000 2.960000 -7.935679 -1.796270 66.201599
4.800000 0.960000 3.000000 -8.259396 -21.007057 509.514069
4.800000 0.960000 3.040000 10.522958 -38.359444 1582.179565
4.800000 0.960000 3.080000 42.790520 -35.832710 3115.011719
4.800000 0.960000 3.120000 67.027626 -5.859295 4527.034180
4.800000 0.960000 3.160000 61.470131 36.951752 5144.008789
4.800000 0.960000 3.200000 24.623024 63.768471 4672.711426
4.800000 1.000000 2.800000 19.124649 8.045895 430.488617
4.800000 1.000000 2.840000 10.581013 14.200542 313.613251
4.800000 1.000000 2.880000 0.113621 14.186649 201.273926
4.800000 1.000000 2.920000 -9.460423 6.186563 127.773148
4.800000 1.000000 2.960000 -11.117647 -10.240288 228.465576
4.800000 1.000000 3.000000 3.363124 -27.204887 751.416504
4.800000 1.000000 3.040000 32.589752 -28.806843 1891.926025
4.800000 1.000000 3.080000 59.333794 -3.965426 3536.223633
4.800000 1.000000 3.120000 60.362873 38.981361 5163.223145
4.800000 1.000000 3.160000 27.063702 73.084854 6073.839844
4.800000 1.000000 3.200000 -22.859953 72.910484 5838.516602
4.800000 1.040000 2.800000 3.830494 16.903166 300.389709
4.800000 1.040000 2.840000 -6.811620 15.196739 277.339050
4.800000 1.040000 2.880000 -14.323288 6.973693 253.788971
4.800000 1.040000 2.920000 -14.934387 -6.287458 262.568054
4.800000 1.040000 2.960000 -3.917070 -19.540829 397.187439
4.800000 1.040000 3.000000 18.697577 -22.015665 834.288879
4.800000 1.040000 3.040000 41.636681 -3.851721 1748.448853
4.800000 1.040000 3.080000 45.962547 31.830130 3125.712891
4.800000 1.040000 3.120000 20.320610 64.899536 4624.876953
4.800000 1.040000 3.160000 -25.356451 70.861816 5664.346680
4.800000 1.040000 3.200000 -63.336395 41.647858 5746.042969
4.800000 1.080000 2.800000 -11.484407 11.269275 258.888184
4.800000 1.080000 2.840000 -18.085678 2.199379 331.929047
4.800000 1.080000 2.880000 -16.928984 -9.722140 381.110504
4.800000 1.080000 2.920000 -6.849015 -19.258812 417.810822
4.800000 1.080000 2.960000 10.211937 -19.796158 496.171539
4.800000 1.080000 3.000000 26.483089 -5.853652 735.619263
4.800000 1.080000 3.040000 29.488108 20.520523 1290.640381
4.800000 1.080000 3.080000 10.527175 46.011269 2227.858398
4.800000 1.080000 3.120000 -25.245657 52.365242 3379.461914
4.800000 1.080000 3.160000 -58.198227 30.662127 4327.199707
4.800000 1.080000 3.200000 -67.264282 -8.854609 4602.888184
4.800000 1.120000 2.800000 -17.084696 -2.377577 297.539703
4.800000 1.120000 2.840000 -15.726446 -14.345348 453.110107
4.800000 1.120000 2.880000 -5.438927 -22.638496 542.083435
4.800000 1.120000 2.920000 9.331294 -21.351414 542.955933
4.800000 1.120000 2.960000 20.668331 -8.616806 501.429260
4.800000 1.120000 3.000000 20.250767 11.246257 536.571838
4.800000 1.120000 3.040000 4.334467 27.942617 799.577454
4.800000 1.120000 3.080000 -21.811470 29.917416 1370.791992
4.800000 1.120000 3.120000 -44.655869 12.385511 2147.547607
4.800000 1.120000 3.160000 -50.270569 -17.319077 2827.080566
4.800000 1.120000 3.200000 -34.659523 -43.047474 3054.367676
4.800000 1.160000 2.800000 -12.530382 -14.096191 355.713074
4.800000 1.160000 2.840000 -3.459440 -23.463882 562.521484
4.800000 1.160000 2.880000 11.052260 -23.089855 655.293884
4.800000 1.160000 2.920000 21.520214 -11.080797 585.903687
4.800000 1.160000 2.960000 19.658039 6.266456 425.706970
4.800000 1.160000 3.000000 4.514451 17.907455 341.057251
4.800000 1.160000 3.040000 -16.034393 15.219635 488.739075
4.800000 1.160000 3.080000 -29.859756 -1.868925 895.097900
4.800000 1.160000 3.120000 -28.522894 -24.322124 1405.121216
4.800000 1.160000 3.160000 -12.997236 -39.833122 1755.605713
4.800000 1.160000 3.200000 7.117697 -41.105473 1740.321533
4.800000 1.200000 2.800000 -4.244665 -19.043331 380.665649
4.800000 1.200000 2.840000 9.102814 -22.498890 589.061279
4.800000 1.200000 2.880000 21.528240 -13.634654 649.368896
4.800000 1.200000 2.920000 22.496267 2.726689 513.516846
4.800000 1.200000 2.960000 9.426942 14.326419 294.113525
4.800000 1.200000 3.000000 -8.962072 11.160612 204.878006
4.800000 1.200000 3.040000 -18.940609 -5.893974 393.485596
4.800000 1.200000 3.080000 -12.716484 -25.271957 800.380798
4.800000 1.200000 3.120000 5.344697 -33.858047 1174.933228
4.800000 1.200000 3.160000 22.580721 -27.282669 1254.233032
4.800000 1.200000 3.200000 28.442520 -12.664700 969.371521
4.840000 0.800000 2.800000 -39.520836 9.723468 1656.442261
4.840000 0.800000 2.840000 -37.933441 -6.169880 1477.013306
4.840000 0.800000 2.880000 -28.984095 -17.695351 1153.203125
4.840000 0.800000 2.920000 -17.015699 -22.714052 805.462158
4.840000 0.800000 2.960000 -5.383537 -21.774687 503.119476
4.840000 0.800000 3.000000 3.874485 -15.995516 270.868164
4.840000 0.800000 3.040000 8.860658 -6.664021 122.920425
4.840000 0.800000 3.080000 7.872664 3.647881 75.285873
4.840000 0.800000 3.120000 1.141514 11.054809 123.511848
4.840000 0.800000 3.160000 -8.165901 12.569977 224.686264
4.840000 0.800000 3.200000 -15.688760 8.395859 316.627625
4.840000 0.840000 2.800000 -31.739109 -18.080490 1334.275146
4.840000 0.840000 2.840000 -16.788872 -26.828787 1001.650024
4.840000 0.840000 2.880000 -0.500836 -23.307228 543.477722
4.840000 0.840000 2.920000 7.564873 -10.415035 165.700256
4.840000 0.840000 2.960000 3.449196 2.393527 17.625923
4.840000 0.840000 3.000000 -7.933533 6.111607 100.292679
4.840000 0.840000 3.040000 -16.610266 -0.839581 276.605835
4.840000 0.840000 3.080000 -15.588051 -11.562609 376.681274
4.840000 0.840000 3.120000 -6.396412 -16.670322 318.813751
4.840000 0.840000 3.160000 2.622490 -12.229332 156.434021
4.840000 0.840000 3.200000 3.735451 -2.841240 22.026237
4.840000 0.880000 2.800000 -5.757645 -30.563358 967.269348
4.840000 0.880000 2.840000 14.336103 -22.234192 699.883179
4.840000 0.880000 2.880000 22.571335 0.491696 509.706909
4.840000 0.880000 2.920000 9.358696 23.472645 638.550232
4.840000 0.880000 2.960000 -19.216885 28.150768 1161.754395
4.840000 0.880000 3.000000 -42.750488 7.398869 1882.347534
4.840000 0.880000 3.040000 -41.899971 -25.923935 2427.657959
4.840000 0.880000 3.080000 -15.265749 -47.519688 2491.163574
4.840000 0.880000 3.120000 18.056049 -41.411903 2040.966675
4.840000 0.880000 3.160000 33.885433 -13.525341 1331.157349
4.840000 0.880000 3.200000 23.017429 13.593297 714.579773
4.840000 0.920000 2.800000 19.245195 -18.977577 730.526001
4.840000 0.920000 2.840000 29.547228 6.729465 918.324402
4.840000 0.920000 2.880000 14.776976 37.219803 1603.672729
4.840000 0.920000 2.920000 -24.021614 48.139065 2894.407715
4.840000 0.920000 2.960000 -63.143730 22.987730 4515.566406
4.840000 0.920000 3.000000 -71.304092 -28.174427 5878.071777
4.840000 0.920000 3.040000 -36.461498 -71.316734 6415.517578
4.840000 0.920000 3.080000 20.333202 -74.334442 5939.048340
4.840000 0.920000 3.120000 59.536377 -34.578171 4740.229980
4.840000 0.920000 3.160000 55.256165 17.785511 3369.568115
4.840000 0.920000 3.200000 16.169292 44.942429 2281.267822
4.840000 0.960000 2.800000 24.769371 6.178545 651.696167
4.840000 0.960000 2.840000 14.326228 36.896030 1566.557861
4.840000 0.960000 2.880000 -23.696129 54.014233 3479.043945
4.840000 0.960000 2.920000 -70.876038 34.049164 6182.758301
4.840000 0.960000 2.960000 -91.394501 -22.448746 8856.901367
4.840000 0.960000 3.000000 -60.737633 -82.377258 10475.072266
4.840000 0.960000 3.040000 8.523963 -101.906967 10457.688477
4.840000 0.960000 3.080000 71.030998 -63.201118 9039.784180
4.840000 0.960000 3.120000 83.631393 7.590929 7051.832031
4.840000 0.960000 3.160000 41.165375 60.097404 5306.286133
4.840000 0.960000 3.200000 -19.988527 60.961903 4115.894531
4.840000 1.000000 2.800000 8.547232 24.071972 652.515015
4.840000 1.000000 2.840000 -20.058958 42.464111 2205.562500
4.840000 1.000000 2.880000 -63.711220 31.935894 5079.020996
4.840000 1.000000 2.920000 -91.861313 -16.489033 8710.389648
4.840000 1.000000 2.960000 -73.525047 -80.032715 11811.167969
4.840000 1.000000 3.000000 -7.769109 -114.268517 13117.653320
4.840000 1.000000 3.040000 66.947464 -88.212128 12263.341797
4.840000 1.000000 3.080000 99.128746 -14.218508 10028.673828
4.840000 1.000000 3.120000 66.403145 57.543144 7720.590820
4.840000 1.000000 3.160000 -4.713712 78.656578 6209.076660
4.840000 1.000000 3.200000 -60.961891 41.486221 5437.458984
4.840000 1.040000 2.800000 -14.387442 21.250534 658.583679
4.840000 1.040000 2.840000 -45.836300 18.079782 2427.844727
4.840000 1.040000 2.880000 -72.377396 -15.012021 5463.848145
4.840000 1.040000 2.920000 -66.147163 -67.983246 8997.168945
4.840000 1.040000 2.960000 -16.192820 -106.607437 11627.352539
4.840000 1.040000 3.000000 53.868500 -96.510902 12216.169922
4.840000 1.040000 3.040000 97.582138 -34.925182 10742.041992
4.840000 1.040000 3.080000 81.897453 40.521843 8349.212891
4.840000 1.040000 3.120000 16.702589 78.673737 6468.533203
4.840000 1.040000 3.160000 -51.049271 56.050072 5747.638672
4.840000 1.040000 3.200000 -75.399246 -4.611330 5706.310547
4.840000 1.080000 2.800000 -25.508602 1.914236 654.353088
4.840000 1.080000 2.840000 -43.278934 -16.862513 2157.410400
4.840000 1.080000 2.880000 -42.788193 -51.813572 4515.475586
4.840000 1.080000 2.920000 -11.568304 -82.870865 7001.405762
4.840000 1.080000 2.960000 40.544678 -82.943024 8523.416016
4.840000 1.080000 3.000000 81.604866 -41.438850 8376.532227
4.840000 1.080000 3.040000 80.048782 20.891689 6844.270508
4.840000 1.080000 3.080000 32.321701 63.323933 5054.612793
4.840000 1.080000 3.120000 -30.373604 56.625824 4129.039551
4.840000 1.080000 3.160000 -65.287003 7.553371 4319.445801
4.840000 1.080000 3.200000 -52.150303 -46.584698 4889.788086
4.840000 1.120000 2.800000 -18.200066 -17.818504 648.741455
4.840000 1.120000 2.840000 -16.987350 -36.480953 1619.430054
4.840000 1.120000 2.880000 0.803914 -53.916782 2907.665771
4.840000 1.120000 2.920000 31.754532 -54.937771 4026.509033
4.840000 1.120000 2.960000 58.878586 -30.829308 4417.134277
4.840000 1.120000 3.000000 61.535664 9.537903 3877.609619
4.840000 1.120000 3.040000 32.659946 41.742630 2809.119141
4.840000 1.120000 3.080000 -11.971455 42.955704 1988.508179
4.840000 1.120000 3.120000 -43.186264 10.982004 1985.657715
4.840000 1.120000 3.160000 -40.643623 -32.328579 2697.041016
4.840000 1.120000 3.200000 -8.899623 -57.843063 3425.023438
4.840000 1.160000 2.800000 -0.920095 -24.924797 622.092041
4.840000 1.160000 2.840000 10.922086 -30.980537 1079.085693
4.840000 1.160000 2.880000 26.739502 -27.434200 1467.636230
4.840000 1.160000 2.920000 37.948982 -12.372641 1593.207520
4.840000 1.160000 2.960000 35.949852 8.450382 1363.800781
4.840000 1.160000 3.000000 18.827618 23.271805 896.056091
4.840000 1.160000 3.040000 -5.127979 21.619999 493.720520
4.840000 1.160000 3.080000 -21.388115 2.618599 464.308502
4.840000 1.160000 3.120000 -19.138317 -22.788017 885.568848
4.840000 1.160000 3.160000 0.306585 -38.893154 1512.771484
4.840000 1.160000 3.200000 24.159117 -36.697021 1930.334229
4.840000 1.200000 2.800000 12.943143 -19.220007 536.933594
4.840000 1.200000 2.840000 22.429447 -12.134161 650.317993
4.840000 1.200000 2.880000 24.211147 0.601021 586.540833
4.840000 1.200000 2.920000 15.872601 11.097553 375.095154
4.840000 1.200000 2.960000 2.147673 12.091637 150.820175
4.840000 1.200000 3.000000 -8.133240 2.388858 71.856232
4.840000 1.200000 3.040000 -8.208851 -12.130896 214.543854
4.840000 1.200000 3.080000 2.027349 -22.658182 517.503357
4.840000 1.200000 3.120000 16.331465 -23.469282 817.523926
4.840000 1.200000 3.160000 26.775942 -15.375133 953.345764
4.840000 1.200000 3.200000 29.135315 -4.368640 867.951599
4.880000 0.800000 2.800000 -45.968491 -4.763014 2135.788330
4.880000 0.800000 2.840000 -39.363174 -23.562866 2104.668213
4.880000 0.800000 2.880000 -22.873880 -34.848671 1737.644287
4.880000 0.800000 2.920000 -4.031979 -34.340996 1195.560791
4.880000 0.800000 2.960000 9.345757 -24.180502 672.039795
4.880000 0.800000 3.000000 13.573494 -10.604248 296.689819
4.880000 0.800000 3.040000 10.023378 0.299793 100.557991
4.880000 0.800000 3.080000 2.918140 5.619476 40.094055
4.880000 0.800000 3.120000 -3.745964 5.883177 48.644020
4.880000 0.800000 3.160000 -8.037495 3.347404 75.806435
4.880000 0.800000 3.200000 -10.014914 0.000042 100.298492
4.880000 0.840000 2.800000 -25.293436 -29.078777 1485.333252
4.880000 0.840000 2.840000 -2.584791 -30.923519 962.945190
4.880000 0.840000 2.880000 14.097412 -14.228270 401.180664
4.880000 0.840000 2.920000 11.194183 9.138952 208.830185
4.880000 0.840000 2.960000 -9.175644 20.347862 498.227936
4.880000 0.840000 3.000000 -29.927492 10.189041 999.471313
4.880000 0.840000 3.040000 -33.756893 -12.482468 1295.339844
4.880000 0.840000 3.080000 -18.286861 -28.752647 1161.124023
4.880000 0.840000 3.120000 2.647633 -26.557543 712.313049
4.880000 0.840000 3.160000 12.285076 -10.529503 261.793518
4.880000 0.840000 3.200000 5.738564 3.833534 47.627094
4.880000 0.880000 2.800000 6.003061 -28.054508 823.092163
4.880000 0.880000 2.840000 25.815880 -1.558971 668.890076
4.880000 0.880000 2.880000 14.922798 37.038765 1594.560059
4.880000 0.880000 2.920000 -28.392685 55.183464 3851.359131
4.880000 0.880000 2.960000 -75.327194 30.651817 6613.719727
4.880000 0.880000 3.000000 -88.293167 -25.030533 8422.210938
4.880000 0.880000 3.040000 -54.138897 -72.837135 8236.268555
4.880000 0.880000 3.080000 2.789413 -78.743759 6208.360352
4.880000 0.880000 3.120000 41.225471 -42.697071 3522.579590
4.880000 0.880000 3.160000 38.291550 3.045097 1475.515381
4.880000 0.880000 3.200000 6.598606 23.816643 610.774109
4.880000 0.920000 2.800000 22.770250 -3.516669 530.851257
4.880000 0.920000 2.840000 15.896420 42.008568 2017.415894
4.880000 0.920000 2.880000 -35.835190 72.169075 6492.536133
4.880000 0.920000 2.920000 -105.097382 48.291946 13377.572266
4.880000 0.920000 2.960000 -138.033600 -29.404995 19917.929688
4.880000 0.920000 3.000000 -100.276825 -112.879372 22797.195312
4.880000 0.920000 3.040000 -11.339577 -142.702194 20492.501953
4.880000 0.920000 3.080000 67.976753 -98.862740 14394.679688
4.880000 0.920000 3.120000 86.095642 -18.204937 7743.879395
4.880000 0.920000 3.160000 42.709705 38.456940 3303.055176
4.880000 0.920000 3.200000 -16.041357 38.298279 1724.083252
4.880000 0.960000 2.800000 12.267538 22.516336 657.477905
4.880000 0.960000 2.840000 -29.421078 60.135086 4481.828125
4.880000 0.960000 2.880000 -103.959076 49.757931 13283.340820
4.880000 0.960000 2.920000 -156.370850 -27.625288 25214.998047
4.880000 0.960000 2.960000 -132.470413 -133.183380 35286.222656
4.880000 0.960000 3.000000 -31.620699 -193.383911 38397.203125
4.880000 0.960000 3.040000 83.782021 -161.081818 32966.777344
4.880000 0.960000 3.080000 136.673996 -58.698059 22125.244141
4.880000 0.960000 3.120000 99.396210 39.118690 11409.878906
4.880000 0.960000 3.160000 14.190697 68.671028 4917.085938
4.880000 0.960000 3.200000 -47.837433 27.646801 3052.765625
4.880000 1.000000 2.800000 -14.494432 27.367231 959.053894
4.880000 1.000000 2.840000 -74.055145 32.758015 6557.251953
4.880000 1.000000 2.880000 -132.685730 -23.855644 18174.595703
4.880000 1.000000 2.920000 -130.667435 -125.843971 32910.683594
4.880000 1.000000 2.960000 -43.623158 -206.151749 44401.523438
4.880000 1.000000 3.000000 84.650566 -199.024872 46776.617188
4.880000 1.000000 3.040000 170.031815 -99.851143 38881.070312
4.880000 1.000000 3.080000 156.709778 25.059401 25185.927734
4.880000 1.000000 3.120000 64.256874 91.827301 12561.199219
4.880000 1.000000 3.160000 -31.212706 67.793793 5570.231445
4.880000 1.000000 3.200000 -63.630405 -7.149173 4099.939453
4.880000 1.040000 2.800000 -33.184563 7.590101 1158.824829
4.880000 1.040000 2.840000 -80.740700 -21.007856 6960.390625
4.880000 1.040000 2.880000 -94.732445 -96.385132 18264.330078
4.880000 1.040000 2.920000 -38.041344 -174.582306 31926.126953
4.880000 1.040000 2.960000 73.179832 -191.097900 41873.695312
4.880000 1.040000 3.000000 170.670547 -117.613289 42961.320312
4.880000 1.040000 3.040000 186.221695 5.811008 34712.289062
4.880000 1.040000 3.080000 110.247635 98.093513 21776.878906
4.880000 1.040000 3.120000 1.529133 102.927185 10596.343750
4.880000 1.040000 3.160000 -62.532246 33.428379 5027.738281
4.880000 1.040000 3.200000 -49.389755 -44.653801 4433.309570
4.880000 1.080000 2.800000 -28.059624 -19.302053 1159.911743
4.880000 1.080000 2.840000 -44.530602 -60.081192 5592.724121
4.880000 1.080000 2.880000 -17.919470 -115.817871 13734.886719
4.880000 1.080000 2.920000 56.330940 -141.161682 23099.796875
4.880000 1.080000 2.960000 138.701187 -100.766800 29391.968750
4.880000 1.080000 3.000000 171.024185 -6.249847 29288.332031
4.880000 1.080000 3.040000 125.269127 85.004654 22918.144531
4.880000 1.080000 3.080000 31.009029 113.648376 13877.512695
4.880000 1.080000 3.120000 -46.466080 67.165192 6670.259766
4.880000 1.080000 3.160000 -59.374352 -11.154804 3649.743408
4.880000 1.080000 3.200000 -13.864385 -61.053261 3919.721924
4.880000 1.120000 2.800000 -4.529472 -31.857275 1035.402100
4.880000 1.120000 2.840000 4.568878 -58.461170 3438.583252
4.880000 1.120000 2.880000 41.057423 -76.064224 7471.478027
4.880000 1.120000 2.920000 90.540726 -59.704296 11762.226562
4.880000 1.120000 2.960000 119.222084 -5.418167 14243.261719
4.880000 1.120000 3.000000 100.243103 59.097977 13541.250000
4.880000 1.120000 3.040000 39.468262 92.193428 10057.371094
4.880000 1.120000 3.080000 -24.829300 71.789261 5770.191895
4.880000 1.120000 3.120000 -51.156456 14.768259 2835.084473
4.880000 1.120000 3.160000 -27.843967 -36.539089 2110.391602
4.880000 1.120000 3.200000 19.694592 -49.106266 2799.302246
4.880000 1.160000 2.800000 18.275036 -23.273746 875.644226
4.880000 1.160000 2.840000 30.973053 -25.975220 1634.041992
4.880000 1.160000 2.880000 48.051247 -17.962749 2631.582764
4.880000 1.160000 2.920000 58.727440 3.962029 3464.609863
4.880000 1.160000 2.960000 51.468662 31.926994 3668.356201
4.880000 1.160000 3.000000 24.786919 49.484032 3063.060791
4.880000 1.160000 3.040000 -8.052391 43.475121 1954.927002
4.880000 1.160000 3.080000 -26.869215 15.914749 975.233948
4.880000 1.160000 3.120000 -19.929262 -15.565468 639.459229
4.880000 1.160000 3.160000 6.394123 -30.601925 977.362610
4.880000 1.160000 3.200000 32.726582 -21.730474 1543.242676
4.880000 1.200000 2.800000 25.919300 -4.499356 692.054321
4.880000 1.200000 2.840000 24.769398 5.656879 645.523376
4.880000 1.200000 2.880000 17.409475 12.639580 462.848816
4.880000 1.200000 2.920000 8.020517 13.166805 237.693451
4.880000 1.200000 2.960000 1.341118 8.131828 67.925232
4.880000 1.200000 3.000000 -0.409317 0.976107 1.120325
4.880000 1.200000 3.040000 2.210155 -5.157391 31.483465
4.880000 1.200000 3.080000 7.552991 -8.666832 132.161652
4.880000 1.200000 3.120000 14.108879 -8.929485 278.796173
4.880000 1.200000 3.160000 20.307013 -5.616220 443.916687
4.880000 1.200000 3.200000 24.142197 0.830490 583.535339
4.920000 0.800000 2.800000 -39.942730 -21.742220 2068.145752
4.920000 0.800000 2.840000 -26.487955 -38.752213 2203.345703
4.920000 0.800000 2.880000 -4.414429 -43.478165 1909.838013
4.920000 0.800000 2.920000 14.870689 -33.504951 1343.719238
4.920000 0.800000 2.960000 22.425056 -15.748711 750.905029
4.920000 0.800000 3.000000 17.794767 -0.716843 317.167603
4.920000 0.800000 3.040000 7.936913 5.322708 91.325806
4.920000 0.800000 3.080000 0.719349 3.711842 14.295231
4.920000 0.800000 3.120000 -0.936054 0.282792 0.956169
4.920000 0.800000 3.160000 0.361414 -0.514305 0.395130
4.920000 0.800000 3.200000 0.566315 1.158974 1.663932
4.920000 0.840000 2.800000 -11.620211 -32.819351 1212.139160
4.920000 0.840000 2.840000 10.643784 -22.007763 597.631714
4.920000 0.840000 2.880000 15.031517 4.593876 247.050201
4.920000 0.840000 2.920000 -5.659668 24.642075 639.263672
4.920000 0.840000 2.960000 -35.677479 18.833366 1627.578125
4.920000 0.840000 3.000000 -49.283707 -10.236473 2533.669189
4.920000 0.840000 3.040000 -34.145607 -39.399525 2718.245117
4.920000 0.840000 3.080000 -2.485634 -45.701340 2094.791016
4.920000 0.840000 3.120000 20.682640 -26.575638 1134.036133
4.920000 0.840000 3.160000 20.284935 -0.346395 411.598572
4.920000 0.840000 3.200000 2.905224 12.132637 155.641205
4.920000 0.880000 2.800000 12.728729 -16.776735 443.479431
4.920000 0.880000 2.840000 14.708416 23.795616 782.568848
4.920000 0.880000 2.880000 -26.283733 55.925316 3818.475586
4.920000 0.880000 2.920000 -87.849266 41.071075 9404.327148
4.920000 0.880000 2.960000 -120.622223 -23.745331 15113.561523
4.920000 0.880000 3.000000 -91.823578 -96.669487 17776.558594
4.920000 0.880000 3.040000 -17.351494 -124.731354 15858.984375
4.920000 0.880000 3.080000 50.086121 -90.028763 10613.797852
4.920000 0.880000 3.120000 66.585693 -24.349411 5026.548828
4.920000 0.880000 3.160000 33.076073 21.203472 1543.613770
4.920000 0.880000 3.200000 -11.217173 21.184746 574.618408
4.920000 0.920000 2.800000 12.179909 10.826694 265.567505
4.920000 0.920000 2.840000 -27.693550 55.562477 3854.121582
4.920000 0.920000 2.880000 -108.167732 49.693680 14169.719727
4.920000 0.920000 2.920000 -167.896622 -30.902634 29144.248047
4.920000 0.920000 2.960000 -145.756577 -144.479782 42119.390625
4.920000 0.920000 3.000000 -40.484520 -210.824326 46085.890625
4.920000 0.920000 3.040000 80.699966 -179.778961 38832.960938
4.920000 0.920000 3.080000 136.998688 -76.445892 24612.615234
4.920000 0.920000 3.120000 102.195099 21.055145 10887.157227
4.920000 0.920000 3.160000 22.096170 50.120789 3000.334229
4.920000 0.920000 3.200000 -32.572285 13.063137 1231.599243
4.920000 0.960000 2.800000 -11.413496 23.692657 691.609924
4.920000 0.960000 2.840000 -85.067238 36.727497 8585.343750
4.920000 0.960000 2.880000 -162.321838 -30.710707 27291.527344
4.920000 0.960000 2.920000 -164.035919 -159.045807 52203.351562
4.920000 0.960000 2.960000 -57.749687 -262.220184 72094.445312
4.920000 0.960000 3.000000 100.992332 -257.070068 76284.476562
4.920000 0.960000 3.040000 207.512238 -139.194824 62436.527344
4.920000 0.960000 3.080000 195.661240 8.858437 38361.792969
4.920000 0.960000 3.120000 92.481628 87.659172 16236.982422
4.920000 0.960000 3.160000 -11.063280 63.604538 4167.933594
4.920000 0.960000 3.200000 -42.740273 -12.360742 1979.518799
4.920000 1.000000 2.800000 -34.859863 9.250793 1300.787231
4.920000 1.000000 2.840000 -107.288315 -25.734043 12173.023438
4.920000 1.000000 2.880000 -133.925385 -133.982605 35887.343750
4.920000 1.000000 2.920000 -56.401733 -250.729050 66046.210938
4.920000 1.000000 2.960000 102.845520 -279.903229 88923.023438
4.920000 1.000000 3.000000 244.634705 -180.037445 92259.625000
4.920000 1.000000 3.040000 272.185242 -9.110126 74167.796875
4.920000 1.000000 3.080000 174.384460 119.371620 44659.523438
4.920000 1.000000 3.120000 34.006607 131.153458 18357.677734
4.920000 1.000000 3.160000 -46.644642 48.726032 4549.949219
4.920000 1.000000 3.200000 -31.235994 -39.587849 2542.885010
4.920000 1.040000 2.800000 -35.326088 -19.856564 1642.215576
4.920000 1.040000 2.840000 -72.012032 -85.083664 12424.962891
4.920000 1.040000 2.880000 -35.245853 -183.323151 34849.648438
4.920000 1.040000 2.920000 87.185303 -234.314804 62504.703125
4.920000 1.040000 2.960000 228.668823 -174.412796 82709.250000
4.920000 1.040000 3.000000 290.141937 -21.525446 84645.687500
4.920000 1.040000 3.040000 224.593735 129.447556 67199.015625
4.920000 1.040000 3.080000 80.567520 182.804443 39908.589844
4.920000 1.040000 3.120000 -38.560547 120.981537 16123.448242
4.920000 1.040000 3.160000 -62.051170 13.194205 4024.434814
4.920000 1.040000 3.200000 -4.527878 -51.348236 2657.143066
4.920000 1.080000 2.800000 -11.098730 -38.174595 1580.481445
4.920000 1.080000 2.840000 -5.466602 -96.897423 9418.994141
4.920000 1.080000 2.880000 63.351227 -145.363342 25143.878906
4.920000 1.080000 2.920000 168.840271 -124.628769 44039.367188
4.920000 1.080000 2.960000 238.652863 -20.570442 57378.332031
4.920000 1.080000 3.000000 213.276093 111.974403 58024.957031
4.920000 1.080000 3.040000 101.339592 187.931854 45588.093750
4.920000 1.080000 3.080000 -22.754387 162.144531 26808.611328
4.920000 1.080000 3.120000 -79.751816 66.446152 10775.443359
4.920000 1.080000 3.160000 -49.420753 -20.816553 2875.739746
4.920000 1.080000 3.200000 20.577007 -42.806625 2255.820557
4.920000 1.120000 2.800000 18.233793 -31.008709 1294.011230
4.920000 1.120000 2.840000 42.609528 -58.216019 5204.676758
4.920000 1.120000 2.880000 96.817261 -58.006371 12738.321289
4.920000 1.120000 2.920000 146.467743 -7.610283 21510.714844
4.920000 1.120000 2.960000 147.148071 75.974152 27424.626953
4.920000 1.120000 3.000000 84.579468 141.953903 27304.597656
4.920000 1.120000 3.040000 -7.325638 145.375336 21187.652344
4.920000 1.120000 3.080000 -70.719582 85.749130 12354.172852
4.920000 1.120000 3.120000 -70.428833 8.273453 5028.670898
4.920000 1.120000 3.160000 -20.705786 -34.223671 1599.989258
4.920000 1.120000 3.200000 31.338863 -23.466732 1532.811768
4.920000 1.160000 2.800000 31.090988 -6.195135 1005.029236
4.920000 1.160000 2.840000 44.174309 -6.228203 1990.160034
4.920000 1.160000 2.880000 60.679718 8.677536 3757.327637
4.920000 1.160000 2.920000 64.373871 39.429420 5698.674316
4.920000 1.160000 2.960000 42.884293 70.878014 6862.755371
4.920000 1.160000 3.000000 1.433411 81.096581 6578.709961
4.920000 1.160000 3.040000 -37.390282 59.644787 4955.533691
4.920000 1.160000 3.080000 -50.025932 18.337379 2838.853516
4.920000 1.160000 3.120000 -30.884342 -16.586754 1228.963013
4.920000 1.160000 3.160000 3.281946 -24.834644 627.530762
4.920000 1.160000 3.200000 27.600887 -7.095959 812.161621
4.920000 1.200000 2.800000 22.785490 15.857473 770.638000
4.920000 1.200000 2.840000 13.789976 19.525145 571.394714
4.920000 1.200000 2.880000 5.828300 17.094368 326.186493
4.920000 1.200000 2.920000 2.550980 12.168427 154.578094
4.920000 1.200000 2.960000 2.712860 9.196948 91.943466
4.920000 1.200000 3.000000 2.289024 8.772255 82.192085
4.920000 1.200000 3.040000 -0.397842 7.474068 56.019966
4.920000 1.200000 3.080000 -2.336342 2.517487 11.796232
4.920000 1.200000 3.120000 0.884884 -4.038727 17.094334
4.920000 1.200000 3.160000 9.596031 -6.383049 132.827133
4.920000 1.200000 3.200000 18.366676 -0.633656 337.736328
4.960000 0.800000 2.800000 -23.278648 -29.390247 1405.682129
4.960000 0.800000 2.840000 -6.285316 -39.793961 1623.064575
4.960000 0.800000 2.880000 14.440964 -36.003906 1504.822632
4.960000 0.800000 2.920000 27.142040 -19.940521 1134.314697
4.960000 0.800000 2.960000 26.158100 -1.763687 687.356812
4.960000 0.800000 3.000000 15.760685 8.438904 319.614288
4.960000 0.800000 3.040000 5.626923 8.272652 100.099030
4.960000 0.800000 3.080000 2.430321 3.507492 18.208960
4.960000 0.800000 3.120000 5.117218 1.756580 29.271496
4.960000 0.800000 3.160000 7.495275 5.618168 87.742950
4.960000 0.800000 3.200000 4.864396 11.360092 152.714050
4.960000 0.840000 2.800000 0.064169 -25.057667 627.890747
4.960000 0.840000 2.840000 11.142208 -5.698662 156.623550
4.960000 0.840000 2.880000 -1.614937 16.790863 284.541107
4.960000 0.840000 2.920000 -31.335423 18.577660 1327.038086
4.960000 0.840000 2.960000 -52.423302 -7.575378 2805.589111
4.960000 0.840000 3.000000 -43.870834 -43.184673 3789.566162
4.960000 0.840000 3.040000 -9.510788 -59.758236 3661.501953
4.960000 0.840000 3.080000 24.926739 -44.455608 2597.643555
4.960000 0.840000 3.120000 35.011211 -10.876328 1344.079468
4.960000 0.840000 3.160000 18.412289 14.715467 555.557373
4.960000 0.840000 3.200000 -6.051167 17.234432 333.642273
4.960000 0.880000 2.800000 7.406404 -4.200397 72.498169
4.960000 0.880000 2.840000 -15.925625 31.252701 1230.356812
4.960000 0.880000 2.880000 -73.283997 32.311935 6414.604980
4.960000 0.880000 2.920000 -119.396698 -22.824287 14776.519531
4.960000 0.880000 2.960000 -106.569328 -105.303299 22445.806641
4.960000 0.880000 3.000000 -31.462479 -155.275894 25100.490234
4.960000 0.880000 3.040000 57.051178 -134.129135 21245.460938
4.960000 0.880000 3.080000 98.982269 -59.346832 13319.535156
4.960000 0.880000 3.120000 74.571259 11.895222 5702.368652
4.960000 0.880000 3.160000 17.173733 33.916813 1445.287354
4.960000 0.880000 3.200000 -22.060141 8.806913 564.211548
4.960000 0.920000 2.800000 -7.730299 11.057793 182.032303
4.960000 0.920000 2.840000 -71.614197 26.851833 5849.614258
4.960000 0.920000 2.880000 -142.573212 -30.735809 21271.810547
4.960000 0.920000 2.920000 -146.464340 -145.909363 42741.343750
4.960000 0.920000 2.960000 -51.887856 -239.945724 60266.296875
4.960000 0.920000 3.000000 90.927643 -236.378784 64142.765625
4.960000 0.920000 3.040000 186.885498 -131.341537 52176.789062
4.960000 0.920000 3.080000 177.045944 0.157677 31345.291016
4.960000 0.920000 3.120000 87.170395 69.647125 12449.400391
4.960000 0.920000 3.160000 -1.355933 49.555679 2457.604004
4.960000 0.920000 3.200000 -26.993031 -12.952999 896.403931
4.960000 0.960000 2.800000 -29.282278 3.481102 869.569824
4.960000 0.960000 2.840000 -106.173782 -29.268597 12129.522461
4.960000 0.960000 2.880000 -136.887253 -142.239471 38970.187500
4.960000 0.960000 2.920000 -56.718742 -266.466125 74221.210938
4.960000 0.960000 2.960000 111.012909 -298.511353 101432.898438
4.960000 0.960000 3.000000 260.475281 -194.384857 105632.843750
4.960000 0.960000 3.040000 290.006531 -16.476833 84375.273438
4.960000 0.960000 3.080000 190.206604 116.075584 49652.093750
4.960000 0.960000 3.120000 49.079346 128.683929 18968.335938
4.960000 0.960000 3.160000 -29.410610 48.518635 3219.041992
4.960000 0.960000 3.200000 -13.297417 -32.962029 1263.316650
4.960000 1.000000 2.800000 -33.743275 -21.913551 1618.812378
4.960000 1.000000 2.840000 -81.913681 -98.580719 16428.009766
4.960000 1.000000 2.880000 -40.404579 -219.305527 49727.445312
4.960000 1.000000 2.920000 107.782021 -283.823547 92172.765625
4.960000 1.000000 2.960000 280.468048 -212.800766 123946.492188
4.960000 1.000000 3.000000 356.133606 -28.817499 127661.593750
4.960000 1.000000 3.040000 279.238770 152.017685 101083.664062
4.960000 1.000000 3.080000 110.768173 216.021301 58934.789062
4.960000 1.000000 3.120000 -25.863811 146.453644 22117.607422
4.960000 1.000000 3.160000 -51.603779 28.231707 3459.979248
4.960000 1.000000 3.200000 10.052529 -36.733337 1450.391479
4.960000 1.040000 2.800000 -13.026279 -42.102333 1942.290405
4.960000 1.040000 2.840000 -10.586853 -126.637047 16149.022461
4.960000 1.040000 2.880000 84.849174 -199.920914 47167.753906
4.960000 1.040000 2.920000 235.841278 -174.405853 86038.515625
4.960000 1.040000 2.960000 337.367096 -28.918234 114652.820312
4.960000 1.040000 3.000000 304.422882 157.464050 117468.218750
4.960000 1.040000 3.040000 151.039032 264.488098 92766.742188
4.960000 1.040000 3.080000 -17.326508 231.846771 54053.132812
4.960000 1.040000 3.120000 -93.505493 107.452454 20289.308594
4.960000 1.040000 3.160000 -55.924202 -1.408512 3129.500244
4.960000 1.040000 3.200000 26.510998 -24.102287 1283.753174
4.960000 1.080000 2.800000 17.628120 -37.964676 1752.067261
4.960000 1.080000 2.840000 55.912628 -92.712212 11721.775391
4.960000 1.080000 2.880000 152.328903 -99.946426 33193.382812
4.960000 1.080000 2.920000 244.095688 -16.024994 59839.503906
4.960000 1.080000 2.960000 250.405762 128.889435 79315.531250
4.960000 1.080000 3.000000 146.373352 244.424957 81168.718750
4.960000 1.080000 3.040000 -7.533943 253.451355 64294.351562
4.960000 1.080000 3.080000 -112.758606 158.385681 37800.527344
4.960000 1.080000 3.120000 -114.464127 37.381023 14499.376953
4.960000 1.080000 3.160000 -41.824440 -25.341675 2391.484375
4.960000 1.080000 3.200000 27.726475 -8.030728 833.250000
4.960000 1.120000 2.800000 34.323929 -11.965712 1321.310303
4.960000 1.120000 2.840000 72.722519 -27.284985 6033.035156
4.960000 1.120000 2.880000 127.174774 2.983658 16182.325195
4.960000 1.120000 2.920000 148.144333 82.344086 28727.292969
4.960000 1.120000 2.960000 100.208252 166.963013 37918.343750
4.960000 1.120000 3.000000 -0.764641 197.288757 38923.441406
4.960000 1.120000 3.040000 -94.641129 149.083237 31182.753906
4.960000 1.120000 3.080000 -125.147903 56.019680 18800.203125
4.960000 1.120000 3.120000 -85.451187 -18.464741 7642.852051
4.960000 1.120000 3.160000 -19.496342 -33.821213 1523.981689
4.960000 1.120000 3.200000 19.770983 -0.963392 391.819885
4.960000 1.160000 2.800000 26.631672 15.441526 947.686707
4.960000 1.160000 2.840000 40.289238 18.789846 1976.281006
4.960000 1.160000 2.880000 51.181931 41.465603 4338.986328
4.960000 1.160000 2.920000 39.852951 75.689438 7317.148926
4.960000 1.160000 2.960000 0.747971 97.817177 9568.759766
4.960000 1.160000 3.000000 -48.604492 87.089462 9946.970703
4.960000 1.160000 3.040000 -79.046806 44.777298 8253.404297
4.960000 1.160000 3.080000 -72.956451 -4.698036 5344.715820
4.960000 1.160000 3.120000 -38.402168 -32.599407 2537.447754
4.960000 1.160000 3.160000 -1.614388 -27.970242 784.940674
4.960000 1.160000 3.200000 14.716300 -3.588875 229.449509
4.960000 1.200000 2.800000 5.277557 25.909395 699.149353
4.960000 1.200000 2.840000 -2.413683 20.892384 442.317566
4.960000 1.200000 2.880000 -4.304153 14.104742 217.469482
4.960000 1.200000 2.920000 -2.035965 11.029222 125.788887
4.960000 1.200000 2.960000 -1.464081 12.894123 168.401947
4.960000 1.200000 3.000000 -6.603020 14.736382 260.760803
4.960000 1.200000 3.040000 -14.626810 10.069412 315.336639
4.960000 1.200000 3.080000 -17.544922 -1.935478 311.570343
4.960000 1.200000 3.120000 -9.782768 -14.085262 294.097168
4.960000 1.200000 3.160000 5.485662 -16.782616 311.748657
4.960000 1.200000 3.200000 17.825111 -6.840324 364.524628
5.000000 0.800000 2.800000 -7.723220 -22.157040 550.582520
5.000000 0.800000 2.840000 6.450603 -26.036358 719.502197
5.000000 0.800000 2.880000 20.298939 -18.698338 761.674744
5.000000 0.800000 2.920000 25.627373 -4.196762 674.375000
5.000000 0.800000 2.960000 20.589577 8.747444 500.448425
5.000000 0.800000 3.000000 10.691864 13.736526 303.008118
5.000000 0.800000 3.040000 3.701096 11.441193 144.598999
5.000000 0.800000 3.080000 3.042480 8.089729 74.700409
5.000000 0.800000 3.120000 5.455095 9.352085 117.219559
5.000000 0.800000 3.160000 4.767267 15.209846 254.066269
5.000000 0.800000 3.200000 -2.001321 20.407915 420.488281
5.000000 0.840000 2.800000 0.348532 -12.013847 144.454010
5.000000 0.840000 2.840000 -2.760578 3.695648 21.278608
5.000000 0.840000 2.880000 -23.074371 9.142059 616.003906
5.000000 0.840000 2.920000 -43.104897 -8.619713 1932.331543
5.000000 0.840000 2.960000 -40.929184 -40.558586 3320.197021
5.000000 0.840000 3.000000 -11.978943 -61.710461 3951.676025
5.000000 0.840000 3.040000 24.853119 -53.567806 3487.187256
5.000000 0.840000 3.080000 43.306305 -21.115452 2321.298340
5.000000 0.840000 3.120000 32.560532 11.903564 1201.883057
5.000000 0.840000 3.160000 5.015558 24.274117 614.388550
5.000000 0.840000 3.200000 -17.107250 14.297062 497.063995
5.000000 0.880000 2.800000 -6.981972 -2.015549 52.810364
5.000000 0.880000 2.840000 -43.366249 9.651115 1973.775635
5.000000 0.880000 2.880000 -86.895035 -23.847969 8119.472656
5.000000 0.880000 2.920000 -89.849846 -94.609222 17023.900391
5.000000 0.880000 2.960000 -30.803024 -153.143555 24401.775391
5.000000 0.880000 3.000000 59.143570 -150.258865 26075.687500
5.000000 0.880000 3.040000 119.462318 -82.886307 21141.384766
5.000000 0.880000 3.080000 112.341713 1.391541 12622.596680
5.000000 0.880000 3.120000 53.992363 46.173737 5047.189453
5.000000 0.880000 3.160000 -3.919330 33.783718 1156.700684
5.000000 0.880000 3.200000 -22.368511 -6.062857 537.108521
5.000000 0.920000 2.800000 -21.144447 -6.998026 496.059998
5.000000 0.920000 2.840000 -78.773697 -30.062153 7109.028320
5.000000 0.920000 2.880000 -102.349785 -116.294006 23999.773438
5.000000 0.920000 2.920000 -39.661835 -212.195038 46599.796875
5.000000 0.920000 2.960000 91.514374 -236.031906 64085.945312
5.000000 0.920000 3.000000 207.735764 -153.225143 66632.093750
5.000000 0.920000 3.040000 229.343246 -13.487305 52780.230469
5.000000 0.920000 3.080000 150.119843 89.472977 30541.380859
5.000000 0.920000 3.120000 40.015297 98.385475 11280.925781
5.000000 0.920000 3.160000 -20.289761 36.247288 1725.540283
5.000000 0.920000 3.200000 -8.021406 -25.211327 699.953918
5.000000 0.960000 2.800000 -23.899723 -26.472572 1271.993896
5.000000 0.960000 2.840000 -67.458862 -93.535042 13299.501953
5.000000 0.960000 2.880000 -30.009022 -202.445312 41884.648438
5.000000 0.960000 2.920000 105.380539 -260.498718 78964.640625
5.000000 0.960000 2.960000 262.889526 -194.226944 106835.015625
5.000000 0.960000 3.000000 330.571289 -25.179672 109911.390625
5.000000 0.960000 3.040000 258.753693 139.142868 86314.218750
5.000000 0.960000 3.080000 105.409760 195.605606 49372.773438
5.000000 0.960000 3.120000 -16.377155 131.910431 17668.572266
5.000000 0.960000 3.160000 -37.488453 27.693594 2172.319336
5.000000 0.960000 3.200000 16.634380 -25.958498 950.546265
5.000000 1.000000 2.800000 -6.030027 -43.219727 1904.306030
5.000000 1.000000 2.840000 -5.145054 -130.414703 17034.464844
5.000000 1.000000 2.880000 94.392288 -207.540924 51983.140625
5.000000 1.000000 2.920000 253.350647 -180.343323 96710.265625
5.000000 1.000000 2.960000 359.541748 -26.326593 129963.351562
5.000000 1.000000 3.000000 323.331512 169.469177 133263.062500
5.000000 1.000000 3.040000 161.864838 279.870758 104527.867188
5.000000 1.000000 3.080000 -12.021324 244.173065 59764.996094
5.000000 1.000000 3.120000 -87.758705 116.529419 21280.695312
5.000000 1.000000 3.160000 -48.069344 9.686928 2404.498535
5.000000 1.000000 3.200000 31.277233 -7.665924 1037.031738
5.000000 1.040000 2.800000 21.892506 -39.422108 2033.384277
5.000000 1.040000 2.840000 66.845764 -107.811783 16091.736328
5.000000 1.040000 2.880000 185.386505 -118.221886 48344.570312
5.000000 1.040000 2.920000 298.718048 -15.249132 89465.007812
5.000000 1.040000 2.960000 305.906982 162.747635 120065.875000
5.000000 1.040000 3.000000 177.773041 302.847076 123319.609375
5.000000 1.040000 3.040000 -8.528072 311.667297 97209.234375
5.000000 1.040000 3.080000 -132.277924 196.526367 56120.062500
5.000000 1.040000 3.120000 -131.404999 55.611893 20359.957031
5.000000 1.040000 3.160000 -47.481918 -11.885983 2395.809082
5.000000 1.040000 3.200000 24.918451 12.253208 771.070312
5.000000 1.080000 2.800000 38.375366 -14.452272 1681.536865
5.000000 1.080000 2.840000 97.545860 -41.579845 11244.079102
5.000000 1.080000 2.880000 182.810394 2.621132 33426.511719
5.000000 1.080000 2.920000 216.115570 122.963242 61825.898438
5.000000 1.080000 2.960000 143.805283 250.095459 83227.695312
5.000000 1.080000 3.000000 -6.686264 293.313354 86077.429688
5.000000 1.080000 3.040000 -142.430710 220.074493 68719.289062
5.000000 1.080000 3.080000 -182.281021 85.890228 40603.503906
5.000000 1.080000 3.120000 -123.508263 -14.882153 15475.769531
5.000000 1.080000 3.160000 -35.859512 -29.802601 2174.099609
5.000000 1.080000 3.200000 6.989780 15.694157 295.163574
5.000000 1.120000 2.800000 31.068745 13.906331 1158.652954
5.000000 1.120000 2.840000 71.740372 18.516071 5489.525879
5.000000 1.120000 2.880000 103.450882 72.410133 15945.312500
5.000000 1.120000 2.920000 79.851654 152.187439 29537.302734
5.000000 1.120000 2.960000 -6.693604 200.129700 40096.703125
5.000000 1.120000 3.000000 -110.273773 173.104263 42125.390625
5.000000 1.120000 3.040000 -166.420441 82.844261 34558.933594
5.000000 1.120000 3.080000 -145.955719 -12.051842 21448.318359
5.000000 1.120000 3.120000 -77.300285 -55.585976 9065.134766
5.000000 1.120000 3.160000 -17.612675 -38.617523 1801.519409
5.000000 1.120000 3.200000 -2.562122 1.877655 10.090059
5.000000 1.160000 2.800000 7.864212 26.130806 744.664856
5.000000 1.160000 2.840000 20.325466 34.567169 1608.013672
5.000000 1.160000 2.880000 19.737652 60.806625 4087.020752
5.000000 1.160000 2.920000 -8.133820 86.193054 7495.401855
5.000000 1.160000 2.960000 -55.115723 85.685486 10379.745117
5.000000 1.160000 3.000000 -94.018219 50.339661 11373.507812
5.000000 1.160000 3.040000 -100.112999 -2.985115 10031.523438
5.000000 1.160000 3.080000 -71.339577 -44.331539 7054.621094
5.000000 1.160000 3.120000 -28.995003 -54.209629 3779.394043
5.000000 1.160000 3.160000 0.684702 -36.831051 1356.995239
5.000000 1.160000 3.200000 6.414127 -12.683273 202.006439
5.000000 1.200000 2.800000 -11.838835 18.590891 485.779236
5.000000 1.200000 2.840000 -12.641287 11.497873 292.003235
5.000000 1.200000 2.880000 -9.970352 7.474396 155.274506
5.000000 1.200000 2.920000 -8.085258 8.050041 130.174561
5.000000 1.200000 2.960000 -11.196537 10.095543 227.282425
5.000000 1.200000 3.000000 -18.926304 7.453491 413.759521
5.000000 1.200000 3.040000 -24.929729 -3.568741 634.227295
5.000000 1.200000 3.080000 -21.339371 -19.345646 829.622803
5.000000 1.200000 3.120000 -6.126377 -30.072773 941.904175
5.000000 1.200000 3.160000 13.323498 -27.252649 920.222534
5.000000 1.200000 3.200000 24.762955 -11.604071 747.858398
5.040000 0.800000 2.800000 -5.062393 -6.971926 74.235573
5.040000 0.800000 2.840000 2.803610 -9.944736 106.758011
5.040000 0.800000 2.880000 11.213486 -6.358444 166.172073
5.040000 0.800000 2.920000 15.222561 2.320320 237.110245
5.040000 0.800000 2.960000 12.662354 11.300583 288.038361
5.040000 0.800000 3.000000 5.887238 15.971202 289.738861
5.040000 0.800000 3.040000 -0.233795 15.584034 242.916779
5.040000 0.800000 3.080000 -2.712517 13.632427 193.200821
5.040000 0.800000 3.120000 -3.171938 14.151810 210.334900
5.040000 0.800000 3.160000 -5.987894 17.360722 337.249512
5.040000 0.800000 3.200000 -13.419566 19.097456 544.797607
5.040000 0.840000 2.800000 -10.524677 -5.795134 144.352402
5.040000 0.840000 2.840000 -19.127432 -3.590942 378.753510
5.040000 0.840000 2.880000 -30.212780 -14.636406 1127.036499
5.040000 0.840000 2.920000 -28.327648 -36.677670 2147.707031
5.040000 0.840000 2.960000 -6.742760 -53.469166 2904.416504
5.040000 0.840000 3.000000 23.716133 -49.020233 2965.437988
5.040000 0.840000 3.040000 42.606720 -22.950310 2342.049316
5.040000 0.840000 3.080000 37.310722 8.191154 1459.184937
5.040000 0.840000 3.120000 13.386717 24.872423 797.841675
5.040000 0.840000 3.160000 -11.447602 20.319984 543.949341
5.040000 0.840000 3.200000 -22.965330 3.680342 540.951294
5.040000 0.880000 2.800000 -17.558880 -14.557060 520.222290
5.040000 0.880000 2.840000 -43.963387 -27.609568 2695.067383
5.040000 0.880000 2.880000 -52.467575 -72.689346 8036.587891
5.040000 0.880000 2.920000 -15.639473 -121.172844 14927.451172
5.040000 0.880000 2.960000 56.007812 -129.619476 19938.083984
5.040000 0.880000 3.000000 116.991432 -80.773903 20211.417969
5.040000 0.880000 3.040000 124.986801 -2.955009 15630.432617
5.040000 0.880000 3.080000 78.120377 52.686268 8878.636719
5.040000 0.880000 3.120000 15.371574 55.788792 3348.674561
5.040000 0.880000 3.160000 -19.396284 19.653788 762.487183
5.040000 0.880000 3.200000 -14.114461 -16.615654 475.297974
5.040000 0.920000 2.800000 -13.908407 -31.405125 1179.725586
5.040000 0.920000 2.840000 -38.868420 -74.212128 7018.193848
5.040000 0.920000 2.880000 -10.881828 -144.050339 20868.914062
5.040000 0.920000 2.920000 81.347443 -178.862061 38609.042969
5.040000 0.920000 2.960000 186.186829 -129.835297 51522.742188
5.040000 0.920000 3.000000 228.185364 -13.008148 52237.769531
5.040000 0.920000 3.040000 175.293671 97.801926 40293.085938
5.040000 0.920000 3.080000 68.791336 133.308121 22503.302734
5.040000 0.920000 3.120000 -13.918411 87.149704 7788.792969
5.040000 0.920000 3.160000 -27.129385 14.956489 959.700073
5.040000 0.920000 3.200000 10.043694 -21.693214 571.471313
5.040000 0.960000 2.800000 5.722270 -42.713745 1857.208374
5.040000 0.960000 2.840000 8.123804 -107.128693 11542.552734
5.040000 0.960000 2.880000 86.704109 -164.115784 34451.593750
5.040000 0.960000 2.920000 210.956543 -139.069656 63843.031250
5.040000 0.960000 2.960000 291.851990 -14.630280 85391.632812
5.040000 0.960000 3.000000 258.958679 140.576340 86821.296875
5.040000 0.960000 3.040000 127.915474 225.315277 67129.343750
5.040000 0.960000 3.080000 -9.876713 193.229752 37435.289062
5.040000 0.960000 3.120000 -67.185318 90.234314 12656.098633
5.040000 0.960000 3.160000 -33.332039 7.065472 1160.945679
5.040000 0.960000 3.200000 28.699013 -3.889946 838.765015
5.040000 1.000000 2.800000 31.384106 -34.981850 2208.691895
5.040000 1.000000 2.840000 70.917374 -93.542542 13779.480469
5.040000 1.000000 2.880000 176.957092 -100.733765 41461.101562
5.040000 1.000000 2.920000 277.815796 -5.214272 77208.804688
5.040000 1.000000 2.960000 280.959656 157.489990 103741.421875
5.040000 1.000000 3.000000 160.853989 283.138397 106041.359375
5.040000 1.000000 3.040000 -9.629375 287.124268 82533.070312
5.040000 1.000000 3.080000 -119.356628 179.325562 46403.660156
5.040000 1.000000 3.120000 -114.387444 52.377125 15827.850586
5.040000 1.000000 3.160000 -37.300499 -4.082386 1407.993164
5.040000 1.000000 3.200000 23.694027 21.571169 1026.722290
5.040000 1.040000 2.800000 44.553604 -9.003286 2066.082764
5.040000 1.040000 2.840000 105.249405 -36.698132 12424.190430
5.040000 1.040000 2.880000 194.166122 10.704592 37815.074219
5.040000 1.040000 2.920000 227.432098 138.745316 70975.625000
5.040000 1.040000 2.960000 147.959869 272.329071 96055.250000
5.040000 1.040000 3.000000 -12.844700 314.430847 99031.742188
5.040000 1.040000 3.040000 -153.999954 232.989700 78000.187500
5.040000 1.040000 3.080000 -190.744385 91.152649 44692.226562
5.040000 1.040000 3.120000 -125.479935 -9.766613 15840.600586
5.040000 1.040000 3.160000 -36.681572 -18.719368 1695.952393
5.040000 1.040000 3.200000 -0.792694 30.180578 911.495667
5.040000 1.080000 2.800000 34.750496 18.593126 1553.301270
5.040000 1.080000 2.840000 88.120544 24.498014 8365.382812
5.040000 1.080000 2.880000 129.284958 95.356216 25807.406250
5.040000 1.080000 2.920000 96.919350 199.003784 48995.867188
5.040000 1.080000 2.960000 -16.896942 258.375000 67043.148438
5.040000 1.080000 3.000000 -148.884689 218.898590 70083.242188
5.040000 1.080000 3.040000 -214.868958 100.882278 56345.902344
5.040000 1.080000 3.080000 -182.172958 -15.981472 33442.394531
5.040000 1.080000 3.120000 -94.648407 -62.075043 12811.632812
5.040000 1.080000 3.160000 -27.852703 -34.249641 1948.811035
5.040000 1.080000 3.200000 -20.758425 12.786426 594.404907
5.040000 1.120000 2.800000 9.802805 29.401804 960.561035
5.040000 1.120000 2.840000 38.022324 49.862484 3931.964355
5.040000 1.120000 2.880000 36.688549 104.255737 12215.308594
5.040000 1.120000 2.920000 -18.856277 152.342957 23563.935547
5.040000 1.120000 2.960000 -106.590935 146.506271 32825.714844
5.040000 1.120000 3.000000 -171.141129 76.673798 35168.156250
5.040000 1.120000 3.040000 -170.561371 -17.059380 29382.203125
5.040000 1.120000 3.080000 -112.274605 -77.824867 18662.296875
5.040000 1.120000 3.120000 -43.969776 -79.628571 8274.050781
5.040000 1.120000 3.160000 -9.888102 -44.248871 2055.737061
5.040000 1.120000 3.200000 -15.676292 -14.363527 452.057068
5.040000 1.160000 2.800000 -11.086465 19.677839 510.127045
5.040000 1.160000 2.840000 -4.003475 32.628662 1080.657471
5.040000 1.160000 2.880000 -17.275452 53.342312 3143.843506
5.040000 1.160000 2.920000 -51.840973 58.991653 6167.501953
5.040000 1.160000 2.960000 -87.705086 34.724716 8897.988281
5.040000 1.160000 3.000000 -99.776550 -11.598549 10089.886719
5.040000 1.160000 3.040000 -78.998840 -54.885391 9253.222656
5.040000 1.160000 3.080000 -39.130238 -73.236221 6894.719727
5.040000 1.160000 3.120000 -3.914253 -64.073868 4120.781738
5.040000 1.160000 3.160000 12.021105 -42.344742 1937.584106
5.040000 1.160000 3.200000 11.086132 -25.169605 756.411377
5.040000 1.200000 2.800000 -15.130766 2.750171 236.503525
5.040000 1.200000 2.840000 -12.658360 0.717724 160.749191
5.040000 1.200000 2.880000 -11.850479 0.242523 140.492676
5.040000 1.200000 2.920000 -13.255928 -0.430542 175.904999
5.040000 1.200000 2.960000 -16.493416 -3.339874 283.187531
5.040000 1.200000 3.000000 -19.455620 -10.531303 489.429504
5.040000 1.200000 3.040000 -17.851135 -22.049318 804.835449
5.040000 1.200000 3.080000 -7.608582 -33.557453 1183.993164
5.040000 1.200000 3.120000 10.459185 -37.335224 1503.313477
5.040000 1.200000 3.160000 28.431393 -28.069199 1596.223999
5.040000 1.200000 3.200000 35.699703 -9.035501 1356.109009
5.080000 0.800000 2.800000 -16.191113 2.250466 267.216736
5.080000 0.800000 2.840000 -11.583399 -5.833521 168.205093
5.080000 0.800000 2.880000 -1.588142 -8.289413 71.236572
5.080000 0.800000 2.920000 7.441044 -2.086617 59.723103
5.080000 0.800000 2.960000 8.798645 9.056616 159.438446
5.080000 0.800000 3.000000 1.677345 17.311554 302.503387
5.080000 0.800000 3.040000 -8.023922 17.809929 381.576904
5.080000 0.800000 3.080000 -13.599269 12.843193 349.887695
5.080000 0.800000 3.120000 -14.033617 8.675274 272.202789
5.080000 0.800000 3.160000 -14.119922 8.398002 269.898621
5.080000 0.800000 3.200000 -18.223999 8.701084 407.822998
5.080000 0.840000 2.800000 -21.785692 -12.939788 642.054504
5.080000 0.840000 2.840000 -22.742687 -22.615593 1028.694824
5.080000 0.840000 2.880000 -15.479343 -35.938965 1531.219360
5.080000 0.840000 2.920000 2.747917 -43.436302 1894.263428
5.080000 0.840000 2.960000 24.362511 -36.177212 1902.322510
5.080000 0.840000 3.000000 36.310131 -15.057602 1545.156982
5.080000 0.840000 3.040000 30.853245 8.477966 1023.798645
5.080000 0.840000 3.080000 12.056463 21.228512 596.008057
5.080000 0.840000 3.120000 -7.950203 18.278725 397.317505
5.080000 0.840000 3.160000 -18.902821 5.279659 385.191406
5.080000 0.840000 3.200000 -19.131275 -8.051410 430.830872
5.080000 0.880000 2.800000 -12.747816 -32.673744 1230.080444
5.080000 0.880000 2.840000 -15.333725 -52.375877 2978.355469
5.080000 0.880000 2.880000 5.063915 -78.925446 6254.869141
5.080000 0.880000 2.920000 49.825802 -85.800644 9844.361328
5.080000 0.880000 2.960000 94.001335 -55.106129 11872.936523
5.080000 0.880000 3.000000 105.534950 1.760582 11140.725586
5.080000 0.880000 3.040000 74.256012 50.279522 8041.985352
5.080000 0.880000 3.080000 22.118385 61.421261 4261.794434
5.080000 0.880000 3.120000 -15.682667 35.636055 1515.874512
5.080000 0.880000 3.160000 -20.452747 -0.375459 418.455841
5.080000 0.880000 3.200000 -2.368439 -19.505459 386.072418
5.080000 0.920000 2.800000 12.150704 -41.972664 1909.344116
5.080000 0.920000 2.840000 19.592592 -72.668419 5664.568848
5.080000 0.920000 2.880000 66.224335 -96.949272 13784.824219
5.080000 0.920000 2.920000 134.078064 -75.049240 23609.316406
5.080000 0.920000 2.960000 173.617157 0.159836 30142.943359
5.080000 0.920000 3.000000 147.521332 88.095467 29523.353516
5.080000 0.920000 3.040000 67.851379 131.836914 21984.781250
5.080000 0.920000 3.080000 -11.589287 107.646713 11722.125977
5.080000 0.920000 3.120000 -41.786003 44.596996 3734.962158
5.080000 0.920000 3.160000 -19.012182 -4.366875 380.532654
5.080000 0.920000 3.200000 18.771269 -10.342912 459.336365
5.080000 0.960000 2.800000 39.668510 -29.362211 2435.730225
5.080000 0.960000 2.840000 65.958191 -60.223328 7977.332031
5.080000 0.960000 2.880000 132.874435 -58.736832 21105.630859
5.080000 0.960000 2.920000 194.311035 8.296497 37825.609375
5.080000 0.960000 2.960000 190.035492 116.801956 49756.187500
5.080000 0.960000 3.000000 104.708481 197.220520 49859.800781
5.080000 0.960000 3.040000 -11.083321 194.188812 37832.132812
5.080000 0.960000 3.080000 -82.235924 116.922821 20433.693359
5.080000 0.960000 3.120000 -74.225304 30.085175 6414.513184
5.080000 0.960000 3.160000 -18.855148 -5.818478 389.371307
5.080000 0.960000 3.200000 22.399632 14.516220 712.464111
5.080000 1.000000 2.800000 50.697887 1.031450 2571.339844
5.080000 1.000000 2.840000 92.139175 -14.793552 8708.477539
5.080000 1.000000 2.880000 154.427643 23.312529 24391.371094
5.080000 1.000000 2.920000 174.700638 120.737862 45097.945312
5.080000 1.000000 2.960000 109.461197 220.430908 60571.539062
5.080000 1.000000 3.000000 -16.272306 247.968735 61753.281250
5.080000 1.000000 3.040000 -123.424194 180.048889 47651.132812
5.080000 1.000000 3.080000 -146.921326 68.184280 26234.970703
5.080000 1.000000 3.120000 -91.694984 -7.536404 8464.767578
5.080000 1.000000 3.160000 -22.253069 -9.374067 583.072205
5.080000 1.000000 3.200000 1.483738 31.620796 1002.076233
5.080000 1.040000 2.800000 36.447289 30.196415 2240.228271
5.080000 1.040000 2.840000 78.170830 36.363583 7432.988770
5.080000 1.040000 2.880000 110.441216 97.853455 21772.560547
5.080000 1.040000 2.920000 78.556580 187.453995 41310.136719
5.080000 1.040000 2.960000 -24.666065 236.427856 56506.546875
5.080000 1.040000 3.000000 -141.533569 196.348785 58584.593750
5.080000 1.040000 3.040000 -195.986359 87.707397 46103.238281
5.080000 1.040000 3.080000 -160.946014 -15.283176 26137.195312
5.080000 1.040000 3.120000 -80.310181 -50.509617 9000.946289
5.080000 1.040000 3.160000 -24.605579 -19.921108 1002.285034
5.080000 1.040000 3.200000 -25.969643 21.736412 1146.894043
5.080000 1.080000 2.800000 7.236145 39.146049 1584.775024
5.080000 1.080000 2.840000 34.661888 60.400345 4849.648438
5.080000 1.080000 2.880000 31.072577 117.491974 14769.869141
5.080000 1.080000 2.920000 -30.567089 166.729767 28733.162109
5.080000 1.080000 2.960000 -125.170837 156.183563 40061.042969
5.080000 1.080000 3.000000 -190.981415 76.857086 42380.914062
5.080000 1.080000 3.040000 -183.583588 -24.013004 34279.558594
5.080000 1.080000 3.080000 -115.977287 -83.203812 20373.605469
5.080000 1.080000 3.120000 -44.849678 -76.531738 7868.600586
5.080000 1.080000 3.160000 -17.528692 -35.079369 1537.817139
5.080000 1.080000 3.200000 -32.696129 -9.219727 1154.040283
5.080000 1.120000 2.800000 -15.587905 25.146561 875.332275
5.080000 1.120000 2.840000 -6.187508 47.131409 2259.654785
5.080000 1.120000 2.880000 -29.047489 79.182877 7113.684570
5.080000 1.120000 2.920000 -83.534470 85.051201 14211.714844
5.080000 1.120000 2.960000 -135.554230 43.651520 20280.404297
5.080000 1.120000 3.000000 -146.018799 -27.641113 22085.521484
5.080000 1.120000 3.040000 -106.372955 -85.869339 18688.750000
5.080000 1.120000 3.080000 -46.029778 -99.799622 12078.705078
5.080000 1.120000 3.120000 -4.725924 -75.190689 5675.974121
5.080000 1.120000 3.160000 1.998233 -44.483150 1982.743652
5.080000 1.120000 3.200000 -9.119065 -33.813278 1226.495117
5.080000 1.160000 2.800000 -18.135567 3.665636 342.335663
5.080000 1.160000 2.840000 -19.398712 16.066700 634.448853
5.080000 1.160000 2.880000 -38.331524 23.098904 2002.864990
5.080000 1.160000 2.920000 -63.316261 9.490883 4099.025879
5.080000 1.160000 2.960000 -74.051704 -23.444519 6033.300293
5.080000 1.160000 3.000000 -59.663269 -57.983494 6921.791016
5.080000 1.160000 3.040000 -27.781559 -75.299683 6441.856934
5.080000 1.160000 3.080000 3.439369 -70.569344 4991.861328
5.080000 1.160000 3.120000 21.195333 -53.881622 3352.471436
5.080000 1.160000 3.160000 26.020847 -38.339458 2146.998535
5.080000 1.160000 3.200000 26.152592 -28.908161 1519.639893
5.080000 1.200000 2.800000 -5.557309 -6.333458 70.996368
5.080000 1.200000 2.840000 -7.576224 -4.264595 75.585945
5.080000 1.200000 2.880000 -11.029299 -7.193844 173.396820
5.080000 1.200000 2.920000 -11.206450 -13.470669 307.043427
5.080000 1.200000 2.960000 -7.680256 -19.196888 427.506836
5.080000 1.200000 3.000000 -2.827484 -23.297291 550.758423
5.080000 1.200000 3.040000 3.063438 -27.437881 762.221985
5.080000 1.200000 3.080000 12.805866 -31.153584 1134.536011
5.080000 1.200000 3.120000 27.267076 -29.399851 1607.844727
5.080000 1.200000 3.160000 40.650688 -17.354286 1953.649658
5.080000 1.200000 3.200000 43.622681 2.129446 1907.472778
5.120000 0.800000 2.800000 -30.137444 -2.943454 916.929443
5.120000 0.800000 2.840000 -21.975651 -16.568140 757.432495
5.120000 0.800000 2.880000 -5.012415 -20.000065 425.126892
5.120000 0.800000 2.920000 8.860367 -9.149464 162.218781
5.120000 0.800000 2.960000 9.081413 7.927397 145.315689
5.120000 0.800000 3.000000 -3.465519 17.814344 329.360687
5.120000 0.800000 3.040000 -17.367317 14.132694 501.356750
5.120000 0.800000 3.080000 -21.882233 2.836470 486.877655
5.120000 0.800000 3.120000 -16.835810 -4.861574 307.079407
5.120000 0.800000 3.160000 -11.127615 -4.174551 141.250687
5.120000 0.800000 3.200000 -12.120052 -0.651979 147.320755
5.120000 0.840000 2.800000 -22.043877 -27.762135 1256.668701
5.120000 0.840000 2.840000 -9.559552 -37.795456 1519.881470
5.120000 0.840000 2.880000 9.595200 -38.342937 1562.248779
5.120000 0.840000 2.920000 26.112066 -25.448170 1329.449341
5.120000 0.840000 2.960000 30.083614 -4.585121 926.047180
5.120000 0.840000 3.000000 19.493877 12.557007 537.689697
5.120000 0.840000 3.040000 2.097242 17.222046 300.997314
5.120000 0.840000 3.080000 -11.252041 9.987135 226.351288
5.120000 0.840000 3.120000 -15.178963 -1.327290 232.162613
5.120000 0.840000 3.160000 -12.273143 -9.445662 239.850555
5.120000 0.840000 3.200000 -8.188856 -13.093738 238.503326
5.120000 0.880000 2.800000 5.999751 -40.887299 1707.768311
5.120000 0.880000 2.840000 20.393351 -46.749702 2601.423340
5.120000 0.880000 2.880000 43.134251 -43.266144 3732.522949
5.120000 0.880000 2.920000 63.787666 -22.268848 4564.768066
5.120000 0.880000 2.960000 66.771881 11.402237 4588.495117
5.120000 0.880000 3.000000 45.808853 40.104988 3706.860840
5.120000 0.880000 3.040000 11.813976 46.834084 2333.001465
5.120000 0.880000 3.080000 -14.668228 29.703257 1097.440430
5.120000 0.880000 3.120000 -20.014021 3.400752 412.126160
5.120000 0.880000 3.160000 -7.589028 -13.843621 249.239197
5.120000 0.880000 3.200000 7.720237 -15.187556 290.263916
5.120000 0.920000 2.800000 38.337395 -28.056639 2256.930908
5.120000 0.920000 2.840000 53.291229 -30.069254 3744.115234
5.120000 0.920000 2.880000 78.747513 -18.192287 6532.130371
5.120000 0.920000 2.920000 96.297699 17.670094 9585.479492
5.120000 0.920000 2.960000 83.743698 64.757660 11206.561523
5.120000 0.920000 3.000000 38.893604 93.598297 10273.353516
5.120000 0.920000 3.040000 -13.449635 83.529755 7158.112305
5.120000 0.920000 3.080000 -40.803333 42.792664 3496.124023
5.120000 0.920000 3.120000 -31.004791 2.259398 966.401917
5.120000 0.920000 3.160000 -1.496027 -11.859779 142.892471
5.120000 0.920000 3.200000 18.927879 0.291216 358.349426
5.120000 0.960000 2.800000 52.016533 6.483817 2747.759521
5.120000 0.960000 2.840000 66.712746 8.374556 4520.723633
5.120000 0.960000 2.880000 88.734039 31.977774 8896.307617
5.120000 0.960000 2.920000 89.869156 80.325195 14528.602539
5.120000 0.960000 2.960000 50.049282 126.056503 18395.171875
5.120000 0.960000 3.000000 -16.951145 132.900421 17949.863281
5.120000 0.960000 3.040000 -70.092957 90.908981 13177.465820
5.120000 0.960000 3.080000 -76.540512 29.082088 6704.218262
5.120000 0.960000 3.120000 -41.416248 -9.411678 1803.885376
5.120000 0.960000 3.160000 -1.664314 -5.761889 35.969303
5.120000 0.960000 3.200000 9.839297 20.435013 514.401489
5.120000 1.000000 2.800000 35.832024 40.547337 2928.020508
5.120000 1.000000 2.840000 48.887558 46.605808 4562.094727
5.120000 1.000000 2.880000 58.877914 78.912460 9693.785156
5.120000 1.000000 2.920000 35.458702 125.372955 16975.697266
5.120000 1.000000 2.960000 -26.685511 147.907776 22588.828125
5.120000 1.000000 3.000000 -94.372009 118.365280 22916.416016
5.120000 1.000000 3.040000 -122.346634 49.615776 17430.423828
5.120000 1.000000 3.080000 -95.259689 -12.251879 9224.516602
5.120000 1.000000 3.120000 -42.392147 -29.166983 2647.807129
5.120000 1.000000 3.160000 -9.331516 -4.760803 109.742439
5.120000 1.000000 3.200000 -15.183773 23.213709 769.423218
5.120000 1.040000 2.800000 1.094296 51.112556 2613.690918
5.120000 1.040000 2.840000 10.449060 60.764629 3801.522949
5.120000 1.040000 2.880000 4.163635 92.120407 8503.504883
5.120000 1.040000 2.920000 -37.639111 119.240326 15634.957031
5.120000 1.040000 2.960000 -100.187698 107.221817 21534.093750
5.120000 1.040000 3.000000 -141.612122 49.294140 22483.904297
5.120000 1.040000 3.040000 -131.111343 -21.143360 17637.224609
5.120000 1.040000 3.080000 -79.456512 -58.838764 9775.337891
5.120000 1.040000 3.120000 -29.485209 -48.052345 3178.405273
5.120000 1.040000 3.160000 -15.494434 -15.007887 465.314148
5.120000 1.040000 3.200000 -32.789001 0.800228 1075.759033
5.120000 1.080000 2.800000 -26.915016 33.606247 1853.797974
5.120000 1.080000 2.840000 -23.057777 44.852047 2543.367188
5.120000 1.080000 2.880000 -41.338497 64.933960 5925.290039
5.120000 1.080000 2.920000 -83.634903 65.455147 11279.173828
5.120000 1.080000 2.960000 -122.943649 28.415155 15922.561523
5.120000 1.080000 3.000000 -126.619507 -31.565367 17028.871094
5.120000 1.080000 3.040000 -88.552422 -77.227577 13805.629883
5.120000 1.080000 3.080000 -36.565502 -82.552841 8152.007812
5.120000 1.080000 3.120000 -6.407604 -56.245548 3204.619141
5.120000 1.080000 3.160000 -8.779419 -30.857265 1029.249023
5.120000 1.080000 3.200000 -22.796968 -29.509937 1390.538208
5.120000 1.120000 2.800000 -30.232924 5.522392 944.526489
5.120000 1.120000 2.840000 -32.382935 15.309792 1283.044189
5.120000 1.120000 2.880000 -52.461769 20.067591 3154.945557
5.120000 1.120000 2.920000 -78.339966 2.313786 6142.503906
5.120000 1.120000 2.960000 -86.466553 -36.282921 8792.915039
5.120000 1.120000 3.000000 -64.725975 -73.515884 9594.037109
5.120000 1.120000 3.040000 -25.163074 -86.432297 8103.722168
5.120000 1.120000 3.080000 7.042004 -72.338318 5282.421875
5.120000 1.120000 3.120000 17.044514 -49.563980 2747.103516
5.120000 1.120000 3.160000 12.081984 -37.932384 1584.840210
5.120000 1.120000 3.200000 10.463131 -39.944538 1705.043213
5.120000 1.160000 2.800000 -13.023550 -9.538622 260.598145
5.120000 1.160000 2.840000 -19.876709 -4.426310 414.675781
5.120000 1.160000 2.880000 -32.563126 -11.004480 1181.455811
5.120000 1.160000 2.920000 -37.443157 -30.366261 2324.099854
5.120000 1.160000 2.960000 -26.115356 -51.068893 3290.043945
5.120000 1.160000 3.000000 -3.567520 -59.911446 3602.108643
5.120000 1.160000 3.040000 17.227520 -53.992752 3212.004639
5.120000 1.160000 3.080000 27.977707 -41.609303 2514.086182
5.120000 1.160000 3.120000 31.266857 -32.081116 2006.814331
5.120000 1.160000 3.160000 34.617958 -26.446941 1897.843750
5.120000 1.160000 3.200000 40.389160 -18.917717 1989.164307
5.120000 1.200000 2.800000 3.849778 -2.846928 22.925789
5.120000 1.200000 2.840000 -4.485688 -4.750445 42.688129
5.120000 1.200000 2.880000 -6.508175 -14.792366 261.170441
5.120000 1.200000 2.920000 1.411545 -23.352104 547.313171
5.120000 1.200000 2.960000 12.730438 -23.341534 706.891235
5.120000 1.200000 3.000000 19.099083 -17.515059 671.552246
5.120000 1.200000 3.040000 20.211939 -13.815359 599.386597
5.120000 1.200000 3.080000 23.293255 -14.592361 755.512756
5.120000 1.200000 3.120000 32.782906 -13.009644 1243.969727
5.120000 1.200000 3.160000 42.882568 -1.528000 1841.249512
5.120000 1.200000 3.200000 42.700603 17.372227 2125.135742
5.160000 0.800000 2.800000 -34.247078 -18.228914 1505.155640
5.160000 0.800000 2.840000 -18.677498 -31.744968 1356.592041
5.160000 0.800000 2.880000 3.451881 -28.981422 851.838318
5.160000 0.800000 2.920000 15.711606 -10.325590 353.472382
5.160000 0.800000 2.960000 9.015680 9.669927 174.789978
5.160000 0.800000 3.000000 -9.359830 15.289885 321.386963
5.160000 0.800000 3.040000 -22.620499 4.228652 529.568420
5.160000 0.800000 3.080000 -20.467657 -11.042154 540.854126
5.160000 0.800000 3.120000 -8.054844 -16.312704 330.984802
5.160000 0.800000 3.160000 0.812545 -9.361629 88.300339
5.160000 0.800000 3.200000 -1.581666 -0.563239 2.818907
5.160000 0.840000 2.800000 -10.139129 -37.831688 1534.038452
5.160000 0.840000 2.840000 9.604357 -37.736420 1516.281006
5.160000 0.840000 2.880000 25.550011 -22.846146 1174.749390
5.160000 0.840000 2.920000 26.557589 -0.554039 705.612427
5.160000 0.840000 2.960000 11.807491 14.943524 362.725769
5.160000 0.840000 3.000000 -7.637561 14.368390 264.782959
5.160000 0.840000 3.040000 -18.141148 1.076129 330.259277
5.160000 0.840000 3.080000 -14.921803 -12.724305 384.568115
5.160000 0.840000 3.120000 -4.716621 -17.361202 323.657867
5.160000 0.840000 3.160000 2.232239 -13.423338 185.168900
5.160000 0.840000 3.200000 2.170054 -8.843113 82.909782
5.160000 0.880000 2.800000 24.552338 -31.916422 1621.475220
5.160000 0.880000 2.840000 36.673336 -19.125099 1710.703003
5.160000 0.880000 2.880000 39.801735 0.027342 1584.178833
5.160000 0.880000 2.920000 30.481060 18.147907 1258.441528
5.160000 0.880000 2.960000 11.886176 26.466299 841.746155
5.160000 0.880000 3.000000 -6.718945 20.903627 482.105865
5.160000 0.880000 3.040000 -15.752753 5.651553 280.089294
5.160000 0.880000 3.080000 -12.047808 -9.453714 234.522400
5.160000 0.880000 3.120000 -0.765622 -16.112204 260.189301
5.160000 0.880000 3.160000 9.287978 -13.279757 262.618469
5.160000 0.880000 3.200000 12.810806 -6.596025 207.624298
5.160000 0.920000 2.800000 44.666828 0.688619 1995.599731
5.160000 0.920000 2.840000 42.267269 16.252850 2050.677246
5.160000 0.920000 2.880000 33.959019 29.847660 2044.097778
5.160000 0.920000 2.920000 19.650524 39.419571 1940.045654
5.160000 0.920000 2.960000 0.797150 40.695419 1656.752686
5.160000 0.920000 3.000000 -16.394691 30.289917 1186.265015
5.160000 0.920000 3.040000 -23.136532 11.175646 660.194214
5.160000 0.920000 3.080000 -15.386858 -6.514394 279.192719
5.160000 0.920000 3.120000 1.013278 -12.427794 155.476791
5.160000 0.920000 3.160000 13.953935 -4.921586 218.934311
5.160000 0.920000 3.200000 15.259696 7.207088 284.800446
5.160000 0.960000 2.800000 33.039417 39.008331 2613.252930
5.160000 0.960000 2.840000 19.532919 45.985611 2496.211426
5.160000 0.960000 2.880000 7.367868 49.055195 2460.697510
5.160000 0.960000 2.920000 -6.351231 50.390118 2579.502197
5.160000 0.960000 2.960000 -23.298405 45.424149 2606.168945
5.160000 0.960000 3.000000 -37.094467 29.257858 2232.021729
5.160000 0.960000 3.040000 -37.430565 6.205727 1439.558228
5.160000 0.960000 3.080000 -21.828545 -10.280062 582.165039
5.160000 0.960000 3.120000 -1.295490 -9.469501 91.349731
5.160000 0.960000 3.160000 8.305822 5.120919 95.210503
5.160000 0.960000 3.200000 1.476081 17.982384 325.544922
5.160000 1.000000 2.800000 -3.431737 55.592602 3102.314209
5.160000 1.000000 2.840000 -17.562653 50.049850 2813.434326
5.160000 1.000000 2.880000 -26.138119 44.852200 2694.921143
5.160000 1.000000 2.920000 -36.365765 40.693413 2978.422852
5.160000 1.000000 2.960000 -49.275963 29.994278 3327.777344
5.160000 1.000000 3.000000 -55.485802 9.054718 3160.662109
5.160000 1.000000 3.040000 -45.605347 -13.135460 2252.387939
5.160000 1.000000 3.080000 -23.448671 -21.592022 1016.055664
5.160000 1.000000 3.120000 -5.466454 -11.376984 159.317871
5.160000 1.000000 3.160000 -5.014675 5.289907 53.130074
5.160000 1.000000 3.200000 -18.067245 10.381649 434.203979
5.160000 1.040000 2.800000 -38.116356 39.587875 3020.056396
5.160000 1.040000 2.840000 -44.475529 27.255465 2720.933105
5.160000 1.040000 2.880000 -47.325256 19.571049 2622.705811
5.160000 1.040000 2.920000 -53.490856 12.128632 3008.375488
5.160000 1.040000 2.960000 -59.340252 -2.745473 3528.802979
5.160000 1.040000 3.000000 -54.546314 -23.261692 3516.406738
5.160000 1.040000 3.040000 -35.941422 -36.928707 2655.515137
5.160000 1.040000 3.080000 -14.523116 -33.677505 1345.095215
5.160000 1.040000 3.120000 -5.764239 -18.516163 376.074738
5.160000 1.040000 3.160000 -13.010220 -8.126677 235.308685
5.160000 1.040000 3.200000 -22.841812 -13.596665 706.617676
5.160000 1.080000 2.800000 -46.900635 6.157158 2237.580078
5.160000 1.080000 2.840000 -45.872765 -4.002570 2120.331055
5.160000 1.080000 2.880000 -45.805782 -10.732794 2213.362549
5.160000 1.080000 2.920000 -47.464695 -20.488985 2672.695801
5.160000 1.080000 2.960000 -43.810379 -35.343948 3168.543945
5.160000 1.080000 3.000000 -29.561100 -47.856308 3164.084961
5.160000 1.080000 3.040000 -9.990802 -48.442787 2446.519775
5.160000 1.080000 3.080000 2.594665 -37.147316 1386.655396
5.160000 1.080000 3.120000 1.873840 -25.470081 652.236328
5.160000 1.080000 3.160000 -4.731852 -24.761425 635.518616
5.160000 1.080000 3.200000 -3.366503 -33.482101 1132.384521
5.160000 1.120000 2.800000 -28.512684 -17.126846 1106.302002
5.160000 1.120000 2.840000 -27.321762 -21.783878 1221.016113
5.160000 1.120000 2.880000 -27.191284 -28.845423 1571.424316
5.160000 1.120000 2.920000 -22.935312 -39.554703 2090.603027
5.160000 1.120000 2.960000 -10.724993 -48.355446 2453.274414
5.160000 1.120000 3.000000 5.608646 -48.116611 2346.665283
5.160000 1.120000 3.040000 16.983706 -38.608650 1779.074219
5.160000 1.120000 3.080000 18.431675 -28.066401 1127.449463
5.160000 1.120000 3.120000 14.960450 -24.955576 846.595825
5.160000 1.120000 3.160000 16.551956 -28.562574 1089.787964
5.160000 1.120000 3.200000 27.046741 -29.184715 1583.273926
5.160000 1.160000 2.800000 -4.138549 -14.679021 232.601227
5.160000 1.160000 2.840000 -8.385201 -18.885561 426.976013
5.160000 1.160000 2.880000 -6.945667 -29.219337 902.011963
5.160000 1.160000 2.920000 4.202193 -37.576004 1429.614502
5.160000 1.160000 2.960000 19.531567 -35.909912 1671.003784
5.160000 1.160000 3.000000 28.939232 -25.101372 1467.557983
5.160000 1.160000 3.040000 28.302345 -14.452925 1009.909790
5.160000 1.160000 3.080000 23.918682 -11.761361 710.432983
5.160000 1.160000 3.120000 25.434029 -14.688449 862.640381
5.160000 1.160000 3.160000 34.774841 -13.280624 1385.664551
5.160000 1.160000 3.200000 43.361877 -1.169528 1881.620239
5.160000 1.200000 2.800000 3.076406 4.510674 29.810457
5.160000 1.200000 2.840000 -4.032173 -6.737588 61.653519
5.160000 1.200000 2.880000 3.150243 -19.882933 405.255066
5.160000 1.200000 2.920000 19.331490 -21.536312 837.519226
5.160000 1.200000 2.960000 30.319853 -9.981296 1018.919739
5.160000 1.200000 3.000000 28.270748 3.300980 810.131714
5.160000 1.200000 3.040000 19.816097 6.673887 437.218475
5.160000 1.200000 3.080000 17.923237 1.382119 323.152679
5.160000 1.200000 3.120000 26.563951 -0.176007 705.674500
5.160000 1.200000 3.160000 35.673431 10.905888 1391.532104
5.160000 1.200000 3.200000 32.275227 29.117504 1889.519287
5.200000 0.800000 2.800000 -25.486479 -31.499828 1641.799805
5.200000 0.800000 2.840000 -5.293777 -38.827023 1535.561768
5.200000 0.800000 2.880000 15.052765 -27.888527 1004.355713
5.200000 0.800000 2.920000 19.880037 -5.505383 425.525116
5.200000 0.800000 2.960000 6.198112 10.778702 154.597000
5.200000 0.800000 3.000000 -12.730516 8.770402 238.986008
5.200000 0.800000 3.040000 -19.715618 -6.905431 436.390564
5.200000 0.800000 3.080000 -9.838034 -19.690001 484.483002
5.200000 0.800000 3.120000 5.677295 -17.429304 336.012329
5.200000 0.800000 3.160000 11.502869 -3.614642 145.381622
5.200000 0.800000 3.200000 3.457038 7.469397 67.743004
5.200000 0.840000 2.800000 4.360455 -36.125465 1324.062744
5.200000 0.840000 2.840000 20.234800 -25.745096 1072.257080
5.200000 0.840000 2.880000 23.777170 -5.774308 598.696472
5.200000 0.840000 2.920000 11.105742 10.212614 227.634979
5.200000 0.840000 2.960000 -8.554474 10.545181 184.379883
5.200000 0.840000 3.000000 -20.044149 -4.041345 418.100372
5.200000 0.840000 3.040000 -15.300972 -20.837030 668.301575
5.200000 0.840000 3.080000 -0.011376 -26.478922 701.133423
5.200000 0.840000 3.120000 12.393520 -18.435272 493.458618
5.200000 0.840000 3.160000 13.273496 -5.853002 210.443314
5.200000 0.840000 3.200000 5.646070 0.286351 31.960098
5.200000 0.880000 2.800000 29.313477 -13.863912 1051.487915
5.200000 0.880000 2.840000 26.697929 4.850578 736.307495
5.200000 0.880000 2.880000 11.061413 16.603737 398.038940
5.200000 0.880000 2.920000 -8.206562 13.518786 250.105255
5.200000 0.880000 2.960000 -18.840117 -2.205810 359.815582
5.200000 0.880000 3.000000 -14.712379 -19.875881 611.504761
5.200000 0.880000 3.040000 0.046253 -28.379883 805.419861
5.200000 0.880000 3.080000 14.976837 -24.077793 804.045776
5.200000 0.880000 3.120000 21.538761 -12.254180 614.083191
5.200000 0.880000 3.160000 18.721577 -1.685704 353.339020
5.200000 0.880000 3.200000 11.978472 2.407281 149.278778
5.200000 0.920000 2.800000 27.918686 22.188450 1271.780273
5.200000 0.920000 2.840000 5.667523 31.054176 996.482727
5.200000 0.920000 2.880000 -16.244764 21.498404 726.073730
5.200000 0.920000 2.920000 -24.701447 0.171745 610.190918
5.200000 0.920000 2.960000 -16.543718 -19.519426 654.702637
5.200000 0.920000 3.000000 0.987144 -27.484476 756.370850
5.200000 0.920000 3.040000 17.182337 -22.506969 801.796387
5.200000 0.920000 3.080000 25.183933 -10.375526 741.882019
5.200000 0.920000 3.120000 24.346798 1.756944 595.853394
5.200000 0.920000 3.160000 18.019531 9.419452 413.429565
5.200000 0.920000 3.200000 10.416685 11.494498 240.630829
5.200000 0.960000 2.800000 -1.990532 45.244732 2051.048096
5.200000 0.960000 2.840000 -29.602091 31.946035 1896.833008
5.200000 0.960000 2.880000 -39.228020 3.351669 1550.071167
5.200000 0.960000 2.920000 -26.773882 -21.968710 1199.464966
5.200000 0.960000 2.960000 -3.148727 -30.589588 945.637390
5.200000 0.960000 3.000000 16.680983 -22.480602 783.632690
5.200000 0.960000 3.040000 24.822590 -6.963594 664.652588
5.200000 0.960000 3.080000 22.579063 6.813500 556.237915
5.200000 0.960000 3.120000 15.013390 15.014999 450.852081
5.200000 0.960000 3.160000 6.026938 17.536156 343.840729
5.200000 0.960000 3.200000 -1.789504 14.894381 225.044907
5.200000 1.000000 2.800000 -39.181030 37.148239 2915.144775
5.200000 1.000000 2.840000 -53.801498 5.664461 2926.687500
5.200000 1.000000 2.880000 -41.887993 -26.224092 2442.307129
5.200000 1.000000 2.920000 -13.361248 -39.509724 1739.541260
5.200000 1.000000 2.960000 12.679874 -30.691269 1102.733154
5.200000 1.000000 3.000000 23.638853 -10.725255 673.826416
5.200000 1.000000 3.040000 19.894512 6.914692 443.604584
5.200000 1.000000 3.080000 9.221013 15.852480 336.328186
5.200000 1.000000 3.120000 -1.708665 16.799517 285.143280
5.200000 1.000000 3.160000 -9.901622 12.223577 247.457962
5.200000 1.000000 3.200000 -13.346896 4.022195 194.317688
5.200000 1.040000 2.800000 -56.166294 4.687857 3176.628662
5.200000 1.040000 2.840000 -50.502251 -28.589783 3367.853027
5.200000 1.040000 2.880000 -23.675770 -48.061596 2870.458984
5.200000 1.040000 2.920000 6.617805 -44.013424 1980.976807
5.200000 1.040000 2.960000 23.495693 -23.472595 1103.010254
5.200000 1.040000 3.000000 22.332180 -1.517671 501.029572
5.200000 1.040000 3.040000 9.961428 10.930090 218.696899
5.200000 1.040000 3.080000 -3.944957 11.936407 158.040497
5.200000 1.040000 3.120000 -13.256536 5.068559 201.426056
5.200000 1.040000 3.160000 -15.521242 -5.225104 268.210663
5.200000 1.040000 3.200000 -10.070232 -14.397596 308.700378
5.200000 1.080000 2.800000 -42.842266 -26.000673 2511.494629
5.200000 1.080000 2.840000 -25.438591 -47.019783 2857.981934
5.200000 1.080000 2.880000 1.459110 -50.872135 2590.103027
5.200000 1.080000 2.920000 22.683861 -36.888832 1875.343506
5.200000 1.080000 2.960000 28.601707 -15.163356 1047.984985
5.200000 1.080000 3.000000 20.013805 1.934659 404.295288
5.200000 1.080000 3.040000 5.015677 7.382619 79.660095
5.200000 1.080000 3.080000 -7.203098 1.469603 54.044350
5.200000 1.080000 3.120000 -10.621437 -10.429945 221.598679
5.200000 1.080000 3.160000 -3.902867 -20.892073 451.711060
5.200000 1.080000 3.200000 9.303904 -23.201164 624.856628
5.200000 1.120000 2.800000 -14.646132 -32.575325 1275.661011
5.200000 1.120000 2.840000 -0.091616 -41.144974 1692.917236
5.200000 1.120000 2.880000 17.851650 -38.663174 1813.522339
5.200000 1.120000 2.920000 30.465603 -25.384045 1572.502686
5.200000 1.120000 2.960000 31.548908 -7.874928 1057.348145
5.200000 1.120000 3.000000 21.415627 4.517175 479.033936
5.200000 1.120000 3.040000 7.255016 5.309886 80.830147
5.200000 1.120000 3.080000 -0.923341 -4.577042 21.801872
5.200000 1.120000 3.120000 3.014439 -16.747761 289.574341
5.200000 1.120000 3.160000 16.563061 -20.745920 704.728210
5.200000 1.120000 3.200000 29.784130 -11.723337 1024.531006
5.200000 1.160000 2.800000 2.528915 -15.664193 251.762360
5.200000 1.160000 2.840000 7.996552 -23.007950 593.310608
5.200000 1.160000 2.880000 20.448111 -24.507236 1018.729858
5.200000 1.160000 2.920000 32.187424 -15.196079 1266.951050
5.200000 1.160000 2.960000 33.703430 0.672929 1136.374146
5.200000 1.160000 3.000000 23.192249 11.776751 676.572266
5.200000 1.160000 3.040000 9.788494 9.895906 193.743576
5.200000 1.160000 3.080000 5.929031 -1.511637 37.438454
5.200000 1.160000 3.120000 15.445885 -9.630500 331.321869
5.200000 1.160000 3.160000 29.292400 -4.139741 875.182190
5.200000 1.160000 3.200000 33.715958 12.807837 1300.806396
5.200000 1.200000 2.800000 -3.825508 3.709956 28.398287
5.200000 1.200000 2.840000 -0.494430 -11.888260 141.575180
5.200000 1.200000 2.880000 16.045601 -17.939610 579.290894
5.200000 1.200000 2.920000 31.471573 -7.156872 1041.680664
5.200000 1.200000 2.960000 31.990652 11.587604 1157.674316
5.200000 1.200000 3.000000 18.457508 21.903313 820.434692
5.200000 1.200000 3.040000 5.450414 16.707911 308.861267
5.200000 1.200000 3.080000 5.825836 5.367452 62.749908
5.200000 1.200000 3.120000 17.215322 3.377551 307.775177
5.200000 1.200000 3.160000 24.869652 15.694741 864.824463
5.200000 1.200000 3.200000 17.589043 31.610371 1308.589966
