#kx 	ky 	kz 	real 	imag 	intensity
3.800000 1.800000 3.983333 -63.085777 -36.053219 5279.649902
3.800000 1.800000 3.991667 -29.029636 -15.291727 1076.556641
3.800000 1.800000 4.000000 -10.495153 -53.768009 3001.146973
3.800000 1.800000 4.008334 -2.863179 -2.520201 14.549207
3.800000 1.800000 4.016667 -11.521038 -31.172691 1104.470947
3.800000 1.900000 3.983333 -4.439960 -41.963795 1780.673340
3.800000 1.900000 3.991667 37.436455 29.215321 2255.023193
3.800000 1.900000 4.000000 -44.832928 21.584127 2475.865967
3.800000 1.900000 4.008334 -21.305183 -26.176319 1139.110596
3.800000 1.900000 4.016667 4.096210 -47.269714 2251.204834
3.800000 2.000000 3.983333 27.536730 -29.037262 1601.434082
3.800000 2.000000 3.991667 -8.138954 20.478859 485.626251
3.800000 2.000000 4.000000 1.759827 -24.866896 621.459473
3.800000 2.000000 4.008334 13.546930 -20.755127 614.294617
3.800000 2.000000 4.016667 91.071793 36.514709 9627.395508
3.800000 2.100000 3.983333 17.328022 15.047037 526.673706
3.800000 2.100000 3.991667 66.583138 56.384434 7612.518555
3.800000 2.100000 4.000000 -93.501106 101.553062 19055.480469
3.800000 2.100000 4.008334 -18.138420 -40.795528 1993.277466
3.800000 2.100000 4.016667 -98.221085 104.206917 20506.462891
3.800000 2.200000 3.983333 11.767017 -14.271889 342.149506
3.800000 2.200000 3.991667 -42.780628 130.351456 18821.683594
3.800000 2.200000 4.000000 -151.201340 -140.685226 42654.179688
3.800000 2.200000 4.008334 95.677574 -49.816696 11635.901367
3.800000 2.200000 4.016667 -50.104313 -93.228455 11201.987305
3.900000 1.800000 3.983333 -89.493538 10.678947 8123.133301
3.900000 1.800000 3.991667 -64.449722 -162.071930 30421.078125
3.900000 1.800000 4.000000 83.311691 21.069397 7384.757324
3.900000 1.800000 4.008334 -122.946945 -61.476585 18895.322266
3.900000 1.800000 4.016667 97.542519 -78.481415 15673.875000
3.900000 1.900000 3.983333 262.920288 -673.620361 522891.500000
3.900000 1.900000 3.991667 -210.823685 857.406555 779592.625000
3.900000 1.900000 4.000000 -1211.262695 -689.104736 1942022.750000
3.900000 1.900000 4.008334 153.346497 -959.856812 944840.250000
3.900000 1.900000 4.016667 377.909363 -604.185974 507856.187500
3.900000 2.000000 3.983333 1071.736816 268.813324 1220880.375000
3.900000 2.000000 3.991667 -1425.717407 -158.177490 2057690.250000
3.900000 2.000000 4.000000 764.634399 -1956.442627 4412333.500000
3.900000 2.000000 4.008334 1343.682373 -64.026123 1809581.750000
3.900000 2.000000 4.016667 1095.196899 375.002197 1340082.875000
3.900000 2.100000 3.983333 -5.195614 729.560120 532284.937500
3.900000 2.100000 3.991667 -128.334900 -806.979614 667686.000000
3.900000 2.100000 4.000000 1185.585571 181.425079 1438528.125000
3.900000 2.100000 4.008334 247.592758 776.146179 663705.062500
3.900000 2.100000 4.016667 -162.419693 744.664062 580904.750000
3.900000 2.200000 3.983333 -14.567287 148.865082 22373.017578
3.900000 2.200000 3.991667 -224.793137 -98.078293 60151.304688
3.900000 2.200000 4.000000 153.680588 -159.239059 48974.800781
3.900000 2.200000 4.008334 11.307850 121.401993 14866.311523
3.900000 2.200000 4.016667 -23.361437 -81.300934 7155.598633
4.000000 1.800000 3.983333 -115.989357 -156.858887 38058.242188
4.000000 1.800000 3.991667 201.855377 -136.436066 59360.394531
4.000000 1.800000 4.000000 -20.204338 78.857742 6626.758789
4.000000 1.800000 4.008334 46.643055 -199.894302 42133.304688
4.000000 1.800000 4.016667 183.942017 58.059563 37205.578125
4.000000 1.900000 3.983333 1078.733154 172.915848 1193565.125000
4.000000 1.900000 3.991667 -1303.019653 -103.043762 1708478.250000
4.000000 1.900000 4.000000 720.946045 -1986.608154 4466375.000000
4.000000 1.900000 4.008334 1509.119019 -37.552887 2278850.500000
4.000000 1.900000 4.016667 1036.947510 446.604004 1274715.250000
4.000000 2.000000 3.983333 -135.361282 1647.028564 2731025.750000
4.000000 2.000000 3.991667 -81.634094 -2164.220947 4690516.500000
4.000000 2.000000 4.000000 3154.647949 659.340210 10386534.000000
4.000000 2.000000 4.008334 445.809082 2048.840820 4396494.000000
4.000000 2.000000 4.016667 -262.337372 1757.046143 3156032.250000
4.000000 2.100000 3.983333 -1089.773071 140.320419 1207295.250000
4.000000 2.100000 3.991667 1264.243530 -337.010315 1711887.750000
4.000000 2.100000 4.000000 -57.206516 1940.934326 3770498.500000
4.000000 2.100000 4.008334 -1160.905396 517.720093 1615735.500000
4.000000 2.100000 4.016667 -1202.808228 11.081169 1446870.375000
4.000000 2.200000 3.983333 -196.915222 -26.902624 39499.355469
4.000000 2.200000 3.991667 95.869972 -224.292145 59498.015625
4.000000 2.200000 4.000000 126.341827 72.538193 21224.046875
4.000000 2.200000 4.008334 -62.368568 -13.449967 4070.739990
4.000000 2.200000 4.016667 85.813248 -113.302086 20201.275391
4.100000 1.800000 3.983333 115.626259 -91.470863 21736.351562
4.100000 1.800000 3.991667 56.822620 130.124359 20161.160156
4.100000 1.800000 4.000000 -61.102505 -5.159856 3760.140137
4.100000 1.800000 4.008334 105.818298 -41.404766 12911.867188
4.100000 1.800000 4.016667 76.637344 167.442474 33910.265625
4.100000 1.900000 3.983333 -0.385071 682.548096 465872.062500
4.100000 1.900000 3.991667 -52.352356 -848.275330 722311.812500
4.100000 1.900000 4.000000 1321.625977 233.134644 1801047.000000
4.100000 1.900000 4.008334 224.173782 947.967407 948896.062500
4.100000 1.900000 4.016667 -221.070404 736.253296 590941.062500
4.100000 2.000000 3.983333 -1015.443970 26.181770 1031811.937500
4.100000 2.000000 3.991667 1338.671631 -227.862244 1843963.000000
4.100000 2.000000 4.000000 -92.156815 2019.984741 4088831.250000
4.100000 2.000000 4.008334 -1262.300659 495.874481 1839294.500000
4.100000 2.000000 4.016667 -1099.086792 -30.692398 1208933.750000
4.100000 2.100000 3.983333 -129.359497 -697.852112 503731.437500
4.100000 2.100000 3.991667 314.150940 743.101929 650891.312500
4.100000 2.100000 4.000000 -1188.278320 109.047157 1423896.625000
4.100000 2.100000 4.008334 -392.646545 -700.906250 645440.875000
4.100000 2.100000 4.016667 -83.174904 -726.103210 534143.937500
4.100000 2.200000 3.983333 83.380341 -110.875198 19245.589844
4.100000 2.200000 3.991667 147.759338 56.075714 24977.308594
4.100000 2.200000 4.000000 55.241192 90.542786 11249.585938
4.100000 2.200000 4.008334 21.896181 44.661327 2474.076904
4.100000 2.200000 4.016667 97.384560 84.156158 16566.011719
4.200000 1.800000 3.983333 -22.045706 54.747570 3483.309570
4.200000 1.800000 3.991667 -54.637383 -102.560440 13503.886719
4.200000 1.800000 4.000000 27.687607 -58.092571 4141.350586
4.200000 1.800000 4.008334 97.079208 -35.463192 10682.010742
4.200000 1.800000 4.016667 -25.390869 130.857361 17768.343750
4.200000 1.900000 3.983333 5.144745 -58.122814 3404.729980
4.200000 1.900000 3.991667 117.291527 18.741335 14108.540039
4.200000 1.900000 4.000000 37.755932 59.231682 4933.902344
4.200000 1.900000 4.008334 -3.648672 83.271408 6947.440430
4.200000 1.900000 4.016667 -51.116783 -37.879112 4047.752686
4.200000 2.000000 3.983333 120.541077 -4.098930 14546.952148
4.200000 2.000000 3.991667 -33.784901 53.554520 4009.506348
4.200000 2.000000 4.000000 -4.820198 -4.341792 42.085464
4.200000 2.000000 4.008334 -8.061915 -36.922577 1428.271240
4.200000 2.000000 4.016667 75.353806 37.802467 7107.222168
4.200000 2.100000 3.983333 102.014755 80.114456 16825.335938
4.200000 2.100000 3.991667 52.678795 1.417681 2777.065186
4.200000 2.100000 4.000000 83.128197 67.269119 11435.431641
4.200000 2.100000 4.008334 48.159100 79.680672 8668.308594
4.200000 2.100000 4.016667 -29.023594 103.599609 11575.248047
4.200000 2.200000 3.983333 30.305721 155.296570 25035.462891
4.200000 2.200000 3.991667 -32.108677 78.414215 7179.756348
4.200000 2.200000 4.000000 -50.752766 128.683044 19135.169922
4.200000 2.200000 4.008334 -115.127701 37.850929 14687.080078
4.200000 2.200000 4.016667 -88.458961 24.258657 8413.470703
