#kx 	ky 	kz 	real 	imag 	intensity
3.800000 1.800000 3.800000 -22.135666 6.653891 534.261963
3.800000 1.800000 3.840000 -21.603935 -1.358352 468.575134
3.800000 1.800000 3.880000 -18.222519 -7.458120 387.683746
3.800000 1.800000 3.920000 -13.426619 -11.890367 321.654907
3.800000 1.800000 3.960000 -6.895340 -14.860795 268.388947
3.800000 1.800000 4.000000 1.628368 -14.728794 219.588959
3.800000 1.800000 4.040000 9.958339 -9.414193 187.795532
3.800000 1.800000 4.080000 14.042160 0.538631 197.472382
3.800000 1.800000 4.120000 11.357008 11.131719 252.896790
3.800000 1.800000 4.160000 3.377163 17.735229 325.943604
3.800000 1.800000 4.200000 -5.795145 18.644688 381.208099
3.800000 1.840000 3.800000 -21.727091 -10.840590 589.584839
3.800000 1.840000 3.840000 -16.633562 -14.844976 497.048706
3.800000 1.840000 3.880000 -11.556450 -16.812796 416.221619
3.800000 1.840000 3.920000 -6.166299 -17.225880 334.754181
3.800000 1.840000 3.960000 -0.792230 -15.144879 229.994995
3.800000 1.840000 4.000000 2.502963 -10.401981 114.466042
3.800000 1.840000 4.040000 2.002584 -5.337919 32.503723
3.800000 1.840000 4.080000 -0.935163 -3.110317 10.548604
3.800000 1.840000 4.120000 -2.572803 -4.017849 22.762428
3.800000 1.840000 4.160000 -0.956968 -4.523728 21.379908
3.800000 1.840000 4.200000 1.091911 -1.087412 2.374735
3.800000 1.880000 3.800000 -8.317617 -23.970797 643.781799
3.800000 1.880000 3.840000 -2.354999 -22.147022 496.036621
3.800000 1.880000 3.880000 1.539669 -19.537670 384.091125
3.800000 1.880000 3.920000 4.098365 -15.947053 271.105103
3.800000 1.880000 3.960000 3.819729 -11.525410 147.425400
3.800000 1.880000 4.000000 -0.193667 -9.456206 89.457344
3.800000 1.880000 4.040000 -4.346074 -13.289355 195.495331
3.800000 1.880000 4.080000 -2.088778 -21.260658 456.378601
3.800000 1.880000 4.120000 8.926289 -25.170712 713.243347
3.800000 1.880000 4.160000 21.812288 -17.360811 777.173706
3.800000 1.880000 4.200000 24.682346 0.270798 609.291504
3.800000 1.920000 3.800000 11.039284 -23.545345 676.249084
3.800000 1.920000 3.840000 13.752041 -16.862947 473.477631
3.800000 1.920000 3.880000 13.407621 -11.503979 312.105835
3.800000 1.920000 3.920000 10.450747 -7.362956 163.431213
3.800000 1.920000 3.960000 4.432035 -6.760619 65.348907
3.800000 1.920000 4.000000 -0.956374 -13.384883 180.069748
3.800000 1.920000 4.040000 2.249215 -25.633490 662.134766
3.800000 1.920000 4.080000 18.312025 -33.292091 1443.693604
3.800000 1.920000 4.120000 39.650822 -24.608290 2177.755615
3.800000 1.920000 4.160000 49.541687 1.088800 2455.564209
3.800000 1.920000 4.200000 36.234470 28.694933 2136.335938
3.800000 1.960000 3.800000 24.019407 -9.111271 659.947205
3.800000 1.960000 3.840000 20.834978 -1.134486 435.383362
3.800000 1.960000 3.880000 15.134600 2.891513 237.416962
3.800000 1.960000 3.920000 7.961394 2.493954 69.603607
3.800000 1.960000 3.960000 2.053699 -4.669293 26.019981
3.800000 1.960000 4.000000 4.459677 -17.806787 336.970398
3.800000 1.960000 4.040000 20.741798 -27.690014 1196.959106
3.800000 1.960000 4.080000 45.362247 -20.909443 2494.938232
3.800000 1.960000 4.120000 60.723621 6.933207 3735.427490
3.800000 1.960000 4.160000 50.232735 42.268646 4309.965820
3.800000 1.960000 4.200000 14.872423 60.948948 3935.963135
3.800000 2.000000 3.800000 22.219908 9.865154 591.045593
3.800000 2.000000 3.840000 13.537872 14.441677 391.836029
3.800000 2.000000 3.880000 4.979922 12.943192 192.325821
3.800000 2.000000 3.920000 -0.874244 5.610252 32.239235
3.800000 2.000000 3.960000 0.676428 -6.412436 41.576897
3.800000 2.000000 4.000000 14.387010 -16.250629 471.068970
3.800000 2.000000 4.040000 37.145924 -12.052121 1525.073364
3.800000 2.000000 4.080000 54.117611 12.738503 3090.985352
3.800000 2.000000 4.120000 47.626629 48.670578 4637.121094
3.800000 2.000000 4.160000 13.703163 72.634865 5463.600586
3.800000 2.000000 4.200000 -30.039339 65.292503 5165.472656
3.800000 2.040000 3.800000 7.657295 21.022041 500.560364
3.800000 2.040000 3.840000 -2.886506 18.827814 362.818481
3.800000 2.040000 3.880000 -8.985665 10.671615 194.625549
3.800000 2.040000 3.920000 -7.632278 -0.408691 58.418705
3.800000 2.040000 3.960000 3.483671 -8.912260 91.564346
3.800000 2.040000 4.000000 21.911453 -6.252866 519.210144
3.800000 2.040000 4.040000 36.679573 13.352423 1523.678345
3.800000 2.040000 4.080000 32.873405 44.045094 3020.630859
3.800000 2.040000 4.120000 4.400834 67.319199 4551.241699
3.800000 2.040000 4.160000 -36.609821 64.182930 5459.727539
3.800000 2.040000 4.200000 -65.418671 31.887093 5296.389160
3.800000 2.080000 3.800000 -9.323771 18.495016 428.998291
3.800000 2.080000 3.840000 -16.606560 9.528042 366.561401
3.800000 2.080000 3.880000 -15.490366 -1.909383 243.597168
3.800000 2.080000 3.920000 -5.631618 -9.687197 125.556900
3.800000 2.080000 3.960000 9.265514 -7.522748 142.441483
3.800000 2.080000 4.000000 20.451263 7.765145 478.551666
3.800000 2.080000 4.040000 17.131826 31.322124 1274.574951
3.800000 2.080000 4.080000 -5.397916 49.394356 2468.939941
3.800000 2.080000 4.120000 -38.680180 47.069302 3711.675293
3.800000 2.080000 4.160000 -63.711807 20.581768 4482.803711
3.800000 2.080000 4.200000 -64.058479 -16.952673 4390.881836
3.800000 2.120000 3.800000 -18.710794 6.366701 390.628723
3.800000 2.120000 3.840000 -19.012560 -5.901699 396.307495
3.800000 2.120000 3.880000 -9.900193 -14.686694 313.712830
3.800000 2.120000 3.920000 3.730440 -13.492577 195.965805
3.800000 2.120000 3.960000 12.966266 -0.822311 168.800232
3.800000 2.120000 4.000000 9.369745 17.439816 391.939270
3.800000 2.120000 4.040000 -8.989927 29.726221 964.466980
3.800000 2.120000 4.080000 -34.131203 25.483603 1814.353027
3.800000 2.120000 4.120000 -51.505951 3.327315 2663.934082
3.800000 2.120000 4.160000 -49.575249 -26.108551 3139.361816
3.800000 2.120000 4.200000 -28.733253 -46.468792 2984.948486
3.800000 2.160000 3.800000 -18.113297 -6.357699 368.511871
3.800000 2.160000 3.840000 -11.079576 -17.160751 417.248413
3.800000 2.160000 3.880000 2.364193 -18.787113 358.545044
3.800000 2.160000 3.920000 12.525646 -8.545288 229.913757
3.800000 2.160000 3.960000 10.370924 7.277163 160.513153
3.800000 2.160000 4.000000 -5.132459 16.777500 307.826630
3.800000 2.160000 4.040000 -24.913170 10.929590 740.121948
3.800000 2.160000 4.080000 -35.560333 -9.070608 1346.813232
3.800000 2.160000 4.120000 -29.116806 -31.854078 1862.470703
3.800000 2.160000 4.160000 -9.205715 -43.937103 2015.214233
3.800000 2.160000 4.200000 11.720964 -39.607563 1706.140015
3.800000 2.200000 3.800000 -12.384639 -13.943010 347.786804
3.800000 2.200000 3.840000 -0.555973 -19.994274 400.080109
3.800000 2.200000 3.880000 11.983899 -14.024214 340.292419
3.800000 2.200000 3.920000 14.226075 0.252471 202.444946
3.800000 2.200000 3.960000 2.603493 10.671568 120.660538
3.800000 2.200000 4.000000 -14.430473 6.553162 251.182480
3.800000 2.200000 4.040000 -22.504097 -11.402300 636.446838
3.800000 2.200000 4.080000 -13.475157 -30.704243 1124.330444
3.800000 2.200000 4.120000 7.263622 -37.193760 1436.135986
3.800000 2.200000 4.160000 25.178509 -26.927803 1359.063843
3.800000 2.200000 4.200000 28.868484 -9.127005 916.691650
3.840000 1.800000 3.800000 -30.240913 3.773441 928.751648
3.840000 1.800000 3.840000 -27.646090 -8.074434 829.502747
3.840000 1.800000 3.880000 -19.509956 -16.184900 642.589355
3.840000 1.800000 3.920000 -9.384493 -18.854395 443.556915
3.840000 1.800000 3.960000 -0.108530 -16.830177 283.266663
3.840000 1.800000 4.000000 6.995537 -11.426397 179.500092
3.840000 1.800000 4.040000 11.088621 -3.553139 135.582321
3.840000 1.800000 4.080000 11.018011 5.610802 152.877670
3.840000 1.800000 4.120000 6.066301 13.729643 225.303101
3.840000 1.800000 4.160000 -2.707285 17.912733 328.195374
3.840000 1.800000 4.200000 -12.324657 16.445087 422.338074
3.840000 1.840000 3.800000 -21.689529 -17.665741 782.514099
3.840000 1.840000 3.840000 -8.412008 -22.654236 583.976318
3.840000 1.840000 3.880000 4.672038 -17.104406 314.388672
3.840000 1.840000 3.920000 9.390270 -4.470137 108.159302
3.840000 1.840000 3.960000 3.337151 6.234331 50.003460
3.840000 1.840000 4.000000 -7.603069 7.528387 114.483276
3.840000 1.840000 4.040000 -13.941555 -0.178917 194.398972
3.840000 1.840000 4.080000 -10.704861 -8.959072 194.859009
3.840000 1.840000 4.120000 -1.677120 -10.440425 111.815201
3.840000 1.840000 4.160000 4.177721 -3.255651 28.052620
3.840000 1.840000 4.200000 0.872664 5.835167 34.810715
3.840000 1.880000 3.800000 0.990096 -25.818918 667.596802
3.840000 1.880000 3.840000 17.687056 -15.813833 562.909241
3.840000 1.880000 3.880000 22.149830 5.971291 526.271240
3.840000 1.880000 3.920000 6.973099 25.547043 701.275513
3.840000 1.880000 3.960000 -20.099426 26.450058 1103.592529
3.840000 1.880000 4.000000 -39.314667 4.624287 1567.027100
3.840000 1.880000 4.040000 -34.500656 -25.475842 1839.313721
3.840000 1.880000 4.080000 -7.775185 -41.236702 1760.919067
3.840000 1.880000 4.120000 20.918882 -30.739525 1382.518066
3.840000 1.880000 4.160000 30.222120 -3.135103 923.205383
3.840000 1.880000 4.200000 15.201513 19.347347 605.405884
3.840000 1.920000 3.800000 21.995167 -13.524710 666.705139
3.840000 1.920000 3.840000 29.056528 11.255952 970.978271
3.840000 1.920000 3.880000 12.444267 38.246033 1617.618774
3.840000 1.920000 3.920000 -24.563164 44.806770 2610.995605
3.840000 1.920000 3.960000 -58.227097 18.011028 3714.791992
3.840000 1.920000 4.000000 -60.635010 -29.420782 4542.187012
3.840000 1.920000 4.040000 -24.539261 -64.684532 4786.264160
3.840000 1.920000 4.080000 26.875322 -60.717033 4408.840820
3.840000 1.920000 4.120000 56.959892 -19.919975 3641.234863
3.840000 1.920000 4.160000 45.742428 26.786339 2809.877441
3.840000 1.920000 4.200000 6.004652 45.814980 2135.068359
3.840000 1.960000 3.800000 25.412159 10.402910 753.998352
3.840000 1.960000 3.840000 13.452056 38.520309 1664.771973
3.840000 1.960000 3.880000 -23.154011 51.827118 3222.158203
3.840000 1.960000 3.920000 -65.157173 29.995962 5145.214844
3.840000 1.960000 3.960000 -79.319656 -23.121151 6826.195312
3.840000 1.960000 4.000000 -46.243931 -74.483139 7686.239258
3.840000 1.960000 4.040000 17.954369 -85.017273 7550.295898
3.840000 1.960000 4.080000 69.677780 -43.235291 6724.283691
3.840000 1.960000 4.120000 72.270134 22.061035 5709.661621
3.840000 1.960000 4.160000 26.784523 64.093376 4825.371582
3.840000 1.960000 4.200000 -29.504276 56.507187 4063.564453
3.840000 2.000000 3.800000 8.810654 27.585567 838.591187
3.840000 2.000000 3.840000 -19.206882 43.331306 2246.506592
3.840000 2.000000 3.880000 -59.078388 31.137875 4459.823242
3.840000 2.000000 3.920000 -81.742058 -14.785957 6900.388672
3.840000 2.000000 3.960000 -60.594898 -70.701828 8670.490234
3.840000 2.000000 4.000000 1.113281 -95.665878 9153.199219
3.840000 2.000000 4.040000 65.089157 -65.027229 8465.138672
3.840000 2.000000 4.080000 85.475395 4.624412 7327.428223
3.840000 2.000000 4.120000 47.177059 65.004089 6451.206543
3.840000 2.000000 4.160000 -20.172829 74.723000 5990.469727
3.840000 2.000000 4.200000 -66.830383 32.805660 5542.511719
3.840000 2.040000 3.800000 -14.571512 25.292852 852.057373
3.840000 2.040000 3.840000 -44.166382 20.678389 2378.265137
3.840000 2.040000 3.880000 -66.972900 -11.100025 4608.580078
3.840000 2.040000 3.920000 -58.343765 -58.516556 6828.182129
3.840000 2.040000 3.960000 -11.249832 -89.377953 8114.977051
3.840000 2.040000 4.000000 49.681107 -74.526108 8022.353027
3.840000 2.040000 4.040000 81.942993 -15.903937 6967.589355
3.840000 2.040000 4.080000 59.306145 48.944107 5912.744141
3.840000 2.040000 4.120000 -3.777823 74.527893 5568.678711
3.840000 2.040000 4.160000 -61.867622 44.659588 5822.081543
3.840000 2.040000 4.200000 -75.483200 -14.555016 5909.562012
3.840000 2.080000 3.800000 -27.320066 6.609439 790.070740
3.840000 2.080000 3.840000 -43.293640 -12.233066 2023.987061
3.840000 2.080000 3.880000 -41.158867 -44.190903 3646.888184
3.840000 2.080000 3.920000 -11.640594 -70.041382 5041.298828
3.840000 2.080000 3.960000 33.864525 -66.385246 5553.807129
3.840000 2.080000 4.000000 65.664833 -26.806686 5030.468750
3.840000 2.080000 4.040000 57.538605 26.879433 4033.194824
3.840000 2.080000 4.080000 10.653584 57.716522 3444.695801
3.840000 2.080000 4.120000 -43.593689 42.909737 3741.655273
3.840000 2.080000 4.160000 -67.345551 -6.355110 4575.810547
3.840000 2.080000 4.200000 -46.770874 -53.621487 5062.778320
3.840000 2.120000 3.800000 -22.333178 -13.565409 682.791138
3.840000 2.120000 3.840000 -20.240833 -31.730618 1416.523438
3.840000 2.120000 3.880000 -3.093330 -46.737984 2194.007812
3.840000 2.120000 3.920000 24.016691 -45.607910 2656.883057
3.840000 2.120000 3.960000 45.012028 -22.797482 2545.807861
3.840000 2.120000 4.000000 42.833271 11.350254 1963.517334
3.840000 2.120000 4.040000 14.324337 34.485611 1394.443970
3.840000 2.120000 4.080000 -23.656750 28.566208 1375.670044
3.840000 2.120000 4.120000 -45.039886 -4.373993 2047.723267
3.840000 2.120000 4.160000 -34.870735 -42.014004 2981.144531
3.840000 2.120000 4.200000 -1.554296 -58.929779 3475.134521
3.840000 2.160000 3.800000 -7.010268 -22.319756 547.315308
3.840000 2.160000 3.840000 4.916209 -28.392139 830.282715
3.840000 2.160000 3.880000 19.340160 -24.334946 966.231384
3.840000 2.160000 3.920000 27.601292 -10.237087 866.629272
3.840000 2.160000 3.960000 23.009521 6.728653 574.712830
3.840000 2.160000 4.000000 6.364569 15.600239 283.875183
3.840000 2.160000 4.040000 -12.770031 8.926080 242.748581
3.840000 2.160000 4.080000 -21.530766 -10.870166 581.734375
3.840000 2.160000 4.120000 -12.975489 -31.860378 1183.447021
3.840000 2.160000 4.160000 8.159537 -40.677486 1721.235962
3.840000 2.160000 4.200000 28.563892 -32.432335 1867.752197
3.840000 2.200000 3.800000 5.707586 -18.904930 389.972931
3.840000 2.200000 3.840000 15.395305 -12.830615 401.640076
3.840000 2.200000 3.880000 16.823475 -1.083775 284.203857
3.840000 2.200000 3.920000 8.029042 7.436047 119.760315
3.840000 2.200000 3.960000 -4.859432 5.378815 52.545731
3.840000 2.200000 4.000000 -11.926147 -7.015746 191.453674
3.840000 2.200000 4.040000 -7.019930 -21.727011 521.342407
3.840000 2.200000 4.080000 7.557635 -28.917072 893.314941
3.840000 2.200000 4.120000 22.957235 -24.187355 1112.062744
3.840000 2.200000 4.160000 30.519932 -11.377497 1060.913696
3.840000 2.200000 4.200000 27.881905 0.972141 778.345642
3.880000 1.800000 3.800000 -35.314213 -7.269928 1299.945435
3.880000 1.800000 3.840000 -27.128311 -20.848122 1170.589355
3.880000 1.800000 3.880000 -12.853765 -26.503826 867.672119
3.880000 1.800000 3.920000 0.430229 -23.130543 535.207153
3.880000 1.800000 3.960000 8.060040 -14.809875 284.296631
3.880000 1.800000 4.000000 10.218624 -6.386372 145.206024
3.880000 1.800000 4.040000 9.600066 0.312771 92.259094
3.880000 1.800000 4.080000 7.607513 6.139782 95.571182
3.880000 1.800000 4.120000 3.339104 11.477298 142.877975
3.880000 1.800000 4.160000 -3.992865 14.350179 221.870590
3.880000 1.800000 4.200000 -12.425949 12.050694 299.623413
3.880000 1.840000 3.800000 -15.544952 -25.338463 883.683228
3.880000 1.840000 3.840000 5.503304 -22.011139 514.776611
3.880000 1.840000 3.880000 16.635872 -2.154581 281.394440
3.880000 1.840000 3.920000 7.104530 19.324455 423.908936
3.880000 1.840000 3.960000 -16.212849 24.203770 848.678955
3.880000 1.840000 4.000000 -33.716736 7.975388 1200.425049
3.880000 1.840000 4.040000 -30.688789 -15.365631 1177.904419
3.880000 1.840000 4.080000 -10.735569 -26.047199 793.709045
3.880000 1.840000 4.120000 8.093369 -16.572218 340.141022
3.880000 1.840000 4.160000 10.451027 2.323471 114.622482
3.880000 1.840000 4.200000 -2.763086 12.935079 174.950897
3.880000 1.880000 3.800000 11.406572 -20.828682 563.943848
3.880000 1.880000 3.840000 27.234543 8.505121 814.057434
3.880000 1.880000 3.880000 10.374668 45.836098 2208.581543
3.880000 1.880000 3.920000 -36.222347 57.817558 4654.928711
3.880000 1.880000 3.960000 -80.011673 26.309563 7094.060547
3.880000 1.880000 4.000000 -84.887909 -31.073624 8171.527344
3.880000 1.880000 4.040000 -44.123016 -72.909706 7262.666016
3.880000 1.880000 4.080000 11.986374 -69.361855 4954.740234
3.880000 1.880000 4.120000 42.267231 -27.873590 2563.455811
3.880000 1.880000 4.160000 30.088448 15.122623 1134.008423
3.880000 1.880000 4.200000 -5.140709 27.723248 795.005310
3.880000 1.920000 3.800000 23.616966 3.585091 570.614014
3.880000 1.920000 3.840000 12.703232 48.628536 2526.106689
3.880000 1.920000 3.880000 -41.799591 74.092346 7236.881836
3.880000 1.920000 3.920000 -108.416077 43.898342 13681.110352
3.880000 1.920000 3.960000 -133.317917 -35.851639 19059.005859
3.880000 1.920000 4.000000 -87.856133 -113.404915 20579.375000
3.880000 1.920000 4.040000 1.461208 -132.288422 17502.361328
3.880000 1.920000 4.080000 72.152939 -80.484291 11683.767578
3.880000 1.920000 4.120000 78.434387 -1.027184 6153.008301
3.880000 1.920000 4.160000 28.415424 46.455574 2965.556641
3.880000 1.920000 4.200000 -28.042004 36.509617 2119.306152
3.880000 1.960000 3.800000 10.409193 27.517759 865.578369
3.880000 1.960000 3.840000 -33.078346 62.238064 4967.753906
3.880000 1.960000 3.880000 -105.548454 47.254879 13373.500000
3.880000 1.960000 3.920000 -151.106964 -31.700838 23838.257812
3.880000 1.960000 3.960000 -119.911270 -131.707458 31725.568359
3.880000 1.960000 4.000000 -18.187786 -180.765900 33007.105469
3.880000 1.960000 4.040000 88.611404 -139.081696 27195.699219
3.880000 1.960000 4.080000 127.948601 -36.437279 17698.519531
3.880000 1.960000 4.120000 81.157776 51.803623 9270.200195
3.880000 1.960000 4.160000 -3.623154 68.812485 4748.285645
3.880000 1.960000 4.200000 -57.348961 20.769909 3720.292480
3.880000 2.000000 3.800000 -17.258007 30.171875 1208.180908
3.880000 2.000000 3.840000 -75.423935 32.485512 6744.078613
3.880000 2.000000 3.880000 -128.791840 -25.060240 17215.353516
3.880000 2.000000 3.920000 -120.807053 -122.104218 29503.783203
3.880000 2.000000 3.960000 -33.110737 -192.188644 38032.796875
3.880000 2.000000 4.000000 86.926224 -175.746216 38442.902344
3.880000 2.000000 4.040000 158.352081 -75.578697 30787.519531
3.880000 2.000000 4.080000 133.845734 39.865921 19503.970703
3.880000 2.000000 4.120000 40.121040 92.357574 10139.620117
3.880000 2.000000 4.160000 -46.869675 58.333374 5599.548828
3.880000 2.000000 4.200000 -68.106400 -17.189957 4933.976074
3.880000 2.040000 3.800000 -36.021637 8.793983 1374.892456
3.880000 2.040000 3.840000 -79.909325 -20.898781 6822.258789
3.880000 2.040000 3.880000 -89.202927 -92.501923 16513.767578
3.880000 2.040000 3.920000 -32.043251 -162.118042 27309.029297
3.880000 2.040000 3.960000 71.775558 -170.357483 34173.402344
3.880000 2.040000 4.000000 156.138412 -95.809799 33558.718750
3.880000 2.040000 4.040000 160.350159 18.607433 26058.410156
3.880000 2.040000 4.080000 82.204391 96.186684 16009.439453
3.880000 2.040000 4.120000 -18.273167 89.345871 8316.592773
3.880000 2.040000 4.160000 -69.646637 17.533451 5158.075684
3.880000 2.040000 4.200000 -47.574596 -54.223312 5203.509766
3.880000 2.080000 3.800000 -30.702000 -19.258678 1313.509521
3.880000 2.080000 3.840000 -43.321129 -58.403465 5287.685059
3.880000 2.080000 3.880000 -15.651665 -107.811584 11868.312500
3.880000 2.080000 3.920000 52.948578 -126.225601 18736.455078
3.880000 2.080000 3.960000 124.095459 -84.682999 22570.892578
3.880000 2.080000 4.000000 146.059509 1.873608 21336.890625
3.880000 2.080000 4.040000 97.947380 79.271599 15877.675781
3.880000 2.080000 4.080000 11.426968 96.062752 9358.627930
3.880000 2.080000 4.120000 -53.022091 46.415665 4965.755859
3.880000 2.080000 4.160000 -55.580364 -25.865587 3758.205566
3.880000 2.080000 4.200000 -7.462361 -65.958656 4406.231445
3.880000 2.120000 3.800000 -6.855077 -32.626137 1111.456909
3.880000 2.120000 3.840000 4.496870 -55.865318 3141.155762
3.880000 2.120000 3.880000 38.156498 -68.079498 6090.736328
3.880000 2.120000 3.920000 79.405975 -50.020222 8807.332031
3.880000 2.120000 3.960000 99.441147 -1.653519 9891.276367
3.880000 2.120000 4.000000 78.080620 51.129295 8710.788086
3.880000 2.120000 4.040000 24.010796 73.440094 5969.965820
3.880000 2.120000 4.080000 -28.084747 49.780884 3266.889648
3.880000 2.120000 4.120000 -44.006439 -1.586639 1939.084106
3.880000 2.120000 4.160000 -17.514595 -42.859962 2143.737549
3.880000 2.120000 4.200000 25.998356 -47.469826 2929.298828
3.880000 2.160000 3.800000 16.075186 -24.535381 860.396484
3.880000 2.160000 3.840000 29.118996 -23.944321 1421.246338
3.880000 2.160000 3.880000 41.839016 -13.614296 1935.852295
3.880000 2.160000 3.920000 46.268318 5.304001 2168.889648
3.880000 2.160000 3.960000 36.533981 24.910568 1955.268311
3.880000 2.160000 4.000000 14.681099 33.735298 1353.604980
3.880000 2.160000 4.040000 -8.020866 24.708961 674.867065
3.880000 2.160000 4.080000 -17.538582 2.017933 311.673920
3.880000 2.160000 4.120000 -7.551220 -20.111866 461.508087
3.880000 2.160000 4.160000 14.865623 -27.313026 966.988159
3.880000 2.160000 4.200000 34.157135 -16.031412 1423.716064
3.880000 2.200000 3.800000 23.334419 -6.477083 586.447754
3.880000 2.200000 3.840000 21.750546 5.754257 506.197723
3.880000 2.200000 3.880000 11.247862 12.520786 283.284485
3.880000 2.200000 3.920000 -0.333023 8.806473 77.664864
3.880000 2.200000 3.960000 -4.592537 -2.029915 25.211950
3.880000 2.200000 4.000000 0.597214 -11.767301 138.826019
3.880000 2.200000 4.040000 10.433342 -14.451683 317.705750
3.880000 2.200000 4.080000 18.375742 -10.329025 444.356689
3.880000 2.200000 4.120000 21.453709 -3.762707 474.419586
3.880000 2.200000 4.160000 21.043457 1.578779 445.319641
3.880000 2.200000 4.200000 19.678608 5.167812 413.953918
3.920000 1.800000 3.800000 -30.194166 -20.479244 1331.087158
3.920000 1.800000 3.840000 -16.143879 -30.772705 1207.584229
3.920000 1.800000 3.880000 0.759159 -29.656033 880.056580
3.920000 1.800000 3.920000 11.696190 -19.582565 520.277710
3.920000 1.800000 3.960000 13.793682 -8.216972 257.784302
3.920000 1.800000 4.000000 11.012979 -1.143486 122.593262
3.920000 1.800000 4.040000 8.661579 2.173759 79.748184
3.920000 1.800000 4.080000 7.803684 5.623631 92.522705
3.920000 1.800000 4.120000 5.309872 10.713417 142.972046
3.920000 1.800000 4.160000 -1.180641 14.384178 208.298508
3.920000 1.800000 4.200000 -9.331903 12.557454 244.774078
3.920000 1.840000 3.800000 -4.225851 -26.471817 718.614868
3.920000 1.840000 3.840000 14.738239 -9.343494 304.516602
3.920000 1.840000 3.880000 10.687675 19.104530 479.209503
3.920000 1.840000 3.920000 -17.602798 33.196495 1411.865845
3.920000 1.840000 3.960000 -47.629246 17.190506 2564.058594
3.920000 1.840000 4.000000 -52.833996 -18.055649 3117.437500
3.920000 1.840000 4.040000 -27.686573 -43.798382 2684.844482
3.920000 1.840000 4.080000 6.870071 -39.722160 1625.047852
3.920000 1.840000 4.120000 23.148073 -12.103825 682.335876
3.920000 1.840000 4.160000 11.917781 13.662458 328.696289
3.920000 1.840000 4.200000 -11.341677 17.711208 442.320526
3.920000 1.880000 3.800000 15.411860 -8.396744 308.030731
3.920000 1.880000 3.840000 11.425457 35.380943 1382.352173
3.920000 1.880000 3.880000 -37.235126 63.803772 5457.375977
3.920000 1.880000 3.920000 -100.689079 39.168671 11672.475586
3.920000 1.880000 3.960000 -125.974762 -33.822418 17013.595703
3.920000 1.880000 4.000000 -85.282310 -105.464546 18395.843750
3.920000 1.880000 4.040000 -4.441467 -122.619888 15055.363281
3.920000 1.880000 4.080000 57.965424 -75.911133 9122.490234
3.920000 1.880000 4.120000 61.916519 -6.865074 3880.784424
3.920000 1.880000 4.160000 18.462845 31.281097 1319.383789
3.920000 1.880000 4.200000 -26.107788 20.084795 1085.015625
3.920000 1.920000 3.800000 10.480906 17.955994 432.267090
3.920000 1.920000 3.840000 -35.053387 61.657024 5030.328613
3.920000 1.920000 3.880000 -118.251602 48.727795 16357.839844
3.920000 1.920000 3.920000 -172.609406 -39.603836 31362.472656
3.920000 1.920000 3.960000 -139.265778 -153.401031 42926.835938
3.920000 1.920000 4.000000 -26.033325 -209.729828 44664.335938
3.920000 1.920000 4.040000 92.024033 -165.042419 35707.421875
3.920000 1.920000 4.080000 135.290802 -55.164509 21346.724609
3.920000 1.920000 4.120000 87.251404 36.667522 8957.314453
3.920000 1.920000 4.160000 3.253664 52.939167 2813.141846
3.920000 1.920000 4.200000 -44.980621 6.239658 2062.189697
3.920000 1.960000 3.800000 -15.539799 27.642368 1005.585876
3.920000 1.960000 3.840000 -91.531143 36.822632 9733.856445
3.920000 1.960000 3.880000 -165.450531 -36.144478 28680.302734
3.920000 1.960000 3.920000 -158.396225 -164.873993 52272.796875
3.920000 1.960000 3.960000 -44.897133 -259.501831 69356.953125
3.920000 1.960000 4.000000 111.571053 -241.231125 70640.554688
3.920000 1.960000 4.040000 205.465637 -115.575386 55573.796875
3.920000 1.960000 4.080000 178.769318 28.190485 32753.171875
3.920000 1.960000 4.120000 68.917732 93.505920 13493.011719
3.920000 1.960000 4.160000 -29.574631 56.774136 4097.961426
3.920000 1.960000 4.200000 -50.417542 -22.905945 3066.610840
3.920000 2.000000 3.800000 -39.162502 9.652969 1626.881348
3.920000 2.000000 3.840000 -109.522308 -28.748024 12821.584961
3.920000 2.000000 3.880000 -129.866989 -136.821228 35585.484375
3.920000 2.000000 3.920000 -47.054668 -246.252274 62854.324219
3.920000 2.000000 3.960000 109.599808 -263.987549 81701.546875
3.920000 2.000000 4.000000 239.343643 -157.021515 81941.132812
3.920000 2.000000 4.040000 252.032471 9.857742 63617.542969
3.920000 2.000000 4.080000 146.513535 124.585152 36987.675781
3.920000 2.000000 4.120000 10.380341 121.962715 14982.656250
3.920000 2.000000 4.160000 -58.451584 33.500984 4538.903320
3.920000 2.000000 4.200000 -32.944366 -50.908318 3676.988037
3.920000 2.040000 3.800000 -37.945274 -22.199932 1932.680908
3.920000 2.040000 3.840000 -69.832001 -87.375275 12510.947266
3.920000 2.040000 3.880000 -29.045507 -179.406677 33030.398438
3.920000 2.040000 3.920000 90.462875 -220.581207 56839.601562
3.920000 2.040000 3.960000 220.493896 -154.825195 72588.398438
3.920000 2.040000 4.000000 267.855347 -6.470295 71788.351562
3.920000 2.040000 4.040000 194.899887 130.530563 55024.195312
3.920000 2.040000 4.080000 55.282417 168.822052 31557.031250
3.920000 2.040000 4.120000 -51.153267 99.969971 12610.652344
3.920000 2.040000 4.160000 -62.710842 -4.227812 3950.524170
3.920000 2.040000 4.200000 -0.877633 -59.844528 3582.137939
3.920000 2.080000 3.800000 -10.994839 -41.616928 1852.855225
3.920000 2.080000 3.840000 -1.139608 -96.028496 9222.770508
3.920000 2.080000 3.880000 65.869286 -135.988220 22831.558594
3.920000 2.080000 3.920000 161.258759 -109.819626 38064.738281
3.920000 2.080000 3.960000 217.946686 -10.080055 47602.367188
3.920000 2.080000 4.000000 185.651855 108.768524 46297.203125
3.920000 2.080000 4.040000 78.495926 169.627640 34935.148438
3.920000 2.080000 4.080000 -32.157837 136.675690 19714.371094
3.920000 2.080000 4.120000 -76.064217 44.922714 7803.815430
3.920000 2.080000 4.160000 -40.473976 -32.172089 2673.186035
3.920000 2.080000 4.200000 26.442291 -45.789425 2795.866211
3.920000 2.120000 3.800000 20.770519 -33.600571 1560.412720
3.920000 2.120000 3.840000 46.141068 -54.113892 5057.311523
3.920000 2.120000 3.880000 93.279953 -47.963341 11001.631836
3.920000 2.120000 3.920000 131.412918 0.095985 17269.365234
3.920000 2.120000 3.960000 125.089424 71.817093 20805.058594
3.920000 2.120000 4.000000 66.574219 123.421692 19665.041016
3.920000 2.120000 4.040000 -12.111443 119.612877 14453.927734
3.920000 2.120000 4.080000 -61.920528 64.107803 7943.962402
3.920000 2.120000 4.120000 -55.922012 -2.233017 3132.257812
3.920000 2.120000 4.160000 -9.703945 -35.014957 1320.213745
3.920000 2.120000 4.200000 34.932079 -21.289392 1673.488281
3.920000 2.160000 3.800000 34.386604 -6.864391 1229.558472
3.920000 2.160000 3.840000 44.972462 -0.788673 2023.144287
3.920000 2.160000 3.880000 52.963005 15.068863 3032.150391
3.920000 2.160000 3.920000 49.488548 37.924232 3887.363770
3.920000 2.160000 3.960000 29.713669 57.162075 4150.405273
3.920000 2.160000 4.000000 -0.731766 60.024071 3603.424561
3.920000 2.160000 4.040000 -26.676865 41.713253 2451.650635
3.920000 2.160000 4.080000 -33.302559 11.278511 1236.265259
3.920000 2.160000 4.120000 -17.705906 -13.293663 490.220581
3.920000 2.160000 4.160000 8.087805 -18.086189 392.522827
3.920000 2.160000 4.200000 26.134575 -3.567585 695.743652
3.920000 2.200000 3.800000 25.000837 16.307100 890.963379
3.920000 2.200000 3.840000 11.918501 23.664711 702.069214
3.920000 2.200000 3.880000 -2.230499 18.535797 348.550903
3.920000 2.200000 3.920000 -6.716438 5.424906 74.540146
3.920000 2.200000 3.960000 0.201904 -4.325881 18.754007
3.920000 2.200000 4.000000 10.065613 -3.714451 115.113701
3.920000 2.200000 4.040000 13.285830 3.615379 189.584229
3.920000 2.200000 4.080000 8.728916 8.245537 144.182861
3.920000 2.200000 4.120000 3.850601 5.422594 44.231655
3.920000 2.200000 4.160000 5.752934 -0.225565 33.147125
3.920000 2.200000 4.200000 13.174149 -0.372013 173.696594
3.960000 1.800000 3.800000 -16.625051 -25.601168 931.812134
3.960000 1.800000 3.840000 -1.217026 -29.152035 851.322266
3.960000 1.800000 3.880000 12.208565 -21.839218 626.000488
3.960000 1.800000 3.920000 17.003601 -9.582661 380.949829
3.960000 1.800000 3.960000 14.237823 -0.285278 202.797012
3.960000 1.800000 4.000000 10.152489 3.328926 114.154778
3.960000 1.800000 4.040000 9.087334 4.881081 106.404587
3.960000 1.800000 4.080000 9.444260 8.966225 169.587219
3.960000 1.800000 4.120000 6.516537 15.465565 281.648926
3.960000 1.800000 4.160000 -1.404437 19.604298 386.300934
3.960000 1.800000 4.200000 -10.452110 17.349377 410.247498
3.960000 1.840000 3.800000 3.819275 -18.042439 340.116455
3.960000 1.840000 3.840000 9.178658 6.927929 132.243958
3.960000 1.840000 3.880000 -13.064732 27.832729 945.348022
3.960000 1.840000 3.920000 -47.790195 19.971306 2682.755859
3.960000 1.840000 3.960000 -63.762184 -16.711891 4344.903320
3.960000 1.840000 4.000000 -43.169586 -54.439835 4827.308594
3.960000 1.840000 4.040000 0.096909 -62.177429 3866.041992
3.960000 1.840000 4.080000 32.397221 -34.311684 2226.871582
3.960000 1.840000 4.120000 31.004280 4.860474 984.889587
3.960000 1.840000 4.160000 3.367990 24.664175 619.664917
3.960000 1.840000 4.200000 -22.940714 15.651349 771.241089
3.960000 1.880000 3.800000 7.028601 3.355730 60.662151
3.960000 1.880000 3.840000 -24.343174 40.326881 2218.847412
3.960000 1.880000 3.880000 -88.677643 34.097275 9026.348633
3.960000 1.880000 3.920000 -132.511032 -32.620338 18623.259766
3.960000 1.880000 3.960000 -107.701141 -120.653732 26156.859375
3.960000 1.880000 4.000000 -20.096024 -163.785278 27229.466797
3.960000 1.880000 4.040000 70.494743 -127.879669 21322.718750
3.960000 1.880000 4.080000 101.756104 -42.391140 12151.313477
3.960000 1.880000 4.120000 62.652954 26.924175 4650.303711
3.960000 1.880000 4.160000 -1.729628 36.904526 1364.935547
3.960000 1.880000 4.200000 -36.178547 0.343339 1309.005127
3.960000 1.920000 3.800000 -11.518517 16.498005 404.860413
3.960000 1.920000 3.840000 -82.074905 28.981129 7576.195801
3.960000 1.920000 3.880000 -153.572571 -38.012798 25029.507812
3.960000 1.920000 3.920000 -148.226486 -160.023132 47578.492188
3.960000 1.920000 3.960000 -40.884148 -249.935669 64139.351562
3.960000 1.920000 4.000000 106.876152 -232.218796 65348.082031
3.960000 1.920000 4.040000 194.242447 -113.683807 50654.136719
3.960000 1.920000 4.080000 168.222076 19.661682 28685.250000
3.960000 1.920000 4.120000 67.064117 78.175522 10609.007812
3.960000 1.920000 4.160000 -20.192554 43.788448 2325.167480
3.960000 1.920000 4.200000 -35.573120 -25.402512 1910.734497
3.960000 1.960000 3.800000 -34.404030 5.185188 1210.523560
3.960000 1.960000 3.840000 -113.294441 -33.291565 13943.958984
3.960000 1.960000 3.880000 -138.325500 -152.004074 42239.179688
3.960000 1.960000 3.920000 -47.926739 -273.983765 77364.070312
3.960000 1.960000 3.960000 125.029625 -294.286011 102236.664062
3.960000 1.960000 4.000000 267.729919 -176.969177 102997.406250
3.960000 1.960000 4.040000 281.631287 4.601078 79337.351562
3.960000 1.960000 4.080000 168.586426 127.633835 44711.777344
3.960000 1.960000 4.120000 25.960102 124.801849 16249.428711
3.960000 1.960000 4.160000 -43.043430 34.713440 3057.759766
3.960000 1.960000 4.200000 -15.774920 -45.902725 2355.908447
3.960000 2.000000 3.800000 -37.557289 -24.021236 1987.569702
3.960000 2.000000 3.840000 -82.604439 -104.526009 17749.179688
3.960000 2.000000 3.880000 -34.035694 -223.579010 51146.003906
3.960000 2.000000 3.920000 117.782898 -278.796814 91600.476562
3.960000 2.000000 3.960000 284.289612 -196.807800 119553.890625
3.960000 2.000000 4.000000 345.670105 -9.734779 119582.585938
3.960000 2.000000 4.040000 255.910370 162.082550 91760.875000
3.960000 2.000000 4.080000 85.204628 210.572174 51600.468750
3.960000 2.000000 4.120000 -42.351013 129.698868 18615.404297
3.960000 2.000000 4.160000 -55.767303 10.750090 3225.556641
3.960000 2.000000 4.200000 12.453989 -47.277092 2390.225342
3.960000 2.040000 3.800000 -13.283077 -46.396694 2329.093506
3.960000 2.040000 3.840000 -5.624924 -129.573853 16821.023438
3.960000 2.040000 3.880000 92.092361 -195.119339 46552.558594
3.960000 2.040000 3.920000 236.799408 -160.685913 81893.921875
3.960000 2.040000 3.960000 325.047089 -13.625435 105841.265625
3.960000 2.040000 4.000000 280.527344 163.162750 105317.679688
3.960000 2.040000 4.040000 125.871948 254.627548 80678.937500
3.960000 2.040000 4.080000 -32.664577 210.650238 45440.500000
3.960000 2.040000 4.120000 -95.559464 85.577698 16455.154297
3.960000 2.040000 4.160000 -50.302006 -15.705193 2776.944824
3.960000 2.040000 4.200000 31.425322 -30.564571 1921.743896
3.960000 2.080000 3.800000 21.611149 -41.560471 2194.314453
3.960000 2.080000 3.840000 62.705231 -89.854782 12005.828125
3.960000 2.080000 3.880000 153.710953 -88.881241 31526.931641
3.960000 2.080000 3.920000 232.978149 -3.705482 54292.546875
3.960000 2.080000 3.960000 228.409607 131.346100 69422.750000
3.960000 2.080000 4.000000 124.014801 231.061340 68769.015625
3.960000 2.080000 4.040000 -18.802284 228.858795 52729.875000
3.960000 2.080000 4.080000 -109.466232 133.990356 29936.273438
3.960000 2.080000 4.120000 -102.856369 22.158470 11070.430664
3.960000 2.080000 4.160000 -31.373850 -31.024563 1946.842041
3.960000 2.080000 4.200000 32.328278 -10.380393 1152.870117
3.960000 2.120000 3.800000 40.947594 -12.183496 1825.143066
3.960000 2.120000 3.840000 76.916519 -19.335976 6290.030762
3.960000 2.120000 3.880000 120.650024 13.973534 14751.688477
3.960000 2.120000 3.920000 130.665665 85.276443 24345.587891
3.960000 2.120000 3.960000 81.570770 154.590927 30552.146484
3.960000 2.120000 4.000000 -8.329903 173.297409 30101.378906
3.960000 2.120000 4.040000 -86.633530 125.407166 23232.326172
3.960000 2.120000 4.080000 -107.956406 42.936195 13498.102539
3.960000 2.120000 4.120000 -69.947922 -20.007103 5292.996094
3.960000 2.120000 4.160000 -11.753311 -30.940975 1095.484253
3.960000 2.120000 4.200000 21.894547 -0.981117 480.333740
3.960000 2.160000 3.800000 32.764492 19.233116 1443.424683
3.960000 2.160000 3.840000 39.444408 28.349583 2359.560059
3.960000 2.160000 3.880000 39.805557 47.275124 3819.419678
3.960000 2.160000 3.920000 24.817795 68.855774 5357.040527
3.960000 2.160000 3.960000 -5.903229 79.145218 6298.813477
3.960000 2.160000 4.000000 -40.391945 67.213699 6149.190430
3.960000 2.160000 4.040000 -60.734364 35.034576 4916.084473
3.960000 2.160000 4.080000 -55.844139 -1.694771 3121.440186
3.960000 2.160000 4.120000 -30.280472 -23.820267 1484.312012
3.960000 2.160000 4.160000 -1.229644 -22.321449 499.759125
3.960000 2.160000 4.200000 14.158589 -4.053413 216.895813
3.960000 2.200000 3.800000 8.513233 31.676853 1075.898193
3.960000 2.200000 3.840000 -7.444500 28.119366 846.119324
3.960000 2.200000 3.880000 -15.438412 13.738955 427.103424
3.960000 2.200000 3.920000 -9.707527 0.161207 94.262070
3.960000 2.200000 3.960000 2.270355 -1.564255 7.601406
3.960000 2.200000 4.000000 7.084709 7.344025 104.127808
3.960000 2.200000 4.040000 -0.502874 14.399155 207.588531
3.960000 2.200000 4.080000 -11.673801 9.091557 218.934036
3.960000 2.200000 4.120000 -12.684921 -5.498814 191.144180
3.960000 2.200000 4.160000 0.350767 -15.279140 233.575165
3.960000 2.200000 4.200000 16.639322 -9.624224 369.492706
4.000000 1.800000 3.800000 -5.071925 -18.404652 364.455627
4.000000 1.800000 3.840000 5.928444 -17.202381 331.068359
4.000000 1.800000 3.880000 12.959541 -9.387955 256.083405
4.000000 1.800000 3.920000 13.499401 -0.599846 182.593643
4.000000 1.800000 3.960000 10.497862 4.746239 132.731888
4.000000 1.800000 4.000000 8.344894 7.103493 120.096870
4.000000 1.800000 4.040000 8.058739 10.093426 166.820511
4.000000 1.800000 4.080000 6.611633 15.714985 290.674438
4.000000 1.800000 4.120000 0.766212 21.661419 469.804138
4.000000 1.800000 4.160000 -8.882495 23.482761 630.338806
4.000000 1.800000 4.200000 -17.884827 19.139742 686.196777
4.000000 1.840000 3.800000 0.698475 -6.842377 47.305984
4.000000 1.840000 3.840000 -9.277946 11.872860 227.045090
4.000000 1.840000 3.880000 -37.136425 12.526009 1536.014893
4.000000 1.840000 3.920000 -57.689766 -15.415489 3565.746338
4.000000 1.840000 3.960000 -46.804184 -54.340015 5143.468750
4.000000 1.840000 4.000000 -6.435272 -72.310631 5270.239746
4.000000 1.840000 4.040000 34.591400 -52.612976 3964.690186
4.000000 1.840000 4.080000 45.940208 -9.841690 2207.361572
4.000000 1.840000 4.120000 22.673225 23.452633 1064.101074
4.000000 1.840000 4.160000 -12.304932 26.141783 834.804199
4.000000 1.840000 4.200000 -31.271408 5.137207 1004.291809
4.000000 1.880000 3.800000 -9.400293 2.770544 96.041428
4.000000 1.880000 3.840000 -53.953842 12.782734 3074.415283
4.000000 1.880000 3.880000 -101.039650 -30.249092 11124.018555
4.000000 1.880000 3.920000 -97.143433 -110.768768 21706.566406
4.000000 1.880000 3.960000 -24.718086 -169.507706 29343.845703
4.000000 1.880000 4.000000 74.008354 -155.182632 29558.884766
4.000000 1.880000 4.040000 130.322876 -73.374748 22367.906250
4.000000 1.880000 4.080000 109.224228 16.438499 12200.156250
4.000000 1.880000 4.120000 38.418827 53.651077 4354.444336
4.000000 1.880000 4.160000 -20.842449 27.731369 1203.436523
4.000000 1.880000 4.200000 -30.319212 -20.255615 1329.544556
4.000000 1.920000 3.800000 -25.544418 -4.426849 672.114319
4.000000 1.920000 3.840000 -88.603699 -33.701496 8986.406250
4.000000 1.920000 3.880000 -108.811813 -129.592697 28634.277344
4.000000 1.920000 3.920000 -34.211418 -228.518661 53391.199219
4.000000 1.920000 3.960000 107.798798 -243.306580 70818.671875
4.000000 1.920000 4.000000 223.348160 -145.065659 70928.445312
4.000000 1.920000 4.040000 231.855804 4.076118 53773.726562
4.000000 1.920000 4.080000 137.195236 102.669098 29363.476562
4.000000 1.920000 4.120000 21.225533 97.559540 9968.387695
4.000000 1.920000 4.160000 -32.413845 23.508501 1603.306885
4.000000 1.920000 4.200000 -8.722185 -39.509888 1637.107788
4.000000 1.960000 3.800000 -28.340752 -27.169006 1541.353027
4.000000 1.960000 3.840000 -71.746109 -101.527924 15455.423828
4.000000 1.960000 3.880000 -25.945950 -214.490448 46679.343750
4.000000 1.960000 3.920000 119.268806 -266.525757 85261.023438
4.000000 1.960000 3.960000 277.908356 -186.718521 112096.859375
4.000000 1.960000 4.000000 334.575439 -7.344940 111994.671875
4.000000 1.960000 4.040000 247.080200 154.973373 85065.375000
4.000000 1.960000 4.080000 85.302986 198.346008 46617.742188
4.000000 1.960000 4.120000 -32.233967 120.902145 15656.357422
4.000000 1.960000 4.160000 -41.866085 12.009050 1896.986328
4.000000 1.960000 4.200000 20.736755 -36.700272 1776.922974
4.000000 2.000000 3.800000 -8.034523 -46.700813 2245.519531
4.000000 2.000000 3.840000 -2.268806 -137.519562 18916.777344
4.000000 2.000000 3.880000 104.487961 -210.827362 55365.910156
4.000000 2.000000 3.920000 264.447845 -173.116913 99902.125000
4.000000 2.000000 3.960000 361.372223 -10.400419 130698.054688
4.000000 2.000000 4.000000 311.067810 183.737732 130522.734375
4.000000 2.000000 4.040000 141.241730 282.015503 99481.968750
4.000000 2.000000 4.080000 -29.285107 232.524155 54925.101562
4.000000 2.000000 4.120000 -93.834511 98.989838 18603.902344
4.000000 2.000000 4.160000 -44.615845 -4.019562 2006.730469
4.000000 2.000000 4.200000 36.710304 -14.229858 1550.135376
4.000000 2.040000 3.800000 24.076427 -43.392857 2462.614502
4.000000 2.040000 3.840000 74.242065 -109.181808 17432.550781
4.000000 2.040000 3.880000 193.013611 -111.384552 49660.773438
4.000000 2.040000 3.920000 297.887329 -1.882938 88740.406250
4.000000 2.040000 3.960000 292.685516 173.372818 115722.945312
4.000000 2.040000 4.000000 157.783188 301.395966 115735.062500
4.000000 2.040000 4.040000 -24.178223 296.995117 88790.687500
4.000000 2.040000 4.080000 -136.218964 176.534393 49720.000000
4.000000 2.040000 4.120000 -125.441391 39.984993 17334.341797
4.000000 2.040000 4.160000 -39.331787 -19.706959 1935.353760
4.000000 2.040000 4.200000 29.640583 8.325045 947.870483
4.000000 2.080000 3.800000 44.408382 -15.680573 2217.984863
4.000000 2.080000 3.840000 104.217651 -35.724430 12137.554688
4.000000 2.080000 3.880000 181.719482 14.241226 33224.781250
4.000000 2.080000 3.920000 203.441696 131.273972 58621.378906
4.000000 2.080000 3.960000 125.448425 245.903564 76205.867188
4.000000 2.080000 4.000000 -19.239975 275.953949 76520.757812
4.000000 2.080000 4.040000 -141.813202 198.341507 59450.335938
4.000000 2.080000 4.080000 -171.063477 70.290237 34203.429688
4.000000 2.080000 4.120000 -110.660385 -20.859203 12680.827148
4.000000 2.080000 4.160000 -27.936028 -30.974583 1739.846436
4.000000 2.080000 4.200000 10.936344 12.756561 282.333496
4.000000 2.120000 3.800000 38.201065 17.656334 1771.067505
4.000000 2.120000 3.840000 73.094139 28.996059 6183.524414
4.000000 2.120000 3.880000 93.616310 81.188690 15355.617188
4.000000 2.120000 3.920000 63.677750 149.119553 26291.496094
4.000000 2.120000 3.960000 -17.204315 183.436310 33944.867188
4.000000 2.120000 4.000000 -106.518021 151.831039 34398.753906
4.000000 2.120000 4.040000 -150.734741 68.970993 27477.960938
4.000000 2.120000 4.080000 -128.720139 -13.943893 16763.306641
4.000000 2.120000 4.120000 -66.945229 -50.977509 7080.370117
4.000000 2.120000 4.160000 -13.758017 -36.068825 1490.243164
4.000000 2.120000 4.200000 1.385775 -0.580923 2.257843
4.000000 2.160000 3.800000 12.412962 34.401634 1337.554077
4.000000 2.160000 3.840000 15.068787 44.819199 2235.828857
4.000000 2.160000 3.880000 6.324013 62.241196 3913.959717
4.000000 2.160000 3.920000 -18.700562 74.250458 5862.841309
4.000000 2.160000 3.960000 -52.498756 67.492477 7311.353516
4.000000 2.160000 4.000000 -78.390854 38.583420 7633.806152
4.000000 2.160000 4.040000 -81.761993 -1.594124 6687.564453
4.000000 2.160000 4.080000 -60.680580 -34.372562 4863.605957
4.000000 2.160000 4.120000 -27.404430 -45.744316 2843.545410
4.000000 2.160000 4.160000 0.270566 -35.142754 1235.086426
4.000000 2.160000 4.200000 10.783703 -14.282088 320.266296
4.000000 2.200000 3.800000 -11.997770 28.348640 947.591858
4.000000 2.200000 3.840000 -22.081589 17.533934 795.035400
4.000000 2.200000 3.880000 -21.068108 2.378746 449.523590
4.000000 2.200000 3.920000 -10.013268 -5.181229 127.110657
4.000000 2.200000 3.960000 -0.767952 -0.147224 0.611425
4.000000 2.200000 4.000000 -3.839621 8.775703 91.755653
4.000000 2.200000 4.040000 -16.115131 7.408188 314.578705
4.000000 2.200000 4.080000 -22.545010 -8.346382 577.939575
4.000000 2.200000 4.120000 -11.456696 -26.315155 823.743225
4.000000 2.200000 4.160000 12.037910 -29.100311 991.739380
4.000000 2.200000 4.200000 29.347235 -11.857445 1001.859192
4.040000 1.800000 3.800000 -5.254169 -5.848110 61.806679
4.040000 1.800000 3.840000 -0.090977 -6.051617 36.630341
4.040000 1.800000 3.880000 3.980047 -3.247017 26.383894
4.040000 1.800000 3.920000 6.055470 0.970100 37.609806
4.040000 1.800000 3.960000 6.422348 5.559952 72.159622
4.040000 1.800000 4.000000 5.345039 10.366690 136.037704
4.040000 1.800000 4.040000 2.418167 15.285950 239.507797
4.040000 1.800000 4.080000 -2.985620 19.424362 386.219788
4.040000 1.800000 4.120000 -10.658129 21.106544 559.081909
4.040000 1.800000 4.160000 -18.993042 18.906208 718.180359
4.040000 1.800000 4.200000 -25.496204 12.812352 814.212830
4.040000 1.840000 3.800000 -11.619576 -4.330650 153.769073
4.040000 1.840000 3.840000 -25.755415 -1.748493 666.398621
4.040000 1.840000 3.880000 -40.830200 -18.180405 1997.632324
4.040000 1.840000 3.920000 -36.402199 -47.602642 3591.131592
4.040000 1.840000 3.960000 -6.422981 -66.863083 4511.926758
4.040000 1.840000 4.000000 31.514481 -56.610107 4197.866699
4.040000 1.840000 4.040000 50.055332 -20.601196 2929.945801
4.040000 1.840000 4.080000 36.268196 16.202110 1577.890503
4.040000 1.840000 4.120000 2.739674 29.276009 864.590454
4.040000 1.840000 4.160000 -24.766088 14.994007 838.179382
4.040000 1.840000 4.200000 -30.297749 -9.201174 1002.615173
4.040000 1.880000 3.800000 -19.790756 -13.495815 573.811035
4.040000 1.880000 3.840000 -51.855076 -30.569380 3623.436035
4.040000 1.880000 3.880000 -59.792114 -84.209579 10666.350586
4.040000 1.880000 3.920000 -14.238220 -137.915298 19223.355469
4.040000 1.880000 3.960000 68.007538 -141.942337 24772.652344
4.040000 1.880000 4.000000 132.108078 -81.136398 24035.660156
4.040000 1.880000 4.040000 132.262283 6.720184 17538.472656
4.040000 1.880000 4.080000 72.758499 62.163689 9158.123047
4.040000 1.880000 4.120000 2.927368 55.416672 3079.577148
4.040000 1.880000 4.160000 -28.327137 8.553120 875.582520
4.040000 1.880000 4.200000 -13.349251 -30.768074 1124.876831
4.040000 1.920000 3.800000 -16.839344 -31.712231 1289.229126
4.040000 1.920000 3.840000 -43.805695 -81.932892 8631.937500
4.040000 1.920000 3.880000 -9.142612 -158.595718 25236.189453
4.040000 1.920000 3.920000 94.315903 -191.448395 45547.976562
4.040000 1.920000 3.960000 205.000504 -130.923615 59166.199219
4.040000 1.920000 4.000000 241.157349 -1.582047 58159.371094
4.040000 1.920000 4.040000 174.615616 112.464050 43138.777344
4.040000 1.920000 4.080000 57.495049 139.519211 22771.289062
4.040000 1.920000 4.120000 -24.999628 80.825485 7157.740723
4.040000 1.920000 4.160000 -29.213028 2.182999 858.166504
4.040000 1.920000 4.200000 16.755344 -31.435122 1268.908447
4.040000 1.960000 3.800000 3.408030 -44.925148 2029.883545
4.040000 1.960000 3.840000 9.201870 -116.131668 13571.239258
4.040000 1.960000 3.880000 97.230423 -173.520935 39563.269531
4.040000 1.960000 3.920000 228.229874 -139.337402 71503.789062
4.040000 1.960000 3.960000 305.453491 -2.564354 93308.414062
4.040000 1.960000 4.000000 259.847656 157.771744 92412.726562
4.040000 1.960000 4.040000 116.767387 235.876907 69272.539062
4.040000 1.960000 4.080000 -23.327377 191.023315 37034.074219
4.040000 1.960000 4.120000 -73.040306 79.385643 11636.966797
4.040000 1.960000 4.160000 -29.671440 -3.100128 890.005127
4.040000 1.960000 4.200000 36.074005 -7.797178 1362.129883
4.040000 2.000000 3.800000 31.382862 -38.408257 2460.078125
4.040000 2.000000 3.840000 77.499794 -98.914871 15790.369141
4.040000 2.000000 3.880000 189.526199 -99.877205 45895.636719
4.040000 2.000000 3.920000 288.114807 5.866114 83044.554688
4.040000 2.000000 3.960000 280.453735 173.538925 108770.054688
4.040000 2.000000 4.000000 149.065033 293.624573 108435.773438
4.040000 2.000000 4.040000 -24.344604 285.567932 82141.703125
4.040000 2.000000 4.080000 -127.343460 168.661804 44663.160156
4.040000 2.000000 4.120000 -112.876602 41.262966 14443.759766
4.040000 2.000000 4.160000 -31.205606 -9.679558 1067.483643
4.040000 2.000000 4.200000 28.290365 20.358608 1214.817749
4.040000 2.040000 3.800000 47.783009 -11.536073 2416.296875
4.040000 2.040000 3.840000 113.286377 -35.341530 14082.826172
4.040000 2.040000 3.880000 200.535324 19.869057 40609.199219
4.040000 2.040000 3.920000 224.744003 151.557068 73479.414062
4.040000 2.040000 3.960000 135.752243 279.570190 96588.164062
4.040000 2.040000 4.000000 -26.893543 310.337097 97032.382812
4.040000 2.040000 4.040000 -160.905289 220.545410 74530.789062
4.040000 2.040000 4.080000 -188.067917 78.818253 41581.859375
4.040000 2.040000 4.120000 -118.284126 -16.192451 14253.330078
4.040000 2.040000 4.160000 -31.177277 -20.551580 1394.390015
4.040000 2.040000 4.200000 2.066414 27.922697 783.947083
4.040000 2.080000 3.800000 40.225662 19.543440 2000.049927
4.040000 2.080000 3.840000 92.570999 31.844456 9583.458984
4.040000 2.080000 3.880000 125.815689 105.517792 26963.591797
4.040000 2.080000 3.920000 85.206764 203.286926 48585.765625
4.040000 2.080000 3.960000 -29.100891 251.477234 64087.664062
4.040000 2.080000 4.000000 -152.636841 204.435272 65091.789062
4.040000 2.080000 4.040000 -208.247101 88.019363 51114.265625
4.040000 2.080000 4.080000 -171.301117 -21.204559 29793.705078
4.040000 2.080000 4.120000 -86.761574 -61.640106 11327.073242
4.040000 2.080000 4.160000 -24.072559 -34.435768 1765.310303
4.040000 2.080000 4.200000 -16.200161 9.145860 346.091980
4.040000 2.120000 3.800000 14.608166 35.196121 1452.165527
4.040000 2.120000 3.840000 35.936069 59.248878 4801.831055
4.040000 2.120000 3.880000 26.417797 108.486946 12467.317383
4.040000 2.120000 3.920000 -29.661423 145.352158 22007.050781
4.040000 2.120000 3.960000 -108.162109 131.767441 29061.699219
4.040000 2.120000 4.000000 -161.051407 64.395203 30084.296875
4.040000 2.120000 4.040000 -155.827148 -19.603836 24666.410156
4.040000 2.120000 4.080000 -101.948807 -72.692566 15677.768555
4.040000 2.120000 4.120000 -40.261116 -74.783325 7213.503418
4.040000 2.120000 4.160000 -7.150259 -44.420784 2024.332275
4.040000 2.120000 4.200000 -7.836493 -16.257900 325.729919
4.040000 2.160000 3.800000 -10.322753 29.132267 955.248169
4.040000 2.160000 3.840000 -12.023167 39.475109 1702.840698
4.040000 2.160000 3.880000 -27.903801 49.757748 3254.455566
4.040000 2.160000 3.920000 -54.452484 46.528820 5130.003906
4.040000 2.160000 3.960000 -77.920975 23.647415 6630.878418
4.040000 2.160000 4.000000 -83.984497 -12.167198 7201.436035
4.040000 2.160000 4.040000 -67.835663 -45.628113 6683.601562
4.040000 2.160000 4.080000 -36.926376 -63.003143 5332.953125
4.040000 2.160000 4.120000 -5.316807 -60.030148 3631.887207
4.040000 2.160000 4.160000 15.042608 -42.731827 2052.289062
4.040000 2.160000 4.200000 19.974533 -22.238026 893.511719
4.040000 2.200000 3.800000 -20.071093 12.459263 558.081970
4.040000 2.200000 3.840000 -23.355686 2.406038 551.277100
4.040000 2.200000 3.880000 -18.128601 -7.968613 392.144958
4.040000 2.200000 3.920000 -8.154753 -10.266479 171.900604
4.040000 2.200000 3.960000 -3.700747 -4.462997 33.613873
4.040000 2.200000 4.000000 -9.569839 -0.929489 92.445778
4.040000 2.200000 4.040000 -17.534500 -9.568373 399.012451
4.040000 2.200000 4.080000 -13.323277 -27.124084 913.225647
4.040000 2.200000 4.120000 7.604610 -37.630676 1473.897827
4.040000 2.200000 4.160000 32.476223 -27.699583 1821.971924
4.040000 2.200000 4.200000 41.615898 -1.497556 1734.125610
4.080000 1.800000 3.800000 -16.540289 -0.237661 273.637634
4.080000 1.800000 3.840000 -12.571741 -6.344788 198.305008
4.080000 1.800000 3.880000 -4.932543 -8.281044 92.905670
4.080000 1.800000 3.920000 2.311352 -4.048862 21.735634
4.080000 1.800000 3.960000 4.629105 4.373072 40.552368
4.080000 1.800000 4.000000 0.654198 12.179846 148.776627
4.080000 1.800000 4.040000 -6.925858 15.554977 289.924835
4.080000 1.800000 4.080000 -14.132905 14.307526 404.444275
4.080000 1.800000 4.120000 -19.112656 10.807943 482.105255
4.080000 1.800000 4.160000 -22.638309 6.760053 558.191345
4.080000 1.800000 4.200000 -25.609592 1.675191 658.657471
4.080000 1.840000 3.800000 -21.496838 -15.211746 693.511230
4.080000 1.840000 3.840000 -25.181147 -25.012352 1259.707886
4.080000 1.840000 3.880000 -19.546139 -41.540215 2107.641113
4.080000 1.840000 3.920000 0.922775 -52.927837 2802.207520
4.080000 1.840000 3.960000 27.837311 -46.148338 2904.584961
4.080000 1.840000 4.000000 43.729641 -20.524055 2333.518311
4.080000 1.840000 4.040000 36.857353 9.292877 1444.822021
4.080000 1.840000 4.080000 11.901821 24.643188 748.940063
4.080000 1.840000 4.120000 -13.856014 18.072281 518.596436
4.080000 1.840000 4.160000 -25.088539 -1.745531 632.481689
4.080000 1.840000 4.200000 -19.924433 -19.183327 764.983032
4.080000 1.880000 3.800000 -12.279480 -34.502838 1341.231445
4.080000 1.880000 3.840000 -17.052120 -57.814041 3633.238281
4.080000 1.880000 3.880000 5.856125 -89.348183 8017.392090
4.080000 1.880000 3.920000 57.435776 -97.349396 12775.773438
4.080000 1.880000 3.960000 107.488708 -61.283371 15309.473633
4.080000 1.880000 4.000000 118.486122 4.170670 14056.355469
4.080000 1.880000 4.040000 80.015793 57.709530 9732.916992
4.080000 1.880000 4.080000 19.749481 66.262390 4780.746582
4.080000 1.880000 4.120000 -20.563263 32.837944 1501.178345
4.080000 1.880000 4.160000 -20.809044 -9.104828 515.914185
4.080000 1.880000 4.200000 4.131125 -27.815174 790.750122
4.080000 1.920000 3.800000 12.458771 -43.681412 2063.286621
4.080000 1.920000 3.840000 21.270168 -79.936966 6842.338379
4.080000 1.920000 3.880000 74.873917 -106.553322 16959.714844
4.080000 1.920000 3.920000 149.992416 -79.628792 28838.468750
4.080000 1.920000 3.960000 190.264069 5.418549 36229.773438
4.080000 1.920000 4.000000 156.771683 100.477264 34673.042969
4.080000 1.920000 4.040000 67.155624 143.036163 24969.222656
4.080000 1.920000 4.080000 -17.084236 110.963562 12604.783203
4.080000 1.920000 4.120000 -44.171883 40.407898 3583.953613
4.080000 1.920000 4.160000 -14.605122 -9.931290 311.940094
4.080000 1.920000 4.200000 27.172419 -11.706071 875.372437
4.080000 1.960000 3.800000 40.099632 -31.444357 2596.728027
4.080000 1.960000 3.840000 71.906738 -66.096153 9539.281250
4.080000 1.960000 3.880000 146.429871 -61.237816 25191.777344
4.080000 1.960000 3.920000 209.950439 15.290472 44312.984375
4.080000 1.960000 3.960000 199.041367 131.999481 57041.328125
4.080000 1.960000 4.000000 103.084015 212.527191 55794.125000
4.080000 1.960000 4.040000 -19.107588 201.847427 41107.484375
4.080000 1.960000 4.080000 -88.451492 116.052528 21291.855469
4.080000 1.960000 4.120000 -73.933746 26.325895 6159.251465
4.080000 1.960000 4.160000 -14.032099 -6.565426 240.004608
4.080000 1.960000 4.200000 26.788694 17.635895 1028.658936
4.080000 2.000000 3.800000 52.120598 -1.340778 2718.354248
4.080000 2.000000 3.840000 100.365509 -16.254129 10337.431641
4.080000 2.000000 3.880000 165.814346 29.489510 28364.027344
4.080000 2.000000 3.920000 181.030975 134.872131 50962.707031
4.080000 2.000000 3.960000 105.849342 235.481750 66655.742188
4.080000 2.000000 4.000000 -26.679657 255.978668 66236.882812
4.080000 2.000000 4.040000 -132.690475 179.299118 49754.937500
4.080000 2.000000 4.080000 -149.860687 63.808815 26529.789062
4.080000 2.000000 4.120000 -89.778992 -9.546543 8151.404297
4.080000 2.000000 4.160000 -20.307663 -7.906128 474.908051
4.080000 2.000000 4.200000 1.388647 33.239429 1106.787964
4.080000 2.040000 3.800000 39.530563 28.691010 2385.839355
4.080000 2.040000 3.840000 84.994286 39.942253 8819.412109
4.080000 2.040000 3.880000 114.051865 108.124512 24698.738281
4.080000 2.040000 3.920000 73.917374 198.830704 44997.425781
4.080000 2.040000 3.960000 -35.294746 241.534119 59584.449219
4.080000 2.040000 4.000000 -150.838211 193.250458 60097.906250
4.080000 2.040000 4.040000 -198.859955 81.249466 46146.757812
4.080000 2.040000 4.080000 -158.841736 -19.098467 25595.449219
4.080000 2.040000 4.120000 -78.257263 -50.590916 8683.639648
4.080000 2.040000 4.160000 -24.803497 -19.940701 1012.845032
4.080000 2.040000 4.200000 -25.460278 19.045313 1010.949646
4.080000 2.080000 3.800000 11.355314 40.331192 1755.548218
4.080000 2.080000 3.840000 37.091019 66.905518 5852.091797
4.080000 2.080000 3.880000 27.015667 124.947739 16341.784180
4.080000 2.080000 3.920000 -39.318779 168.534363 29949.798828
4.080000 2.080000 3.960000 -131.800140 150.644058 40064.910156
4.080000 2.080000 4.000000 -190.703552 68.958206 41123.078125
4.080000 2.080000 4.040000 -178.301102 -28.087635 32580.199219
4.080000 2.080000 4.080000 -111.415726 -82.511147 19221.552734
4.080000 2.080000 4.120000 -43.671219 -75.514008 7609.540527
4.080000 2.080000 4.160000 -16.405466 -37.401245 1667.992432
4.080000 2.080000 4.200000 -26.775318 -12.602318 875.736084
4.080000 2.120000 3.800000 -12.786450 30.098427 1069.408569
4.080000 2.120000 3.840000 -8.879711 53.213505 2910.526367
4.080000 2.120000 3.880000 -35.796829 80.018829 7684.426270
4.080000 2.120000 3.920000 -87.543671 78.950462 13897.069336
4.080000 2.120000 3.960000 -131.915253 35.991905 18697.052734
4.080000 2.120000 4.000000 -137.054108 -29.972229 19682.162109
4.080000 2.120000 4.040000 -98.980057 -81.754356 16480.826172
4.080000 2.120000 4.080000 -43.921379 -94.646606 10887.068359
4.080000 2.120000 4.120000 -4.442871 -74.232071 5530.139648
4.080000 2.120000 4.160000 6.685019 -46.272461 2185.830078
4.080000 2.120000 4.200000 1.083296 -31.467381 991.369568
4.080000 2.160000 3.800000 -19.705215 11.225906 514.316467
4.080000 2.160000 3.840000 -25.798876 18.996998 1026.467896
4.080000 2.160000 3.880000 -42.592522 18.691189 2163.483398
4.080000 2.160000 3.920000 -59.443989 3.015480 3542.680908
4.080000 2.160000 3.960000 -63.878242 -23.929283 4653.040527
4.080000 2.160000 4.000000 -51.140850 -50.225529 5137.990234
4.080000 2.160000 4.040000 -26.421669 -65.155853 4943.389648
4.080000 2.160000 4.080000 0.451210 -65.242935 4256.844238
4.080000 2.160000 4.120000 21.458427 -53.633057 3336.968994
4.080000 2.160000 4.160000 32.806145 -36.076073 2377.726074
4.080000 2.160000 4.200000 34.016315 -18.313198 1492.482910
4.080000 2.200000 3.800000 -13.102890 0.285734 171.767380
4.080000 2.200000 3.840000 -15.292574 -5.683159 266.161133
4.080000 2.200000 3.880000 -11.233640 -12.851959 291.367523
4.080000 2.200000 3.920000 -3.662533 -14.455769 222.383392
4.080000 2.200000 3.960000 -0.256802 -11.022331 121.557732
4.080000 2.200000 4.000000 -3.101685 -10.793470 126.119446
4.080000 2.200000 4.040000 -4.011002 -19.327847 389.653778
4.080000 2.200000 4.080000 7.019524 -30.249428 964.301636
4.080000 2.200000 4.120000 28.584209 -29.467937 1685.416260
4.080000 2.200000 4.160000 45.645531 -10.315742 2189.928955
4.080000 2.200000 4.200000 43.074516 16.671083 2133.338867
4.120000 1.800000 3.800000 -28.202271 -7.762574 855.625610
4.120000 1.800000 3.840000 -19.103439 -18.026371 689.891479
4.120000 1.800000 3.880000 -4.932053 -18.847744 379.562592
4.120000 1.800000 3.920000 5.061371 -9.237663 110.951897
4.120000 1.800000 3.960000 4.433830 3.688942 33.267143
4.120000 1.800000 4.000000 -4.791203 10.756046 138.648163
4.120000 1.800000 4.040000 -14.513842 8.691376 286.191589
4.120000 1.800000 4.080000 -18.429729 1.972212 343.544556
4.120000 1.800000 4.120000 -17.218613 -2.914075 304.972443
4.120000 1.800000 4.160000 -15.968138 -4.274444 273.252289
4.120000 1.800000 4.200000 -17.406475 -5.822341 336.885040
4.120000 1.840000 3.800000 -18.305027 -31.796452 1346.088379
4.120000 1.840000 3.840000 -6.702301 -40.031456 1647.438232
4.120000 1.840000 3.880000 10.325527 -41.082817 1794.414307
4.120000 1.840000 3.920000 26.569738 -30.897268 1660.592163
4.120000 1.840000 3.960000 33.419800 -11.891975 1258.302124
4.120000 1.840000 4.000000 26.535254 6.990196 752.982544
4.120000 1.840000 4.040000 9.860374 16.141117 357.762665
4.120000 1.840000 4.080000 -6.917751 12.168455 195.926590
4.120000 1.840000 4.120000 -15.412045 -0.243798 237.590546
4.120000 1.840000 4.160000 -13.851328 -12.751904 354.470337
4.120000 1.840000 4.200000 -6.585402 -19.710304 431.863617
4.120000 1.880000 3.800000 10.521201 -43.136238 1971.430664
4.120000 1.880000 3.840000 24.458738 -49.729958 3071.298340
4.120000 1.880000 3.880000 48.314018 -47.838306 4622.748047
4.120000 1.880000 3.920000 72.041092 -27.033190 5920.712402
4.120000 1.880000 3.960000 77.900772 9.461792 6158.055664
4.120000 1.880000 4.000000 56.803379 42.809341 5059.263672
4.120000 1.880000 4.040000 19.128044 52.685001 3141.591553
4.120000 1.880000 4.080000 -11.909603 34.817390 1354.089355
4.120000 1.880000 4.120000 -19.153587 4.864652 390.524719
4.120000 1.880000 4.160000 -4.872737 -15.453573 262.556488
4.120000 1.880000 4.200000 13.743761 -16.580025 463.788177
4.120000 1.920000 3.800000 42.217274 -28.678375 2604.747559
4.120000 1.920000 3.840000 59.333931 -32.492462 4576.275391
4.120000 1.920000 3.880000 88.778687 -19.830765 8274.914062
4.120000 1.920000 3.920000 109.012009 20.340715 12297.363281
4.120000 1.920000 3.960000 95.146515 72.915039 14369.462891
4.120000 1.920000 4.000000 45.464661 104.714005 13032.057617
4.120000 1.920000 4.040000 -11.867638 93.380066 8860.677734
4.120000 1.920000 4.080000 -41.195618 48.919685 4090.214355
4.120000 1.920000 4.120000 -30.113670 5.569281 937.850037
4.120000 1.920000 4.160000 1.505181 -8.682459 77.650665
4.120000 1.920000 4.200000 22.489475 4.968453 530.462036
4.120000 1.960000 3.800000 54.597656 6.274044 3020.267578
4.120000 1.960000 3.840000 74.054756 8.115891 5549.974609
4.120000 1.960000 3.880000 99.645782 36.519234 11262.936523
4.120000 1.960000 3.920000 99.267441 91.460159 18218.984375
4.120000 1.960000 3.960000 53.443192 140.577271 22618.144531
4.120000 1.960000 4.000000 -19.566704 145.501434 21553.523438
4.120000 1.960000 4.040000 -74.819611 98.856140 15370.509766
4.120000 1.960000 4.080000 -79.693558 33.867142 7498.046387
4.120000 1.960000 4.120000 -42.654327 -4.722900 1841.697388
4.120000 1.960000 4.160000 -3.037458 -0.143887 9.246857
4.120000 1.960000 4.200000 7.242311 25.451788 700.244568
4.120000 2.000000 3.800000 37.865707 39.634491 3004.704590
4.120000 2.000000 3.840000 55.774796 49.066765 5518.375000
4.120000 2.000000 3.880000 65.610519 88.233978 12089.974609
4.120000 2.000000 3.920000 36.308945 139.040894 20650.708984
4.120000 2.000000 3.960000 -32.674576 159.871567 26626.546875
4.120000 2.000000 4.000000 -102.987213 124.894066 26204.894531
4.120000 2.000000 4.040000 -128.986130 52.159344 19358.019531
4.120000 2.000000 4.080000 -99.306831 -9.887812 9959.615234
4.120000 2.000000 4.120000 -46.508324 -25.615557 2819.180908
4.120000 2.000000 4.160000 -15.016943 -2.191959 230.313263
4.120000 2.000000 4.200000 -20.239372 22.752110 927.290710
4.120000 2.040000 3.800000 4.009808 49.843277 2500.430908
4.120000 2.040000 3.840000 15.335493 65.113495 4474.944336
4.120000 2.040000 3.880000 4.947739 101.435196 10313.579102
4.120000 2.040000 3.920000 -43.315590 128.012680 18263.486328
4.120000 2.040000 3.960000 -108.937279 110.938568 24174.697266
4.120000 2.040000 4.000000 -148.464508 48.657661 24409.279297
4.120000 2.040000 4.040000 -134.802917 -22.132326 18661.666016
4.120000 2.040000 4.080000 -82.735855 -58.176991 10229.784180
4.120000 2.040000 4.120000 -34.516869 -47.888195 3484.693359
4.120000 2.040000 4.160000 -20.238993 -18.111580 737.646118
4.120000 2.040000 4.200000 -33.109840 -4.176798 1113.707153
4.120000 2.080000 3.800000 -22.826916 33.865906 1667.967529
4.120000 2.080000 3.840000 -20.723408 49.703957 2899.943115
4.120000 2.080000 3.880000 -43.855293 70.375305 6875.970215
4.120000 2.080000 3.920000 -88.889313 67.218910 12419.691406
4.120000 2.080000 3.960000 -126.580261 26.594433 16729.826172
4.120000 2.080000 4.000000 -127.232376 -33.378860 17302.224609
4.120000 2.080000 4.040000 -88.792969 -76.910492 13799.415039
4.120000 2.080000 4.080000 -38.923809 -82.183441 8269.180664
4.120000 2.080000 4.120000 -9.147450 -59.050674 3570.657959
4.120000 2.080000 4.160000 -7.387976 -36.029137 1352.680786
4.120000 2.080000 4.200000 -15.818326 -31.514864 1243.406128
4.120000 2.120000 3.800000 -27.040663 8.946045 811.229187
4.120000 2.120000 3.840000 -32.466026 19.540665 1435.880371
4.120000 2.120000 3.880000 -54.261223 21.675596 3414.111816
4.120000 2.120000 3.920000 -78.248123 1.633751 6125.437500
4.120000 2.120000 3.960000 -83.662384 -35.772339 8279.054688
4.120000 2.120000 4.000000 -62.333324 -69.947105 8778.041016
4.120000 2.120000 4.040000 -26.074923 -82.383926 7467.012695
4.120000 2.120000 4.080000 4.560173 -71.823837 5179.458984
4.120000 2.120000 4.120000 18.139610 -52.387367 3073.481689
4.120000 2.120000 4.160000 19.135302 -38.426537 1842.758545
4.120000 2.120000 4.200000 18.934860 -32.471138 1412.903687
4.120000 2.160000 3.800000 -14.122339 -3.946609 215.016190
4.120000 2.160000 3.840000 -22.144569 -1.797274 493.612152
4.120000 2.160000 3.880000 -32.048695 -10.440582 1136.124512
4.120000 2.160000 3.920000 -33.582611 -27.494804 1883.756104
4.120000 2.160000 3.960000 -23.110130 -43.525276 2428.527832
4.120000 2.160000 4.000000 -5.616192 -50.894627 2621.804443
4.120000 2.160000 4.040000 11.488220 -49.096542 2542.449707
4.120000 2.160000 4.080000 24.766834 -41.994186 2376.907715
4.120000 2.160000 4.120000 34.711395 -32.015305 2229.860840
4.120000 2.160000 4.160000 41.075649 -18.876938 2043.547729
4.120000 2.160000 4.200000 41.012321 -3.573120 1694.777710
4.120000 2.200000 3.800000 -3.241193 0.759112 11.081583
4.120000 2.200000 3.840000 -8.324167 -5.030634 94.599045
4.120000 2.200000 3.880000 -5.156454 -13.332590 204.346985
4.120000 2.200000 3.920000 3.310410 -15.759269 259.313354
4.120000 2.200000 3.960000 8.806160 -12.119912 224.440735
4.120000 2.200000 4.000000 8.842899 -9.909805 176.401108
4.120000 2.200000 4.040000 10.308649 -13.611826 291.550049
4.120000 2.200000 4.080000 20.425802 -17.113642 710.090149
4.120000 2.200000 4.120000 35.580276 -9.608843 1358.285889
4.120000 2.200000 4.160000 42.333073 10.740112 1907.438965
4.120000 2.200000 4.200000 31.363667 31.503496 1976.149902
4.160000 1.800000 3.800000 -29.478037 -22.903486 1393.524414
4.160000 1.800000 3.840000 -13.529572 -30.976093 1142.567627
4.160000 1.800000 3.880000 3.544476 -25.262583 650.761353
4.160000 1.800000 3.920000 10.425510 -9.921368 207.124802
4.160000 1.800000 3.960000 3.996210 3.309280 26.921034
4.160000 1.800000 4.000000 -8.047999 5.539591 95.457359
4.160000 1.800000 4.040000 -14.844498 -1.698636 223.244476
4.160000 1.800000 4.080000 -12.518792 -9.281196 242.860748
4.160000 1.800000 4.120000 -6.529423 -10.312027 148.971252
4.160000 1.800000 4.160000 -4.480614 -6.522900 62.624115
4.160000 1.800000 4.200000 -7.628610 -4.927480 82.475739
4.160000 1.840000 3.800000 -2.918546 -40.841160 1676.518311
4.160000 1.840000 3.840000 15.266970 -36.519329 1566.741699
4.160000 1.840000 3.880000 26.750364 -21.489292 1177.371582
4.160000 1.840000 3.920000 25.799738 -3.581061 678.450439
4.160000 1.840000 3.960000 14.568762 7.755408 272.395172
4.160000 1.840000 4.000000 1.198483 8.271244 69.849838
4.160000 1.840000 4.040000 -6.679334 1.164421 45.969376
4.160000 1.840000 4.080000 -7.158116 -6.800871 97.490479
4.160000 1.840000 4.120000 -3.633437 -11.201166 138.667984
4.160000 1.840000 4.160000 -0.161989 -12.336815 152.223251
4.160000 1.840000 4.200000 2.266303 -12.725739 167.080566
4.160000 1.880000 3.800000 32.329205 -31.793482 2056.002930
4.160000 1.880000 3.840000 42.748489 -16.869509 2112.013672
4.160000 1.880000 3.880000 43.891632 1.377937 1928.374023
4.160000 1.880000 3.920000 35.339752 17.165291 1543.545288
4.160000 1.880000 3.960000 20.168907 25.285769 1046.154907
4.160000 1.880000 4.000000 4.257730 23.280548 560.112244
4.160000 1.880000 4.040000 -6.015856 13.054686 206.615341
4.160000 1.880000 4.080000 -7.112116 0.385591 50.730873
4.160000 1.880000 4.120000 -0.483496 -8.230638 67.977158
4.160000 1.880000 4.160000 8.484058 -9.536139 162.917206
4.160000 1.880000 4.200000 14.358582 -5.258554 233.821259
4.160000 1.920000 3.800000 50.531998 3.275164 2564.209717
4.160000 1.920000 3.840000 48.015068 19.863598 2700.009277
4.160000 1.920000 3.880000 39.793648 33.996498 2739.296387
4.160000 1.920000 3.920000 26.101160 44.420109 2654.416748
4.160000 1.920000 3.960000 7.705070 47.574005 2322.654053
4.160000 1.920000 4.000000 -10.326439 39.772179 1688.461548
4.160000 1.920000 4.040000 -19.698950 22.691422 902.949219
4.160000 1.920000 4.080000 -15.555500 5.129130 268.281555
4.160000 1.920000 4.120000 -2.073097 -2.802791 12.153365
4.160000 1.920000 4.160000 9.937395 1.672327 101.548500
4.160000 1.920000 4.200000 12.283773 11.473072 282.522461
4.160000 1.960000 3.800000 36.097397 41.596466 3033.288086
4.160000 1.960000 3.840000 24.169634 50.424610 3126.812500
4.160000 1.960000 3.880000 11.953800 56.449509 3329.440430
4.160000 1.960000 3.920000 -3.662200 60.133446 3629.442871
4.160000 1.960000 3.960000 -23.095253 55.986073 3667.831055
4.160000 1.960000 4.000000 -38.855648 39.715393 3087.073730
4.160000 1.960000 4.040000 -40.875534 16.562286 1945.118652
4.160000 1.960000 4.080000 -27.533913 -0.285593 758.197876
4.160000 1.960000 4.120000 -9.599605 -1.338186 93.943153
4.160000 1.960000 4.160000 -1.154016 9.556433 92.657166
4.160000 1.960000 4.200000 -6.175117 18.696840 387.703918
4.160000 2.000000 3.800000 -1.549830 56.121666 3152.043213
4.160000 2.000000 3.840000 -13.965441 54.367935 3150.905762
4.160000 2.000000 3.880000 -24.620541 53.239510 3440.616211
4.160000 2.000000 3.920000 -39.039146 50.267723 4050.898926
4.160000 2.000000 3.960000 -54.997040 37.957260 4465.427734
4.160000 2.000000 4.000000 -62.045723 15.234531 4081.762695
4.160000 2.000000 4.040000 -52.695068 -7.343921 2830.703369
4.160000 2.000000 4.080000 -32.584057 -16.291798 1327.143311
4.160000 2.000000 4.120000 -16.927052 -9.038153 368.213287
4.160000 2.000000 4.160000 -15.822775 2.672926 257.504730
4.160000 2.000000 4.200000 -24.084885 4.681070 601.994080
4.160000 2.040000 3.800000 -34.781776 38.575191 2697.817383
4.160000 2.040000 3.840000 -41.049400 31.203400 2658.705322
4.160000 2.040000 3.880000 -47.851662 26.534542 2993.863281
4.160000 2.040000 3.920000 -58.296547 18.134159 3727.334961
4.160000 2.040000 3.960000 -65.759460 0.544282 4324.603027
4.160000 2.040000 4.000000 -60.764809 -21.406521 4150.601074
4.160000 2.040000 4.040000 -42.891155 -35.304596 3086.065918
4.160000 2.040000 4.080000 -23.474707 -33.809151 1694.120605
4.160000 2.040000 4.120000 -14.922184 -23.016186 752.416382
4.160000 2.040000 4.160000 -17.987494 -16.464077 594.615723
4.160000 2.040000 4.200000 -21.353636 -20.733578 885.859009
4.160000 2.080000 3.800000 -41.432278 6.457298 1758.330322
4.160000 2.080000 3.840000 -42.219769 0.487378 1782.746460
4.160000 2.080000 3.880000 -46.099625 -5.212723 2152.347656
4.160000 2.080000 3.920000 -50.388756 -16.647514 2816.166260
4.160000 2.080000 3.960000 -47.362328 -33.179115 3344.043945
4.160000 2.080000 4.000000 -33.705849 -46.378052 3287.007812
4.160000 2.080000 4.040000 -15.649529 -48.460793 2593.356201
4.160000 2.080000 4.080000 -3.355211 -40.830460 1678.383911
4.160000 2.080000 4.120000 -0.533100 -32.743603 1072.427734
4.160000 2.080000 4.160000 -0.994849 -31.246372 977.325500
4.160000 2.080000 4.200000 3.768253 -33.613499 1144.067017
4.160000 2.120000 3.800000 -23.623974 -13.304708 735.107422
4.160000 2.120000 3.840000 -24.603882 -15.901114 858.196472
4.160000 2.120000 3.880000 -26.691750 -22.787836 1231.734985
4.160000 2.120000 3.920000 -23.925913 -33.777443 1713.364990
4.160000 2.120000 3.960000 -13.550529 -42.878204 2022.157227
4.160000 2.120000 4.000000 0.380213 -44.434349 1974.555908
4.160000 2.120000 4.040000 11.046068 -39.060688 1647.752930
4.160000 2.120000 4.080000 15.909924 -32.509346 1309.983154
4.160000 2.120000 4.120000 18.641689 -28.892162 1182.269531
4.160000 2.120000 4.160000 23.809130 -26.200687 1253.350586
4.160000 2.120000 4.200000 30.667425 -19.323288 1313.880371
4.160000 2.160000 3.800000 -3.871546 -8.897282 94.150490
4.160000 2.160000 3.840000 -8.514881 -12.644104 232.376572
4.160000 2.160000 3.880000 -7.605765 -21.585827 523.795593
4.160000 2.160000 3.920000 1.023205 -28.311161 802.568787
4.160000 2.160000 3.960000 11.973009 -27.614414 905.908813
4.160000 2.160000 4.000000 18.693171 -21.807465 825.000122
4.160000 2.160000 4.040000 20.770304 -17.078049 723.065308
4.160000 2.160000 4.080000 23.438877 -15.487179 789.233704
4.160000 2.160000 4.120000 29.999710 -12.387773 1053.439453
4.160000 2.160000 4.160000 36.467705 -2.593686 1336.620605
4.160000 2.160000 4.200000 35.341454 12.013419 1393.340576
4.160000 2.200000 3.800000 -2.423920 7.066983 55.817631
4.160000 2.200000 3.840000 -7.250804 -3.175046 62.655075
4.160000 2.200000 3.880000 -0.653620 -12.577234 158.614044
4.160000 2.200000 3.920000 10.382820 -12.359685 260.564758
4.160000 2.200000 3.960000 15.698740 -4.884657 270.310303
4.160000 2.200000 4.000000 13.753325 0.395275 189.310181
4.160000 2.200000 4.040000 12.492046 -0.789661 156.674789
4.160000 2.200000 4.080000 18.417009 -1.987108 343.134857
4.160000 2.200000 4.120000 27.093084 5.838097 768.118591
4.160000 2.200000 4.160000 27.119467 21.966200 1217.979370
4.160000 2.200000 4.200000 13.609671 34.551243 1379.011475
4.200000 1.800000 3.800000 -19.279421 -34.309631 1548.846802
4.200000 1.800000 3.840000 -0.964131 -35.598446 1268.178955
4.200000 1.800000 3.880000 12.731373 -23.867754 731.757568
4.200000 1.800000 3.920000 13.561281 -7.680329 242.895798
4.200000 1.800000 3.960000 3.807779 1.406428 16.477219
4.200000 1.800000 4.000000 -6.112452 -0.945209 38.255486
4.200000 1.800000 4.040000 -7.594813 -8.652146 132.540833
4.200000 1.800000 4.080000 -1.477881 -12.080376 148.119598
4.200000 1.800000 4.120000 4.107263 -7.726905 76.574661
4.200000 1.800000 4.160000 2.894385 -0.856018 9.110233
4.200000 1.800000 4.200000 -3.188776 1.033487 11.236388
4.200000 1.840000 3.800000 13.181208 -36.310207 1492.175415
4.200000 1.840000 3.840000 25.105110 -21.091209 1075.105713
4.200000 1.840000 3.880000 22.658333 -2.843577 521.485962
4.200000 1.840000 3.920000 9.143572 6.487623 125.694160
4.200000 1.840000 3.960000 -4.228490 2.605659 24.669582
4.200000 1.840000 4.000000 -8.021406 -8.296362 133.172577
4.200000 1.840000 4.040000 -2.006740 -15.905569 257.014130
4.200000 1.840000 4.080000 6.263349 -15.037067 265.342926
4.200000 1.840000 4.120000 9.520153 -8.948433 170.707764
4.200000 1.840000 4.160000 7.175441 -4.437845 71.181427
4.200000 1.840000 4.200000 4.238660 -4.552969 38.695763
4.200000 1.880000 3.800000 37.807499 -10.025276 1529.913086
4.200000 1.880000 3.840000 30.657753 11.322502 1068.096924
4.200000 1.880000 3.880000 11.153331 20.123234 529.341309
4.200000 1.880000 3.920000 -6.542300 12.165037 190.789825
4.200000 1.880000 3.960000 -11.162806 -4.220780 142.423218
4.200000 1.880000 4.000000 -2.672824 -16.167074 268.518280
4.200000 1.880000 4.040000 9.724474 -16.919312 380.828491
4.200000 1.880000 4.080000 16.754242 -9.575226 372.389587
4.200000 1.880000 4.120000 16.268852 -1.903544 268.299042
4.200000 1.880000 4.160000 12.605980 1.389740 160.842117
4.200000 1.880000 4.200000 10.539205 1.513784 113.366379
4.200000 1.920000 3.800000 33.104218 28.311630 1897.437500
4.200000 1.920000 3.840000 7.442950 38.106411 1507.495972
4.200000 1.920000 3.880000 -16.228268 26.240665 951.929199
4.200000 1.920000 3.920000 -22.684114 2.699093 521.854126
4.200000 1.920000 3.960000 -10.788733 -15.459078 355.379852
4.200000 1.920000 4.000000 7.748996 -18.077965 386.859741
4.200000 1.920000 4.040000 19.700478 -8.002237 452.144623
4.200000 1.920000 4.080000 20.384565 4.446456 435.301483
4.200000 1.920000 4.120000 14.286064 11.408501 334.245514
4.200000 1.920000 4.160000 8.219676 12.265152 217.997040
4.200000 1.920000 4.200000 5.196353 10.797642 143.591156
4.200000 1.960000 3.800000 -0.306825 50.120644 2512.173096
4.200000 1.960000 3.840000 -29.553116 37.599792 2287.131104
4.200000 1.960000 3.880000 -40.106476 8.438464 1679.737061
4.200000 1.960000 3.920000 -26.941851 -17.180937 1021.047974
4.200000 1.960000 3.960000 -2.200599 -24.013905 581.510254
4.200000 1.960000 4.000000 16.497276 -12.309055 423.672974
4.200000 1.960000 4.040000 19.923761 5.694632 429.385101
4.200000 1.960000 4.080000 11.400683 17.653969 441.638214
4.200000 1.960000 4.120000 0.285836 19.593496 383.986786
4.200000 1.960000 4.160000 -6.684817 15.143013 273.997620
4.200000 1.960000 4.200000 -8.401321 9.560141 161.978485
4.200000 2.000000 3.800000 -38.055107 38.768288 2951.171387
4.200000 2.000000 3.840000 -53.301502 9.239890 2926.425537
4.200000 2.000000 3.880000 -42.906300 -21.669016 2310.496826
4.200000 2.000000 3.920000 -15.456073 -34.712769 1443.866455
4.200000 2.000000 3.960000 9.844440 -25.023506 723.088867
4.200000 2.000000 4.000000 18.657570 -3.460310 360.078674
4.200000 2.000000 4.040000 10.453390 14.235859 311.933044
4.200000 2.000000 4.080000 -4.811491 19.238659 393.276459
4.200000 2.000000 4.120000 -16.407042 13.048523 439.454956
4.200000 2.000000 4.160000 -19.533157 2.704085 388.856323
4.200000 2.000000 4.200000 -15.353893 -5.374295 264.625092
4.200000 2.040000 3.800000 -52.400654 4.698306 2767.902588
4.200000 2.040000 3.840000 -47.683029 -25.305756 2914.052734
4.200000 2.040000 3.880000 -23.582890 -43.206833 2422.983154
4.200000 2.040000 3.920000 4.257434 -39.255547 1559.123657
4.200000 2.040000 3.960000 19.244480 -19.032001 732.567078
4.200000 2.040000 4.000000 15.481853 2.445439 245.667969
4.200000 2.040000 4.040000 -0.251842 12.388000 153.525986
4.200000 2.040000 4.080000 -15.610645 7.860529 305.480164
4.200000 2.040000 4.120000 -21.553379 -4.982948 489.377930
4.200000 2.040000 4.160000 -16.523201 -16.911291 559.007935
4.200000 2.040000 4.200000 -5.138825 -21.268211 478.744354
4.200000 2.080000 3.800000 -36.493378 -23.818476 1899.086426
4.200000 2.080000 3.840000 -21.081581 -41.150368 2137.785889
4.200000 2.080000 3.880000 2.134898 -43.600487 1905.560181
4.200000 2.080000 3.920000 19.927639 -30.247570 1312.026245
4.200000 2.080000 3.960000 23.014946 -10.236790 634.479614
4.200000 2.080000 4.000000 12.034286 3.871491 159.812500
4.200000 2.080000 4.040000 -3.695329 4.541603 34.281612
4.200000 2.080000 4.080000 -12.988497 -6.419534 209.911469
4.200000 2.080000 4.120000 -10.061991 -20.006531 501.504913
4.200000 2.080000 4.160000 2.388675 -26.475405 706.652832
4.200000 2.080000 4.200000 15.777064 -21.551323 713.375305
4.200000 2.120000 3.800000 -9.515719 -26.411270 788.104126
4.200000 2.120000 3.840000 2.402052 -31.792109 1016.507996
4.200000 2.120000 3.880000 16.158302 -28.202667 1056.481201
4.200000 2.120000 3.920000 24.342899 -16.235752 856.176392
4.200000 2.120000 3.960000 21.989079 -2.526057 489.900513
4.200000 2.120000 4.000000 11.124878 4.134652 140.858261
4.200000 2.120000 4.040000 0.403445 -0.451343 0.366478
4.200000 2.120000 4.080000 -1.145297 -11.823843 141.114975
4.200000 2.120000 4.120000 8.414633 -19.772797 461.769531
4.200000 2.120000 4.160000 21.912195 -16.533791 753.510498
4.200000 2.120000 4.200000 28.838314 -3.283252 842.428101
4.200000 2.160000 3.800000 2.484690 -8.382385 76.438065
4.200000 2.160000 3.840000 5.618442 -13.049848 201.865402
4.200000 2.160000 3.880000 13.445317 -13.506227 363.194733
4.200000 2.160000 3.920000 19.758192 -6.784745 436.418915
4.200000 2.160000 3.960000 18.418625 2.531207 345.652740
4.200000 2.160000 4.000000 10.683160 6.193387 152.487946
4.200000 2.160000 4.040000 4.979168 1.186435 26.199743
4.200000 2.160000 4.080000 8.415192 -6.128171 108.369934
4.200000 2.160000 4.120000 18.716627 -5.915012 385.299500
4.200000 2.160000 4.160000 25.753294 4.842246 686.679504
4.200000 2.160000 4.200000 21.577312 18.714933 815.829102
4.200000 2.200000 3.800000 -8.610323 6.411360 115.243195
4.200000 2.200000 3.840000 -6.889965 -6.089161 84.549500
4.200000 2.200000 3.880000 4.261805 -11.178868 143.130066
4.200000 2.200000 3.920000 13.913198 -5.028385 218.861740
4.200000 2.200000 3.960000 13.990658 4.816618 218.938324
4.200000 2.200000 4.000000 7.592246 8.455423 129.136383
4.200000 2.200000 4.040000 4.446472 4.861852 43.408714
4.200000 2.200000 4.080000 8.950057 2.465942 86.184395
4.200000 2.200000 4.120000 14.757713 8.543706 290.785004
4.200000 2.200000 4.160000 12.257845 19.926712 547.328613
4.200000 2.200000 4.200000 0.211854 26.041996 678.230408
