#kx 	ky 	kz 	real 	imag 	intensity
0.800000 -9.200000 0.800000 -66.127045 -1.828898 4376.130859
0.800000 -9.200000 0.840000 -51.466331 -21.520729 3111.925049
0.800000 -9.200000 0.880000 -34.099625 -23.348866 1707.953857
0.800000 -9.200000 0.920000 -28.535830 -16.057507 1072.137085
0.800000 -9.200000 0.960000 -33.698189 -15.369848 1371.800049
0.800000 -9.200000 1.000000 -35.483765 -26.760281 1975.210205
0.800000 -9.200000 1.040000 -22.833771 -39.703686 2097.763672
0.800000 -9.200000 1.080000 -0.205118 -38.916313 1514.521484
0.800000 -9.200000 1.120000 16.298512 -20.382372 681.082520
0.800000 -9.200000 1.160000 14.409382 4.316933 226.266190
0.800000 -9.200000 1.200000 -3.260112 18.942408 369.443146
0.800000 -9.160000 0.800000 -51.186489 -37.318192 4012.704102
0.800000 -9.160000 0.840000 -27.186443 -43.501400 2631.474609
0.800000 -9.160000 0.880000 -13.113138 -33.556633 1298.001953
0.800000 -9.160000 0.920000 -14.535158 -24.268686 800.239929
0.800000 -9.160000 0.960000 -20.233181 -27.236671 1151.217896
0.800000 -9.160000 1.000000 -15.875271 -37.635780 1668.476074
0.800000 -9.160000 1.040000 0.245377 -40.735565 1659.446411
0.800000 -9.160000 1.080000 15.582850 -28.194115 1037.733276
0.800000 -9.160000 1.120000 16.411407 -6.912930 317.122894
0.800000 -9.160000 1.160000 1.278974 7.843523 63.156628
0.800000 -9.160000 1.200000 -18.406540 6.764809 384.563354
0.800000 -9.120000 0.800000 -15.290889 -48.394241 2575.813965
0.800000 -9.120000 0.840000 4.461096 -38.626869 1511.936401
0.800000 -9.120000 0.880000 7.369573 -23.343697 599.238770
0.800000 -9.120000 0.920000 -0.487015 -17.794811 316.892487
0.800000 -9.120000 0.960000 -4.539317 -23.578520 576.552002
0.800000 -9.120000 1.000000 2.241655 -29.400835 869.434143
0.800000 -9.120000 1.040000 12.947744 -24.790239 782.200073
0.800000 -9.120000 1.080000 15.379406 -11.388744 366.229614
0.800000 -9.120000 1.120000 5.278386 -0.680273 28.324133
0.800000 -9.120000 1.160000 -9.759552 -1.993992 99.224861
0.800000 -9.120000 1.200000 -18.391605 -13.997568 534.183105
0.800000 -9.080000 0.800000 12.592484 -28.760696 985.748291
0.800000 -9.080000 0.840000 18.218557 -12.634792 491.553802
0.800000 -9.080000 0.880000 10.424727 -2.282521 113.884842
0.800000 -9.080000 0.920000 1.071250 -3.822387 15.758217
0.800000 -9.080000 0.960000 -0.322970 -10.678776 114.140564
0.800000 -9.080000 1.000000 4.612248 -12.956061 189.132355
0.800000 -9.080000 1.040000 7.156471 -8.569195 124.646179
0.800000 -9.080000 1.080000 2.378029 -4.381899 24.856058
0.800000 -9.080000 1.120000 -5.522166 -7.574067 87.860809
0.800000 -9.080000 1.160000 -8.317463 -17.672155 381.485291
0.800000 -9.080000 1.200000 -2.425533 -27.555134 765.168640
0.800000 -9.040000 0.800000 12.173271 0.389807 148.340485
0.800000 -9.040000 0.840000 5.826702 10.023071 134.412415
0.800000 -9.040000 0.880000 -4.361699 10.056626 120.160156
0.800000 -9.040000 0.920000 -9.587552 3.229155 102.348595
0.800000 -9.040000 0.960000 -8.548843 -2.898197 81.482269
0.800000 -9.040000 1.000000 -6.521947 -5.009319 67.629074
0.800000 -9.040000 1.040000 -7.444962 -6.623009 99.291702
0.800000 -9.040000 1.080000 -8.880219 -12.255856 229.064270
0.800000 -9.040000 1.120000 -5.287375 -20.917940 465.516541
0.800000 -9.040000 1.160000 4.942571 -26.596394 731.797180
0.800000 -9.040000 1.200000 17.202049 -24.698906 905.946411
0.800000 -9.000000 0.800000 -8.866014 11.961877 221.692719
0.800000 -9.000000 0.840000 -16.401302 10.445061 378.102020
0.800000 -9.000000 0.880000 -20.609623 3.727763 438.652771
0.800000 -9.000000 0.920000 -19.905834 -3.078363 405.718567
0.800000 -9.000000 0.960000 -17.665028 -7.277138 365.009918
0.800000 -9.000000 1.000000 -16.638021 -11.155238 401.263092
0.800000 -9.000000 1.040000 -14.716121 -17.790388 533.062134
0.800000 -9.000000 1.080000 -7.436494 -25.594452 710.377441
0.800000 -9.000000 1.120000 5.817053 -28.628960 853.455444
0.800000 -9.000000 1.160000 19.551971 -22.702579 897.686707
0.800000 -9.000000 1.200000 26.825630 -10.161306 822.866577
0.800000 -8.960000 0.800000 -24.707634 -0.002755 610.467163
0.800000 -8.960000 0.840000 -25.281519 -6.632158 683.140747
0.800000 -8.960000 0.880000 -22.322258 -12.151453 645.941040
0.800000 -8.960000 0.920000 -18.751270 -14.861672 572.479431
0.800000 -8.960000 0.960000 -16.956429 -17.061171 578.604004
0.800000 -8.960000 1.000000 -15.070379 -21.937706 708.379272
0.800000 -8.960000 1.040000 -8.554783 -28.554443 888.540588
0.800000 -8.960000 1.080000 4.069066 -31.251732 993.228027
0.800000 -8.960000 1.120000 17.960178 -24.992744 947.205261
0.800000 -8.960000 1.160000 25.478867 -11.087070 772.095764
0.800000 -8.960000 1.200000 23.194595 3.284993 548.780457
0.800000 -8.920000 0.800000 -19.452070 -16.543177 652.059692
0.800000 -8.920000 0.840000 -14.648371 -19.880140 609.794739
0.800000 -8.920000 0.880000 -10.054853 -20.103149 505.236694
0.800000 -8.920000 0.920000 -8.059078 -19.139843 431.282318
0.800000 -8.920000 0.960000 -7.827992 -20.419800 478.245697
0.800000 -8.920000 1.000000 -5.305048 -24.760948 641.248108
0.800000 -8.920000 1.040000 2.614427 -28.297327 807.573914
0.800000 -8.920000 1.080000 13.857885 -25.562130 845.463501
0.800000 -8.920000 1.120000 21.960581 -15.142762 711.570374
0.800000 -8.920000 1.160000 21.771786 -1.882101 477.552948
0.800000 -8.920000 1.200000 14.326357 7.231383 257.537415
0.800000 -8.880000 0.800000 -2.860430 -16.441431 278.502716
0.800000 -8.880000 0.840000 0.054189 -15.231991 232.016479
0.800000 -8.880000 0.880000 1.154787 -13.125427 173.610367
0.800000 -8.880000 0.920000 0.143016 -12.063238 145.542160
0.800000 -8.880000 0.960000 -1.060318 -13.822371 192.182190
0.800000 -8.880000 1.000000 0.702942 -17.576824 309.438904
0.800000 -8.880000 1.040000 6.618566 -19.617613 428.656158
0.800000 -8.880000 1.080000 13.891567 -16.490000 464.895752
0.800000 -8.880000 1.120000 17.696989 -8.621226 387.508972
0.800000 -8.880000 1.160000 15.632646 -0.370872 244.517151
0.800000 -8.880000 1.200000 9.934677 4.045524 115.064072
0.800000 -8.840000 0.800000 2.490883 0.172633 6.234300
0.800000 -8.840000 0.840000 0.361946 -0.320457 0.233697
0.800000 -8.840000 0.880000 -1.010025 -1.237547 2.551673
0.800000 -8.840000 0.920000 -2.576332 -2.468466 12.730812
0.800000 -8.840000 0.960000 -4.096503 -5.260276 44.451843
0.800000 -8.840000 1.000000 -3.520289 -9.785797 108.154259
0.800000 -8.840000 1.040000 0.707960 -13.700008 188.191437
0.800000 -8.840000 1.080000 7.252416 -13.909416 246.069397
0.800000 -8.840000 1.120000 12.568638 -9.666986 251.421295
0.800000 -8.840000 1.160000 14.039604 -3.344085 208.293396
0.800000 -8.840000 1.200000 11.989769 2.035973 147.899750
0.800000 -8.800000 0.800000 -12.605686 12.859679 324.274658
0.800000 -8.800000 0.840000 -14.594422 5.366638 241.797974
0.800000 -8.800000 0.880000 -12.947582 0.592899 167.991425
0.800000 -8.800000 0.920000 -12.033723 -1.492576 147.038269
0.800000 -8.800000 0.960000 -12.974630 -4.564154 189.172531
0.800000 -8.800000 1.000000 -12.467163 -10.728884 270.539124
0.800000 -8.800000 1.040000 -6.876826 -17.373365 349.124573
0.800000 -8.800000 1.080000 3.213727 -19.421095 387.506958
0.800000 -8.800000 1.120000 12.928179 -14.300703 371.647888
0.800000 -8.800000 1.160000 17.216953 -4.273639 314.687469
0.800000 -8.800000 1.200000 14.567963 5.734845 245.113983
0.840000 -9.200000 0.800000 -64.891800 -30.531828 5143.138184
0.840000 -9.200000 0.840000 -41.881855 -41.474422 3474.217285
0.840000 -9.200000 0.880000 -26.704964 -36.011715 2009.998779
0.840000 -9.200000 0.920000 -25.614353 -30.566336 1590.395996
0.840000 -9.200000 0.960000 -27.208244 -36.658356 2084.123535
0.840000 -9.200000 1.000000 -16.846781 -48.230251 2609.971191
0.840000 -9.200000 1.040000 5.716192 -48.713806 2405.709717
0.840000 -9.200000 1.080000 24.628851 -29.843327 1497.204468
0.840000 -9.200000 1.120000 23.823177 -1.864655 571.020691
0.840000 -9.200000 1.160000 3.435639 15.601501 255.210434
0.840000 -9.200000 1.200000 -20.310524 12.084318 558.548157
0.840000 -9.160000 0.800000 -32.354958 -62.125595 4906.432617
0.840000 -9.160000 0.840000 -5.968459 -55.583961 3125.199219
0.840000 -9.160000 0.880000 3.205238 -40.263870 1631.452759
0.840000 -9.160000 0.920000 0.322791 -33.119072 1096.977173
0.840000 -9.160000 0.960000 0.712322 -36.541027 1335.754150
0.840000 -9.160000 1.000000 11.721989 -38.391426 1611.306641
0.840000 -9.160000 1.040000 24.892092 -27.480511 1374.794678
0.840000 -9.160000 1.080000 25.951715 -6.993395 722.399109
0.840000 -9.160000 1.120000 10.798225 8.318183 185.793839
0.840000 -9.160000 1.160000 -9.846624 7.181780 148.533981
0.840000 -9.160000 1.200000 -21.145597 -7.460986 502.802612
0.840000 -9.120000 0.800000 10.795584 -57.519623 3425.051758
0.840000 -9.120000 0.840000 27.451590 -37.826759 2184.453613
0.840000 -9.120000 0.880000 26.791183 -19.405748 1094.350586
0.840000 -9.120000 0.920000 19.569237 -11.621341 518.010559
0.840000 -9.120000 0.960000 16.295975 -10.490582 375.611115
0.840000 -9.120000 1.000000 17.087101 -7.243759 344.441071
0.840000 -9.120000 1.040000 14.699875 0.137817 216.105316
0.840000 -9.120000 1.080000 5.262582 5.154903 54.267796
0.840000 -9.120000 1.120000 -6.243388 1.315586 40.710663
0.840000 -9.120000 1.160000 -11.333542 -9.859550 225.659912
0.840000 -9.120000 1.200000 -7.051632 -20.352859 463.964417
0.840000 -9.080000 0.800000 31.047272 -24.865702 1582.236206
0.840000 -9.080000 0.840000 34.370346 -3.839052 1196.058960
0.840000 -9.080000 0.880000 26.066771 11.744587 817.411804
0.840000 -9.080000 0.920000 13.527968 18.782845 535.801208
0.840000 -9.080000 0.960000 1.281982 19.175201 369.331848
0.840000 -9.080000 1.000000 -9.428241 14.481680 298.610779
0.840000 -9.080000 1.040000 -16.863728 4.778595 307.220276
0.840000 -9.080000 1.080000 -17.668484 -8.079010 377.445740
0.840000 -9.080000 1.120000 -10.470302 -18.762341 461.652649
0.840000 -9.080000 1.160000 0.862031 -22.085703 488.521362
0.840000 -9.080000 1.200000 9.576052 -18.121941 420.105499
0.840000 -9.040000 0.800000 18.377321 3.964397 353.442383
0.840000 -9.040000 0.840000 15.047585 18.615944 572.983154
0.840000 -9.040000 0.880000 3.228559 30.066010 914.388489
0.840000 -9.040000 0.920000 -15.200020 33.383202 1345.478760
0.840000 -9.040000 0.960000 -34.535110 24.146168 1775.711182
0.840000 -9.040000 1.000000 -45.328487 2.834572 2062.706787
0.840000 -9.040000 1.040000 -39.932365 -21.967157 2077.149658
0.840000 -9.040000 1.080000 -19.818275 -37.331566 1786.409790
0.840000 -9.040000 1.120000 3.466243 -35.641609 1282.339233
0.840000 -9.040000 1.160000 16.755543 -21.322411 735.393433
0.840000 -9.040000 1.200000 16.091352 -7.034046 308.409424
0.840000 -9.000000 0.800000 -5.794209 5.891220 68.279327
0.840000 -9.000000 0.840000 -8.236888 16.247562 331.829590
0.840000 -9.000000 0.880000 -22.209255 25.028643 1119.683960
0.840000 -9.000000 0.920000 -44.618771 20.601351 2415.250488
0.840000 -9.000000 0.960000 -61.586365 -2.596367 3799.621582
0.840000 -9.000000 1.000000 -58.025028 -35.597649 4634.096680
0.840000 -9.000000 1.040000 -31.560614 -59.014931 4478.834473
0.840000 -9.000000 1.080000 3.070003 -58.317585 3410.365479
0.840000 -9.000000 1.120000 25.164356 -36.538197 1968.284668
0.840000 -9.000000 1.160000 25.308960 -11.578628 774.608093
0.840000 -9.000000 1.200000 12.269840 -0.057604 150.552292
0.840000 -8.960000 0.800000 -13.220265 -11.452887 305.944031
0.840000 -8.960000 0.840000 -15.047163 0.714591 226.927750
0.840000 -8.960000 0.880000 -32.440422 6.358861 1092.816040
0.840000 -8.960000 0.920000 -53.559345 -8.180613 2935.525879
0.840000 -8.960000 0.960000 -58.121025 -40.291679 5001.472656
0.840000 -8.960000 1.000000 -35.754055 -70.043121 6184.391602
0.840000 -8.960000 1.040000 2.765336 -76.173813 5810.096680
0.840000 -8.960000 1.080000 33.413300 -54.869629 4127.125000
0.840000 -8.960000 1.120000 39.416542 -23.096329 2087.104248
0.840000 -8.960000 1.160000 24.922562 -2.967785 629.941833
0.840000 -8.960000 1.200000 8.867966 -2.329638 84.068031
0.840000 -8.920000 0.800000 1.063787 -21.237349 452.156616
0.840000 -8.920000 0.840000 -6.398317 -6.986618 89.751297
0.840000 -8.920000 0.880000 -26.584332 -8.148964 773.132324
0.840000 -8.920000 0.920000 -39.866173 -30.666561 2529.749756
0.840000 -8.920000 0.960000 -29.410809 -60.506630 4526.047852
0.840000 -8.920000 1.000000 2.569317 -74.847710 5608.781250
0.840000 -8.920000 1.040000 35.741455 -62.248051 5152.271484
0.840000 -8.920000 1.080000 49.399960 -32.623142 3504.625488
0.840000 -8.920000 1.120000 40.142647 -7.500495 1667.689575
0.840000 -8.920000 1.160000 22.730602 -0.355701 516.806824
0.840000 -8.920000 1.200000 14.286030 -6.188736 242.391113
0.840000 -8.880000 0.800000 15.568873 -8.715619 318.351837
0.840000 -8.880000 0.840000 0.021659 -0.003804 0.000484
0.840000 -8.880000 0.880000 -17.451153 -10.562846 416.116455
0.840000 -8.880000 0.920000 -19.238668 -34.294392 1546.231689
0.840000 -8.880000 0.960000 -0.387596 -52.903530 2798.933594
0.840000 -8.880000 1.000000 26.984436 -51.967361 3428.766602
0.840000 -8.880000 1.040000 44.755009 -33.107841 3099.140137
0.840000 -8.880000 1.080000 44.580933 -11.117091 2111.049316
0.840000 -8.880000 1.120000 33.456085 0.403975 1119.472900
0.840000 -8.880000 1.160000 24.727909 0.538303 611.759277
0.840000 -8.880000 1.200000 24.476433 -0.846212 599.811829
0.840000 -8.840000 0.800000 8.407115 12.473221 226.260818
0.840000 -8.840000 0.840000 -7.922979 8.613813 136.971390
0.840000 -8.840000 0.880000 -15.499874 -7.729965 299.998444
0.840000 -8.840000 0.920000 -8.069546 -24.863625 683.317383
0.840000 -8.840000 0.960000 8.933405 -31.491329 1071.509521
0.840000 -8.840000 1.000000 24.321636 -25.549988 1244.343872
0.840000 -8.840000 1.040000 31.016466 -13.887203 1154.875610
0.840000 -8.840000 1.080000 30.523018 -4.400051 951.015076
0.840000 -8.840000 1.120000 28.749729 1.000059 827.547058
0.840000 -8.840000 1.160000 28.634790 6.138391 857.631104
0.840000 -8.840000 1.200000 27.247606 14.399719 949.783997
0.840000 -8.800000 0.800000 -17.055422 16.264591 555.424316
0.840000 -8.800000 0.840000 -22.619854 2.874866 519.922668
0.840000 -8.800000 0.880000 -18.334993 -10.016951 436.511261
0.840000 -8.800000 0.920000 -8.917365 -16.657654 356.996826
0.840000 -8.800000 0.960000 -0.107296 -17.705124 313.482910
0.840000 -8.800000 1.000000 6.762576 -16.888424 330.951294
0.840000 -8.800000 1.040000 14.043581 -15.345070 432.693359
0.840000 -8.800000 1.080000 22.652901 -10.258444 618.389587
0.840000 -8.800000 1.120000 28.968023 0.975221 840.097412
0.840000 -8.800000 1.160000 27.412964 16.115105 1011.167175
0.840000 -8.800000 1.200000 16.034878 28.257450 1055.600830
0.880000 -9.200000 0.800000 -48.853008 -55.713379 5490.596680
0.880000 -9.200000 0.840000 -23.127487 -55.844330 3653.469727
0.880000 -9.200000 0.880000 -11.500491 -45.844097 2233.942383
0.880000 -9.200000 0.920000 -10.581524 -42.339172 1904.574097
0.880000 -9.200000 0.960000 -5.145887 -48.141052 2344.041016
0.880000 -9.200000 1.000000 12.460493 -49.905159 2645.788818
0.880000 -9.200000 1.040000 31.806065 -34.564674 2206.342285
0.880000 -9.200000 1.080000 34.645523 -6.207899 1238.850220
0.880000 -9.200000 1.120000 15.013647 15.569576 467.821289
0.880000 -9.200000 1.160000 -12.839100 14.575851 377.297913
0.880000 -9.200000 1.200000 -27.414871 -5.871173 786.045837
0.880000 -9.160000 0.800000 -2.371653 -72.788734 5303.824219
0.880000 -9.160000 0.840000 19.961884 -55.105312 3435.072266
0.880000 -9.160000 0.880000 24.084005 -36.474541 1910.431396
0.880000 -9.160000 0.920000 21.094709 -28.113586 1235.360474
0.880000 -9.160000 0.960000 23.165180 -25.475422 1185.622681
0.880000 -9.160000 1.000000 29.724443 -17.216299 1179.943481
0.880000 -9.160000 1.040000 29.624420 -0.735771 878.147644
0.880000 -9.160000 1.080000 15.725830 13.444992 428.069519
0.880000 -9.160000 1.120000 -5.072017 12.971008 193.972412
0.880000 -9.160000 1.160000 -17.666409 -2.407078 317.896027
0.880000 -9.160000 1.200000 -13.802704 -19.789083 582.122437
0.880000 -9.120000 0.800000 38.382679 -49.997841 3973.014160
0.880000 -9.120000 0.840000 48.600502 -22.787149 2881.262939
0.880000 -9.120000 0.880000 42.752186 0.123943 1827.764771
0.880000 -9.120000 0.920000 29.965683 13.106824 1069.730957
0.880000 -9.120000 0.960000 16.816082 18.427855 622.366455
0.880000 -9.120000 1.000000 4.297920 19.074379 382.304047
0.880000 -9.120000 1.040000 -7.633577 14.571224 270.592072
0.880000 -9.120000 1.080000 -15.700076 3.981487 262.344635
0.880000 -9.120000 1.120000 -15.416907 -9.229607 322.866669
0.880000 -9.120000 1.160000 -6.911022 -17.943880 369.745056
0.880000 -9.120000 1.200000 3.408097 -17.750549 326.697113
0.880000 -9.080000 0.800000 45.541046 -10.178131 2177.581055
0.880000 -9.080000 0.840000 44.460175 17.627506 2287.436035
0.880000 -9.080000 0.880000 27.376476 41.139343 2441.916992
0.880000 -9.080000 0.920000 -1.280655 51.200333 2623.114258
0.880000 -9.080000 0.960000 -31.336128 42.121540 2756.177002
0.880000 -9.080000 1.000000 -49.631233 16.292400 2728.701660
0.880000 -9.080000 1.040000 -47.311638 -14.327553 2443.669922
0.880000 -9.080000 1.080000 -27.004589 -34.066727 1889.789673
0.880000 -9.080000 1.120000 -2.486074 -34.300121 1182.678833
0.880000 -9.080000 1.160000 11.127869 -20.118740 528.593140
0.880000 -9.080000 1.200000 9.067257 -5.838612 116.304535
0.880000 -9.040000 0.800000 23.843189 12.932312 735.742371
0.880000 -9.040000 0.840000 15.980944 38.928360 1770.807861
0.880000 -9.040000 0.880000 -13.634265 58.332283 3588.548340
0.880000 -9.040000 0.920000 -56.186462 52.348412 5897.274414
0.880000 -9.040000 0.960000 -87.477692 14.998650 7877.306152
0.880000 -9.040000 1.000000 -85.004974 -36.647694 8568.899414
0.880000 -9.040000 1.040000 -47.980309 -72.142685 7506.676758
0.880000 -9.040000 1.080000 -0.605499 -71.481949 5110.035645
0.880000 -9.040000 1.120000 26.861300 -41.751953 2464.754883
0.880000 -9.040000 1.160000 22.897259 -10.285101 630.067810
0.880000 -9.040000 1.200000 2.331231 -0.184982 5.468857
0.880000 -9.000000 0.800000 2.436941 7.874029 67.939011
0.880000 -9.000000 0.840000 -11.923578 33.699055 1277.798096
0.880000 -9.000000 0.880000 -52.934311 41.616180 4533.947754
0.880000 -9.000000 0.920000 -95.941406 10.277586 9310.382812
0.880000 -9.000000 0.960000 -104.924744 -51.077030 13618.065430
0.880000 -9.000000 1.000000 -65.116264 -104.503304 15161.068359
0.880000 -9.000000 1.040000 0.393394 -113.950165 12984.793945
0.880000 -9.000000 1.080000 48.379761 -76.871017 8249.754883
0.880000 -9.000000 1.120000 52.397285 -26.126499 3428.069580
0.880000 -9.000000 1.160000 23.870520 0.217801 569.849121
0.880000 -9.000000 1.200000 -2.202223 -8.053308 69.705559
0.880000 -8.960000 0.800000 2.541875 -6.463930 48.243523
0.880000 -8.960000 0.840000 -22.298119 16.891211 782.519043
0.880000 -8.960000 0.880000 -67.368011 5.997660 4574.420410
0.880000 -8.960000 0.920000 -92.576706 -46.894943 10769.582031
0.880000 -8.960000 0.960000 -66.667183 -109.750122 16489.601562
0.880000 -8.960000 1.000000 0.995021 -135.919647 18475.140625
0.880000 -8.960000 1.040000 65.567520 -105.900864 15514.092773
0.880000 -8.960000 1.080000 85.752617 -45.148674 9391.914062
0.880000 -8.960000 1.120000 59.392448 -0.125682 3527.478760
0.880000 -8.960000 1.160000 21.528669 3.805167 477.962891
0.880000 -8.960000 1.200000 8.526545 -18.337858 408.979004
0.880000 -8.920000 0.800000 16.249413 -5.182738 290.904175
0.880000 -8.920000 0.840000 -19.237816 6.888561 417.545837
0.880000 -8.920000 0.880000 -55.420731 -23.654573 3630.996094
0.880000 -8.920000 0.920000 -52.327362 -81.115616 9317.896484
0.880000 -8.920000 0.960000 -0.809849 -120.885147 14613.875000
0.880000 -8.920000 1.000000 66.110443 -109.463440 16352.835938
0.880000 -8.920000 1.040000 102.085648 -55.381260 13488.563477
0.880000 -8.920000 1.080000 88.846817 -0.510719 7894.017578
0.880000 -8.920000 1.120000 49.874290 19.225239 2857.054688
0.880000 -8.920000 1.160000 24.412899 4.700037 618.079956
0.880000 -8.920000 1.200000 29.481316 -13.074517 1040.090942
0.880000 -8.880000 0.800000 18.562048 13.685957 531.855042
0.880000 -8.880000 0.840000 -17.828602 6.681191 362.497375
0.880000 -8.880000 0.880000 -33.697067 -33.881584 2283.454102
0.880000 -8.880000 0.920000 -7.539614 -76.367180 5888.791992
0.880000 -8.880000 0.960000 45.626499 -84.561035 9232.345703
0.880000 -8.880000 1.000000 87.434395 -50.865082 10232.030273
0.880000 -8.880000 1.040000 91.146744 -2.079391 8312.052734
0.880000 -8.880000 1.080000 64.094009 27.088589 4841.833496
0.880000 -8.880000 1.120000 36.624176 25.642216 1998.853516
0.880000 -8.880000 1.160000 30.703930 12.206696 1091.734741
0.880000 -8.880000 1.200000 40.553215 11.872900 1785.529053
0.880000 -8.840000 0.800000 -1.960337 27.476803 758.817566
0.880000 -8.840000 0.840000 -24.382719 4.720515 616.800232
0.880000 -8.840000 0.880000 -18.712353 -29.802568 1238.345215
0.880000 -8.840000 0.920000 13.255531 -48.197151 2498.674316
0.880000 -8.840000 0.960000 47.964935 -36.715714 3648.678711
0.880000 -8.840000 1.000000 62.260818 -6.573097 3919.614990
0.880000 -8.840000 1.040000 53.179993 19.039894 3190.629150
0.880000 -8.840000 1.080000 36.699223 27.344765 2094.569092
0.880000 -8.840000 1.120000 28.880877 25.182407 1468.258667
0.880000 -8.840000 1.160000 29.963806 27.598780 1659.522217
0.880000 -8.840000 1.200000 27.021870 39.712494 2307.263672
0.880000 -8.800000 0.800000 -28.564667 15.501911 1056.249390
0.880000 -8.800000 0.840000 -29.564392 -7.780119 934.583557
0.880000 -8.800000 0.880000 -13.459726 -24.173590 765.526672
0.880000 -8.800000 0.920000 7.446263 -24.616076 661.398010
0.880000 -8.800000 0.960000 20.667934 -13.662018 613.814209
0.880000 -8.800000 1.000000 24.097385 -1.891224 584.260681
0.880000 -8.800000 1.040000 24.241390 5.812992 621.435913
0.880000 -8.800000 1.080000 25.895247 13.345255 848.659607
0.880000 -8.800000 1.120000 25.622318 25.744265 1319.270264
0.880000 -8.800000 1.160000 16.130177 40.482552 1899.019653
0.880000 -8.800000 1.200000 -3.995838 47.936089 2313.835449
0.920000 -9.200000 0.800000 -21.661772 -70.391762 5424.232422
0.920000 -9.200000 0.840000 2.267164 -60.691078 3688.547119
0.920000 -9.200000 0.880000 10.775531 -47.021381 2327.122314
0.920000 -9.200000 0.920000 12.678318 -41.375870 1872.702393
0.920000 -9.200000 0.960000 20.467617 -40.072990 2024.767944
0.920000 -9.200000 1.000000 33.886238 -30.246597 2063.133789
0.920000 -9.200000 1.040000 39.053474 -7.633440 1583.443237
0.920000 -9.200000 1.080000 24.680038 15.010815 834.428833
0.920000 -9.200000 1.120000 -2.726568 19.364819 382.430359
0.920000 -9.200000 1.160000 -22.397659 1.114382 502.897003
0.920000 -9.200000 1.200000 -18.952080 -23.830412 927.069885
0.920000 -9.160000 0.800000 28.605131 -66.485573 5238.584961
0.920000 -9.160000 0.840000 43.624714 -41.416393 3618.433350
0.920000 -9.160000 0.880000 42.236561 -19.654640 2170.231934
0.920000 -9.160000 0.920000 35.293026 -7.432759 1300.843506
0.920000 -9.160000 0.960000 30.287979 0.354620 917.487427
0.920000 -9.160000 1.000000 24.607693 9.728210 700.176575
0.920000 -9.160000 1.040000 12.143244 18.042995 473.008057
0.920000 -9.160000 1.080000 -5.639592 16.630203 308.368652
0.920000 -9.160000 1.120000 -17.986628 2.335830 328.974854
0.920000 -9.160000 1.160000 -15.298161 -15.943565 488.231018
0.920000 -9.160000 1.200000 -0.114032 -24.210577 586.165039
0.920000 -9.120000 0.800000 57.661392 -29.074526 4170.164062
0.920000 -9.120000 0.840000 59.319862 3.312238 3529.817139
0.920000 -9.120000 0.880000 43.419735 29.788454 2772.625488
0.920000 -9.120000 0.920000 17.474255 42.428898 2105.561035
0.920000 -9.120000 0.960000 -9.077364 39.315002 1628.067993
0.920000 -9.120000 1.000000 -28.018879 23.517437 1338.127441
0.920000 -9.120000 1.040000 -34.081219 1.756248 1164.613770
0.920000 -9.120000 1.080000 -26.669008 -17.175003 1006.216797
0.920000 -9.120000 1.120000 -11.074780 -25.682539 782.243591
0.920000 -9.120000 1.160000 3.355186 -21.765636 485.000183
0.920000 -9.120000 1.200000 8.734750 -10.865566 194.356384
0.920000 -9.080000 0.800000 50.429527 11.062960 2665.526367
0.920000 -9.080000 0.840000 39.039444 45.300369 3576.201660
0.920000 -9.080000 0.880000 3.703569 68.976326 4771.449707
0.920000 -9.080000 0.920000 -43.696304 64.474815 6066.369141
0.920000 -9.080000 0.960000 -78.893517 28.232788 7021.277344
0.920000 -9.080000 1.000000 -81.274109 -22.443928 7109.210938
0.920000 -9.080000 1.040000 -50.396057 -59.303905 6056.715820
0.920000 -9.080000 1.080000 -7.756504 -63.686600 4116.146484
0.920000 -9.080000 1.120000 19.403591 -40.388016 2007.691162
0.920000 -9.080000 1.160000 18.965900 -12.403893 513.561951
0.920000 -9.080000 1.200000 1.313268 -1.104862 2.945393
0.920000 -9.040000 0.800000 23.495399 26.939425 1277.766357
0.920000 -9.040000 0.840000 -1.549285 59.953011 3596.763916
0.920000 -9.040000 0.880000 -55.999767 67.723755 7722.480469
0.920000 -9.040000 0.920000 -109.668945 28.564722 12843.220703
0.920000 -9.040000 0.960000 -122.232590 -44.466389 16918.066406
0.920000 -9.040000 1.000000 -78.631004 -107.716942 17785.773438
0.920000 -9.040000 1.040000 -5.707138 -121.140289 14707.541016
0.920000 -9.040000 1.080000 48.212063 -82.185593 9078.875000
0.920000 -9.040000 1.120000 53.497276 -27.141247 3598.605713
0.920000 -9.040000 1.160000 21.929842 1.670928 483.709961
0.920000 -9.040000 1.200000 -8.357569 -8.364578 139.815125
0.920000 -9.000000 0.800000 5.083099 19.295750 398.163849
0.920000 -9.000000 0.840000 -35.572174 45.131916 3302.269531
0.920000 -9.000000 0.880000 -97.752884 24.162506 10139.453125
0.920000 -9.000000 0.920000 -130.026245 -50.171173 19423.970703
0.920000 -9.000000 0.960000 -94.269264 -134.667267 27021.968750
0.920000 -9.000000 1.000000 -4.852392 -169.294144 28684.052734
0.920000 -9.000000 1.040000 79.164055 -130.171936 23211.679688
0.920000 -9.000000 1.080000 104.368233 -51.436699 13538.460938
0.920000 -9.000000 1.120000 68.380722 5.975822 4711.633789
0.920000 -9.000000 1.160000 17.213245 8.557266 369.522614
0.920000 -9.000000 1.200000 -0.769533 -24.683546 609.869629
0.920000 -8.960000 0.800000 5.702535 10.464650 142.027802
0.920000 -8.960000 0.840000 -47.674606 18.744621 2624.229004
0.920000 -8.960000 0.880000 -97.123352 -33.045139 10524.926758
0.920000 -8.960000 0.920000 -86.847427 -120.216324 21994.441406
0.920000 -8.960000 0.960000 -6.047836 -177.436981 31520.458984
0.920000 -8.960000 1.000000 94.784134 -156.714417 33543.441406
0.920000 -8.960000 1.040000 146.309662 -72.660660 26686.089844
0.920000 -8.960000 1.080000 121.817886 10.377719 14947.294922
0.920000 -8.960000 1.120000 58.062584 37.171684 4752.998047
0.920000 -8.960000 1.160000 16.524240 8.712421 348.956818
0.920000 -8.960000 1.200000 25.426819 -26.687780 1358.760742
0.920000 -8.920000 0.800000 10.583862 16.683498 390.357239
0.920000 -8.920000 0.840000 -42.929512 -0.511908 1843.205078
0.920000 -8.920000 0.880000 -61.615715 -68.914024 8545.638672
0.920000 -8.920000 0.920000 -11.100769 -136.835312 18847.128906
0.920000 -8.920000 0.960000 82.422668 -143.901367 27501.099609
0.920000 -8.920000 1.000000 152.199646 -78.093147 29263.271484
0.920000 -8.920000 1.040000 151.077332 11.954918 22967.279297
0.920000 -8.920000 1.080000 92.933182 62.231262 12509.306641
0.920000 -8.920000 1.120000 35.310219 51.102592 3858.286377
0.920000 -8.920000 1.160000 22.678783 13.219391 689.079468
0.920000 -8.920000 1.200000 47.764988 -0.840296 2282.200195
0.920000 -8.880000 0.800000 0.471610 29.894989 893.932800
0.920000 -8.880000 0.840000 -35.619835 -8.727655 1344.944580
0.920000 -8.880000 0.880000 -20.737715 -69.802475 5302.438477
0.920000 -8.880000 0.920000 44.958221 -98.847755 11792.121094
0.920000 -8.880000 0.960000 114.220123 -65.422638 17326.357422
0.920000 -8.880000 1.000000 135.449097 7.703629 18405.802734
0.920000 -8.880000 1.040000 99.531708 66.430801 14319.611328
0.920000 -8.880000 1.080000 44.712341 75.932373 7764.918457
0.920000 -8.880000 1.120000 16.559578 49.438549 2718.389893
0.920000 -8.880000 1.160000 25.028671 28.592594 1443.970825
0.920000 -8.880000 1.200000 40.858578 38.793556 3174.363281
0.920000 -8.840000 0.800000 -23.678032 28.511600 1373.560547
0.920000 -8.840000 0.840000 -32.293800 -14.283030 1246.894409
0.920000 -8.840000 0.880000 0.933617 -49.494587 2450.585693
0.920000 -8.840000 0.920000 52.401299 -44.986603 4769.690430
0.920000 -8.840000 0.960000 82.666130 -2.859749 6841.867188
0.920000 -8.840000 1.000000 72.671158 44.099022 7225.820801
0.920000 -8.840000 1.040000 38.539894 64.617638 5660.762695
0.920000 -8.840000 1.080000 11.799339 56.611301 3344.063721
0.920000 -8.840000 1.120000 7.319593 43.549877 1950.168213
0.920000 -8.840000 1.160000 11.973347 46.222412 2279.872559
0.920000 -8.840000 1.200000 3.273227 60.941242 3724.549072
0.920000 -8.800000 0.800000 -39.962341 4.142160 1614.146240
0.920000 -8.800000 0.840000 -27.469843 -23.145615 1290.311768
0.920000 -8.800000 0.880000 1.422581 -31.115307 970.186035
0.920000 -8.800000 0.920000 25.068678 -16.046692 885.934937
0.920000 -8.800000 0.960000 30.015583 7.467861 956.704224
0.920000 -8.800000 1.000000 20.946220 23.056702 970.355652
0.920000 -8.800000 1.040000 11.445400 27.888224 908.750183
0.920000 -8.800000 1.080000 7.508080 31.327379 1037.775879
0.920000 -8.800000 1.120000 2.234234 40.441772 1640.528809
0.920000 -8.800000 1.160000 -13.627841 49.775311 2663.299561
0.920000 -8.800000 1.200000 -38.289268 46.710144 3647.905762
0.960000 -9.200000 0.800000 10.209488 -69.406281 4921.465820
0.960000 -9.200000 0.840000 29.381861 -51.698181 3535.995605
0.960000 -9.200000 0.880000 33.586449 -33.623123 2258.563965
0.960000 -9.200000 0.920000 32.174477 -23.133455 1570.353638
0.960000 -9.200000 0.960000 33.567730 -15.481284 1366.462646
0.960000 -9.200000 1.000000 34.771217 -2.634361 1215.977417
0.960000 -9.200000 1.040000 26.033487 13.515127 860.401123
0.960000 -9.200000 1.080000 5.334629 20.431583 445.907898
0.960000 -9.200000 1.120000 -14.802905 8.803307 296.624207
0.960000 -9.200000 1.160000 -17.701157 -14.450245 522.140503
0.960000 -9.200000 1.200000 -0.029293 -29.794750 887.727966
0.960000 -9.160000 0.800000 51.788223 -45.895729 4788.437988
0.960000 -9.160000 0.840000 58.382893 -16.600651 3684.143799
0.960000 -9.160000 0.880000 48.822968 7.466153 2439.425537
0.960000 -9.160000 0.920000 32.239513 20.313936 1452.042236
0.960000 -9.160000 0.960000 15.950640 24.111616 835.792969
0.960000 -9.160000 1.000000 1.445151 22.458694 506.481415
0.960000 -9.160000 1.040000 -11.433601 15.304722 364.961731
0.960000 -9.160000 1.080000 -19.163525 1.615168 369.849426
0.960000 -9.160000 1.120000 -16.185740 -14.499643 472.217804
0.960000 -9.160000 1.160000 -2.365703 -23.490747 557.411743
0.960000 -9.160000 1.200000 13.148206 -18.350349 509.610657
0.960000 -9.120000 0.800000 63.501152 -2.024940 4036.496582
0.960000 -9.120000 0.840000 54.304668 32.630081 4013.719238
0.960000 -9.120000 0.880000 24.199638 56.175346 3741.291992
0.960000 -9.120000 0.920000 -14.746424 56.443832 3403.363281
0.960000 -9.120000 0.960000 -44.804688 33.190277 3109.054443
0.960000 -9.120000 1.000000 -53.142273 -1.358604 2825.946777
0.960000 -9.120000 1.040000 -39.197063 -30.022026 2437.731934
0.960000 -9.120000 1.080000 -14.007549 -40.895027 1868.614624
0.960000 -9.120000 1.120000 7.442858 -33.417511 1172.126099
0.960000 -9.120000 1.160000 15.281321 -16.946476 520.701782
0.960000 -9.120000 1.200000 9.458741 -3.641848 102.730835
0.960000 -9.080000 0.800000 43.546310 32.352440 2942.961426
0.960000 -9.080000 0.840000 16.085880 66.351929 4661.333984
0.960000 -9.080000 0.880000 -37.064983 74.683655 6951.461426
0.960000 -9.080000 0.920000 -88.117615 40.780807 9427.788086
0.960000 -9.080000 0.960000 -103.401657 -22.565529 11201.105469
0.960000 -9.080000 1.000000 -71.123932 -78.917480 11286.582031
0.960000 -9.080000 1.040000 -12.765583 -95.638519 9309.686523
0.960000 -9.080000 1.080000 33.457924 -69.358292 5930.005371
0.960000 -9.080000 1.120000 42.837814 -26.761480 2551.255127
0.960000 -9.080000 1.160000 21.362175 -0.709143 456.845428
0.960000 -9.080000 1.200000 -3.992218 -4.003654 31.967054
0.960000 -9.040000 0.800000 13.441406 40.564133 1826.120239
0.960000 -9.040000 0.840000 -33.650650 64.751831 5325.166016
0.960000 -9.040000 0.880000 -98.994102 40.641212 11451.540039
0.960000 -9.040000 0.920000 -132.606949 -35.493286 18844.376953
0.960000 -9.040000 0.960000 -99.058601 -120.774857 24399.171875
0.960000 -9.040000 1.000000 -13.026390 -157.738602 25051.154297
0.960000 -9.040000 1.040000 69.108475 -123.555405 20041.919922
0.960000 -9.040000 1.080000 96.215065 -49.848682 11742.230469
0.960000 -9.040000 1.120000 64.361816 6.083765 4179.455566
0.960000 -9.040000 1.160000 15.119625 10.961760 348.763245
0.960000 -9.040000 1.200000 -5.618660 -20.470348 450.604492
0.960000 -9.000000 0.800000 -4.632319 30.743448 966.617981
0.960000 -9.000000 0.840000 -66.237679 32.836765 5465.683594
0.960000 -9.000000 0.880000 -119.395180 -29.769272 15141.418945
0.960000 -9.000000 0.920000 -105.455322 -128.399017 27607.132812
0.960000 -9.000000 0.960000 -14.638937 -192.172592 37144.601562
0.960000 -9.000000 1.000000 97.357864 -169.778351 38303.242188
0.960000 -9.000000 1.040000 154.948456 -77.512772 30017.253906
0.960000 -9.000000 1.080000 128.474152 14.400585 16712.984375
0.960000 -9.000000 1.120000 57.126045 44.669548 5258.753418
0.960000 -9.000000 1.160000 8.416920 12.211962 219.976532
0.960000 -9.000000 1.200000 15.891977 -31.585560 1250.202515
0.960000 -8.960000 0.800000 -7.901417 22.402027 564.283203
0.960000 -8.960000 0.840000 -68.900345 -5.826929 4781.210449
0.960000 -8.960000 0.880000 -85.334091 -92.232330 15788.709961
0.960000 -8.960000 0.920000 -17.923750 -174.308151 30704.593750
0.960000 -8.960000 0.960000 100.076767 -179.607635 42274.261719
0.960000 -8.960000 1.000000 186.380127 -94.501785 43668.140625
0.960000 -8.960000 1.040000 182.557831 20.095436 33731.191406
0.960000 -8.960000 1.080000 105.714111 83.384399 18128.431641
0.960000 -8.960000 1.120000 28.688637 66.470840 5241.410645
0.960000 -8.960000 1.160000 10.199879 11.833705 244.074097
0.960000 -8.960000 1.200000 44.682465 -14.841459 2216.791504
0.960000 -8.920000 0.800000 -10.537352 23.855066 680.099976
0.960000 -8.920000 0.840000 -51.239883 -29.907745 3519.998779
0.960000 -8.920000 0.880000 -23.800077 -110.485703 12773.534180
0.960000 -8.920000 0.920000 71.139160 -144.585831 25965.843750
0.960000 -8.920000 0.960000 167.877701 -90.574791 36386.714844
0.960000 -8.920000 1.000000 193.226212 18.857780 37691.984375
0.960000 -8.920000 1.040000 133.650970 104.854774 28857.105469
0.960000 -8.920000 1.080000 45.509583 114.446236 15169.062500
0.960000 -8.920000 1.120000 -0.778339 65.351837 4271.468750
0.960000 -8.920000 1.160000 14.494991 21.296352 663.639404
0.960000 -8.920000 1.200000 49.851608 26.527098 3188.869629
0.960000 -8.880000 0.800000 -23.433531 24.907120 1169.494995
0.960000 -8.880000 0.840000 -32.048878 -35.693615 2301.164795
0.960000 -8.880000 0.880000 22.760355 -84.656105 7684.689941
0.960000 -8.880000 0.920000 105.533340 -69.393631 15952.761719
0.960000 -8.880000 0.960000 150.487442 8.662529 22721.509766
0.960000 -8.880000 1.000000 122.488525 93.236305 23696.447266
0.960000 -8.880000 1.040000 48.765018 125.495407 18127.125000
0.960000 -8.880000 1.080000 -9.839588 97.153580 9535.635742
0.960000 -8.880000 1.120000 -17.581549 52.174145 3031.252197
0.960000 -8.880000 1.160000 6.835044 38.519615 1530.478516
0.960000 -8.880000 1.200000 16.806601 61.382282 4050.246582
0.960000 -8.840000 0.800000 -39.572975 11.601950 1700.625610
0.960000 -8.840000 0.840000 -21.289522 -33.837563 1598.224365
0.960000 -8.840000 0.880000 32.257240 -45.911598 3148.404297
0.960000 -8.840000 0.920000 77.896149 -8.164482 6134.468750
0.960000 -8.840000 0.960000 78.395325 51.990067 8848.793945
0.960000 -8.840000 1.000000 36.545895 89.766663 9393.656250
0.960000 -8.840000 1.040000 -10.682549 84.953178 7331.159180
0.960000 -8.840000 1.080000 -30.203293 57.005981 4161.920898
0.960000 -8.840000 1.120000 -23.092293 40.198753 2149.193848
0.960000 -8.840000 1.160000 -17.457094 47.102180 2523.365723
0.960000 -8.840000 1.200000 -34.591728 58.494770 4618.225586
0.960000 -8.800000 0.800000 -41.301884 -14.552141 1917.610352
0.960000 -8.800000 0.840000 -15.050366 -33.916649 1376.852661
0.960000 -8.800000 0.880000 16.361593 -25.091618 897.291016
0.960000 -8.800000 0.920000 28.909813 3.231438 846.219482
0.960000 -8.800000 0.960000 17.573952 28.069880 1096.761963
0.960000 -8.800000 1.000000 -2.547333 35.248177 1248.922852
0.960000 -8.800000 1.040000 -14.921051 30.439980 1149.230103
0.960000 -8.800000 1.080000 -18.636789 28.151207 1139.820435
0.960000 -8.800000 1.120000 -25.852772 32.795151 1743.887695
0.960000 -8.800000 1.160000 -44.346977 33.466286 3086.646729
0.960000 -8.800000 1.200000 -65.802895 17.354691 4631.206055
1.000000 -9.200000 0.800000 36.896030 -51.208736 3983.651855
1.000000 -9.200000 0.840000 48.736561 -27.675827 3141.203857
1.000000 -9.200000 0.880000 45.158234 -6.396701 2080.183838
1.000000 -9.200000 0.920000 34.982185 5.517741 1254.198730
1.000000 -9.200000 0.960000 25.938753 11.097977 795.984009
1.000000 -9.200000 1.000000 17.533775 15.620937 551.446960
1.000000 -9.200000 1.040000 5.637758 17.803991 348.766449
1.000000 -9.200000 1.080000 -7.826521 11.376081 190.669647
1.000000 -9.200000 1.120000 -13.198750 -4.585900 195.237473
1.000000 -9.200000 1.160000 -3.154257 -19.744659 399.800903
1.000000 -9.200000 1.200000 16.521824 -20.085100 676.381958
1.000000 -9.160000 0.800000 60.968849 -17.137642 4010.899414
1.000000 -9.160000 0.840000 58.164333 13.633078 3568.950439
1.000000 -9.160000 0.880000 37.774239 35.581345 2692.925293
1.000000 -9.160000 0.920000 10.880768 40.575798 1764.786499
1.000000 -9.160000 0.960000 -10.762165 30.744202 1061.030151
1.000000 -9.160000 1.000000 -21.607361 13.841393 658.462219
1.000000 -9.160000 1.040000 -22.043690 -3.259735 496.550140
1.000000 -9.160000 1.080000 -14.347004 -16.441738 476.167267
1.000000 -9.160000 1.120000 -1.178715 -22.352795 501.036804
1.000000 -9.160000 1.160000 12.464791 -18.142452 484.519592
1.000000 -9.160000 1.200000 18.936886 -5.025856 383.864868
1.000000 -9.120000 0.800000 55.308586 23.288662 3601.401611
1.000000 -9.120000 0.840000 33.816158 55.102859 4179.857910
1.000000 -9.120000 0.880000 -8.165043 65.933174 4413.851562
1.000000 -9.120000 0.920000 -48.937366 45.074310 4426.559082
1.000000 -9.120000 0.960000 -65.430374 2.622864 4288.013184
1.000000 -9.120000 1.000000 -50.315292 -37.408768 3931.044434
1.000000 -9.120000 1.040000 -16.376431 -54.654572 3255.309570
1.000000 -9.120000 1.080000 14.502314 -45.656921 2294.871582
1.000000 -9.120000 1.120000 27.184610 -23.030258 1269.395874
1.000000 -9.120000 1.160000 21.204298 -3.694992 463.275208
1.000000 -9.120000 1.200000 6.829924 2.676826 53.813259
1.000000 -9.080000 0.800000 26.671202 47.016327 2921.887939
1.000000 -9.080000 0.840000 -15.831351 69.654785 5102.420898
1.000000 -9.080000 0.880000 -72.719048 51.517017 7942.063477
1.000000 -9.080000 0.920000 -104.058273 -8.866936 10906.746094
1.000000 -9.080000 0.960000 -82.816216 -77.687859 12893.928711
1.000000 -9.080000 1.000000 -20.000313 -111.269592 12780.934570
1.000000 -9.080000 1.040000 42.969482 -91.778442 10269.658203
1.000000 -9.080000 1.080000 68.187576 -40.557846 6294.484375
1.000000 -9.080000 1.120000 50.342617 2.190847 2539.178955
1.000000 -9.080000 1.160000 15.906376 11.184550 378.106934
1.000000 -9.080000 1.200000 -3.592009 -7.400184 67.665245
1.000000 -9.040000 0.800000 -4.363914 46.137611 2147.722900
1.000000 -9.040000 0.840000 -62.759605 45.955276 6050.655273
1.000000 -9.040000 0.880000 -111.886032 -11.549690 12651.879883
1.000000 -9.040000 0.920000 -101.557297 -100.262505 20366.453125
1.000000 -9.040000 0.960000 -24.033854 -159.040833 25871.613281
1.000000 -9.040000 1.000000 73.158730 -143.946335 26072.746094
1.000000 -9.040000 1.040000 125.768257 -67.888107 20426.449219
1.000000 -9.040000 1.080000 107.322861 10.805740 11634.959961
1.000000 -9.040000 1.120000 48.387718 39.852066 3929.558594
1.000000 -9.040000 1.160000 4.438591 15.257251 252.484802
1.000000 -9.040000 1.200000 5.773048 -23.340654 578.114197
1.000000 -9.000000 0.800000 -21.786041 31.155802 1445.315552
1.000000 -9.000000 0.840000 -80.098778 -1.089525 6417.000977
1.000000 -9.000000 0.880000 -93.767189 -87.306198 16414.658203
1.000000 -9.000000 0.920000 -26.893272 -167.599670 28812.898438
1.000000 -9.000000 0.960000 88.084770 -173.500824 37861.460938
1.000000 -9.000000 1.000000 172.699493 -92.227608 38331.046875
1.000000 -9.000000 1.040000 170.775848 18.476114 29505.757812
1.000000 -9.000000 1.080000 97.278244 81.150925 16048.529297
1.000000 -9.000000 1.120000 20.925047 66.121384 4809.895020
1.000000 -9.000000 1.160000 -0.523474 11.352249 129.147583
1.000000 -9.000000 1.200000 31.577459 -20.618927 1422.276123
1.000000 -8.960000 0.800000 -25.789772 17.747364 980.081299
1.000000 -8.960000 0.840000 -63.042862 -42.082085 5745.304199
1.000000 -8.960000 0.880000 -28.580322 -126.813995 16898.623047
1.000000 -8.960000 0.920000 75.650589 -160.216476 31392.330078
1.000000 -8.960000 0.960000 179.811523 -99.211723 42175.148438
1.000000 -8.960000 1.000000 205.943726 20.917400 42850.355469
1.000000 -8.960000 1.040000 139.141632 115.171112 32624.779297
1.000000 -8.960000 1.080000 39.889378 124.986023 17212.667969
1.000000 -8.960000 1.120000 -14.006536 67.566437 4761.406250
1.000000 -8.960000 1.160000 2.481394 12.093737 152.415787
1.000000 -8.960000 1.200000 47.139244 10.416748 2330.616943
1.000000 -8.920000 0.800000 -27.390354 11.226575 876.267456
1.000000 -8.920000 0.840000 -30.530737 -57.058998 4187.854980
1.000000 -8.920000 0.880000 38.370918 -109.362228 13432.423828
1.000000 -8.920000 0.920000 137.598068 -84.628616 26095.230469
1.000000 -8.920000 0.960000 188.606308 14.980511 35796.753906
1.000000 -8.920000 1.000000 148.534668 120.685783 36627.605469
1.000000 -8.920000 1.040000 50.759991 158.773544 27785.615234
1.000000 -8.920000 1.080000 -27.454590 116.953079 14431.777344
1.000000 -8.920000 1.120000 -37.316040 50.200493 3912.576416
1.000000 -8.920000 1.160000 1.189390 23.096624 534.868713
1.000000 -8.920000 1.200000 27.928097 48.915859 3172.739746
1.000000 -8.880000 0.800000 -33.259850 4.346380 1125.108643
1.000000 -8.880000 0.840000 -6.475237 -49.364685 2478.800781
1.000000 -8.880000 0.880000 65.730988 -58.553429 7749.066406
1.000000 -8.880000 0.920000 125.067818 0.622353 15642.346680
1.000000 -8.880000 0.960000 117.901108 90.291336 22053.195312
1.000000 -8.880000 1.000000 46.762096 144.031784 22931.847656
1.000000 -8.880000 1.040000 -32.382332 128.406738 17536.906250
1.000000 -8.880000 1.080000 -64.149536 71.261444 9193.356445
1.000000 -8.880000 1.120000 -43.996044 29.850323 2826.693604
1.000000 -8.880000 1.160000 -15.362062 33.526062 1359.989746
1.000000 -8.880000 1.200000 -20.500076 59.564808 3968.219482
1.000000 -8.840000 0.800000 -37.642265 -10.659447 1530.563965
1.000000 -8.840000 0.840000 0.638264 -37.274094 1389.765381
1.000000 -8.840000 0.880000 49.734188 -18.001465 2797.542236
1.000000 -8.840000 0.920000 65.186935 37.450218 5651.855469
1.000000 -8.840000 0.960000 31.343372 85.989075 8376.528320
1.000000 -8.840000 1.000000 -24.416618 92.133347 9084.724609
1.000000 -8.840000 1.040000 -59.899292 60.168034 7208.117676
1.000000 -8.840000 1.080000 -58.773727 25.471519 4103.149414
1.000000 -8.840000 1.120000 -42.086292 16.219690 2034.334351
1.000000 -8.840000 1.160000 -41.164139 26.388502 2390.839355
1.000000 -8.840000 1.200000 -62.841461 26.808186 4667.728027
1.000000 -8.800000 0.800000 -29.801258 -29.996851 1787.926025
1.000000 -8.800000 0.840000 0.414320 -33.741783 1138.679565
1.000000 -8.800000 0.880000 20.949451 -11.609493 573.659851
1.000000 -8.800000 0.920000 15.954636 16.785933 536.317932
1.000000 -8.800000 0.960000 -6.647758 29.421858 909.838379
1.000000 -8.800000 1.000000 -26.328476 22.633347 1205.457031
1.000000 -8.800000 1.040000 -32.279625 10.701836 1156.503540
1.000000 -8.800000 1.080000 -32.300262 6.759453 1088.997192
1.000000 -8.800000 1.120000 -39.937859 7.474615 1650.902466
1.000000 -8.800000 1.160000 -55.877071 -1.668894 3125.032227
1.000000 -8.800000 1.200000 -65.172287 -27.516148 5004.564941
1.040000 -9.200000 0.800000 47.695183 -21.591732 2741.033447
1.040000 -9.200000 0.840000 50.059052 4.041021 2522.238525
1.040000 -9.200000 0.880000 36.537735 23.337257 1879.633667
1.040000 -9.200000 0.920000 17.636925 28.954811 1149.442261
1.040000 -9.200000 0.960000 3.344260 24.226189 598.092285
1.040000 -9.200000 1.000000 -4.171229 16.454224 288.140625
1.040000 -9.200000 1.040000 -7.904377 8.762344 139.257858
1.040000 -9.200000 1.080000 -8.677738 -0.042579 75.304955
1.040000 -9.200000 1.120000 -3.420451 -8.980827 92.354744
1.040000 -9.200000 1.160000 8.552366 -11.708900 210.241302
1.040000 -9.200000 1.200000 19.911531 -2.485600 402.647308
1.040000 -9.160000 0.800000 53.408707 10.787959 2968.870117
1.040000 -9.160000 0.840000 40.727829 39.000992 3179.833496
1.040000 -9.160000 0.880000 11.249638 51.870068 2817.058350
1.040000 -9.160000 0.920000 -18.485420 42.256863 2127.353271
1.040000 -9.160000 0.960000 -33.303360 17.905582 1429.723633
1.040000 -9.160000 1.000000 -29.651920 -6.392591 920.101624
1.040000 -9.160000 1.040000 -14.771946 -20.146370 624.086609
1.040000 -9.160000 1.080000 1.568634 -21.694002 473.090332
1.040000 -9.160000 1.120000 13.283194 -14.653399 391.165344
1.040000 -9.160000 1.160000 17.848797 -3.215027 328.915955
1.040000 -9.160000 1.200000 13.975668 8.410823 266.061218
1.040000 -9.120000 0.800000 36.138489 39.794563 2889.597656
1.040000 -9.120000 0.840000 4.662176 62.185719 3888.799316
1.040000 -9.120000 0.880000 -39.103031 54.363861 4484.476562
1.040000 -9.120000 0.920000 -66.493179 15.502674 4661.675781
1.040000 -9.120000 0.960000 -58.974777 -31.477852 4468.879395
1.040000 -9.120000 1.000000 -23.112858 -58.223427 3924.171875
1.040000 -9.120000 1.040000 16.162354 -52.906998 3060.372070
1.040000 -9.120000 1.080000 36.252800 -26.522547 2017.710938
1.040000 -9.120000 1.120000 32.275276 -0.475779 1041.919800
1.040000 -9.120000 1.160000 15.602544 10.797224 360.019409
1.040000 -9.120000 1.200000 0.905204 7.026158 50.186295
1.040000 -9.080000 0.800000 5.283879 50.341377 2562.173584
1.040000 -9.080000 0.840000 -42.295742 53.745426 4677.500488
1.040000 -9.080000 0.880000 -84.071167 12.762935 7230.853516
1.040000 -9.080000 0.920000 -82.591187 -53.380539 9670.786133
1.040000 -9.080000 0.960000 -31.469772 -100.500664 11090.730469
1.040000 -9.080000 1.000000 36.657780 -96.650620 10685.134766
1.040000 -9.080000 1.040000 77.310852 -48.954643 8373.525391
1.040000 -9.080000 1.080000 70.749893 4.524948 5026.022461
1.040000 -9.080000 1.120000 34.521011 28.490900 2003.431641
1.040000 -9.080000 1.160000 3.257066 17.387539 312.934998
1.040000 -9.080000 1.200000 -2.107666 -6.917834 52.298687
1.040000 -9.040000 0.800000 -22.123564 39.842022 2076.838867
1.040000 -9.040000 0.840000 -71.883087 13.706989 5355.059570
1.040000 -9.040000 0.880000 -86.094269 -56.273499 10578.929688
1.040000 -9.040000 0.920000 -36.272667 -122.956741 16434.066406
1.040000 -9.040000 0.960000 52.961895 -132.624939 20394.337891
1.040000 -9.040000 1.000000 121.336113 -74.136185 20218.625000
1.040000 -9.040000 1.040000 124.727028 9.797691 15652.826172
1.040000 -9.040000 1.080000 72.093605 60.400669 8845.728516
1.040000 -9.040000 1.120000 13.407965 52.995632 2988.310547
1.040000 -9.040000 1.160000 -7.191513 12.644306 211.596344
1.040000 -9.040000 1.200000 13.016680 -15.615121 413.265930
1.040000 -9.000000 0.800000 -34.313683 18.967501 1537.194946
1.040000 -9.000000 0.840000 -65.743279 -34.404510 5505.849121
1.040000 -9.000000 0.880000 -35.753590 -108.447197 13039.114258
1.040000 -9.000000 0.920000 53.823326 -138.710205 22137.472656
1.040000 -9.000000 0.960000 144.090271 -88.533432 28600.173828
1.040000 -9.000000 1.000000 168.854584 13.018574 28681.353516
1.040000 -9.000000 1.040000 114.149353 94.495316 21959.439453
1.040000 -9.000000 1.080000 29.485020 105.115295 11918.591797
1.040000 -9.000000 1.120000 -19.215891 56.682289 3582.132324
1.040000 -9.000000 1.160000 -7.853609 5.863281 96.057243
1.040000 -9.000000 1.200000 31.741819 -1.869822 1011.039307
1.040000 -8.960000 0.800000 -32.566063 1.485782 1062.755981
1.040000 -8.960000 0.840000 -31.544027 -61.606346 4790.367188
1.040000 -8.960000 0.880000 35.041763 -108.401627 12978.837891
1.040000 -8.960000 0.920000 128.477066 -83.196259 23427.974609
1.040000 -8.960000 0.960000 175.995224 11.752336 31112.435547
1.040000 -8.960000 1.000000 137.354095 112.292114 31475.667969
1.040000 -8.960000 1.040000 43.189789 148.641815 23959.746094
1.040000 -8.960000 1.080000 -33.498356 107.503662 12679.176758
1.040000 -8.960000 1.120000 -44.272587 39.581299 3526.741211
1.040000 -8.960000 1.160000 -4.808363 7.603312 80.930695
1.040000 -8.960000 1.200000 28.729853 28.634548 1645.341797
1.040000 -8.920000 0.800000 -26.925499 -7.376750 779.398926
1.040000 -8.920000 0.840000 3.939047 -57.509876 3322.902100
1.040000 -8.920000 0.880000 78.656090 -61.544067 9974.452148
1.040000 -8.920000 0.920000 137.814804 4.310146 19011.498047
1.040000 -8.920000 0.960000 126.006187 100.445175 25966.792969
1.040000 -8.920000 1.000000 45.892315 156.581711 26623.937500
1.040000 -8.920000 1.040000 -42.556900 136.046158 20319.646484
1.040000 -8.920000 1.080000 -77.822815 67.850555 10660.087891
1.040000 -8.920000 1.120000 -51.868340 15.451496 2929.073486
1.040000 -8.920000 1.160000 -10.875362 15.399136 355.406891
1.040000 -8.920000 1.200000 -4.645826 47.543964 2282.012207
1.040000 -8.880000 0.800000 -24.474876 -13.015847 768.431885
1.040000 -8.880000 0.840000 19.042671 -37.043877 1734.872070
1.040000 -8.880000 0.880000 73.071526 -8.689754 5414.959473
1.040000 -8.880000 0.920000 85.317429 61.105877 11012.992188
1.040000 -8.880000 0.960000 36.309471 119.925079 15700.402344
1.040000 -8.880000 1.000000 -39.900505 122.280846 16544.656250
1.040000 -8.880000 1.040000 -87.529510 72.068375 12855.265625
1.040000 -8.880000 1.080000 -81.340118 16.262079 6880.669922
1.040000 -8.880000 1.120000 -46.641712 -2.532228 2181.861328
1.040000 -8.880000 1.160000 -28.825867 14.582977 1043.593872
1.040000 -8.880000 1.200000 -46.293636 30.155251 3052.439941
1.040000 -8.840000 0.800000 -22.323343 -22.394939 999.864990
1.040000 -8.840000 0.840000 14.961924 -23.398113 771.330811
1.040000 -8.840000 0.880000 38.617233 11.971691 1634.612061
1.040000 -8.840000 0.920000 22.276134 56.147667 3648.786621
1.040000 -8.840000 0.960000 -24.285095 71.819626 5747.824219
1.040000 -8.840000 1.000000 -64.875824 47.871548 6500.557617
1.040000 -8.840000 1.040000 -72.607018 8.232849 5339.558594
1.040000 -8.840000 1.080000 -54.233829 -14.540146 3152.724121
1.040000 -8.840000 1.120000 -38.793919 -12.076017 1650.798340
1.040000 -8.840000 1.160000 -44.610493 -5.165658 2016.780151
1.040000 -8.840000 1.200000 -60.576420 -17.750713 3984.590576
1.040000 -8.800000 0.800000 -12.534787 -34.014359 1314.097412
1.040000 -8.800000 0.840000 9.879673 -25.089588 727.095337
1.040000 -8.800000 0.880000 14.387058 -2.278999 212.181274
1.040000 -8.800000 0.920000 -1.256813 13.281837 177.986786
1.040000 -8.800000 0.960000 -21.076126 10.115299 546.522339
1.040000 -8.800000 1.000000 -29.313553 -3.999763 875.282471
1.040000 -8.800000 1.040000 -26.390490 -13.816128 887.343323
1.040000 -8.800000 1.080000 -25.058142 -15.133621 856.936951
1.040000 -8.800000 1.120000 -32.545219 -18.696766 1408.760376
1.040000 -8.800000 1.160000 -40.033173 -35.543945 2866.026855
1.040000 -8.800000 1.200000 -31.825478 -61.368835 4778.995117
1.080000 -9.200000 0.800000 38.006683 5.990368 1480.392456
1.080000 -9.200000 0.840000 31.265461 28.345261 1780.982910
1.080000 -9.200000 0.880000 10.928589 39.390495 1671.045166
1.080000 -9.200000 0.920000 -9.619822 33.886765 1240.853882
1.080000 -9.200000 0.960000 -19.395264 18.723335 726.739502
1.080000 -9.200000 1.000000 -17.574013 4.789001 331.780457
1.080000 -9.200000 1.040000 -10.530794 -2.514030 117.217972
1.080000 -9.200000 1.080000 -3.544096 -4.585580 33.588158
1.080000 -9.200000 1.120000 2.751835 -3.754345 21.667702
1.080000 -9.200000 1.160000 8.420667 0.840483 71.614044
1.080000 -9.200000 1.200000 9.823348 10.142082 199.360001
1.080000 -9.160000 0.800000 32.374134 27.553707 1807.291382
1.080000 -9.160000 0.840000 12.252328 48.252602 2478.433105
1.080000 -9.160000 0.880000 -18.826212 47.865639 2645.545654
1.080000 -9.160000 0.920000 -40.552555 25.389458 2289.134277
1.080000 -9.160000 0.960000 -40.357304 -4.041534 1645.045898
1.080000 -9.160000 1.000000 -22.248629 -22.677862 1009.286926
1.080000 -9.160000 1.040000 -0.655495 -23.686016 561.457031
1.080000 -9.160000 1.080000 12.561708 -12.798120 321.588409
1.080000 -9.160000 1.120000 14.920887 0.270916 222.706268
1.080000 -9.160000 1.160000 10.050528 9.771368 196.492737
1.080000 -9.160000 1.200000 1.510038 14.250851 205.366959
1.080000 -9.120000 0.800000 12.738420 42.526608 1970.779663
1.080000 -9.120000 0.840000 -21.574081 51.403496 3107.760254
1.080000 -9.120000 0.880000 -55.097763 28.436275 3844.385254
1.080000 -9.120000 0.920000 -61.411671 -14.547989 3983.037354
1.080000 -9.120000 0.960000 -34.648327 -48.804581 3582.393799
1.080000 -9.120000 1.000000 5.960482 -53.049236 2849.748779
1.080000 -9.120000 1.040000 33.537277 -29.793118 2012.378906
1.080000 -9.120000 1.080000 35.289005 0.201227 1245.354370
1.080000 -9.120000 1.120000 18.898657 17.288105 656.037842
1.080000 -9.120000 1.160000 1.111003 16.803642 283.596710
1.080000 -9.120000 1.200000 -7.369801 6.968483 102.873718
1.080000 -9.080000 0.800000 -12.987668 41.771149 1913.508423
1.080000 -9.080000 0.840000 -52.508202 27.964924 3539.148438
1.080000 -9.080000 0.880000 -69.617691 -19.267059 5217.842773
1.080000 -9.080000 0.920000 -42.755745 -68.397263 6506.239258
1.080000 -9.080000 0.960000 13.780756 -82.328224 6967.845703
1.080000 -9.080000 1.000000 61.157539 -51.200211 6361.706055
1.080000 -9.080000 1.040000 69.502007 -0.114948 4830.541992
1.080000 -9.080000 1.080000 41.560013 34.323257 2905.320801
1.080000 -9.080000 1.120000 5.871463 34.862007 1249.833618
1.080000 -9.080000 1.160000 -10.825994 13.406202 296.928406
1.080000 -9.080000 1.200000 -4.206859 -5.568243 48.702991
1.080000 -9.040000 0.800000 -31.698088 25.208618 1640.243164
1.080000 -9.040000 0.840000 -59.152039 -12.624529 3658.342285
1.080000 -9.040000 0.880000 -42.966721 -68.257271 6505.194336
1.080000 -9.040000 0.920000 17.571072 -95.669868 9461.465820
1.080000 -9.040000 0.960000 82.436615 -67.154015 11305.457031
1.080000 -9.040000 1.000000 104.924164 -0.335186 11009.192383
1.080000 -9.040000 1.040000 72.762955 56.792934 8519.884766
1.080000 -9.040000 1.080000 16.936832 68.146019 4930.736328
1.080000 -9.040000 1.120000 -18.545771 38.398933 1818.423584
1.080000 -9.040000 1.160000 -15.070408 2.946586 235.799561
1.080000 -9.040000 1.200000 10.027310 -7.513448 156.998840
1.080000 -9.000000 0.800000 -34.864437 3.172264 1225.592163
1.080000 -9.000000 0.840000 -35.856186 -45.587143 3363.853516
1.080000 -9.000000 0.880000 12.864116 -83.564117 7148.447266
1.080000 -9.000000 0.920000 83.494148 -68.460869 11658.164062
1.080000 -9.000000 0.960000 122.009560 -0.332102 14886.443359
1.080000 -9.000000 1.000000 97.081490 74.498505 14974.842773
1.080000 -9.000000 1.040000 29.163521 103.856049 11636.589844
1.080000 -9.000000 1.080000 -28.780811 75.471390 6524.265625
1.080000 -9.000000 1.120000 -39.337044 24.252014 2135.563232
1.080000 -9.000000 1.160000 -10.612646 -3.604975 125.624100
1.080000 -9.000000 1.200000 18.303860 7.660789 393.718964
1.080000 -8.960000 0.800000 -25.533400 -11.798196 791.151855
1.080000 -8.960000 0.840000 0.075198 -51.284740 2630.130127
1.080000 -8.960000 0.880000 60.301857 -54.192184 6573.106934
1.080000 -8.960000 0.920000 108.192917 -1.321056 11707.452148
1.080000 -8.960000 0.960000 99.244469 76.217239 15658.532227
1.080000 -8.960000 1.000000 34.698410 122.044662 16098.878906
1.080000 -8.960000 1.040000 -37.780033 105.470444 12551.345703
1.080000 -8.960000 1.080000 -67.538300 48.335068 6897.700684
1.080000 -8.960000 1.120000 -45.558632 1.962852 2079.441650
1.080000 -8.960000 1.160000 -7.435349 -1.354756 57.119774
1.080000 -8.960000 1.200000 5.065499 25.749216 688.681458
1.080000 -8.920000 0.800000 -14.748170 -15.767331 466.117249
1.080000 -8.920000 0.840000 23.125214 -32.827259 1612.404419
1.080000 -8.920000 0.880000 68.488785 -5.130062 4717.031250
1.080000 -8.920000 0.920000 76.347534 57.537384 9139.496094
1.080000 -8.920000 0.960000 29.880903 109.059769 12786.901367
1.080000 -8.920000 1.000000 -40.489216 108.768410 13469.944336
1.080000 -8.920000 1.040000 -83.997925 59.639786 10612.555664
1.080000 -8.920000 1.080000 -76.131088 4.448172 5815.728516
1.080000 -8.920000 1.120000 -38.572369 -15.742615 1735.657593
1.080000 -8.920000 1.160000 -14.093916 1.493988 200.870468
1.080000 -8.920000 1.200000 -23.915623 23.243780 1112.230347
1.080000 -8.880000 0.800000 -10.047814 -15.644217 345.700134
1.080000 -8.880000 0.840000 22.848190 -12.116468 668.848633
1.080000 -8.880000 0.880000 40.988728 25.008923 2305.521973
1.080000 -8.880000 0.920000 18.887955 68.459114 5043.405273
1.080000 -8.880000 0.960000 -33.092926 80.436539 7565.178223
1.080000 -8.880000 1.000000 -76.724953 49.269402 8314.192383
1.080000 -8.880000 1.040000 -82.057388 0.629978 6733.812012
1.080000 -8.880000 1.080000 -54.822048 -28.193317 3800.320312
1.080000 -8.880000 1.120000 -27.644867 -24.092253 1344.675293
1.080000 -8.880000 1.160000 -25.584446 -7.515259 711.043030
1.080000 -8.880000 1.200000 -42.394768 -7.713489 1856.814209
1.080000 -8.840000 0.800000 -8.033536 -19.928909 461.699127
1.080000 -8.840000 0.840000 11.964851 -7.510485 199.565048
1.080000 -8.840000 0.880000 10.503870 19.495796 490.417358
1.080000 -8.840000 0.920000 -15.922539 35.093414 1485.074951
1.080000 -8.840000 0.960000 -46.408417 22.986301 2682.111328
1.080000 -8.840000 1.000000 -56.724220 -7.245438 3270.133545
1.080000 -8.840000 1.040000 -43.254284 -31.035046 2834.107178
1.080000 -8.840000 1.080000 -24.430223 -34.550724 1790.588379
1.080000 -8.840000 1.120000 -19.144100 -27.381979 1116.269287
1.080000 -8.840000 1.160000 -26.312086 -29.362190 1554.464111
1.080000 -8.840000 1.200000 -27.568989 -47.089775 2977.496094
1.080000 -8.800000 0.800000 0.557306 -27.695667 767.360596
1.080000 -8.800000 0.840000 10.797112 -16.154123 377.533295
1.080000 -8.800000 0.880000 5.856255 -3.502550 46.563576
1.080000 -8.800000 0.920000 -6.643890 -2.602345 50.913479
1.080000 -8.800000 0.960000 -13.061643 -12.385002 323.994781
1.080000 -8.800000 1.000000 -9.385522 -21.267712 540.403564
1.080000 -8.800000 1.040000 -4.224354 -22.342379 517.027039
1.080000 -8.800000 1.080000 -6.255833 -21.817162 515.123962
1.080000 -8.800000 1.120000 -11.546444 -30.582520 1068.610840
1.080000 -8.800000 1.160000 -6.558455 -48.850384 2429.373535
1.080000 -8.800000 1.200000 15.946441 -62.487823 4159.017090
1.120000 -9.200000 0.800000 15.066367 17.521593 534.001648
1.120000 -9.200000 0.840000 3.672902 32.303162 1056.984497
1.120000 -9.200000 0.880000 -15.918075 33.368134 1366.817505
1.120000 -9.200000 0.920000 -29.856937 19.895353 1287.261719
1.120000 -9.200000 0.960000 -29.960178 2.087723 901.970886
1.120000 -9.200000 1.000000 -19.429495 -8.726820 453.662659
1.120000 -9.200000 1.040000 -7.685833 -9.195103 143.621948
1.120000 -9.200000 1.080000 -1.134623 -3.864828 16.224264
1.120000 -9.200000 1.120000 0.355146 1.822057 3.446020
1.120000 -9.200000 1.160000 -0.717507 6.430868 41.870876
1.120000 -9.200000 1.200000 -4.241793 10.457854 127.359520
1.120000 -9.160000 0.800000 8.344486 26.550926 774.582092
1.120000 -9.160000 0.840000 -13.039307 37.269096 1559.009155
1.120000 -9.160000 0.880000 -36.935143 26.727982 2078.589844
1.120000 -9.160000 0.920000 -45.209030 1.154544 2045.189453
1.120000 -9.160000 0.960000 -32.639099 -21.523703 1528.580566
1.120000 -9.160000 1.000000 -10.004798 -27.524681 857.704102
1.120000 -9.160000 1.040000 7.013432 -17.374044 351.045654
1.120000 -9.160000 1.080000 10.862906 -2.066534 122.273277
1.120000 -9.160000 1.120000 4.968789 8.371618 94.772850
1.120000 -9.160000 1.160000 -3.445674 11.546773 145.200638
1.120000 -9.160000 1.200000 -10.525683 9.903297 208.865311
1.120000 -9.120000 0.800000 -5.387211 31.400425 1015.008728
1.120000 -9.120000 0.840000 -33.895420 29.032059 1991.760010
1.120000 -9.120000 0.880000 -51.731667 2.197760 2680.995361
1.120000 -9.120000 0.920000 -42.437225 -30.676022 2741.936523
1.120000 -9.120000 0.960000 -11.864296 -45.595554 2219.716064
1.120000 -9.120000 1.000000 17.739874 -33.827103 1458.975952
1.120000 -9.120000 1.040000 27.661236 -7.533089 821.891418
1.120000 -9.120000 1.080000 16.974003 13.284610 464.597595
1.120000 -9.120000 1.120000 -0.838453 17.990013 324.343567
1.120000 -9.120000 1.160000 -12.380309 10.540840 264.381348
1.120000 -9.120000 1.200000 -14.299241 0.991441 205.451248
1.120000 -9.080000 0.800000 -21.528725 25.880280 1133.274902
1.120000 -9.080000 0.840000 -45.891838 5.739530 2139.002930
1.120000 -9.080000 0.880000 -44.462082 -30.883024 2930.637939
1.120000 -9.080000 0.920000 -12.805656 -55.158161 3206.407715
1.120000 -9.080000 0.960000 27.134119 -46.928780 2938.570801
1.120000 -9.080000 1.000000 46.534096 -12.798648 2329.227539
1.120000 -9.080000 1.040000 34.740822 20.871887 1642.560303
1.120000 -9.080000 1.080000 6.174423 31.925524 1057.362549
1.120000 -9.080000 1.120000 -15.450134 19.694031 626.561523
1.120000 -9.080000 1.160000 -18.145142 0.859257 329.984467
1.120000 -9.080000 1.200000 -8.078247 -8.593722 139.110138
1.120000 -9.040000 0.800000 -30.589668 10.299856 1041.814819
1.120000 -9.040000 0.840000 -38.166542 -21.104359 1902.078857
1.120000 -9.040000 0.880000 -13.414145 -50.657654 2746.137207
1.120000 -9.040000 0.920000 29.626402 -50.013496 3379.073486
1.120000 -9.040000 0.960000 58.270630 -15.203356 3626.608398
1.120000 -9.040000 1.000000 50.675652 28.592888 3385.574951
1.120000 -9.040000 1.040000 15.102419 49.680248 2696.209961
1.120000 -9.040000 1.080000 -19.080986 37.468174 1767.947998
1.120000 -9.040000 1.120000 -28.567219 8.941855 896.042786
1.120000 -9.040000 1.160000 -14.554765 -10.017908 312.199646
1.120000 -9.040000 1.200000 3.274746 -8.143691 77.043663
1.120000 -9.000000 0.800000 -26.901499 -6.388245 764.500305
1.120000 -9.000000 0.840000 -14.319274 -34.193073 1374.207886
1.120000 -9.000000 0.880000 22.435879 -41.547913 2229.597656
1.120000 -9.000000 0.920000 55.286942 -13.914675 3250.264160
1.120000 -9.000000 0.960000 55.265938 32.086784 4083.885742
1.120000 -9.000000 1.000000 20.097494 62.197556 4272.445312
1.120000 -9.000000 1.040000 -23.172012 55.371094 3602.900146
1.120000 -9.000000 1.080000 -42.990734 21.882488 2327.046631
1.120000 -9.000000 1.120000 -30.930523 -8.208410 1024.075317
1.120000 -9.000000 1.160000 -5.940177 -13.425299 215.524353
1.120000 -9.000000 1.200000 6.587463 1.995167 47.375362
1.120000 -8.960000 0.800000 -15.086773 -14.257919 430.898987
1.120000 -8.960000 0.840000 8.407091 -26.508862 773.398926
1.120000 -8.960000 0.880000 37.979572 -10.851028 1560.192749
1.120000 -8.960000 0.920000 44.944645 27.826298 2794.323975
1.120000 -8.960000 0.960000 17.385473 60.859123 4006.087402
1.120000 -8.960000 1.000000 -26.599123 61.591595 4501.038086
1.120000 -8.960000 1.040000 -54.575542 30.299923 3896.575195
1.120000 -8.960000 1.080000 -49.207642 -6.530905 2464.044922
1.120000 -8.960000 1.120000 -22.527184 -21.381592 964.646484
1.120000 -8.960000 1.160000 -2.039285 -10.045246 105.065651
1.120000 -8.960000 1.200000 -4.002309 8.019918 80.337570
1.120000 -8.920000 0.800000 -5.732427 -12.406039 186.770523
1.120000 -8.920000 0.840000 14.829615 -8.926108 299.592865
1.120000 -8.920000 0.880000 25.300133 15.933204 893.963745
1.120000 -8.920000 0.920000 9.073136 44.069206 2024.416748
1.120000 -8.920000 0.960000 -26.636860 50.256420 3235.229980
1.120000 -8.920000 1.000000 -55.706692 26.704681 3816.375488
1.120000 -8.920000 1.040000 -57.234955 -8.815023 3353.544678
1.120000 -8.920000 1.080000 -34.705383 -29.795263 2092.221191
1.120000 -8.920000 1.120000 -11.120943 -25.655720 781.891296
1.120000 -8.920000 1.160000 -5.883363 -9.616239 127.086014
1.120000 -8.920000 1.200000 -17.267618 -3.162307 308.170807
1.120000 -8.880000 0.800000 -3.864118 -9.458372 104.392204
1.120000 -8.880000 0.840000 6.738524 0.506511 45.664257
1.120000 -8.880000 0.880000 1.606012 18.740807 353.797119
1.120000 -8.880000 0.920000 -20.518940 26.380684 1116.967407
1.120000 -8.880000 0.960000 -43.086349 12.344137 2008.811157
1.120000 -8.880000 1.000000 -47.600693 -14.680008 2481.328613
1.120000 -8.880000 1.040000 -31.888678 -34.514576 2208.143799
1.120000 -8.880000 1.080000 -11.544109 -35.410950 1387.201782
1.120000 -8.880000 1.120000 -3.386427 -24.658516 619.510315
1.120000 -8.880000 1.160000 -8.725067 -19.253937 446.840881
1.120000 -8.880000 1.200000 -13.786268 -27.377249 939.574951
1.120000 -8.840000 0.800000 -3.289962 -12.845966 175.842697
1.120000 -8.840000 0.840000 0.396603 -4.613699 21.443512
1.120000 -8.840000 0.880000 -7.862997 2.065511 66.093056
1.120000 -8.840000 0.920000 -20.192225 -3.449886 419.627625
1.120000 -8.840000 0.960000 -23.404388 -18.822371 902.046997
1.120000 -8.840000 1.000000 -13.660725 -31.287138 1165.500366
1.120000 -8.840000 1.040000 -0.442009 -31.971262 1022.356995
1.120000 -8.840000 1.080000 4.635986 -25.570230 675.329041
1.120000 -8.840000 1.120000 1.339621 -24.330902 593.787354
1.120000 -8.840000 1.160000 1.109944 -33.202721 1103.652588
1.120000 -8.840000 1.200000 13.609034 -43.179695 2049.691895
1.120000 -8.800000 0.800000 5.605473 -18.663074 379.731689
1.120000 -8.800000 0.840000 8.244013 -12.398658 221.690460
1.120000 -8.800000 0.880000 4.904914 -10.701799 138.586685
1.120000 -8.800000 0.920000 4.085188 -15.160332 246.524429
1.120000 -8.800000 0.960000 9.590579 -18.573465 436.952820
1.120000 -8.800000 1.000000 15.478855 -15.314005 474.113708
1.120000 -8.800000 1.040000 14.111092 -9.921495 297.558990
1.120000 -8.800000 1.080000 7.650309 -12.441799 213.325592
1.120000 -8.800000 1.120000 8.106771 -25.092731 695.364929
1.120000 -8.800000 1.160000 24.136673 -36.327736 1902.283325
1.120000 -8.800000 1.200000 49.062099 -30.990379 3367.493164
1.160000 -9.200000 0.800000 -4.912136 8.949443 104.221603
1.160000 -9.200000 0.840000 -14.386625 16.546213 480.752136
1.160000 -9.200000 0.880000 -27.144306 12.756521 899.542175
1.160000 -9.200000 0.920000 -32.601082 -0.286039 1062.912354
1.160000 -9.200000 0.960000 -26.694668 -13.020444 882.137268
1.160000 -9.200000 1.000000 -14.583149 -17.258806 510.534607
1.160000 -9.200000 1.040000 -4.907501 -12.600332 182.851944
1.160000 -9.200000 1.080000 -2.143226 -4.836873 27.988760
1.160000 -9.200000 1.120000 -4.596719 0.541796 21.423370
1.160000 -9.200000 1.160000 -8.471542 2.287857 77.001320
1.160000 -9.200000 1.200000 -12.020444 1.647630 147.205765
1.160000 -9.160000 0.800000 -5.270807 10.678797 141.818100
1.160000 -9.160000 0.840000 -21.307037 14.573324 666.371582
1.160000 -9.160000 0.880000 -34.845589 2.786644 1221.980469
1.160000 -9.160000 0.920000 -34.061291 -16.044069 1417.583740
1.160000 -9.160000 0.960000 -19.454826 -27.698650 1145.705444
1.160000 -9.160000 1.000000 -2.323997 -24.965826 628.693420
1.160000 -9.160000 1.040000 6.109215 -12.487071 193.249451
1.160000 -9.160000 1.080000 3.512768 -0.498066 12.587610
1.160000 -9.160000 1.120000 -4.450330 4.627153 41.215984
1.160000 -9.160000 1.160000 -11.476826 3.526928 144.156754
1.160000 -9.160000 1.200000 -15.481270 -0.345497 239.789078
1.160000 -9.120000 0.800000 -10.128578 13.315475 279.889984
1.160000 -9.120000 0.840000 -28.593548 7.766662 877.912048
1.160000 -9.120000 0.880000 -35.547955 -12.075460 1409.473877
1.160000 -9.120000 0.920000 -23.911257 -30.632853 1510.119873
1.160000 -9.120000 0.960000 -2.542264 -33.610184 1136.107544
1.160000 -9.120000 1.000000 12.505776 -20.326656 569.567383
1.160000 -9.120000 1.040000 12.308631 -2.620785 158.370911
1.160000 -9.120000 1.080000 0.968596 6.994349 49.859104
1.160000 -9.120000 1.120000 -10.826988 5.337406 145.711578
1.160000 -9.120000 1.160000 -16.170115 -2.013159 265.525391
1.160000 -9.120000 1.200000 -15.606488 -8.590038 317.351227
1.160000 -9.080000 0.800000 -18.269756 10.688703 448.032349
1.160000 -9.080000 0.840000 -30.891933 -4.273374 972.573242
1.160000 -9.080000 0.880000 -25.955641 -25.179920 1307.723633
1.160000 -9.080000 0.920000 -5.804111 -34.654007 1234.587891
1.160000 -9.080000 0.960000 13.834421 -25.159645 824.398926
1.160000 -9.080000 1.000000 18.400751 -5.331070 367.007965
1.160000 -9.080000 1.040000 6.953185 8.886863 127.323105
1.160000 -9.080000 1.080000 -8.916361 8.629766 153.974335
1.160000 -9.080000 1.120000 -17.014389 -1.967094 293.358887
1.160000 -9.080000 1.160000 -14.602543 -12.334756 365.380463
1.160000 -9.080000 1.200000 -7.710008 -16.008953 315.730804
1.160000 -9.040000 0.800000 -22.724197 1.441734 518.467773
1.160000 -9.040000 0.840000 -24.302858 -15.688919 836.771118
1.160000 -9.040000 0.880000 -10.171247 -28.347382 907.028320
1.160000 -9.040000 0.920000 9.119321 -24.832642 699.822083
1.160000 -9.040000 0.960000 17.880024 -7.751544 379.781677
1.160000 -9.040000 1.000000 9.804429 8.490638 168.217758
1.160000 -9.040000 1.040000 -6.837584 11.148240 171.035828
1.160000 -9.040000 1.080000 -17.715092 0.130636 313.841522
1.160000 -9.040000 1.120000 -15.573121 -13.587794 427.150269
1.160000 -9.040000 1.160000 -5.175822 -19.230316 396.594177
1.160000 -9.040000 1.200000 3.292108 -15.346424 246.350708
1.160000 -9.000000 0.800000 -18.991264 -8.231571 428.426880
1.160000 -9.000000 0.840000 -12.414363 -19.074055 517.935974
1.160000 -9.000000 0.880000 1.532634 -20.081446 405.613434
1.160000 -9.000000 0.920000 10.799219 -9.006024 197.731598
1.160000 -9.000000 0.960000 6.955444 4.828785 71.695366
1.160000 -9.000000 1.000000 -6.554979 9.187672 127.381058
1.160000 -9.000000 1.040000 -17.657616 0.393932 311.946564
1.160000 -9.000000 1.080000 -16.965023 -13.606430 472.946960
1.160000 -9.000000 1.120000 -5.991734 -21.177166 484.373230
1.160000 -9.000000 1.160000 5.322971 -17.634369 339.304993
1.160000 -9.000000 1.200000 8.450957 -8.403086 142.030518
1.160000 -8.960000 0.800000 -10.777658 -11.448206 247.219315
1.160000 -8.960000 0.840000 -4.071643 -13.842918 208.204666
1.160000 -8.960000 0.880000 1.809504 -8.774376 80.263969
1.160000 -8.960000 0.920000 0.147532 -0.677036 0.480144
1.160000 -8.960000 0.960000 -8.480535 2.056814 76.149948
1.160000 -8.960000 1.000000 -16.264904 -4.530270 285.070435
1.160000 -8.960000 1.040000 -15.523773 -15.785166 490.158997
1.160000 -8.960000 1.080000 -6.023062 -22.687672 551.007751
1.160000 -8.960000 1.120000 4.924256 -20.196762 432.157501
1.160000 -8.960000 1.160000 9.413865 -11.551319 222.053833
1.160000 -8.960000 1.200000 5.935629 -4.667290 57.015282
1.160000 -8.920000 0.800000 -5.639575 -8.843178 110.006592
1.160000 -8.920000 0.840000 -3.954059 -7.766657 75.955536
1.160000 -8.920000 0.880000 -5.713586 -5.429807 62.127861
1.160000 -8.920000 0.920000 -10.476954 -6.584761 153.125626
1.160000 -8.920000 0.960000 -13.291849 -13.050761 346.995605
1.160000 -8.920000 1.000000 -9.787892 -21.055445 539.134583
1.160000 -8.920000 1.040000 -0.966730 -24.560732 604.164124
1.160000 -8.920000 1.080000 7.425740 -21.115858 501.021057
1.160000 -8.920000 1.120000 10.310480 -14.155200 306.675690
1.160000 -8.920000 1.160000 7.834444 -9.512716 151.870285
1.160000 -8.920000 1.200000 4.657627 -9.924837 120.195877
1.160000 -8.880000 0.800000 -5.357428 -7.440925 84.069405
1.160000 -8.880000 0.840000 -6.793596 -8.365594 116.136108
1.160000 -8.880000 0.880000 -9.298150 -12.142603 233.898407
1.160000 -8.880000 0.920000 -8.527905 -19.437670 450.548157
1.160000 -8.880000 0.960000 -1.577266 -25.756199 665.869568
1.160000 -8.880000 1.000000 8.594699 -25.655296 732.063049
1.160000 -8.880000 1.040000 15.227867 -18.968534 591.693237
1.160000 -8.880000 1.080000 14.617645 -11.701820 350.608154
1.160000 -8.880000 1.120000 10.230271 -10.117305 207.018311
1.160000 -8.880000 1.160000 9.214462 -14.146592 285.032379
1.160000 -8.880000 1.200000 14.847111 -17.461668 525.346558
1.160000 -8.840000 0.800000 -3.367760 -10.792506 127.819992
1.160000 -8.840000 0.840000 -3.207809 -13.325415 187.856720
1.160000 -8.840000 0.880000 -1.431601 -18.961243 361.578186
1.160000 -8.840000 0.920000 6.111457 -24.282377 626.983765
1.160000 -8.840000 0.960000 17.360855 -22.843149 823.208740
1.160000 -8.840000 1.000000 24.302954 -13.464680 771.931152
1.160000 -8.840000 1.040000 21.483660 -3.594523 474.468231
1.160000 -8.840000 1.080000 13.286003 -2.425596 182.401398
1.160000 -8.840000 1.120000 10.745665 -10.500257 225.724716
1.160000 -8.840000 1.160000 20.032160 -17.664291 713.314575
1.160000 -8.840000 1.200000 34.886356 -12.894104 1383.315796
1.160000 -8.800000 0.800000 6.343201 -12.499060 196.462692
1.160000 -8.800000 0.840000 8.230261 -11.882282 208.925812
1.160000 -8.800000 0.880000 12.001112 -13.904136 337.351685
1.160000 -8.800000 0.920000 20.227407 -13.129719 581.537537
1.160000 -8.800000 0.960000 27.280272 -4.845422 767.691284
1.160000 -8.800000 1.000000 25.251385 6.561975 680.691956
1.160000 -8.800000 1.040000 14.972733 10.267771 329.609833
1.160000 -8.800000 1.080000 8.209200 1.495990 69.628944
1.160000 -8.800000 1.120000 16.089127 -10.384335 366.694397
1.160000 -8.800000 1.160000 35.465801 -9.295795 1344.234863
1.160000 -8.800000 1.200000 49.221481 10.662126 2536.435059
1.200000 -9.200000 0.800000 -8.237810 -9.572241 159.489319
1.200000 -9.200000 0.840000 -11.948038 -3.649021 156.070969
1.200000 -9.200000 0.880000 -18.680025 -4.510195 369.285187
1.200000 -9.200000 0.920000 -21.535093 -11.539702 596.924988
1.200000 -9.200000 0.960000 -17.221266 -18.830574 651.162476
1.200000 -9.200000 1.000000 -8.645391 -20.590239 498.700684
1.200000 -9.200000 1.040000 -1.824219 -15.967913 258.302002
1.200000 -9.200000 1.080000 -0.576905 -8.989080 81.136383
1.200000 -9.200000 1.120000 -4.047794 -4.482458 36.477066
1.200000 -9.200000 1.160000 -8.567108 -4.396029 92.720413
1.200000 -9.200000 1.200000 -10.987717 -7.515458 177.212021
1.200000 -9.160000 0.800000 -1.052322 -7.450145 56.612041
1.200000 -9.160000 0.840000 -9.995611 -2.906234 108.358444
1.200000 -9.160000 0.880000 -18.352024 -8.266940 405.139099
1.200000 -9.160000 0.920000 -18.385025 -18.554884 682.292847
1.200000 -9.160000 0.960000 -9.933390 -24.914845 719.421692
1.200000 -9.160000 1.000000 0.193231 -22.544170 508.276978
1.200000 -9.160000 1.040000 4.819021 -14.060318 220.915497
1.200000 -9.160000 1.080000 2.118040 -5.984928 40.305458
1.200000 -9.160000 1.120000 -4.421020 -2.873574 27.802843
1.200000 -9.160000 1.160000 -10.211035 -4.859595 127.880898
1.200000 -9.160000 1.200000 -12.840872 -9.516328 255.448486
1.200000 -9.120000 0.800000 -0.451818 -0.200496 0.244338
1.200000 -9.120000 0.840000 -12.327673 -0.656359 152.402328
1.200000 -9.120000 0.880000 -18.959833 -10.822758 476.607361
1.200000 -9.120000 0.920000 -14.905307 -22.258497 717.608887
1.200000 -9.120000 0.960000 -3.930888 -26.079248 695.579102
1.200000 -9.120000 1.000000 5.108480 -20.501621 446.413025
1.200000 -9.120000 1.040000 6.263036 -11.214782 164.996948
1.200000 -9.120000 1.080000 0.577176 -5.399928 29.492355
1.200000 -9.120000 1.120000 -6.542981 -5.958066 78.309143
1.200000 -9.120000 1.160000 -10.586227 -10.911387 231.126587
1.200000 -9.120000 1.200000 -10.429380 -16.730822 388.692352
1.200000 -9.080000 0.800000 -7.103038 3.562338 63.143398
1.200000 -9.080000 0.840000 -17.875624 -2.216395 324.450348
1.200000 -9.080000 0.880000 -20.532368 -15.013226 646.975098
1.200000 -9.080000 0.920000 -12.865797 -25.560997 818.893311
1.200000 -9.080000 0.960000 -0.979647 -26.989014 729.366577
1.200000 -9.080000 1.000000 6.550309 -20.283207 454.315033
1.200000 -9.080000 1.040000 5.968248 -12.387988 189.082245
1.200000 -9.080000 1.080000 0.423168 -9.571281 91.788498
1.200000 -9.080000 1.120000 -4.112380 -12.713324 178.540268
1.200000 -9.080000 1.160000 -4.130854 -18.188362 347.880493
1.200000 -9.080000 1.200000 -0.315430 -21.993221 483.801270
1.200000 -9.040000 0.800000 -13.989163 -0.351333 195.820114
1.200000 -9.040000 0.840000 -21.462893 -8.884932 539.597778
1.200000 -9.040000 0.880000 -20.350296 -21.822002 890.334351
1.200000 -9.040000 0.920000 -10.295454 -30.805328 1054.964600
1.200000 -9.040000 0.960000 2.269256 -30.699675 947.619568
1.200000 -9.040000 1.000000 9.789465 -23.612129 653.366272
1.200000 -9.040000 1.040000 9.847258 -16.350344 364.302216
1.200000 -9.040000 1.080000 6.282349 -14.136217 239.300537
1.200000 -9.040000 1.120000 4.779073 -16.609541 298.716400
1.200000 -9.040000 1.160000 7.624221 -19.396187 434.340820
1.200000 -9.040000 1.200000 12.535337 -18.862411 512.925232
1.200000 -9.000000 0.800000 -14.808899 -7.886703 281.503571
1.200000 -9.000000 0.840000 -19.676252 -16.932838 673.875916
1.200000 -9.000000 0.880000 -16.104959 -29.251600 1115.025879
1.200000 -9.000000 0.920000 -4.038214 -36.950951 1381.679932
1.200000 -9.000000 0.960000 10.084787 -35.149384 1337.182007
1.200000 -9.000000 1.000000 18.685730 -26.092211 1029.959961
1.200000 -9.000000 1.040000 19.372335 -16.781485 656.905640
1.200000 -9.000000 1.080000 16.184391 -12.496445 418.095642
1.200000 -9.000000 1.120000 14.875588 -12.580662 379.556183
1.200000 -9.000000 1.160000 17.237211 -12.375402 450.272034
1.200000 -9.000000 1.200000 20.131531 -8.728815 481.470764
1.200000 -8.960000 0.800000 -10.356535 -12.545200 264.639862
1.200000 -8.960000 0.840000 -13.786606 -22.138046 680.163574
1.200000 -8.960000 0.880000 -7.922646 -34.276817 1237.668457
1.200000 -8.960000 0.920000 6.802532 -40.251595 1666.465332
1.200000 -8.960000 0.960000 22.679415 -34.961861 1736.687500
1.200000 -8.960000 1.000000 30.948223 -21.635990 1425.908569
1.200000 -8.960000 1.040000 29.237881 -8.903519 934.126343
1.200000 -8.960000 1.080000 22.850246 -2.991732 531.084229
1.200000 -8.960000 1.120000 18.845728 -2.829804 363.169250
1.200000 -8.960000 1.160000 19.237251 -2.691846 377.317871
1.200000 -8.960000 1.200000 20.182217 0.957435 408.238556
1.200000 -8.920000 0.800000 -5.738083 -12.857366 198.237442
1.200000 -8.920000 0.840000 -6.933402 -23.643194 607.072693
1.200000 -8.920000 0.880000 2.270806 -34.912117 1224.012573
1.200000 -8.920000 0.920000 19.603849 -37.229347 1770.335205
1.200000 -8.920000 0.960000 35.200947 -26.543438 1943.660767
1.200000 -8.920000 1.000000 39.591095 -8.710074 1643.320190
1.200000 -8.920000 1.040000 32.044548 5.236467 1054.273560
1.200000 -8.920000 1.080000 20.808651 8.784091 510.160217
1.200000 -8.920000 1.120000 14.943482 5.061484 248.926285
1.200000 -8.920000 1.160000 16.073307 2.414582 264.181396
1.200000 -8.920000 1.200000 18.264767 5.442659 363.224243
1.200000 -8.880000 0.800000 -2.949626 -12.226118 158.178268
1.200000 -8.880000 0.840000 -0.262800 -22.568748 509.417480
1.200000 -8.880000 0.880000 12.090071 -30.435276 1072.475830
1.200000 -8.880000 0.920000 29.674429 -27.243835 1622.798340
1.200000 -8.880000 0.960000 41.401779 -11.509993 1846.587280
1.200000 -8.880000 1.000000 38.984463 7.784364 1580.384644
1.200000 -8.880000 1.040000 25.182453 18.221779 966.189209
1.200000 -8.880000 1.080000 11.842747 15.186798 370.889496
1.200000 -8.880000 1.120000 8.909166 5.975478 115.079590
1.200000 -8.880000 1.160000 15.225406 2.265681 236.946289
1.200000 -8.880000 1.200000 20.567955 8.446177 494.378693
1.200000 -8.840000 0.800000 0.980989 -12.047136 146.095840
1.200000 -8.840000 0.840000 6.460016 -18.360016 378.821991
1.200000 -8.840000 0.880000 18.764450 -20.965593 791.660645
1.200000 -8.840000 0.920000 32.860626 -13.075502 1250.789551
1.200000 -8.840000 0.960000 38.271076 4.368531 1483.759399
1.200000 -8.840000 1.000000 29.390558 20.538956 1285.653564
1.200000 -8.840000 1.040000 12.928814 23.834850 735.254333
1.200000 -8.840000 1.080000 3.061478 13.783199 199.349228
1.200000 -8.840000 1.120000 7.744890 2.678490 67.157639
1.200000 -8.840000 1.160000 20.183357 3.821026 421.968170
1.200000 -8.840000 1.200000 25.183510 17.814465 951.564331
1.200000 -8.800000 0.800000 7.580115 -8.037004 122.051590
1.200000 -8.800000 0.840000 10.896626 -9.030586 200.287964
1.200000 -8.800000 0.880000 18.927441 -8.373873 428.369751
1.200000 -8.800000 0.920000 27.631109 0.273225 763.552856
1.200000 -8.800000 0.960000 27.690971 15.197839 997.764221
1.200000 -8.800000 1.000000 15.991760 25.433350 902.591675
1.200000 -8.800000 1.040000 2.006343 21.902918 483.763245
1.200000 -8.800000 1.080000 -0.348375 9.078571 82.541824
1.200000 -8.800000 1.120000 11.865511 2.682574 147.986542
1.200000 -8.800000 1.160000 25.200150 13.663741 821.745361
1.200000 -8.800000 1.200000 22.284126 35.047382 1724.901245
