#kx 	ky 	kz 	real 	imag 	intensity
0.800000 -7.200000 2.800000 -56.404472 -1.837291 3184.840332
0.800000 -7.200000 2.840000 -46.454700 -16.875555 2442.823730
0.800000 -7.200000 2.880000 -33.991230 -21.654369 1624.315430
0.800000 -7.200000 2.920000 -26.715023 -20.441095 1131.530762
0.800000 -7.200000 2.960000 -24.458012 -21.156918 1045.809570
0.800000 -7.200000 3.000000 -20.225950 -26.568523 1114.975464
0.800000 -7.200000 3.040000 -8.540381 -30.908482 1028.272339
0.800000 -7.200000 3.080000 7.456286 -25.660053 714.034546
0.800000 -7.200000 3.120000 17.551075 -8.865657 386.640076
0.800000 -7.200000 3.160000 13.546705 11.435331 314.280029
0.800000 -7.200000 3.200000 -2.910753 23.256474 549.336060
0.800000 -7.160000 2.800000 -41.679585 -27.961597 2519.038574
0.800000 -7.160000 2.840000 -25.829544 -31.812231 1679.183350
0.800000 -7.160000 2.880000 -15.931237 -27.149479 990.898499
0.800000 -7.160000 2.920000 -13.769644 -22.706791 705.201416
0.800000 -7.160000 2.960000 -13.352257 -23.572475 733.944397
0.800000 -7.160000 3.000000 -8.106771 -26.695290 778.358215
0.800000 -7.160000 3.040000 1.844664 -24.788727 617.883728
0.800000 -7.160000 3.080000 9.454367 -14.392236 296.521484
0.800000 -7.160000 3.120000 7.511112 -0.115026 56.430035
0.800000 -7.160000 3.160000 -4.323054 8.957335 98.922638
0.800000 -7.160000 3.200000 -18.803177 6.959187 401.989716
0.800000 -7.120000 2.800000 -15.463393 -32.647732 1304.990967
0.800000 -7.120000 2.840000 -4.464804 -25.512108 670.802124
0.800000 -7.120000 2.880000 -3.155954 -17.034195 300.123840
0.800000 -7.120000 2.920000 -6.821390 -14.305010 251.164673
0.800000 -7.120000 2.960000 -8.138656 -16.890614 351.530518
0.800000 -7.120000 3.000000 -4.544640 -18.920816 378.651031
0.800000 -7.120000 3.040000 0.063311 -15.984016 255.492798
0.800000 -7.120000 3.080000 0.150299 -9.644789 93.044540
0.800000 -7.120000 3.120000 -5.582777 -5.583324 62.340912
0.800000 -7.120000 3.160000 -12.951293 -7.975518 231.344879
0.800000 -7.120000 3.200000 -16.145170 -15.787673 509.917175
0.800000 -7.080000 2.800000 -0.239624 -17.131884 293.558868
0.800000 -7.080000 2.840000 0.169966 -7.943781 63.132545
0.800000 -7.080000 2.880000 -5.906711 -3.862000 49.804268
0.800000 -7.080000 2.920000 -11.624567 -6.566710 178.252243
0.800000 -7.080000 2.960000 -12.771119 -11.959335 306.127197
0.800000 -7.080000 3.000000 -10.566955 -15.516010 352.407104
0.800000 -7.080000 3.040000 -8.628523 -16.631485 351.057709
0.800000 -7.080000 3.080000 -8.362204 -17.939837 391.764191
0.800000 -7.080000 3.120000 -7.775310 -21.378983 517.516296
0.800000 -7.080000 3.160000 -4.228556 -25.743433 680.605042
0.800000 -7.080000 3.200000 2.530221 -27.963081 788.335938
0.800000 -7.040000 2.800000 -6.185266 -1.055569 39.371746
0.800000 -7.040000 2.840000 -11.968509 0.980076 144.205750
0.800000 -7.040000 2.880000 -17.996565 -2.695514 331.142151
0.800000 -7.040000 2.920000 -20.396627 -9.737892 510.848938
0.800000 -7.040000 2.960000 -19.017916 -16.653910 639.033813
0.800000 -7.040000 3.000000 -15.759582 -22.235580 742.785461
0.800000 -7.040000 3.040000 -11.327438 -27.266287 871.761230
0.800000 -7.040000 3.080000 -4.606237 -31.727207 1027.833130
0.800000 -7.040000 3.120000 4.946819 -33.485115 1145.723999
0.800000 -7.040000 3.160000 15.233061 -30.200321 1144.105469
0.800000 -7.040000 3.200000 22.578163 -22.103827 998.352539
0.800000 -7.000000 2.800000 -21.403778 -2.281693 463.327820
0.800000 -7.000000 2.840000 -23.692932 -8.092314 626.840576
0.800000 -7.000000 2.880000 -23.144123 -14.963064 759.543762
0.800000 -7.000000 2.920000 -20.275734 -21.097151 856.195190
0.800000 -7.000000 2.960000 -16.281294 -26.446939 964.521118
0.800000 -7.000000 3.000000 -10.777103 -31.863144 1131.405884
0.800000 -7.000000 3.040000 -2.015058 -36.552216 1340.124878
0.800000 -7.000000 3.080000 10.299979 -37.302490 1497.565430
0.800000 -7.000000 3.120000 22.908405 -31.157793 1495.603027
0.800000 -7.000000 3.160000 30.622360 -18.887924 1294.482666
0.800000 -7.000000 3.200000 30.497093 -5.278194 957.932007
0.800000 -6.960000 2.800000 -25.134365 -18.579945 976.950684
0.800000 -6.960000 2.840000 -18.971390 -24.314217 951.094788
0.800000 -6.960000 2.880000 -12.616729 -26.577583 865.549744
0.800000 -6.960000 2.920000 -8.086533 -27.353777 813.621155
0.800000 -6.960000 2.960000 -4.450841 -29.344624 880.916931
0.800000 -6.960000 3.000000 1.508606 -32.734467 1073.821167
0.800000 -6.960000 3.040000 11.754949 -34.055130 1297.930664
0.800000 -6.960000 3.080000 23.917511 -28.972176 1411.434326
0.800000 -6.960000 3.120000 32.234608 -16.773394 1320.416748
0.800000 -6.960000 3.160000 32.213249 -1.976446 1041.599854
0.800000 -6.960000 3.200000 24.588139 8.968136 685.004028
0.800000 -6.920000 2.800000 -10.119352 -30.670048 1043.053101
0.800000 -6.920000 2.840000 -0.208305 -28.436001 808.649536
0.800000 -6.920000 2.880000 4.756433 -23.022163 552.643677
0.800000 -6.920000 2.920000 5.112360 -19.349327 400.532684
0.800000 -6.920000 2.960000 5.043587 -19.900608 421.471985
0.800000 -6.920000 3.000000 8.933630 -22.427696 582.811279
0.800000 -6.920000 3.040000 17.169367 -21.766539 768.569336
0.800000 -6.920000 3.080000 25.319733 -14.569192 853.350220
0.800000 -6.920000 3.120000 27.788288 -2.706058 779.511719
0.800000 -6.920000 3.160000 22.765392 8.032009 582.776245
0.800000 -6.920000 3.200000 13.773829 12.895023 356.000000
0.800000 -6.880000 2.800000 9.672815 -23.341923 638.408691
0.800000 -6.880000 2.840000 14.137272 -13.668793 386.698364
0.800000 -6.880000 2.880000 11.468019 -5.423445 160.929199
0.800000 -6.880000 2.920000 5.424671 -2.994696 38.395260
0.800000 -6.880000 2.960000 1.690097 -6.338231 43.029598
0.800000 -6.880000 3.000000 3.695268 -11.062235 136.028046
0.800000 -6.880000 3.040000 10.034587 -11.916880 242.704956
0.800000 -6.880000 3.080000 15.795053 -7.007940 298.594940
0.800000 -6.880000 3.120000 16.784868 0.903906 282.548859
0.800000 -6.880000 3.160000 12.890633 7.169852 217.575195
0.800000 -6.880000 3.200000 7.495650 9.441247 145.321915
0.800000 -6.840000 2.800000 14.060518 -2.012042 201.746490
0.800000 -6.840000 2.840000 9.122583 6.673550 127.757797
0.800000 -6.840000 2.880000 -0.049041 9.817945 96.394455
0.800000 -6.840000 2.920000 -8.608446 6.022093 110.370949
0.800000 -6.840000 2.960000 -12.010298 -2.347919 149.759979
0.800000 -6.840000 3.000000 -8.707056 -10.418113 184.349899
0.800000 -6.840000 3.040000 -1.041347 -13.819723 192.069138
0.800000 -6.840000 3.080000 6.519130 -11.339448 171.082138
0.800000 -6.840000 3.120000 10.496140 -5.153274 136.725174
0.800000 -6.840000 3.160000 10.290157 1.430618 107.934006
0.800000 -6.840000 3.200000 7.369835 6.503683 96.612366
0.800000 -6.800000 2.800000 -1.869318 12.780920 166.846268
0.800000 -6.800000 2.840000 -10.802326 12.813391 280.873230
0.800000 -6.800000 2.880000 -18.990263 7.768256 420.975891
0.800000 -6.800000 2.920000 -23.601212 -1.459232 559.146545
0.800000 -6.800000 2.960000 -22.482100 -12.335626 657.612427
0.800000 -6.800000 3.000000 -15.298843 -21.142193 681.046936
0.800000 -6.800000 3.040000 -4.244475 -24.444771 615.562378
0.800000 -6.800000 3.080000 6.650301 -20.887276 480.504791
0.800000 -6.800000 3.120000 13.391848 -11.934030 321.762634
0.800000 -6.800000 3.160000 13.808889 -1.037295 191.761414
0.800000 -6.800000 3.200000 8.099393 7.977039 129.233322
0.840000 -7.200000 2.800000 -62.852158 -26.109756 4632.113281
0.840000 -7.200000 2.840000 -44.937214 -38.351257 3490.172119
0.840000 -7.200000 2.880000 -29.313951 -38.799072 2364.675781
0.840000 -7.200000 2.920000 -21.074211 -35.720245 1720.058350
0.840000 -7.200000 2.960000 -15.760176 -35.996593 1544.137939
0.840000 -7.200000 3.000000 -6.151072 -37.680969 1457.691162
0.840000 -7.200000 3.040000 8.014790 -32.699570 1133.498657
0.840000 -7.200000 3.080000 18.097141 -16.904701 613.275452
0.840000 -7.200000 3.120000 14.795615 3.371503 230.277267
0.840000 -7.200000 3.160000 -1.755433 15.594231 246.261566
0.840000 -7.200000 3.200000 -20.692158 12.223890 577.588867
0.840000 -7.160000 2.800000 -32.935638 -54.177109 4019.915527
0.840000 -7.160000 2.840000 -10.471390 -51.595505 2771.746094
0.840000 -7.160000 2.880000 2.397140 -40.310680 1630.697266
0.840000 -7.160000 2.920000 5.765131 -29.723167 916.703430
0.840000 -7.160000 2.960000 5.845268 -23.906763 605.700500
0.840000 -7.160000 3.000000 7.484791 -20.044020 457.784821
0.840000 -7.160000 3.040000 9.622305 -13.699078 280.253479
0.840000 -7.160000 3.080000 7.593096 -4.848789 81.165863
0.840000 -7.160000 3.120000 -0.702913 1.487949 2.708080
0.840000 -7.160000 3.160000 -11.484213 0.303327 131.979156
0.840000 -7.160000 3.200000 -17.925415 -8.089514 386.760742
0.840000 -7.120000 2.800000 3.649261 -50.525444 2566.137695
0.840000 -7.120000 2.840000 20.181152 -35.586967 1673.711182
0.840000 -7.120000 2.880000 24.060135 -16.601501 854.499939
0.840000 -7.120000 2.920000 17.064461 -1.850520 294.620239
0.840000 -7.120000 2.960000 5.071613 4.245305 43.743877
0.840000 -7.120000 3.000000 -5.630993 2.063841 35.967518
0.840000 -7.120000 3.040000 -11.225628 -4.709446 148.193604
0.840000 -7.120000 3.080000 -11.333448 -11.669334 264.620422
0.840000 -7.120000 3.120000 -8.201237 -16.001270 323.300934
0.840000 -7.120000 3.160000 -4.601583 -17.456400 325.900452
0.840000 -7.120000 3.200000 -1.891736 -17.495003 309.653809
0.840000 -7.080000 2.800000 19.864887 -25.263060 1032.835938
0.840000 -7.080000 2.840000 26.520052 -6.021441 739.570923
0.840000 -7.080000 2.880000 19.387587 14.229837 578.366760
0.840000 -7.080000 2.920000 -0.202555 25.583384 654.550537
0.840000 -7.080000 2.960000 -23.363195 20.739185 975.952759
0.840000 -7.080000 3.000000 -37.422371 1.025204 1401.484863
0.840000 -7.080000 3.040000 -34.266792 -22.702168 1689.601440
0.840000 -7.080000 3.080000 -16.785101 -36.909367 1644.041016
0.840000 -7.080000 3.120000 3.019129 -35.303722 1255.467896
0.840000 -7.080000 3.160000 13.538084 -23.114632 717.565918
0.840000 -7.080000 3.200000 12.405494 -11.549509 287.287415
0.840000 -7.040000 2.800000 10.633274 -5.128859 139.371704
0.840000 -7.040000 2.840000 10.414505 12.573022 266.542786
0.840000 -7.040000 2.880000 -5.812050 28.688934 856.834839
0.840000 -7.040000 2.920000 -33.982838 28.717243 1979.513306
0.840000 -7.040000 2.960000 -57.509068 5.722006 3340.034424
0.840000 -7.040000 3.000000 -58.558167 -30.476851 4357.897461
0.840000 -7.040000 3.040000 -33.483147 -58.211807 4509.735352
0.840000 -7.040000 3.080000 2.438364 -60.711727 3691.859375
0.840000 -7.040000 3.120000 26.824936 -39.837578 2306.609863
0.840000 -7.040000 3.160000 28.399817 -13.710333 994.522766
0.840000 -7.040000 3.200000 14.710887 -0.285748 216.491852
0.840000 -7.000000 2.800000 -4.786898 -6.242172 61.879105
0.840000 -7.000000 2.840000 -7.966383 9.838469 160.258728
0.840000 -7.000000 2.880000 -29.679438 18.975552 1240.940552
0.840000 -7.000000 2.920000 -57.640087 4.543367 3343.021729
0.840000 -7.000000 2.960000 -68.167679 -32.583702 5708.530273
0.840000 -7.000000 3.000000 -46.821720 -70.562218 7171.299805
0.840000 -7.000000 3.040000 -3.256277 -83.257301 6942.381836
0.840000 -7.000000 3.080000 35.180332 -62.701950 5169.190430
0.840000 -7.000000 3.120000 46.249367 -25.905773 2810.113037
0.840000 -7.000000 3.160000 30.751522 0.666453 946.100281
0.840000 -7.000000 3.200000 8.968838 3.969701 96.198578
0.840000 -6.960000 2.800000 -5.170122 -19.453627 405.173767
0.840000 -6.960000 2.840000 -11.585282 -2.969536 143.036911
0.840000 -6.960000 2.880000 -35.227524 -1.720262 1243.937744
0.840000 -6.960000 2.920000 -54.573917 -26.853481 3699.421875
0.840000 -6.960000 2.960000 -46.549530 -65.244591 6423.714844
0.840000 -6.960000 3.000000 -8.895838 -88.581375 7925.795898
0.840000 -6.960000 3.040000 35.666992 -78.052879 7364.386230
0.840000 -6.960000 3.080000 58.531483 -41.281002 5130.055664
0.840000 -6.960000 3.120000 49.691528 -5.123230 2495.495605
0.840000 -6.960000 3.160000 24.436131 8.455360 668.617554
0.840000 -6.960000 3.200000 6.936014 0.035837 48.109577
0.840000 -6.920000 2.800000 9.965126 -23.072489 631.643433
0.840000 -6.920000 2.840000 -2.593795 -7.699301 66.007004
0.840000 -6.920000 2.880000 -24.766541 -14.180676 814.473083
0.840000 -6.920000 2.920000 -32.262516 -42.132637 2816.029053
0.840000 -6.920000 2.960000 -11.594760 -69.991562 5033.257324
0.840000 -6.920000 3.000000 26.501274 -73.883362 6161.068359
0.840000 -6.920000 3.040000 56.160904 -49.155113 5570.272461
0.840000 -6.920000 3.080000 59.323250 -13.953125 3713.937744
0.840000 -6.920000 3.120000 40.491528 8.014783 1703.800537
0.840000 -6.920000 3.160000 19.974468 8.237453 466.835022
0.840000 -6.920000 3.200000 13.716174 -1.955777 191.958496
0.840000 -6.880000 2.800000 21.458853 -8.187349 527.515076
0.840000 -6.880000 2.840000 3.082684 0.604389 9.868227
0.840000 -6.880000 2.880000 -14.109498 -12.057397 344.458740
0.840000 -6.880000 2.920000 -12.405749 -35.918144 1444.015625
0.840000 -6.880000 2.960000 9.593552 -50.648521 2657.308838
0.840000 -6.880000 3.000000 36.285881 -43.934151 3246.874756
0.840000 -6.880000 3.040000 49.643196 -21.362032 2920.783447
0.840000 -6.880000 3.080000 44.572205 0.448792 1986.882812
0.840000 -6.880000 3.120000 30.969486 9.619564 1051.645020
0.840000 -6.880000 3.160000 22.015226 8.134233 550.835938
0.840000 -6.880000 3.200000 21.497826 6.681602 506.800293
0.840000 -6.840000 2.800000 13.173365 11.252004 300.145142
0.840000 -6.840000 2.840000 -4.721113 9.725313 116.870628
0.840000 -6.840000 2.880000 -14.303152 -5.404694 233.790878
0.840000 -6.840000 2.920000 -8.771515 -22.488880 582.689209
0.840000 -6.840000 2.960000 7.154095 -30.020458 952.408997
0.840000 -6.840000 3.000000 22.878849 -25.087990 1152.848877
0.840000 -6.840000 3.040000 31.050037 -13.212017 1138.662231
0.840000 -6.840000 3.080000 31.675802 -1.500925 1005.609192
0.840000 -6.840000 3.120000 28.800653 7.318170 883.033264
0.840000 -6.840000 3.160000 24.770967 14.755762 831.333374
0.840000 -6.840000 3.200000 18.308092 22.042889 821.075195
0.840000 -6.800000 2.800000 -9.195692 14.047853 281.902924
0.840000 -6.800000 2.840000 -18.692720 5.546347 380.179749
0.840000 -6.800000 2.880000 -20.910004 -6.872637 484.461365
0.840000 -6.800000 2.920000 -15.924593 -18.268679 587.337280
0.840000 -6.800000 2.960000 -5.768028 -25.699511 693.734985
0.840000 -6.800000 3.000000 7.476215 -27.420788 807.793396
0.840000 -6.800000 3.040000 21.081404 -21.778126 918.712402
0.840000 -6.800000 3.080000 30.513195 -8.404252 1001.686523
0.840000 -6.800000 3.120000 30.752575 9.425455 1034.560059
0.840000 -6.800000 3.160000 19.951231 24.758995 1011.059448
0.840000 -6.800000 3.200000 1.993342 30.638016 942.661377
0.880000 -7.200000 2.800000 -55.210716 -55.035370 6077.115234
0.880000 -7.200000 2.840000 -30.327772 -60.383701 4565.965332
0.880000 -7.200000 2.880000 -12.574164 -54.078053 3082.545410
0.880000 -7.200000 2.920000 -3.787561 -46.319370 2159.829834
0.880000 -7.200000 2.960000 2.638027 -41.855923 1758.877441
0.880000 -7.200000 3.000000 11.804661 -36.311859 1457.901123
0.880000 -7.200000 3.040000 19.979755 -23.547522 953.676392
0.880000 -7.200000 3.080000 18.339703 -5.477953 366.352661
0.880000 -7.200000 3.120000 3.891066 7.189280 66.826134
0.880000 -7.200000 3.160000 -14.726043 4.988801 241.744476
0.880000 -7.200000 3.200000 -23.770153 -9.957297 664.167969
0.880000 -7.160000 2.800000 -7.633555 -73.597519 5474.865723
0.880000 -7.160000 2.840000 18.102598 -59.994106 3926.996826
0.880000 -7.160000 2.880000 29.411013 -38.068962 2314.253418
0.880000 -7.160000 2.920000 27.129013 -18.831894 1090.623535
0.880000 -7.160000 2.960000 18.378681 -7.893593 400.084717
0.880000 -7.160000 3.000000 9.810154 -3.990223 112.160995
0.880000 -7.160000 3.040000 3.425653 -3.247250 22.279732
0.880000 -7.160000 3.080000 -2.007985 -3.915665 19.364433
0.880000 -7.160000 3.120000 -6.829325 -6.929909 94.663315
0.880000 -7.160000 3.160000 -8.854662 -12.630057 237.923370
0.880000 -7.160000 3.200000 -5.913074 -18.252388 368.114105
0.880000 -7.120000 2.800000 34.187202 -53.082527 3986.519531
0.880000 -7.120000 2.840000 50.552326 -24.280449 3145.077881
0.880000 -7.120000 2.880000 45.814968 8.928492 2178.729248
0.880000 -7.120000 2.920000 21.427826 31.031599 1422.111816
0.880000 -7.120000 2.960000 -9.827656 31.405357 1082.879272
0.880000 -7.120000 3.000000 -31.033569 12.022182 1107.615234
0.880000 -7.120000 3.040000 -32.375164 -13.461246 1229.356445
0.880000 -7.120000 3.080000 -17.524551 -29.472528 1175.739868
0.880000 -7.120000 3.120000 0.378899 -29.473646 868.839355
0.880000 -7.120000 3.160000 9.605186 -19.010139 453.645020
0.880000 -7.120000 3.200000 8.010187 -8.921808 143.761765
0.880000 -7.080000 2.800000 44.553284 -15.456502 2223.898682
0.880000 -7.080000 2.840000 46.358406 21.273052 2601.644531
0.880000 -7.080000 2.880000 19.155546 55.054230 3397.903320
0.880000 -7.080000 2.920000 -28.982088 61.780193 4656.753906
0.880000 -7.080000 2.960000 -70.811905 31.158688 5985.189453
0.880000 -7.080000 3.000000 -78.965645 -20.792282 6667.892090
0.880000 -7.080000 3.040000 -48.738773 -61.380058 6142.979492
0.880000 -7.080000 3.080000 -3.020611 -66.796906 4470.950684
0.880000 -7.080000 3.120000 26.574959 -40.758076 2367.449219
0.880000 -7.080000 3.160000 25.502251 -9.064445 732.528931
0.880000 -7.080000 3.200000 5.371984 4.254178 46.956238
0.880000 -7.040000 2.800000 27.588352 8.533306 833.934509
0.880000 -7.040000 2.840000 13.559563 46.028618 2302.495361
0.880000 -7.040000 2.880000 -34.481022 66.045441 5550.940918
0.880000 -7.040000 2.920000 -91.831947 41.014851 10115.324219
0.880000 -7.040000 2.960000 -116.587006 -24.656290 14200.462891
0.880000 -7.040000 3.000000 -85.461761 -91.419220 15661.186523
0.880000 -7.040000 3.040000 -17.075346 -115.059357 13530.222656
0.880000 -7.040000 3.080000 41.711105 -84.177917 8825.738281
0.880000 -7.040000 3.120000 55.241653 -29.029585 3894.357178
0.880000 -7.040000 3.160000 27.471727 6.730988 800.002014
0.880000 -7.040000 3.200000 -6.659899 3.913519 59.669884
0.880000 -7.000000 2.800000 8.560424 8.083358 138.621521
0.880000 -7.000000 2.840000 -20.438398 39.509766 1978.749756
0.880000 -7.000000 2.880000 -77.798286 34.590046 7249.044434
0.880000 -7.000000 2.920000 -119.971909 -22.910185 14918.135742
0.880000 -7.000000 2.960000 -104.693794 -103.031990 21576.382812
0.880000 -7.000000 3.000000 -32.128078 -150.071426 23553.646484
0.880000 -7.000000 3.040000 50.687485 -130.555359 19613.921875
0.880000 -7.000000 3.080000 89.184540 -63.213913 11949.880859
0.880000 -7.000000 3.120000 67.774597 -1.505583 4595.662598
0.880000 -7.000000 3.160000 19.463856 14.341326 584.515320
0.880000 -7.000000 3.200000 -8.732759 -10.555708 187.684052
0.880000 -6.960000 2.800000 5.917500 -1.788802 38.216610
0.880000 -6.960000 2.840000 -34.206047 16.496040 1442.173096
0.880000 -6.960000 2.880000 -83.817139 -14.325472 7230.531738
0.880000 -6.960000 2.920000 -92.797058 -86.169968 16036.556641
0.880000 -6.960000 2.960000 -38.412708 -148.718674 23592.781250
0.880000 -6.960000 3.000000 49.089035 -152.144318 25557.625000
0.880000 -6.960000 3.040000 110.295288 -92.663399 20751.556641
0.880000 -6.960000 3.080000 108.562485 -16.201921 12048.315430
0.880000 -6.960000 3.120000 60.217766 23.573620 4181.894531
0.880000 -6.960000 3.160000 15.036369 11.777604 364.804382
0.880000 -6.960000 3.200000 8.393417 -20.706202 499.196259
0.880000 -6.920000 2.800000 14.208993 -1.094023 203.092361
0.880000 -6.920000 2.840000 -28.498379 -0.912792 812.990784
0.880000 -6.920000 2.880000 -56.802139 -46.696583 5407.053711
0.880000 -6.920000 2.920000 -33.618431 -107.631706 12714.783203
0.880000 -6.920000 2.960000 35.322029 -133.038147 18946.794922
0.880000 -6.920000 3.000000 103.465096 -98.564987 20420.082031
0.880000 -6.920000 3.040000 124.441933 -28.803949 16315.462891
0.880000 -6.920000 3.080000 92.592491 25.806343 9239.336914
0.880000 -6.920000 3.120000 44.274208 34.645657 3160.526855
0.880000 -6.920000 3.160000 20.803684 10.641457 546.033875
0.880000 -6.920000 3.200000 31.205833 -8.565946 1047.179443
0.880000 -6.880000 2.800000 14.566425 11.902052 353.839600
0.880000 -6.880000 2.840000 -19.308420 -4.353375 391.766968
0.880000 -6.880000 2.880000 -23.978542 -48.288074 2906.708496
0.880000 -6.880000 2.920000 13.243393 -83.118622 7084.092773
0.880000 -6.880000 2.960000 68.278183 -77.309090 10638.605469
0.880000 -6.880000 3.000000 101.798416 -33.093227 11458.080078
0.880000 -6.880000 3.040000 94.308540 17.018364 9183.725586
0.880000 -6.880000 3.080000 60.904621 41.156265 5403.210938
0.880000 -6.880000 3.120000 33.083206 35.342468 2343.588623
0.880000 -6.880000 3.160000 27.925274 21.647875 1248.451416
0.880000 -6.880000 3.200000 35.391045 22.285095 1749.151489
0.880000 -6.840000 2.800000 -0.932704 20.261688 411.405945
0.880000 -6.840000 2.840000 -18.031017 -2.623769 332.001740
0.880000 -6.840000 2.880000 -8.465719 -31.990236 1095.043701
0.880000 -6.840000 2.920000 22.078953 -43.843029 2409.691406
0.880000 -6.840000 2.960000 51.713829 -29.510647 3545.198242
0.880000 -6.840000 3.000000 62.385410 -0.893612 3892.738037
0.880000 -6.840000 3.040000 53.717392 23.068335 3417.706055
0.880000 -6.840000 3.080000 38.728256 33.602722 2629.020752
0.880000 -6.840000 3.120000 28.366760 36.283203 2121.144043
0.880000 -6.840000 3.160000 21.777706 40.476097 2112.583008
0.880000 -6.840000 3.200000 11.002744 47.297249 2358.090088
0.880000 -6.800000 2.800000 -18.945793 9.654982 452.161743
0.880000 -6.800000 2.840000 -20.760429 -6.959862 479.435089
0.880000 -6.800000 2.880000 -10.926701 -19.794270 511.205902
0.880000 -6.800000 2.920000 3.732690 -23.594425 570.629883
0.880000 -6.800000 2.960000 17.286621 -19.610523 683.399902
0.880000 -6.800000 3.000000 27.952408 -10.414131 889.791199
0.880000 -6.800000 3.040000 34.885448 3.761652 1231.144531
0.880000 -6.800000 3.080000 34.487804 22.599297 1700.136963
0.880000 -6.800000 3.120000 22.385202 41.173859 2196.383789
0.880000 -6.800000 3.160000 -0.534964 50.439125 2544.391357
0.880000 -6.800000 3.200000 -25.499924 43.973858 2583.946289
0.920000 -7.200000 2.800000 -29.950996 -79.168274 7164.677734
0.920000 -7.200000 2.840000 -1.318468 -73.632980 5423.554199
0.920000 -7.200000 2.880000 15.122805 -57.855785 3575.991211
0.920000 -7.200000 2.920000 20.298204 -43.157288 2274.568604
0.920000 -7.200000 2.960000 21.878178 -33.145908 1577.305908
0.920000 -7.200000 3.000000 23.748295 -23.461607 1114.428467
0.920000 -7.200000 3.040000 21.918489 -10.846424 598.065063
0.920000 -7.200000 3.080000 11.402347 -0.128208 130.029938
0.920000 -7.200000 3.120000 -4.416846 -0.140150 19.528173
0.920000 -7.200000 3.160000 -13.943110 -12.686257 355.351440
0.920000 -7.200000 3.200000 -8.346950 -27.528835 827.508362
0.920000 -7.160000 2.800000 27.928307 -75.831909 6530.468750
0.920000 -7.160000 2.840000 50.348469 -48.783512 4914.799316
0.920000 -7.160000 2.880000 51.870777 -16.410198 2959.872314
0.920000 -7.160000 2.920000 35.695526 6.619608 1317.989746
0.920000 -7.160000 2.960000 13.639343 13.147713 358.894043
0.920000 -7.160000 3.000000 -2.759573 6.386612 48.404053
0.920000 -7.160000 3.040000 -9.007903 -5.073822 106.885986
0.920000 -7.160000 3.080000 -7.400299 -14.396246 262.016327
0.920000 -7.160000 3.120000 -2.131670 -19.361889 379.426758
0.920000 -7.160000 3.160000 4.223837 -20.191147 425.523193
0.920000 -7.160000 3.200000 10.065622 -16.849863 385.234619
0.920000 -7.120000 2.800000 62.971230 -34.683849 5168.345215
0.920000 -7.120000 2.840000 68.340607 8.371484 4740.520020
0.920000 -7.120000 2.880000 42.350807 47.796329 4078.079834
0.920000 -7.120000 2.920000 -5.056530 59.950150 3619.589111
0.920000 -7.120000 2.960000 -47.330982 36.298393 3557.795410
0.920000 -7.120000 3.000000 -59.957558 -7.814880 3655.980957
0.920000 -7.120000 3.040000 -39.150078 -43.880749 3458.248779
0.920000 -7.120000 3.080000 -3.847755 -51.927837 2711.305420
0.920000 -7.120000 3.120000 20.662689 -34.291039 1602.822021
0.920000 -7.120000 3.160000 22.376905 -10.147402 603.695679
0.920000 -7.120000 3.200000 8.490175 2.452845 78.099525
0.920000 -7.080000 2.800000 58.107475 11.928450 3518.766602
0.920000 -7.080000 2.840000 39.027542 60.839916 5224.644531
0.920000 -7.080000 2.880000 -19.227844 87.324921 7995.351562
0.920000 -7.080000 2.920000 -87.468567 62.006966 11495.613281
0.920000 -7.080000 2.960000 -119.673203 -8.856224 14400.108398
0.920000 -7.080000 3.000000 -91.238373 -82.011841 15050.382812
0.920000 -7.080000 3.040000 -22.181999 -110.402733 12680.804688
0.920000 -7.080000 3.080000 38.391937 -81.834076 8170.756836
0.920000 -7.080000 3.120000 53.278584 -27.149244 3575.688965
0.920000 -7.080000 3.160000 25.689247 9.097011 742.693054
0.920000 -7.080000 3.200000 -9.761866 6.677819 139.887299
0.920000 -7.040000 2.800000 28.555380 34.473709 2003.846436
0.920000 -7.040000 2.840000 -16.787893 75.244644 5943.589844
0.920000 -7.040000 2.880000 -95.323288 66.913147 13563.898438
0.920000 -7.040000 2.920000 -152.088959 -8.017349 23195.328125
0.920000 -7.040000 2.960000 -135.722748 -110.606155 30654.386719
0.920000 -7.040000 3.000000 -47.779312 -171.719269 31770.371094
0.920000 -7.040000 3.040000 53.184586 -150.610687 25512.179688
0.920000 -7.040000 3.080000 100.148041 -70.592224 15012.892578
0.920000 -7.040000 3.120000 73.992172 2.885071 5483.165527
0.920000 -7.040000 3.160000 14.734330 20.521797 638.244629
0.920000 -7.040000 3.200000 -20.322975 -12.101813 559.477173
0.920000 -7.000000 2.800000 2.976971 29.922775 904.234863
0.920000 -7.000000 2.840000 -61.545128 47.829506 6075.464355
0.920000 -7.000000 2.880000 -133.309906 -3.977865 17787.355469
0.920000 -7.000000 2.920000 -144.026230 -110.727798 33004.199219
0.920000 -7.000000 2.960000 -64.854507 -200.932022 44579.781250
0.920000 -7.000000 3.000000 59.510437 -205.782455 45887.910156
0.920000 -7.000000 3.040000 144.928589 -121.785950 35836.113281
0.920000 -7.000000 3.080000 140.398102 -14.966351 19935.619141
0.920000 -7.000000 3.120000 69.958885 38.428787 6371.017578
0.920000 -7.000000 3.160000 4.932779 17.366962 325.943695
0.920000 -7.000000 3.200000 -3.632391 -33.997391 1169.016846
0.920000 -6.960000 2.800000 -4.385512 17.484762 324.949646
0.920000 -6.960000 2.840000 -71.567596 4.094242 5138.683594
0.920000 -6.960000 2.880000 -109.298630 -77.419144 17939.914062
0.920000 -6.960000 2.920000 -63.380180 -176.189209 35059.683594
0.920000 -6.960000 2.960000 52.851040 -212.650330 48013.398438
0.920000 -6.960000 3.000000 162.555084 -150.985931 49220.906250
0.920000 -6.960000 3.040000 191.272797 -34.416561 37769.781250
0.920000 -6.960000 3.080000 132.166824 52.834110 20259.513672
0.920000 -6.960000 3.120000 47.776527 60.398205 5930.540039
0.920000 -6.960000 3.160000 8.686796 11.145355 199.679367
0.920000 -6.960000 3.200000 30.999046 -29.767342 1847.035400
0.920000 -6.920000 2.800000 -2.400126 14.226881 208.164749
0.920000 -6.920000 2.840000 -52.606335 -25.785145 3432.300293
0.920000 -6.920000 2.880000 -46.804359 -107.376305 13720.318359
0.920000 -6.920000 2.920000 33.129356 -163.711380 27898.970703
0.920000 -6.920000 2.960000 138.547714 -139.505829 38657.343750
0.920000 -6.920000 3.000000 194.046356 -44.187218 39606.500000
0.920000 -6.920000 3.040000 164.737564 54.852234 30147.232422
0.920000 -6.920000 3.080000 85.442291 93.117584 15971.269531
0.920000 -6.920000 3.120000 24.482410 64.446411 4752.728516
0.920000 -6.920000 3.160000 19.860920 18.537178 738.083130
0.920000 -6.920000 3.200000 50.545494 7.460245 2610.502197
0.920000 -6.880000 2.800000 -6.676255 18.013721 369.066559
0.920000 -6.880000 2.840000 -28.283079 -31.220709 1774.665283
0.920000 -6.880000 2.880000 6.664219 -86.455956 7519.043945
0.920000 -6.880000 2.920000 81.918488 -94.984596 15732.711914
0.920000 -6.880000 2.960000 142.850403 -40.647789 22058.480469
0.920000 -6.880000 3.000000 145.310699 40.312317 22740.281250
0.920000 -6.880000 3.040000 94.313293 92.725792 17493.070312
0.920000 -6.880000 3.080000 35.488022 91.859818 9697.625000
0.920000 -6.880000 3.120000 10.013737 60.621017 3775.182617
0.920000 -6.880000 3.160000 18.947317 40.828564 2025.972412
0.920000 -6.880000 3.200000 30.152382 50.777790 3487.550293
0.920000 -6.840000 2.800000 -18.927681 14.597551 571.345581
0.920000 -6.840000 2.840000 -15.908709 -23.604044 810.237915
0.920000 -6.840000 2.880000 21.306824 -45.770924 2548.958252
0.920000 -6.840000 2.920000 65.744514 -29.955948 5219.700195
0.920000 -6.840000 2.960000 84.834946 14.097305 7395.701660
0.920000 -6.840000 3.000000 68.840363 55.883018 7861.907227
0.920000 -6.840000 3.040000 35.727573 72.766830 6571.471191
0.920000 -6.840000 3.080000 10.245792 67.407570 4648.756348
0.920000 -6.840000 3.120000 0.444128 58.745640 3451.247559
0.920000 -6.840000 3.160000 -5.154440 59.139420 3524.039307
0.920000 -6.840000 3.200000 -20.046183 62.583141 4318.499023
0.920000 -6.800000 2.800000 -25.313444 -1.847382 644.183289
0.920000 -6.800000 2.840000 -14.129599 -18.660673 547.866272
0.920000 -6.800000 2.880000 5.394342 -21.606861 495.955383
0.920000 -6.800000 2.920000 20.695732 -11.402145 558.322266
0.920000 -6.800000 2.960000 26.728844 3.714924 728.231750
0.920000 -6.800000 3.000000 26.200211 18.244072 1019.297241
0.920000 -6.800000 3.040000 21.481392 32.739956 1533.354858
0.920000 -6.800000 3.080000 9.753252 47.688747 2369.342529
0.920000 -6.800000 3.120000 -12.264542 57.303810 3434.145508
0.920000 -6.800000 3.160000 -40.216492 52.468643 4370.324707
0.920000 -6.800000 3.200000 -61.655235 30.462194 4729.313477
0.960000 -7.200000 2.800000 8.733204 -85.834503 7443.831055
0.960000 -7.200000 2.840000 35.022179 -67.164192 5737.582031
0.960000 -7.200000 2.880000 43.769905 -41.943539 3675.064941
0.960000 -7.200000 2.920000 39.130733 -22.751762 2048.856934
0.960000 -7.200000 2.960000 30.885506 -12.573448 1112.006104
0.960000 -7.200000 3.000000 23.893749 -6.739754 616.335510
0.960000 -7.200000 3.040000 16.002977 -2.268726 261.242401
0.960000 -7.200000 3.080000 5.543762 -2.437338 36.673916
0.960000 -7.200000 3.120000 -2.244164 -10.943930 124.805870
0.960000 -7.200000 3.160000 0.822952 -23.329945 544.963562
0.960000 -7.200000 3.200000 15.201027 -27.720028 999.471191
0.960000 -7.160000 2.800000 60.797401 -56.070007 6840.169922
0.960000 -7.160000 2.840000 71.787697 -17.935658 5475.161621
0.960000 -7.160000 2.880000 56.260002 17.630222 3476.012451
0.960000 -7.160000 2.920000 24.006207 33.029648 1667.255615
0.960000 -7.160000 2.960000 -5.847656 24.167301 618.253540
0.960000 -7.160000 3.000000 -18.883316 1.837196 359.954926
0.960000 -7.160000 3.040000 -13.916733 -18.277149 527.729614
0.960000 -7.160000 3.080000 0.017715 -26.890244 723.085510
0.960000 -7.160000 3.120000 12.958090 -24.270720 756.979919
0.960000 -7.160000 3.160000 19.995453 -15.434584 638.044556
0.960000 -7.160000 3.200000 20.376060 -4.778843 438.021179
0.960000 -7.120000 2.800000 75.522797 -0.770000 5704.285645
0.960000 -7.120000 2.840000 60.355698 47.697041 5917.817871
0.960000 -7.120000 2.880000 10.480091 75.923492 5874.208984
0.960000 -7.120000 2.920000 -48.445763 60.529945 6010.866211
0.960000 -7.120000 2.960000 -79.487335 7.607872 6376.116211
0.960000 -7.120000 3.000000 -63.905300 -49.097809 6494.482422
0.960000 -7.120000 3.040000 -16.456730 -74.333199 5796.248047
0.960000 -7.120000 3.080000 27.710831 -58.527847 4193.398926
0.960000 -7.120000 3.120000 41.952480 -21.985504 2243.373047
0.960000 -7.120000 3.160000 26.512272 5.577158 734.005249
0.960000 -7.120000 3.200000 2.050971 9.364595 91.902130
0.960000 -7.080000 2.800000 49.768436 43.633720 4380.798828
0.960000 -7.080000 2.840000 2.629592 86.274597 7450.220703
0.960000 -7.080000 2.880000 -75.551208 80.741119 12227.113281
0.960000 -7.080000 2.920000 -133.142654 12.136650 17874.265625
0.960000 -7.080000 2.960000 -123.299736 -83.107063 22109.609375
0.960000 -7.080000 3.000000 -47.441330 -142.192688 22469.439453
0.960000 -7.080000 3.040000 42.296547 -128.086349 18195.111328
0.960000 -7.080000 3.080000 86.282898 -60.304283 11081.344727
0.960000 -7.080000 3.120000 66.250092 4.526997 4409.568359
0.960000 -7.080000 3.160000 15.013405 22.692106 740.334045
0.960000 -7.080000 3.200000 -18.703453 -3.535931 362.321960
0.960000 -7.040000 2.800000 8.435612 54.881847 3083.176758
0.960000 -7.040000 2.840000 -65.067383 71.592438 9359.241211
0.960000 -7.040000 2.880000 -143.654739 14.357939 20842.833984
0.960000 -7.040000 2.920000 -157.009949 -99.899200 34631.972656
0.960000 -7.040000 2.960000 -76.164154 -196.729980 44503.664062
0.960000 -7.040000 3.000000 52.410069 -205.081177 44805.105469
0.960000 -7.040000 3.040000 141.901566 -120.960495 34767.496094
0.960000 -7.040000 3.080000 139.073578 -11.693527 19478.199219
0.960000 -7.040000 3.120000 67.156525 44.089523 6453.885254
0.960000 -7.040000 3.160000 -1.544401 22.988840 530.871948
0.960000 -7.040000 3.200000 -13.505018 -31.979942 1205.102295
0.960000 -7.000000 2.800000 -20.090544 39.184734 1939.073242
0.960000 -7.000000 2.840000 -100.042938 15.907204 10261.628906
0.960000 -7.000000 2.880000 -142.075058 -84.750549 27367.978516
0.960000 -7.000000 2.920000 -85.349899 -202.716843 48378.722656
0.960000 -7.000000 2.960000 53.003479 -245.806046 63229.980469
0.960000 -7.000000 3.000000 182.644531 -173.011856 63292.125000
0.960000 -7.000000 3.040000 216.135300 -35.456882 47971.660156
0.960000 -7.000000 3.080000 145.051575 67.358414 25577.115234
0.960000 -7.000000 3.120000 42.950756 74.872154 7450.606934
0.960000 -7.000000 3.160000 -5.585741 12.631771 190.762146
0.960000 -7.000000 3.200000 21.107807 -42.275291 2232.739746
0.960000 -6.960000 2.800000 -26.983347 18.797123 1081.432861
0.960000 -6.960000 2.840000 -86.533051 -41.382637 9200.491211
0.960000 -6.960000 2.880000 -70.884674 -150.707397 27737.355469
0.960000 -6.960000 2.920000 40.828030 -222.221130 51049.160156
0.960000 -6.960000 2.960000 182.790756 -184.723160 67535.109375
0.960000 -6.960000 3.000000 254.365692 -52.705029 67479.726562
0.960000 -6.960000 3.040000 209.310638 81.796249 50501.566406
0.960000 -6.960000 3.080000 95.914719 130.280426 26172.623047
0.960000 -6.960000 3.120000 9.347837 83.628731 7081.146484
0.960000 -6.960000 3.160000 4.543554 10.877733 138.968964
0.960000 -6.960000 3.200000 54.438801 -12.871061 3129.247314
0.960000 -6.920000 2.800000 -23.663559 8.414528 630.768311
0.960000 -6.920000 2.840000 -44.612644 -66.867928 6461.607910
0.960000 -6.920000 2.880000 17.666950 -145.079071 21360.058594
0.960000 -6.920000 2.920000 136.519623 -148.279144 40624.312500
0.960000 -6.920000 2.960000 226.915726 -54.140995 54421.992188
0.960000 -6.920000 3.000000 220.239578 77.752579 54550.937500
0.960000 -6.920000 3.040000 126.654724 157.154572 40738.976562
0.960000 -6.920000 3.080000 23.741394 143.096069 21040.138672
0.960000 -6.920000 3.120000 -16.449139 75.034843 5900.801758
0.960000 -6.920000 3.160000 10.603765 27.845787 887.827698
0.960000 -6.920000 3.200000 48.938232 39.244682 3935.095703
0.960000 -6.880000 2.800000 -23.570248 4.747802 578.098206
0.960000 -6.880000 2.840000 -8.514732 -57.461082 3374.276611
0.960000 -6.880000 2.880000 64.943588 -86.625336 11721.618164
0.960000 -6.880000 2.920000 145.503113 -42.521599 22979.242188
0.960000 -6.880000 2.960000 168.668335 53.562622 31317.962891
0.960000 -6.880000 3.000000 115.639862 135.707260 31789.039062
0.960000 -6.880000 3.040000 29.259640 152.615112 24147.500000
0.960000 -6.880000 3.080000 -27.908564 111.070274 13115.493164
0.960000 -6.880000 3.120000 -30.443050 62.587379 4843.959473
0.960000 -6.880000 3.160000 -6.398384 50.119873 2552.940918
0.960000 -6.880000 3.200000 -1.246061 69.878075 4884.498047
0.960000 -6.840000 2.800000 -26.762783 -2.923122 724.791199
0.960000 -6.840000 2.840000 3.214584 -35.489807 1269.859863
0.960000 -6.840000 2.880000 54.168213 -29.182114 3785.791016
0.960000 -6.840000 2.920000 84.949173 18.519470 7559.332520
0.960000 -6.840000 2.960000 70.700638 75.087067 10636.647461
0.960000 -6.840000 3.000000 23.871513 103.382973 11257.888672
0.960000 -6.840000 3.040000 -20.826134 94.035156 9276.337891
0.960000 -6.840000 3.080000 -40.151947 68.482635 6302.050293
0.960000 -6.840000 3.120000 -40.284718 52.836323 4414.535645
0.960000 -6.840000 3.160000 -43.324379 51.759129 4556.009277
0.960000 -6.840000 3.200000 -60.196274 48.451603 5971.149414
0.960000 -6.800000 2.800000 -23.140121 -16.119663 795.308716
0.960000 -6.800000 2.840000 -2.078297 -23.260801 545.384216
0.960000 -6.800000 2.880000 16.710390 -11.556065 412.779785
0.960000 -6.800000 2.920000 21.260174 8.874557 530.752747
0.960000 -6.800000 2.960000 13.264969 25.348267 818.494019
0.960000 -6.800000 3.000000 1.295708 34.428802 1187.021240
0.960000 -6.800000 3.040000 -11.150272 40.445717 1760.184570
0.960000 -6.800000 3.080000 -27.999353 44.835686 2794.202637
0.960000 -6.800000 3.120000 -51.435413 40.895218 4318.020508
0.960000 -6.800000 3.160000 -73.698067 21.114809 5877.240234
0.960000 -6.800000 3.200000 -81.171455 -11.584351 6723.002441
1.000000 -7.200000 2.800000 46.193207 -67.101341 6636.402344
1.000000 -7.200000 2.840000 62.474770 -37.479622 5307.818848
1.000000 -7.200000 2.880000 57.458199 -8.389866 3371.834473
1.000000 -7.200000 2.920000 40.195168 7.397579 1670.375610
1.000000 -7.200000 2.960000 23.603436 9.411640 645.701172
1.000000 -7.200000 3.000000 13.536784 5.110130 209.357956
1.000000 -7.200000 3.040000 8.091412 -0.166260 65.498581
1.000000 -7.200000 3.080000 5.302845 -6.740774 73.558205
1.000000 -7.200000 3.120000 7.821215 -14.814992 280.655396
1.000000 -7.200000 3.160000 18.073807 -18.799730 680.092407
1.000000 -7.200000 3.200000 30.586178 -11.092820 1058.564941
1.000000 -7.160000 2.800000 76.298111 -19.710930 6209.922852
1.000000 -7.160000 2.840000 70.287346 21.515694 5403.236328
1.000000 -7.160000 2.880000 37.529530 48.393383 3750.385010
1.000000 -7.160000 2.920000 -2.892189 45.611340 2088.759033
1.000000 -7.160000 2.960000 -27.357878 18.259422 1081.859985
1.000000 -7.160000 3.000000 -25.517559 -13.426559 831.418335
1.000000 -7.160000 3.040000 -5.469963 -30.783871 977.567139
1.000000 -7.160000 3.080000 16.183510 -28.937073 1099.260132
1.000000 -7.160000 3.120000 27.824362 -15.425915 1012.153992
1.000000 -7.160000 3.160000 27.693394 -0.376083 767.065491
1.000000 -7.160000 3.200000 19.421579 10.346896 484.256012
1.000000 -7.120000 2.800000 64.885231 33.902107 5359.446289
1.000000 -7.120000 2.840000 28.666861 73.268501 6190.062500
1.000000 -7.120000 2.880000 -32.755981 75.365318 6752.885742
1.000000 -7.120000 2.920000 -80.544640 29.651161 7366.630371
1.000000 -7.120000 2.960000 -80.868736 -37.524612 7947.849121
1.000000 -7.120000 3.000000 -34.216038 -82.339172 7950.476562
1.000000 -7.120000 3.040000 24.894905 -79.016403 6863.348145
1.000000 -7.120000 3.080000 57.245213 -38.803452 4782.722168
1.000000 -7.120000 3.120000 49.511559 3.497730 2463.628662
1.000000 -7.120000 3.160000 19.361721 20.236835 784.405762
1.000000 -7.120000 3.200000 -5.452612 9.816848 126.101471
1.000000 -7.080000 2.800000 22.859303 62.186211 4389.672363
1.000000 -7.080000 2.840000 -42.080124 79.510513 8092.658691
1.000000 -7.080000 2.880000 -111.893410 34.377762 13701.964844
1.000000 -7.080000 2.920000 -128.743088 -59.206482 20080.191406
1.000000 -7.080000 2.960000 -68.601089 -140.997864 24586.507812
1.000000 -7.080000 3.000000 32.248486 -153.493530 24600.228516
1.000000 -7.080000 3.040000 105.319595 -91.922081 19541.886719
1.000000 -7.080000 3.080000 107.520416 -7.441456 11616.014648
1.000000 -7.080000 3.120000 54.296249 38.853893 4457.708008
1.000000 -7.080000 3.160000 -0.578650 26.530642 704.209778
1.000000 -7.080000 3.200000 -15.391356 -15.047472 463.320251
1.000000 -7.040000 2.800000 -20.535011 54.808159 3425.621094
1.000000 -7.040000 2.840000 -96.962639 32.057358 10429.426758
1.000000 -7.040000 2.880000 -138.149170 -61.710381 22893.365234
1.000000 -7.040000 2.920000 -88.963409 -171.945526 37479.750000
1.000000 -7.040000 2.960000 35.557854 -215.049545 47510.667969
1.000000 -7.040000 3.000000 154.227676 -153.022522 47202.070312
1.000000 -7.040000 3.040000 187.521271 -30.550581 36097.566406
1.000000 -7.040000 3.080000 125.826752 63.255386 19833.615234
1.000000 -7.040000 3.120000 33.288315 72.282761 6332.909180
1.000000 -7.040000 3.160000 -13.944107 16.378618 462.697266
1.000000 -7.040000 3.200000 6.639705 -37.274536 1433.476685
1.000000 -7.000000 2.800000 -42.115738 26.645309 2483.708008
1.000000 -7.000000 2.840000 -101.202850 -38.213722 11702.304688
1.000000 -7.000000 2.880000 -83.554329 -151.176208 29835.572266
1.000000 -7.000000 2.920000 31.330034 -224.873535 51549.675781
1.000000 -7.000000 2.960000 176.904541 -187.372314 66403.601562
1.000000 -7.000000 3.000000 250.850647 -52.931789 65727.820312
1.000000 -7.000000 3.040000 205.076965 85.009552 49283.187500
1.000000 -7.000000 3.080000 87.619156 135.011688 25905.273438
1.000000 -7.000000 3.120000 -3.904507 85.450569 7317.044922
1.000000 -7.000000 3.160000 -10.556471 5.605131 142.856567
1.000000 -7.000000 3.200000 43.297859 -25.882938 2544.631104
1.000000 -6.960000 2.800000 -40.301998 0.865601 1625.000366
1.000000 -6.960000 2.840000 -57.921829 -85.868820 10728.392578
1.000000 -6.960000 2.880000 17.565754 -172.908798 30206.009766
1.000000 -6.960000 2.920000 155.388138 -173.018555 54080.890625
1.000000 -6.960000 2.960000 258.408386 -61.376198 70541.929688
1.000000 -6.960000 3.000000 247.473755 92.944107 69881.867188
1.000000 -6.960000 3.040000 134.175400 184.285828 51964.304688
1.000000 -6.960000 3.080000 9.924179 163.198196 26732.140625
1.000000 -6.960000 3.120000 -37.998768 75.244682 7105.668457
1.000000 -6.960000 3.160000 -1.042236 10.831270 118.402672
1.000000 -6.960000 3.200000 55.150963 19.420149 3418.770752
1.000000 -6.920000 2.800000 -29.601665 -11.123453 999.989807
1.000000 -6.920000 2.840000 -3.102140 -87.464645 7659.687012
1.000000 -6.920000 2.880000 95.874908 -118.634354 23266.107422
1.000000 -6.920000 2.920000 200.381134 -53.228706 42985.894531
1.000000 -6.920000 2.960000 224.887817 79.573868 56906.531250
1.000000 -6.920000 3.000000 144.359406 189.577667 56779.328125
1.000000 -6.920000 3.040000 18.890789 204.949417 42361.125000
1.000000 -6.920000 3.080000 -61.404007 134.604263 21888.761719
1.000000 -6.920000 3.120000 -56.960899 53.615185 6119.131836
1.000000 -6.920000 3.160000 -6.658817 29.107681 891.596924
1.000000 -6.920000 3.200000 19.586864 61.590897 4177.083984
1.000000 -6.880000 2.800000 -22.774260 -14.469269 728.026611
1.000000 -6.880000 2.840000 26.849613 -56.942078 3963.301758
1.000000 -6.880000 2.880000 106.113968 -37.858459 12693.436523
1.000000 -6.880000 2.920000 148.604340 47.246567 24315.488281
1.000000 -6.880000 2.960000 111.879150 142.989166 32962.847656
1.000000 -6.880000 3.000000 18.213394 182.192413 33525.800781
1.000000 -6.880000 3.040000 -65.753448 145.892654 25608.181641
1.000000 -6.880000 3.080000 -90.195160 76.557114 13996.158203
1.000000 -6.880000 3.120000 -63.432590 33.568336 5150.526855
1.000000 -6.880000 3.160000 -35.075020 37.614456 2645.104248
1.000000 -6.880000 3.200000 -42.459885 58.552124 5231.193359
1.000000 -6.840000 2.800000 -19.727316 -19.039242 751.659729
1.000000 -6.840000 2.840000 23.990326 -27.446392 1328.840210
1.000000 -6.840000 2.880000 62.050293 8.735008 3926.539062
1.000000 -6.840000 2.920000 58.316246 67.357056 7937.757812
1.000000 -6.840000 2.960000 11.215828 105.936661 11348.371094
1.000000 -6.840000 3.000000 -46.008621 100.337242 12184.355469
1.000000 -6.840000 3.040000 -77.702560 63.939789 10125.984375
1.000000 -6.840000 3.080000 -77.120483 29.927467 6843.222168
1.000000 -6.840000 3.120000 -66.265854 17.365063 4692.708984
1.000000 -6.840000 3.160000 -67.948959 16.303444 4882.863281
1.000000 -6.840000 3.200000 -81.529350 4.511293 6667.386719
1.000000 -6.800000 2.800000 -12.717321 -26.083107 842.058777
1.000000 -6.800000 2.840000 8.407841 -19.596512 454.715088
1.000000 -6.800000 2.880000 15.967697 1.348808 256.786621
1.000000 -6.800000 2.920000 5.791237 20.195488 441.396149
1.000000 -6.800000 2.960000 -11.948555 26.640057 852.460571
1.000000 -6.800000 3.000000 -26.502914 23.855278 1271.478760
1.000000 -6.800000 3.040000 -37.563568 19.665184 1797.741089
1.000000 -6.800000 3.080000 -51.256660 14.127075 2826.819580
1.000000 -6.800000 3.120000 -67.565117 -0.757755 4565.619141
1.000000 -6.800000 3.160000 -75.722191 -29.011686 6575.527832
1.000000 -6.800000 3.200000 -64.244804 -61.390160 7896.146484
1.040000 -7.200000 2.800000 63.740669 -28.825592 4893.787598
1.040000 -7.200000 2.840000 64.843452 4.104538 4221.520508
1.040000 -7.200000 2.880000 45.580566 27.374359 2826.943604
1.040000 -7.200000 2.920000 20.371895 31.348148 1397.720459
1.040000 -7.200000 2.960000 3.516551 20.839439 446.648346
1.040000 -7.200000 3.000000 -1.063631 7.243153 53.594570
1.040000 -7.200000 3.040000 1.911346 -2.367393 9.257792
1.040000 -7.200000 3.080000 7.774666 -7.664284 119.186676
1.040000 -7.200000 3.120000 15.853599 -9.138714 334.852692
1.040000 -7.200000 3.160000 25.008522 -4.006697 641.479736
1.040000 -7.200000 3.200000 28.867487 9.462808 922.876526
1.040000 -7.160000 2.800000 66.546394 17.786297 4744.774902
1.040000 -7.160000 2.840000 44.659744 51.509628 4647.734375
1.040000 -7.160000 2.880000 3.610250 60.428345 3664.618896
1.040000 -7.160000 2.920000 -31.023891 38.053734 2410.568359
1.040000 -7.160000 2.960000 -38.711853 0.528130 1498.886475
1.040000 -7.160000 3.000000 -19.538631 -27.455017 1135.536133
1.040000 -7.160000 3.040000 8.949081 -32.135311 1112.764282
1.040000 -7.160000 3.080000 28.108624 -17.887211 1110.046997
1.040000 -7.160000 3.120000 31.086193 1.380497 968.257141
1.040000 -7.160000 3.160000 22.358860 14.921088 722.557495
1.040000 -7.160000 3.200000 9.158857 19.655613 470.227783
1.040000 -7.120000 2.800000 36.665855 53.519356 4208.706543
1.040000 -7.120000 2.840000 -10.141210 72.766411 5397.794922
1.040000 -7.120000 2.880000 -63.168732 47.859062 6280.778320
1.040000 -7.120000 2.920000 -82.566788 -12.495300 6973.406738
1.040000 -7.120000 2.960000 -51.212994 -68.978058 7380.743164
1.040000 -7.120000 3.000000 9.191986 -84.024826 7144.664062
1.040000 -7.120000 3.040000 56.649200 -52.714066 5987.904297
1.040000 -7.120000 3.080000 63.884823 -3.929222 4096.709473
1.040000 -7.120000 3.120000 37.244667 26.936996 2112.767090
1.040000 -7.120000 3.160000 4.911338 26.182951 709.668152
1.040000 -7.120000 3.200000 -10.073036 6.312873 141.318420
1.040000 -7.080000 2.800000 -7.115064 58.924309 3522.698242
1.040000 -7.080000 2.840000 -68.250404 46.200447 6792.598633
1.040000 -7.080000 2.880000 -105.418785 -21.329250 11568.056641
1.040000 -7.080000 2.920000 -76.630386 -104.561928 16805.412109
1.040000 -7.080000 2.960000 9.299469 -142.320160 20341.507812
1.040000 -7.080000 3.000000 95.321289 -105.160011 20144.777344
1.040000 -7.080000 3.040000 124.054459 -22.185898 15881.722656
1.040000 -7.080000 3.080000 85.898842 45.081135 9410.919922
1.040000 -7.080000 3.120000 22.590855 55.962116 3642.105225
1.040000 -7.080000 3.160000 -13.978325 20.534451 617.057251
1.040000 -7.080000 3.200000 -5.739639 -18.287199 367.365112
1.040000 -7.040000 2.800000 -39.128967 35.873192 2817.961914
1.040000 -7.040000 2.840000 -90.460495 -16.002710 8439.187500
1.040000 -7.040000 2.880000 -80.669388 -108.809250 18347.003906
1.040000 -7.040000 2.920000 8.566700 -172.611450 29868.101562
1.040000 -7.040000 2.960000 125.533508 -148.265564 37741.339844
1.040000 -7.040000 3.000000 188.279770 -44.662308 37443.996094
1.040000 -7.040000 3.040000 156.155869 65.278458 28645.933594
1.040000 -7.040000 3.080000 64.469223 107.872520 15792.761719
1.040000 -7.040000 3.120000 -10.354034 70.715561 5107.896484
1.040000 -7.040000 3.160000 -19.487164 5.705970 412.307617
1.040000 -7.040000 3.200000 21.842775 -25.011618 1102.687866
1.040000 -7.000000 2.800000 -45.892235 3.637503 2119.328613
1.040000 -7.000000 2.840000 -61.896881 -74.003189 9307.696289
1.040000 -7.000000 2.880000 4.366678 -152.850372 23382.304688
1.040000 -7.000000 2.920000 127.064026 -155.367371 40284.285156
1.040000 -7.000000 2.960000 220.453827 -57.931820 51955.984375
1.040000 -7.000000 3.000000 212.821686 79.451874 51605.671875
1.040000 -7.000000 3.040000 112.281548 162.195221 38914.433594
1.040000 -7.000000 3.080000 -0.512537 143.700256 20650.025391
1.040000 -7.000000 3.120000 -45.717918 62.215080 5960.844727
1.040000 -7.000000 3.160000 -12.072718 -1.199202 147.188599
1.040000 -7.000000 3.200000 43.880363 1.265348 1927.087402
1.040000 -6.960000 2.800000 -33.448624 -18.162674 1448.693115
1.040000 -6.960000 2.840000 -5.193045 -91.979156 8487.132812
1.040000 -6.960000 2.880000 93.489471 -121.317520 23458.222656
1.040000 -6.960000 2.920000 197.304535 -55.045658 41959.101562
1.040000 -6.960000 2.960000 220.891724 78.656601 54980.011719
1.040000 -6.960000 3.000000 137.957809 189.340393 54882.140625
1.040000 -6.960000 3.040000 8.497852 202.930908 41253.167969
1.040000 -6.960000 3.080000 -74.543564 126.574814 21577.925781
1.040000 -6.960000 3.120000 -67.562988 37.091015 5940.500977
1.040000 -6.960000 3.160000 -8.200960 6.786165 113.307785
1.040000 -6.960000 3.200000 29.885162 40.899696 2565.908203
1.040000 -6.920000 2.800000 -17.932344 -24.087471 901.775208
1.040000 -6.920000 2.840000 39.116013 -66.999344 6018.974609
1.040000 -6.920000 2.880000 127.560928 -41.145561 17964.748047
1.040000 -6.920000 2.920000 172.655640 58.970474 33287.488281
1.040000 -6.920000 2.960000 125.108185 169.750092 44467.152344
1.040000 -6.920000 3.000000 10.601078 211.705017 44931.398438
1.040000 -6.920000 3.040000 -90.642517 160.844360 34086.972656
1.040000 -6.920000 3.080000 -115.697403 68.321106 18053.662109
1.040000 -6.920000 3.120000 -72.102188 9.849705 5295.742188
1.040000 -6.920000 3.160000 -22.220024 16.443844 764.129456
1.040000 -6.920000 3.200000 -18.741982 53.800716 3245.779053
1.040000 -6.880000 2.800000 -9.698947 -22.621933 605.821411
1.040000 -6.880000 2.840000 47.182365 -28.120564 3016.941650
1.040000 -6.880000 2.880000 94.886787 25.848499 9671.646484
1.040000 -6.880000 2.920000 82.521828 109.554337 18812.003906
1.040000 -6.880000 2.960000 6.622330 161.014481 25969.517578
1.040000 -6.880000 3.000000 -82.549919 141.903229 26951.015625
1.040000 -6.880000 3.040000 -126.135834 71.912415 21081.644531
1.040000 -6.880000 3.080000 -108.781509 7.794239 11894.166992
1.040000 -6.880000 3.120000 -66.906311 -10.641596 4589.698242
1.040000 -6.880000 3.160000 -47.916302 6.636524 2340.015381
1.040000 -6.880000 3.200000 -64.150574 18.078020 4442.110840
1.040000 -6.840000 2.800000 -6.329309 -23.668650 600.265076
1.040000 -6.840000 2.840000 28.871599 -7.492329 889.704224
1.040000 -6.840000 2.880000 37.128716 38.008286 2823.171387
1.040000 -6.840000 2.920000 3.368797 77.987015 6093.323242
1.040000 -6.840000 2.960000 -51.340134 80.455940 9108.967773
1.040000 -6.840000 3.000000 -89.800896 45.307613 10116.980469
1.040000 -6.840000 3.040000 -93.005936 1.505661 8652.371094
1.040000 -6.840000 3.080000 -74.041344 -22.917116 6007.314941
1.040000 -6.840000 3.120000 -59.576031 -26.105230 4230.786621
1.040000 -6.840000 3.160000 -60.826344 -28.152855 4492.427246
1.040000 -6.840000 3.200000 -64.698166 -45.188736 6227.874512
1.040000 -6.800000 2.800000 0.360783 -27.661907 765.311279
1.040000 -6.800000 2.840000 12.577412 -12.358124 310.914490
1.040000 -6.800000 2.880000 6.672680 6.459873 86.254623
1.040000 -6.800000 2.920000 -11.245438 13.467602 307.836182
1.040000 -6.800000 2.960000 -26.983021 6.677406 772.671204
1.040000 -6.800000 3.000000 -33.989246 -4.370522 1174.370361
1.040000 -6.800000 3.040000 -37.611359 -12.664215 1574.996582
1.040000 -6.800000 3.080000 -44.175930 -22.292555 2448.470703
1.040000 -6.800000 3.120000 -49.439880 -41.272755 4147.742188
1.040000 -6.800000 3.160000 -41.328388 -67.866783 6313.936035
1.040000 -6.800000 3.200000 -14.430088 -87.771912 7912.136230
1.080000 -7.200000 2.800000 52.180519 9.180257 2807.083740
1.080000 -7.200000 2.840000 39.680023 35.494083 2834.334229
1.080000 -7.200000 2.880000 13.435881 45.284031 2231.166504
1.080000 -7.200000 2.920000 -9.690315 35.363316 1344.466309
1.080000 -7.200000 2.960000 -18.202320 15.993746 587.124390
1.080000 -7.200000 3.000000 -12.985842 0.074690 168.637665
1.080000 -7.200000 3.040000 -2.202122 -6.790174 50.955803
1.080000 -7.200000 3.080000 7.834988 -6.322039 101.355209
1.080000 -7.200000 3.120000 15.381128 -1.130796 237.857803
1.080000 -7.200000 3.160000 19.011444 8.355084 431.242432
1.080000 -7.200000 3.200000 14.846584 20.115376 625.049377
1.080000 -7.160000 2.800000 37.237453 38.578224 2874.907227
1.080000 -7.160000 2.840000 7.823460 57.538479 3371.883057
1.080000 -7.160000 2.880000 -28.375362 48.442970 3151.882568
1.080000 -7.160000 2.920000 -46.776581 15.867001 2439.810303
1.080000 -7.160000 2.960000 -36.574646 -18.051727 1663.569580
1.080000 -7.160000 3.000000 -8.281296 -32.569706 1129.365601
1.080000 -7.160000 3.040000 17.480410 -23.809038 872.435059
1.080000 -7.160000 3.080000 27.207565 -3.668106 753.706604
1.080000 -7.160000 3.120000 21.578663 13.334982 643.460449
1.080000 -7.160000 3.160000 9.187897 20.603729 508.931122
1.080000 -7.160000 3.200000 -2.863064 19.142578 374.635437
1.080000 -7.120000 2.800000 6.100764 50.940872 2632.191650
1.080000 -7.120000 2.840000 -36.351757 50.037312 3825.182861
1.080000 -7.120000 2.880000 -67.453423 11.977706 4693.429688
1.080000 -7.120000 2.920000 -59.105526 -40.598297 5141.684570
1.080000 -7.120000 2.960000 -13.800537 -70.392517 5145.561035
1.080000 -7.120000 3.000000 36.722313 -57.661987 4673.433105
1.080000 -7.120000 3.040000 59.054928 -15.952137 3741.955322
1.080000 -7.120000 3.080000 45.071869 22.233360 2525.795654
1.080000 -7.120000 3.120000 14.040900 33.933762 1348.646973
1.080000 -7.120000 3.160000 -8.353508 21.137154 516.560364
1.080000 -7.120000 3.200000 -11.330822 2.046700 132.576508
1.080000 -7.080000 2.800000 -24.298023 40.020035 2191.997070
1.080000 -7.080000 2.840000 -64.781250 10.131746 4299.262695
1.080000 -7.080000 2.880000 -67.267502 -51.476341 7174.730469
1.080000 -7.080000 2.920000 -16.075062 -99.490356 10156.738281
1.080000 -7.080000 2.960000 58.247498 -93.089287 12058.386719
1.080000 -7.080000 3.000000 103.285385 -34.004574 11824.181641
1.080000 -7.080000 3.040000 90.344315 34.220276 9333.122070
1.080000 -7.080000 3.080000 37.644375 64.903992 5629.627441
1.080000 -7.080000 3.120000 -9.546085 47.052322 2305.048828
1.080000 -7.080000 3.160000 -20.040871 8.744453 478.101990
1.080000 -7.080000 3.200000 0.692493 -13.738140 189.216049
1.080000 -7.040000 2.800000 -38.399475 14.258818 1677.833496
1.080000 -7.040000 2.840000 -56.018684 -39.746834 4717.903809
1.080000 -7.040000 2.880000 -15.472109 -99.439972 10127.693359
1.080000 -7.040000 2.920000 68.662842 -108.774925 16546.570312
1.080000 -7.040000 2.960000 137.377441 -47.355103 21115.066406
1.080000 -7.040000 3.000000 138.248596 46.146828 21242.203125
1.080000 -7.040000 3.040000 73.001083 106.032364 16572.019531
1.080000 -7.040000 3.080000 -4.837505 96.990280 9430.515625
1.080000 -7.040000 3.120000 -39.076740 41.811615 3275.202637
1.080000 -7.040000 3.160000 -18.438776 -4.960810 364.598083
1.080000 -7.040000 3.200000 21.425594 -8.372267 529.150940
1.080000 -7.000000 2.800000 -32.869907 -9.961933 1179.670898
1.080000 -7.000000 2.840000 -15.133087 -67.330032 4762.343750
1.080000 -7.000000 2.880000 58.044819 -93.894455 12185.370117
1.080000 -7.000000 2.920000 138.758408 -47.927773 21550.968750
1.080000 -7.000000 2.960000 160.621643 52.154762 28519.431641
1.080000 -7.000000 3.000000 100.291954 137.903381 29075.816406
1.080000 -7.000000 3.040000 1.365597 150.284241 22587.218750
1.080000 -7.000000 3.080000 -64.175385 91.512848 12493.082031
1.080000 -7.000000 3.120000 -59.590054 19.400642 3927.359375
1.080000 -7.000000 3.160000 -10.864109 -8.225607 185.689468
1.080000 -7.000000 3.200000 25.109196 16.642008 907.428101
1.080000 -6.960000 2.800000 -17.483709 -21.137138 752.458740
1.080000 -6.960000 2.840000 28.681538 -57.306824 4106.702637
1.080000 -6.960000 2.880000 102.609558 -37.098351 11905.009766
1.080000 -6.960000 2.920000 141.557144 46.431908 22194.347656
1.080000 -6.960000 2.960000 101.828323 140.599991 30137.365234
1.080000 -6.960000 3.000000 3.334381 176.393707 31125.857422
1.080000 -6.960000 3.040000 -84.862671 130.709824 24286.730469
1.080000 -6.960000 3.080000 -105.790543 46.523865 13356.108398
1.080000 -6.960000 3.120000 -63.160877 -8.473312 4061.093506
1.080000 -6.960000 3.160000 -11.434635 -3.158205 140.725143
1.080000 -6.960000 3.200000 -0.597179 35.121212 1233.856079
1.080000 -6.920000 2.800000 -5.196024 -20.414610 443.754944
1.080000 -6.920000 2.840000 46.848137 -24.109434 2776.012939
1.080000 -6.920000 2.880000 90.572845 27.863092 8979.791992
1.080000 -6.920000 2.920000 76.617195 108.338219 17607.365234
1.080000 -6.920000 2.960000 0.243622 156.840271 24598.929688
1.080000 -6.920000 3.000000 -89.185852 133.961716 25899.859375
1.080000 -6.920000 3.040000 -130.933868 58.240471 20535.630859
1.080000 -6.920000 3.080000 -106.775558 -11.409706 11531.201172
1.080000 -6.920000 3.120000 -53.544918 -30.167889 3777.159912
1.080000 -6.920000 3.160000 -24.041069 -4.793209 600.947876
1.080000 -6.920000 3.200000 -37.264633 20.472363 1807.770508
1.080000 -6.880000 2.800000 -0.672494 -17.513922 307.189697
1.080000 -6.880000 2.840000 35.593658 2.471413 1273.016479
1.080000 -6.880000 2.880000 41.234222 54.983997 4723.500977
1.080000 -6.880000 2.920000 -2.626553 99.994865 10005.871094
1.080000 -6.880000 2.960000 -71.502335 97.682693 14654.492188
1.080000 -6.880000 3.000000 -117.700150 46.140903 15982.308594
1.080000 -6.880000 3.040000 -113.427620 -16.768459 13147.006836
1.080000 -6.880000 3.080000 -74.098969 -49.251907 7916.407715
1.080000 -6.880000 3.120000 -39.710461 -42.785400 3407.511230
1.080000 -6.880000 3.160000 -35.033821 -24.478523 1826.566772
1.080000 -6.880000 3.200000 -49.181671 -25.310013 3059.433350
1.080000 -6.840000 2.800000 1.894005 -19.266144 374.771545
1.080000 -6.840000 2.840000 16.143929 5.084093 286.474426
1.080000 -6.840000 2.880000 0.911995 35.455299 1257.910034
1.080000 -6.840000 2.920000 -37.342480 43.405048 3278.458984
1.080000 -6.840000 2.960000 -70.900558 19.016479 5388.515625
1.080000 -6.840000 3.000000 -77.081039 -20.316444 6354.244629
1.080000 -6.840000 3.040000 -58.267590 -48.118099 5710.463867
1.080000 -6.840000 3.080000 -35.805687 -54.140491 4213.240234
1.080000 -6.840000 3.120000 -26.124802 -50.549065 3237.713379
1.080000 -6.840000 3.160000 -25.293390 -54.620461 3623.150391
1.080000 -6.840000 3.200000 -17.159695 -68.529037 4990.684082
1.080000 -6.800000 2.800000 10.087118 -22.520779 608.935425
1.080000 -6.800000 2.840000 11.536274 -7.420787 188.153687
1.080000 -6.800000 2.880000 -0.779953 1.064850 1.742232
1.080000 -6.800000 2.920000 -14.573769 -4.355171 231.362244
1.080000 -6.800000 2.960000 -19.120989 -16.984100 654.071899
1.080000 -6.800000 3.000000 -15.956821 -26.318436 947.280151
1.080000 -6.800000 3.040000 -13.816223 -31.151196 1161.285034
1.080000 -6.800000 3.080000 -14.979950 -39.581715 1791.111084
1.080000 -6.800000 3.120000 -10.461822 -56.119373 3258.833740
1.080000 -6.800000 3.160000 9.280583 -72.149307 5291.651855
1.080000 -6.800000 3.200000 40.536888 -72.462753 6894.089844
1.120000 -7.200000 2.800000 21.097498 25.702543 1105.725098
1.120000 -7.200000 2.840000 3.456517 39.454163 1568.578491
1.120000 -7.200000 2.880000 -19.017368 36.115379 1665.980957
1.120000 -7.200000 2.920000 -32.089302 18.665768 1378.134155
1.120000 -7.200000 2.960000 -29.965542 -0.930962 898.800415
1.120000 -7.200000 3.000000 -17.624813 -12.349853 463.152893
1.120000 -7.200000 3.040000 -3.954749 -13.405602 195.350189
1.120000 -7.200000 3.080000 5.617997 -7.763740 91.837547
1.120000 -7.200000 3.120000 9.999928 0.820786 100.672264
1.120000 -7.200000 3.160000 8.806610 10.230893 182.227554
1.120000 -7.200000 3.200000 1.204402 17.255955 299.218567
1.120000 -7.160000 2.800000 6.044451 34.114536 1200.337036
1.120000 -7.160000 2.840000 -19.970177 39.095081 1927.233398
1.120000 -7.160000 2.880000 -42.642178 21.277534 2271.088867
1.120000 -7.160000 2.920000 -44.965786 -8.206838 2089.274170
1.120000 -7.160000 2.960000 -25.989315 -29.528896 1547.400146
1.120000 -7.160000 3.000000 -0.096657 -30.881784 953.693970
1.120000 -7.160000 3.040000 16.500370 -16.134962 532.599243
1.120000 -7.160000 3.080000 17.973110 1.816540 326.332489
1.120000 -7.160000 3.120000 9.439020 12.963891 257.157562
1.120000 -7.160000 3.160000 -1.172189 15.427167 239.371506
1.120000 -7.160000 3.200000 -9.441283 11.858385 229.759125
1.120000 -7.120000 2.800000 -11.446178 32.076107 1159.891602
1.120000 -7.120000 2.840000 -40.139091 21.259201 2063.100342
1.120000 -7.120000 2.880000 -50.794609 -12.283791 2730.983887
1.120000 -7.120000 2.920000 -30.682304 -44.494057 2921.125000
1.120000 -7.120000 2.960000 7.284596 -50.905533 2644.438721
1.120000 -7.120000 3.000000 36.091061 -28.133701 2094.069824
1.120000 -7.120000 3.040000 38.274334 4.749193 1487.479492
1.120000 -7.120000 3.080000 18.780865 24.623615 959.043335
1.120000 -7.120000 3.120000 -3.313053 23.305908 554.141663
1.120000 -7.120000 3.160000 -13.224730 10.018106 275.255920
1.120000 -7.120000 3.200000 -10.414274 -1.386887 110.380562
1.120000 -7.080000 2.800000 -23.939070 20.336016 986.632568
1.120000 -7.080000 2.840000 -43.203716 -7.612327 1924.508667
1.120000 -7.080000 2.880000 -29.792601 -46.028389 3006.211670
1.120000 -7.080000 2.920000 13.321457 -61.449299 3953.477539
1.120000 -7.080000 2.960000 55.201439 -37.329956 4440.724609
1.120000 -7.080000 3.000000 64.377815 9.697920 4238.552734
1.120000 -7.080000 3.040000 36.838676 44.865974 3370.043945
1.120000 -7.080000 3.080000 -2.291500 46.276608 2146.775391
1.120000 -7.080000 3.120000 -23.310724 21.744888 1016.230103
1.120000 -7.080000 3.160000 -17.381111 -2.765404 309.750488
1.120000 -7.080000 3.200000 0.673841 -8.694782 76.053299
1.120000 -7.040000 2.800000 -26.513737 4.891585 726.905823
1.120000 -7.040000 2.840000 -25.131168 -30.685219 1573.158203
1.120000 -7.040000 2.880000 12.199697 -54.532806 3122.659424
1.120000 -7.040000 2.920000 60.942940 -37.538284 5123.165039
1.120000 -7.040000 2.960000 80.922020 15.039313 6774.554688
1.120000 -7.040000 3.000000 53.649025 65.516495 7170.628906
1.120000 -7.040000 3.040000 0.079807 77.302727 5975.717773
1.120000 -7.040000 3.080000 -38.827286 47.278629 3742.826904
1.120000 -7.040000 3.120000 -39.046570 5.955446 1560.101929
1.120000 -7.040000 3.160000 -11.985958 -12.816339 307.921722
1.120000 -7.040000 3.200000 11.167794 -1.483921 126.921646
1.120000 -7.000000 2.800000 -20.373428 -6.667889 459.537323
1.120000 -7.000000 2.840000 2.284048 -33.604275 1134.464233
1.120000 -7.000000 2.880000 47.174908 -28.807182 3055.325684
1.120000 -7.000000 2.920000 75.770973 17.107330 6033.900879
1.120000 -7.000000 2.960000 57.241608 74.506248 8827.783203
1.120000 -7.000000 3.000000 -0.324250 99.299316 9860.459961
1.120000 -7.000000 3.040000 -55.160156 73.227600 8404.923828
1.120000 -7.000000 3.080000 -69.300797 20.297709 5214.597656
1.120000 -7.000000 3.120000 -41.653206 -16.538475 2008.510620
1.120000 -7.000000 3.160000 -5.224661 -14.605261 240.610718
1.120000 -7.000000 3.200000 6.465111 11.535864 174.873810
1.120000 -6.960000 2.800000 -11.817986 -10.919250 258.894806
1.120000 -6.960000 2.840000 20.080357 -17.603188 713.092957
1.120000 -6.960000 2.880000 50.390663 12.477909 2694.917236
1.120000 -6.960000 2.920000 44.294628 64.299095 6096.387695
1.120000 -6.960000 2.960000 -4.710132 97.269318 9483.505859
1.120000 -6.960000 3.000000 -64.757019 82.080780 10930.726562
1.120000 -6.960000 3.040000 -92.889473 28.942591 9466.127930
1.120000 -6.960000 3.080000 -73.694733 -21.373629 5887.745605
1.120000 -6.960000 3.120000 -31.483101 -34.945171 2212.350586
1.120000 -6.960000 3.160000 -5.153241 -13.678445 213.655746
1.120000 -6.960000 3.200000 -11.921184 11.190493 267.341736
1.120000 -6.920000 2.800000 -6.332377 -11.001393 161.129654
1.120000 -6.920000 2.840000 18.870762 1.167778 357.469360
1.120000 -6.920000 2.880000 23.264708 37.876495 1975.875488
1.120000 -6.920000 2.920000 -9.083174 70.098381 4996.287109
1.120000 -6.920000 2.960000 -60.962204 66.512939 8140.361328
1.120000 -6.920000 3.000000 -95.091431 24.055185 9621.032227
1.120000 -6.920000 3.040000 -87.829056 -27.730261 8482.910156
1.120000 -6.920000 3.080000 -50.240990 -53.559639 5392.791992
1.120000 -6.920000 3.120000 -15.997221 -43.853195 2179.013916
1.120000 -6.920000 3.160000 -9.119150 -20.191441 490.853180
1.120000 -6.920000 3.200000 -23.897747 -11.344421 699.798218
1.120000 -6.880000 2.800000 -3.264895 -12.388268 164.128738
1.120000 -6.880000 2.840000 7.115568 6.983573 99.401596
1.120000 -6.880000 2.880000 -7.602135 31.515423 1051.014282
1.120000 -6.880000 2.920000 -42.640263 35.511921 3079.288574
1.120000 -6.880000 2.960000 -72.322937 8.793943 5307.940918
1.120000 -6.880000 3.000000 -73.609116 -32.326290 6463.291016
1.120000 -6.880000 3.040000 -47.424805 -60.060162 5856.334961
1.120000 -6.880000 3.080000 -16.334843 -60.796936 3963.094482
1.120000 -6.880000 3.120000 -1.837735 -45.522366 2075.663086
1.120000 -6.880000 3.160000 -5.007414 -35.804920 1307.066528
1.120000 -6.880000 3.200000 -9.264137 -41.406883 1800.354248
1.120000 -6.840000 2.800000 2.788274 -15.841125 258.715729
1.120000 -6.840000 2.840000 1.705736 -0.371290 3.047392
1.120000 -6.840000 2.880000 -15.681215 6.888243 293.348389
1.120000 -6.840000 2.920000 -34.774582 -5.216511 1236.483643
1.120000 -6.840000 2.960000 -38.506962 -29.786064 2369.995605
1.120000 -6.840000 3.000000 -24.129639 -49.250038 3007.805664
1.120000 -6.840000 3.040000 -4.396835 -53.241814 2854.022949
1.120000 -6.840000 3.080000 7.230541 -47.395424 2298.606934
1.120000 -6.840000 3.120000 10.370055 -44.397537 2078.679443
1.120000 -6.840000 3.160000 15.601601 -48.498627 2595.526611
1.120000 -6.840000 3.200000 30.174091 -51.166306 3528.466553
1.120000 -6.800000 2.800000 14.549291 -15.397860 448.775940
1.120000 -6.800000 2.840000 10.116257 -6.533039 145.019257
1.120000 -6.800000 2.880000 0.970725 -7.898457 63.327923
1.120000 -6.800000 2.920000 -1.702024 -17.347229 303.823242
1.120000 -6.800000 2.960000 4.385294 -24.760258 632.301147
1.120000 -6.800000 3.000000 11.374176 -25.087746 758.766846
1.120000 -6.800000 3.040000 12.784721 -24.219509 750.033691
1.120000 -6.800000 3.080000 13.187506 -30.232855 1087.935791
1.120000 -6.800000 3.120000 23.357018 -40.713692 2203.155029
1.120000 -6.800000 3.160000 45.803444 -42.419064 3897.332520
1.120000 -6.800000 3.200000 68.153259 -25.359322 5287.961914
1.160000 -7.200000 2.800000 -6.429129 14.542713 252.824219
1.160000 -7.200000 2.840000 -19.343452 18.144594 703.395447
1.160000 -7.200000 2.880000 -31.729025 9.957939 1105.891602
1.160000 -7.200000 2.920000 -34.935425 -5.412345 1249.777344
1.160000 -7.200000 2.960000 -27.228905 -18.996214 1102.269409
1.160000 -7.200000 3.000000 -13.667712 -24.473347 785.751038
1.160000 -7.200000 3.040000 -0.997513 -21.370518 457.694061
1.160000 -7.200000 3.080000 6.705404 -13.015228 214.358612
1.160000 -7.200000 3.120000 8.386720 -3.171829 80.397568
1.160000 -7.200000 3.160000 4.441956 4.990642 44.637478
1.160000 -7.200000 3.200000 -3.393055 8.306898 80.517380
1.160000 -7.160000 2.800000 -8.485773 11.978404 215.490509
1.160000 -7.160000 2.840000 -24.660238 11.178202 733.079590
1.160000 -7.160000 2.880000 -35.078629 -3.664760 1243.940552
1.160000 -7.160000 2.920000 -30.648472 -22.530529 1446.953491
1.160000 -7.160000 2.960000 -14.037685 -32.631676 1261.882935
1.160000 -7.160000 3.000000 3.790242 -28.818888 844.894165
1.160000 -7.160000 3.040000 13.273293 -15.941671 430.317200
1.160000 -7.160000 3.080000 12.512634 -2.753278 164.146545
1.160000 -7.160000 3.120000 5.663671 5.176602 58.874374
1.160000 -7.160000 3.160000 -2.415340 7.133611 56.722279
1.160000 -7.160000 3.200000 -8.891093 4.494944 99.256058
1.160000 -7.120000 2.800000 -10.041807 11.510372 233.326553
1.160000 -7.120000 2.840000 -26.438129 3.040460 708.219055
1.160000 -7.120000 2.880000 -29.356737 -17.249680 1159.369385
1.160000 -7.120000 2.920000 -14.481327 -33.161396 1309.387085
1.160000 -7.120000 2.960000 7.322907 -32.311943 1097.686646
1.160000 -7.120000 3.000000 20.445885 -16.583302 693.040100
1.160000 -7.120000 3.040000 18.123133 1.242322 329.991302
1.160000 -7.120000 3.080000 6.180462 9.812293 134.479202
1.160000 -7.120000 3.120000 -4.758933 7.715366 82.174324
1.160000 -7.120000 3.160000 -9.068983 1.253195 83.816948
1.160000 -7.120000 3.200000 -8.333742 -3.641407 82.711098
1.160000 -7.080000 2.800000 -13.695958 11.227435 313.634583
1.160000 -7.080000 2.840000 -24.397774 -4.579107 616.219543
1.160000 -7.080000 2.880000 -16.360680 -23.862608 837.095947
1.160000 -7.080000 2.920000 5.120900 -28.865631 859.448303
1.160000 -7.080000 2.960000 22.199770 -14.659644 707.734924
1.160000 -7.080000 3.000000 21.440983 6.625062 503.607208
1.160000 -7.080000 3.040000 5.653967 17.957970 354.456024
1.160000 -7.080000 3.080000 -10.465108 13.025256 279.175781
1.160000 -7.080000 3.120000 -15.073790 -0.012760 227.219299
1.160000 -7.080000 3.160000 -8.880914 -8.634955 153.433075
1.160000 -7.080000 3.200000 -1.372552 -8.064824 66.925293
1.160000 -7.040000 2.800000 -18.572754 8.184701 411.936493
1.160000 -7.040000 2.840000 -19.449005 -9.436634 467.313843
1.160000 -7.040000 2.880000 -3.618409 -19.816278 405.777802
1.160000 -7.040000 2.920000 14.562694 -11.426678 342.641022
1.160000 -7.040000 2.960000 17.587669 9.126190 392.613464
1.160000 -7.040000 3.000000 2.058228 23.374052 550.582642
1.160000 -7.040000 3.040000 -18.228516 18.940557 691.023499
1.160000 -7.040000 3.080000 -26.070768 0.920784 680.532776
1.160000 -7.040000 3.120000 -17.081850 -14.276705 495.613892
1.160000 -7.040000 3.160000 -2.195711 -15.297465 238.833603
1.160000 -7.040000 3.200000 4.607678 -5.512183 51.614861
1.160000 -7.000000 2.800000 -21.743088 1.805406 476.021362
1.160000 -7.000000 2.840000 -14.422388 -10.558331 319.483612
1.160000 -7.000000 2.880000 0.536881 -9.288832 86.570633
1.160000 -7.000000 2.920000 6.604032 5.899609 78.418625
1.160000 -7.000000 2.960000 -4.867336 20.203018 431.852905
1.160000 -7.000000 3.000000 -25.158426 18.240438 965.660034
1.160000 -7.000000 3.040000 -36.262535 -0.441715 1315.166504
1.160000 -7.000000 3.080000 -28.361183 -20.720181 1233.682617
1.160000 -7.000000 3.120000 -8.989902 -26.603563 788.567932
1.160000 -7.000000 3.160000 4.994686 -16.172646 286.501373
1.160000 -7.000000 3.200000 3.788237 -2.061838 18.601913
1.160000 -6.960000 2.800000 -21.177803 -6.127318 486.043365
1.160000 -6.960000 2.840000 -11.852487 -10.068592 241.858002
1.160000 -6.960000 2.880000 -5.255005 -2.156998 32.267715
1.160000 -6.960000 2.920000 -11.600754 8.663176 209.628098
1.160000 -6.960000 2.960000 -27.691948 8.367079 836.851990
1.160000 -6.960000 3.000000 -38.985050 -7.497163 1576.041504
1.160000 -6.960000 3.040000 -33.662567 -28.369148 1937.977051
1.160000 -6.960000 3.080000 -14.423357 -38.320290 1676.477783
1.160000 -6.960000 3.120000 3.966156 -31.090355 982.340576
1.160000 -6.960000 3.160000 8.687453 -15.453334 314.277374
1.160000 -6.960000 3.200000 0.319124 -6.121264 37.571709
1.160000 -6.920000 2.800000 -16.486979 -13.485651 453.683228
1.160000 -6.920000 2.840000 -10.698165 -11.387452 244.124802
1.160000 -6.920000 2.880000 -12.999519 -5.120018 195.202087
1.160000 -6.920000 2.920000 -23.391222 -5.377414 576.065857
1.160000 -6.920000 2.960000 -31.737387 -17.539785 1314.905762
1.160000 -6.920000 3.000000 -27.653837 -35.131153 1998.932617
1.160000 -6.920000 3.040000 -11.179097 -45.417999 2187.766846
1.160000 -6.920000 3.080000 6.882138 -41.480087 1767.961426
1.160000 -6.920000 3.120000 15.154026 -28.443813 1038.695068
1.160000 -6.920000 3.160000 11.885674 -17.938416 463.056000
1.160000 -6.920000 3.200000 5.295732 -16.982071 316.435516
1.160000 -6.880000 2.800000 -7.779221 -18.371181 398.016571
1.160000 -6.880000 2.840000 -6.763941 -14.652199 260.437836
1.160000 -6.880000 2.880000 -12.463438 -14.520378 366.178650
1.160000 -6.880000 2.920000 -17.488070 -23.226126 845.285522
1.160000 -6.880000 2.960000 -13.322259 -36.362900 1499.743042
1.160000 -6.880000 3.000000 0.368876 -43.982704 1934.614380
1.160000 -6.880000 3.040000 15.201023 -40.746696 1891.364258
1.160000 -6.880000 3.080000 22.681576 -30.934694 1471.409180
1.160000 -6.880000 3.120000 22.356182 -23.260332 1040.841919
1.160000 -6.880000 3.160000 20.915806 -21.666622 906.913452
1.160000 -6.880000 3.200000 24.025702 -22.248356 1072.223633
1.160000 -6.840000 2.800000 4.183699 -18.015635 342.066406
1.160000 -6.840000 2.840000 2.113727 -14.900764 226.500626
1.160000 -6.840000 2.880000 -1.699002 -19.117756 368.375183
1.160000 -6.840000 2.920000 1.250764 -28.193090 796.414734
1.160000 -6.840000 2.960000 12.240094 -33.165188 1249.749634
1.160000 -6.840000 3.000000 23.676914 -29.072079 1405.781982
1.160000 -6.840000 3.040000 28.029245 -20.643835 1211.806519
1.160000 -6.840000 3.080000 26.666981 -16.393280 979.867493
1.160000 -6.840000 3.120000 27.945053 -18.069733 1107.441162
1.160000 -6.840000 3.160000 36.588348 -18.168274 1668.793457
1.160000 -6.840000 3.200000 47.016384 -8.859088 2289.023682
1.160000 -6.800000 2.800000 15.806665 -9.362197 337.501404
1.160000 -6.800000 2.840000 11.474922 -6.666098 176.110703
1.160000 -6.800000 2.880000 10.002931 -11.234434 226.271133
1.160000 -6.800000 2.920000 16.195129 -15.373982 498.641541
1.160000 -6.800000 2.960000 24.544060 -12.098879 748.793762
1.160000 -6.800000 3.000000 26.620094 -4.404241 728.026733
1.160000 -6.800000 3.040000 22.673271 -1.671497 516.871094
1.160000 -6.800000 3.080000 22.611120 -6.959210 559.693359
1.160000 -6.800000 3.120000 33.858238 -10.929160 1265.826782
1.160000 -6.800000 3.160000 50.134499 -1.195192 2514.896484
1.160000 -6.800000 3.200000 55.559502 22.429083 3589.921875
1.200000 -7.200000 2.800000 -11.384354 -9.983292 229.269623
1.200000 -7.200000 2.840000 -15.597343 -7.667912 302.074005
1.200000 -7.200000 2.880000 -20.667139 -11.349962 555.952271
1.200000 -7.200000 2.920000 -21.284319 -19.825474 846.071655
1.200000 -7.200000 2.960000 -14.839327 -28.139698 1012.048218
1.200000 -7.200000 3.000000 -3.328948 -30.995819 971.822693
1.200000 -7.200000 3.040000 8.074488 -26.247971 754.153259
1.200000 -7.200000 3.080000 14.352995 -15.997320 461.922729
1.200000 -7.200000 3.120000 13.427857 -5.041529 205.724365
1.200000 -7.200000 3.160000 7.011403 1.884770 52.712135
1.200000 -7.200000 3.200000 -0.527103 2.589913 6.985489
1.200000 -7.160000 2.800000 -0.102234 -8.852658 78.380013
1.200000 -7.160000 2.840000 -8.544910 -5.938021 108.275589
1.200000 -7.160000 2.880000 -15.703605 -12.191133 395.226929
1.200000 -7.160000 2.920000 -14.665417 -22.965393 742.483765
1.200000 -7.160000 2.960000 -4.945749 -30.142553 933.033997
1.200000 -7.160000 3.000000 7.693433 -28.554548 874.551147
1.200000 -7.160000 3.040000 16.162348 -19.207167 630.136719
1.200000 -7.160000 3.080000 16.871458 -7.410302 339.558655
1.200000 -7.160000 3.120000 10.915217 1.346622 120.955360
1.200000 -7.160000 3.160000 2.181892 4.198877 22.391226
1.200000 -7.160000 3.200000 -5.080993 1.389311 27.746677
1.200000 -7.120000 2.800000 3.961314 2.628982 22.603558
1.200000 -7.120000 2.840000 -9.216530 2.060499 89.190079
1.200000 -7.120000 2.880000 -16.648527 -9.056633 359.196045
1.200000 -7.120000 2.920000 -12.521173 -21.959248 638.988342
1.200000 -7.120000 2.960000 -0.241263 -27.271271 743.780457
1.200000 -7.120000 3.000000 11.414532 -22.283443 626.843384
1.200000 -7.120000 3.040000 15.737312 -11.669937 383.850433
1.200000 -7.120000 3.080000 12.198795 -2.403380 154.586853
1.200000 -7.120000 3.120000 4.813382 1.458884 25.296991
1.200000 -7.120000 3.160000 -1.984613 -0.036779 3.940043
1.200000 -7.120000 3.200000 -5.695773 -4.682734 54.369827
1.200000 -7.080000 2.800000 -4.985700 13.401178 204.448792
1.200000 -7.080000 2.840000 -19.788843 5.908889 426.513306
1.200000 -7.080000 2.880000 -23.958244 -10.381018 681.763000
1.200000 -7.080000 2.920000 -15.197208 -24.034653 808.619690
1.200000 -7.080000 2.960000 -0.795007 -26.955769 727.245483
1.200000 -7.080000 3.000000 9.488220 -20.040367 491.642639
1.200000 -7.080000 3.040000 11.222458 -10.523224 236.681793
1.200000 -7.080000 3.080000 7.017334 -4.903435 73.286652
1.200000 -7.080000 3.120000 2.156163 -4.580726 25.632092
1.200000 -7.080000 3.160000 -0.245782 -7.099176 50.458710
1.200000 -7.080000 3.200000 -0.194469 -9.892703 97.903389
1.200000 -7.040000 2.800000 -20.872086 12.676963 596.349365
1.200000 -7.040000 2.840000 -32.371235 -1.888275 1051.462402
1.200000 -7.040000 2.880000 -30.203148 -20.876030 1348.038818
1.200000 -7.040000 2.920000 -16.320328 -32.786549 1341.310791
1.200000 -7.040000 2.960000 -0.273437 -32.543350 1059.144409
1.200000 -7.040000 3.000000 9.230412 -24.152843 668.560364
1.200000 -7.040000 3.040000 10.525151 -15.531162 351.995789
1.200000 -7.040000 3.080000 8.004703 -11.417929 194.444366
1.200000 -7.040000 3.120000 6.456476 -10.979111 162.226959
1.200000 -7.040000 3.160000 6.986917 -10.995968 169.728333
1.200000 -7.040000 3.200000 7.892607 -10.007872 162.450745
1.200000 -7.000000 2.800000 -31.701424 -0.677567 1005.439392
1.200000 -7.000000 2.840000 -36.174477 -18.973013 1668.567993
1.200000 -7.000000 2.880000 -26.997742 -36.589222 2067.649170
1.200000 -7.000000 2.920000 -9.237515 -44.208530 2039.725830
1.200000 -7.000000 2.960000 7.407944 -39.946011 1650.561401
1.200000 -7.000000 3.000000 16.221291 -29.404669 1127.764771
1.200000 -7.000000 3.040000 17.421715 -19.887493 699.028564
1.200000 -7.000000 3.080000 15.701964 -14.626374 460.482483
1.200000 -7.000000 3.120000 14.851460 -12.004162 364.665771
1.200000 -7.000000 3.160000 14.931137 -9.257940 308.648315
1.200000 -7.000000 3.200000 14.033584 -5.994530 232.875854
1.200000 -6.960000 2.800000 -29.792471 -18.212116 1219.272461
1.200000 -6.960000 2.840000 -26.669849 -35.342411 1960.366943
1.200000 -6.960000 2.880000 -12.595789 -48.036575 2466.166260
1.200000 -6.960000 2.920000 6.392783 -50.006073 2541.475098
1.200000 -6.960000 2.960000 21.887190 -41.428120 2195.338135
1.200000 -6.960000 3.000000 28.823116 -28.138029 1622.520752
1.200000 -6.960000 3.040000 28.110970 -16.793575 1072.250732
1.200000 -6.960000 3.080000 24.397007 -10.281896 700.931274
1.200000 -6.960000 3.120000 21.505566 -7.074759 512.541565
1.200000 -6.960000 3.160000 19.840439 -4.367800 412.720673
1.200000 -6.960000 3.200000 17.664986 -1.384275 313.967957
1.200000 -6.920000 2.800000 -16.677914 -29.573565 1152.748535
1.200000 -6.920000 2.840000 -8.583274 -41.507858 1796.574951
1.200000 -6.920000 2.880000 6.579213 -47.886116 2336.366211
1.200000 -6.920000 2.920000 23.828205 -44.722603 2567.894531
1.200000 -6.920000 2.960000 36.288254 -32.695126 2385.808594
1.200000 -6.920000 3.000000 39.565273 -17.394642 1867.984497
1.200000 -6.920000 3.040000 34.845718 -5.678688 1246.471558
1.200000 -6.920000 3.080000 27.716476 -0.739040 768.749268
1.200000 -6.920000 3.120000 23.338745 -0.315283 544.796448
1.200000 -6.920000 3.160000 22.384258 0.262861 501.124115
1.200000 -6.920000 3.200000 21.601364 3.153480 476.563354
1.200000 -6.880000 2.800000 0.007630 -29.587154 875.399780
1.200000 -6.880000 2.840000 8.528672 -34.863640 1288.211670
1.200000 -6.880000 2.880000 21.032509 -36.220428 1754.285889
1.200000 -6.880000 2.920000 34.556129 -30.127644 2101.801025
1.200000 -6.880000 2.960000 42.927757 -16.605701 2118.541748
1.200000 -6.880000 3.000000 41.633575 -1.445786 1735.444946
1.200000 -6.880000 3.040000 32.816605 7.615970 1134.932617
1.200000 -6.880000 3.080000 24.247543 7.886733 650.143921
1.200000 -6.880000 3.120000 22.205959 4.414392 512.591492
1.200000 -6.880000 3.160000 25.381514 4.815657 667.411804
1.200000 -6.880000 3.200000 26.616142 11.188781 833.607788
1.200000 -6.840000 2.800000 12.484077 -19.474451 535.106445
1.200000 -6.840000 2.840000 16.925129 -19.913353 683.001587
1.200000 -6.840000 2.880000 24.773880 -19.634731 999.267822
1.200000 -6.840000 2.920000 34.490433 -13.462654 1370.833008
1.200000 -6.840000 2.960000 39.180473 -0.605484 1535.476074
1.200000 -6.840000 3.000000 34.177349 12.057013 1313.462769
1.200000 -6.840000 3.040000 23.729805 16.213297 825.974609
1.200000 -6.840000 3.080000 17.846479 11.614392 453.390930
1.200000 -6.840000 3.120000 21.589294 7.443190 521.498718
1.200000 -6.840000 3.160000 28.719521 12.686197 985.750488
1.200000 -6.840000 3.200000 27.858212 25.599262 1431.402100
1.200000 -6.800000 2.800000 16.062500 -4.040750 274.331573
1.200000 -6.800000 2.840000 14.173083 -4.217598 218.664429
1.200000 -6.800000 2.880000 18.212690 -6.146249 369.478455
1.200000 -6.800000 2.920000 25.913630 -1.912978 675.175659
1.200000 -6.800000 2.960000 28.503429 9.027449 893.940308
1.200000 -6.800000 3.000000 21.984566 18.049416 809.102539
1.200000 -6.800000 3.040000 13.344578 17.612497 488.277832
1.200000 -6.800000 3.080000 13.054232 11.528893 303.328369
1.200000 -6.800000 3.120000 21.815191 11.998610 619.869202
1.200000 -6.800000 3.160000 27.611423 25.315411 1403.260742
1.200000 -6.800000 3.200000 18.275566 42.542229 2143.837402
