#kx 	ky 	kz 	real 	imag 	intensity
4.800000 -7.200000 -5.200000 -43.617500 -6.031300 1938.862915
4.800000 -7.200000 -5.160000 -20.574074 -25.492729 1073.171753
4.800000 -7.200000 -5.120000 5.415680 -11.888022 170.654663
4.800000 -7.200000 -5.080000 1.958399 19.413517 380.719971
4.800000 -7.200000 -5.040000 -32.009834 31.478163 2015.504272
4.800000 -7.200000 -5.000000 -63.279327 5.674477 4036.472900
4.800000 -7.200000 -4.960000 -58.881538 -37.076851 4841.728516
4.800000 -7.200000 -4.920000 -21.267941 -57.174507 3721.249512
4.800000 -7.200000 -4.880000 13.706731 -37.375851 1584.828735
4.800000 -7.200000 -4.840000 13.780159 -0.209341 189.936600
4.800000 -7.200000 -4.800000 -17.326347 16.139929 560.699585
4.800000 -7.160000 -5.200000 -31.831661 -35.339386 2262.126953
4.800000 -7.160000 -5.160000 0.279744 -37.871845 1434.354858
4.800000 -7.160000 -5.120000 15.366673 -11.554592 369.643250
4.800000 -7.160000 -5.080000 -3.500157 12.710518 173.808365
4.800000 -7.160000 -5.040000 -36.407722 5.034944 1350.872925
4.800000 -7.160000 -5.000000 -47.007500 -30.913383 3165.342285
4.800000 -7.160000 -4.960000 -21.118153 -60.942566 4159.972656
4.800000 -7.160000 -4.920000 17.968773 -56.047104 3464.154541
4.800000 -7.160000 -4.880000 33.796242 -22.487991 1647.895630
4.800000 -7.160000 -4.840000 14.308268 5.517684 235.171356
4.800000 -7.160000 -4.800000 -17.260706 1.696775 300.811035
4.800000 -7.120000 -5.200000 -0.377948 -46.272781 2141.313232
4.800000 -7.120000 -5.160000 25.687906 -30.355034 1581.296631
4.800000 -7.120000 -5.120000 24.510416 -2.629457 607.674561
4.800000 -7.120000 -5.080000 0.363400 6.982654 48.889511
4.800000 -7.120000 -5.040000 -18.320799 -11.778931 474.394897
4.800000 -7.120000 -5.000000 -9.302895 -38.584484 1575.306274
4.800000 -7.120000 -4.960000 19.771746 -44.435429 2365.429199
4.800000 -7.120000 -4.920000 39.861156 -22.616953 2100.438232
4.800000 -7.120000 -4.880000 31.612349 4.637248 1020.844666
4.800000 -7.120000 -4.840000 5.245640 10.314542 133.906509
4.800000 -7.120000 -4.800000 -11.539503 -9.301156 219.671631
4.800000 -7.080000 -5.200000 28.442211 -30.063004 1712.743530
4.800000 -7.080000 -5.160000 38.046776 -5.918741 1482.588623
4.800000 -7.080000 -5.120000 25.182358 12.707132 795.622314
4.800000 -7.080000 -5.080000 6.409640 10.494241 151.212585
4.800000 -7.080000 -5.040000 2.307543 -5.307953 33.499119
4.800000 -7.080000 -5.000000 15.496754 -13.829754 431.411438
4.800000 -7.080000 -4.960000 28.771076 -4.025587 843.980164
4.800000 -7.080000 -4.920000 25.017651 13.377769 804.847534
4.800000 -7.080000 -4.880000 6.506892 18.289341 376.839661
4.800000 -7.080000 -4.840000 -7.695500 3.771293 73.443375
4.800000 -7.080000 -4.800000 -2.783355 -16.487720 279.592010
4.800000 -7.040000 -5.200000 35.143127 0.137399 1235.058350
4.800000 -7.040000 -5.160000 29.229187 19.439304 1232.231934
4.800000 -7.040000 -5.120000 13.847219 25.967327 866.047546
4.800000 -7.040000 -5.080000 3.675889 19.985527 412.933441
4.800000 -7.040000 -5.040000 4.379627 13.656645 205.685089
4.800000 -7.040000 -5.000000 7.552849 16.057159 314.877899
4.800000 -7.040000 -4.960000 2.150135 22.430782 507.763062
4.800000 -7.040000 -4.920000 -11.101916 20.180670 530.511963
4.800000 -7.040000 -4.880000 -19.206818 4.642160 390.451508
4.800000 -7.040000 -4.840000 -11.331184 -13.741042 317.211975
4.800000 -7.040000 -4.800000 8.277996 -19.637573 454.159485
4.800000 -7.000000 -5.200000 19.620155 22.293861 881.966797
4.800000 -7.000000 -5.160000 6.859287 30.363550 968.994995
4.800000 -7.000000 -5.120000 -4.864664 28.359066 827.901611
4.800000 -7.000000 -5.080000 -9.958368 23.316462 642.826538
4.800000 -7.000000 -5.040000 -12.557979 21.821970 633.901184
4.800000 -7.000000 -5.000000 -19.686090 21.314177 841.836304
4.800000 -7.000000 -4.960000 -30.314692 13.215691 1093.635010
4.800000 -7.000000 -4.920000 -34.024235 -5.160650 1184.280884
4.800000 -7.000000 -4.880000 -22.065544 -24.144829 1069.861084
4.800000 -7.000000 -4.840000 1.221257 -29.491163 871.220154
4.800000 -7.000000 -4.800000 20.412106 -16.978529 704.924500
4.800000 -6.960000 -5.200000 -1.788416 25.531380 655.049805
4.800000 -6.960000 -5.160000 -13.871443 24.155666 775.913147
4.800000 -6.960000 -5.120000 -21.113239 17.621607 756.289917
4.800000 -6.960000 -5.080000 -24.184422 12.033286 729.686218
4.800000 -6.960000 -5.040000 -28.394430 7.867430 868.140076
4.800000 -6.960000 -5.000000 -34.835892 -0.730704 1214.073242
4.800000 -6.960000 -4.960000 -36.305450 -17.323244 1618.180420
4.800000 -6.960000 -4.920000 -24.343302 -35.411617 1846.578979
4.800000 -6.960000 -4.880000 -0.372246 -41.950981 1760.023315
4.800000 -6.960000 -4.840000 22.309223 -30.072197 1402.038452
4.800000 -6.960000 -4.800000 29.673603 -7.405002 935.356750
4.800000 -6.920000 -5.200000 -14.076148 16.859739 482.388763
4.800000 -6.920000 -5.160000 -23.722500 9.859676 659.970215
4.800000 -6.920000 -5.120000 -27.027252 -0.694261 730.954346
4.800000 -6.920000 -5.080000 -25.540785 -9.366396 740.061035
4.800000 -6.920000 -5.040000 -23.553928 -16.133213 815.068115
4.800000 -6.920000 -5.000000 -20.982536 -24.823658 1056.480835
4.800000 -6.920000 -4.960000 -12.558575 -35.611416 1425.890747
4.800000 -6.920000 -4.920000 4.761822 -41.440418 1739.983154
4.800000 -6.920000 -4.880000 24.957232 -34.210854 1793.245850
4.800000 -6.920000 -4.840000 36.041752 -14.590698 1511.896362
4.800000 -6.920000 -4.800000 31.198788 6.174133 1011.484314
4.800000 -6.880000 -5.200000 -16.757912 9.542932 371.895142
4.800000 -6.880000 -5.160000 -24.649744 -2.871553 615.855713
4.800000 -6.880000 -5.120000 -21.401466 -18.104507 785.795959
4.800000 -6.880000 -5.080000 -9.995251 -26.825583 819.516907
4.800000 -6.880000 -5.040000 1.323777 -27.303467 747.231689
4.800000 -6.880000 -5.000000 8.503609 -24.817196 688.204529
4.800000 -6.880000 -4.960000 14.547413 -23.356258 757.142090
4.800000 -6.880000 -4.920000 23.119816 -20.369259 949.432617
4.800000 -6.880000 -4.880000 31.663242 -10.931428 1122.057007
4.800000 -6.880000 -4.840000 32.995697 4.197065 1106.331421
4.800000 -6.880000 -4.800000 23.776409 17.082529 857.130432
4.800000 -6.840000 -5.200000 -19.574944 7.499935 439.427429
4.800000 -6.840000 -5.160000 -23.006344 -12.401734 683.094849
4.800000 -6.840000 -5.120000 -8.353446 -28.982834 909.784668
4.800000 -6.840000 -5.080000 13.595192 -28.928852 1021.707703
4.800000 -6.840000 -5.040000 26.725521 -14.520079 925.086182
4.800000 -6.840000 -5.000000 25.368944 0.526350 643.860352
4.800000 -6.840000 -4.960000 17.651657 6.034000 347.990143
4.800000 -6.840000 -4.920000 14.400381 4.420014 226.907501
4.800000 -6.840000 -4.880000 17.190800 5.038239 320.907440
4.800000 -6.840000 -4.840000 18.504816 11.988613 486.155060
4.800000 -6.840000 -4.800000 12.145434 19.695137 535.410034
4.800000 -6.800000 -5.200000 -27.681824 2.976417 775.142456
4.800000 -6.800000 -5.160000 -20.141052 -22.630016 917.779602
4.800000 -6.800000 -5.120000 7.191686 -32.056080 1079.312622
4.800000 -6.800000 -5.080000 31.658413 -15.731953 1249.749512
4.800000 -6.800000 -5.040000 33.665180 12.163810 1281.302612
4.800000 -6.800000 -5.000000 15.062304 28.553473 1042.173828
4.800000 -6.800000 -4.960000 -4.847862 23.876925 593.609314
4.800000 -6.800000 -4.920000 -9.806698 8.941266 176.117554
4.800000 -6.800000 -4.880000 -1.314942 1.009983 2.749139
4.800000 -6.800000 -4.840000 6.508700 5.800287 76.006516
4.800000 -6.800000 -4.800000 3.732744 14.219519 216.128098
4.840000 -7.200000 -5.200000 -28.112900 -23.185650 1327.909424
4.840000 -7.200000 -5.160000 -3.060044 -20.078075 412.492981
4.840000 -7.200000 -5.120000 2.152848 4.864512 28.298237
4.840000 -7.200000 -5.080000 -22.811577 20.546402 942.522705
4.840000 -7.200000 -5.040000 -53.523045 2.384125 2870.400391
4.840000 -7.200000 -5.000000 -54.972404 -38.859974 4532.062988
4.840000 -7.200000 -4.960000 -19.459621 -65.549576 4675.423828
4.840000 -7.200000 -4.920000 22.984352 -51.606651 3191.526855
4.840000 -7.200000 -4.880000 34.077431 -10.311236 1267.592773
4.840000 -7.200000 -4.840000 6.092288 18.511452 379.789825
4.840000 -7.200000 -4.800000 -30.872650 8.633344 1027.655151
4.840000 -7.160000 -5.200000 -6.060585 -40.721592 1694.978760
4.840000 -7.160000 -5.160000 15.313660 -22.814684 755.018005
4.840000 -7.160000 -5.120000 8.263283 2.050514 72.486450
4.840000 -7.160000 -5.080000 -18.096233 4.111246 344.376007
4.840000 -7.160000 -5.040000 -32.166977 -22.347328 1534.117432
4.840000 -7.160000 -5.000000 -13.604071 -51.133854 2799.741699
4.840000 -7.160000 -4.960000 23.647799 -51.010963 3161.336914
4.840000 -7.160000 -4.920000 44.638908 -19.126019 2358.436768
4.840000 -7.160000 -4.880000 29.510918 15.035728 1096.967407
4.840000 -7.160000 -4.840000 -5.943858 19.660904 421.880585
4.840000 -7.160000 -4.800000 -26.911655 -7.300683 777.537170
4.840000 -7.120000 -5.200000 24.082603 -34.887939 1797.140137
4.840000 -7.120000 -5.160000 33.183662 -9.055520 1183.157837
4.840000 -7.120000 -5.120000 18.593924 9.210998 430.576477
4.840000 -7.120000 -5.080000 -0.327553 4.369051 19.195896
4.840000 -7.120000 -5.040000 -1.202499 -13.663580 188.139420
4.840000 -7.120000 -5.000000 17.015015 -20.654881 716.134766
4.840000 -7.120000 -4.960000 32.905983 -4.989508 1107.698853
4.840000 -7.120000 -4.920000 26.186192 19.040358 1048.251831
4.840000 -7.120000 -4.880000 0.337502 26.287863 691.165649
4.840000 -7.120000 -4.840000 -20.443504 7.750345 478.004700
4.840000 -7.120000 -4.800000 -16.538908 -19.771954 664.465637
4.840000 -7.080000 -5.200000 39.772449 -7.981690 1645.555176
4.840000 -7.080000 -5.160000 36.300304 15.970459 1572.767700
4.840000 -7.080000 -5.120000 20.168461 27.667480 1172.256348
4.840000 -7.080000 -5.080000 6.695076 25.188997 679.309631
4.840000 -7.080000 -5.040000 3.443104 19.859692 406.262299
4.840000 -7.080000 -5.000000 3.536690 21.598394 478.998810
4.840000 -7.080000 -4.960000 -4.061627 26.914536 740.889038
4.840000 -7.080000 -4.920000 -19.448847 23.392176 925.451538
4.840000 -7.080000 -4.880000 -29.672657 5.480965 910.507507
4.840000 -7.080000 -4.840000 -22.569189 -16.739708 789.586121
4.840000 -7.080000 -4.800000 -1.053550 -26.517826 704.305115
4.840000 -7.040000 -5.200000 30.539688 19.913261 1329.210571
4.840000 -7.040000 -5.160000 20.359053 36.753899 1765.340088
4.840000 -7.040000 -5.120000 4.226517 45.190460 2060.041260
4.840000 -7.040000 -5.080000 -12.365770 45.998257 2268.751953
4.840000 -7.040000 -5.040000 -28.192438 41.339584 2503.774658
4.840000 -7.040000 -5.000000 -43.164852 30.098536 2769.126221
4.840000 -7.040000 -4.960000 -52.957199 10.028061 2905.026855
4.840000 -7.040000 -4.920000 -49.838264 -15.495230 2723.954590
4.840000 -7.040000 -4.880000 -30.698454 -35.443726 2198.652832
4.840000 -7.040000 -4.840000 -3.473894 -38.657715 1506.486938
4.840000 -7.040000 -4.800000 16.899378 -24.504990 886.083496
4.840000 -7.000000 -5.200000 7.021442 29.893864 942.943726
4.840000 -7.000000 -5.160000 -4.639436 40.628395 1672.190918
4.840000 -7.000000 -5.120000 -23.127247 46.276150 2676.351562
4.840000 -7.000000 -5.080000 -46.445400 41.876797 3910.841309
4.840000 -7.000000 -5.040000 -68.035950 23.089342 5162.008301
4.840000 -7.000000 -5.000000 -77.262611 -8.847649 6047.791992
4.840000 -7.000000 -4.960000 -65.419350 -43.607552 6181.310059
4.840000 -7.000000 -4.920000 -33.911598 -65.336777 5418.891113
4.840000 -7.000000 -4.880000 3.411839 -63.114159 3995.037598
4.840000 -7.000000 -4.840000 28.326200 -40.104149 2410.716309
4.840000 -7.000000 -4.800000 31.505655 -12.179989 1140.958496
4.840000 -6.960000 -5.200000 -10.890642 21.040428 561.305725
4.840000 -6.960000 -5.160000 -23.457138 28.144932 1342.374512
4.840000 -6.960000 -5.120000 -44.809380 26.840837 2728.311035
4.840000 -6.960000 -5.080000 -67.276779 9.208082 4610.953613
4.840000 -6.960000 -5.040000 -77.109062 -24.565310 6549.262207
4.840000 -6.960000 -5.000000 -63.166023 -62.491405 7895.122070
4.840000 -6.960000 -4.960000 -26.548702 -85.997116 8100.337402
4.840000 -6.960000 -4.920000 17.229258 -82.088974 7035.446777
4.840000 -6.960000 -4.880000 47.278904 -53.452995 5092.517578
4.840000 -6.960000 -4.840000 51.733566 -17.388226 2978.712158
4.840000 -6.960000 -4.800000 35.799255 6.810308 1327.966919
4.840000 -6.920000 -5.200000 -13.752935 8.166812 255.840057
4.840000 -6.920000 -5.160000 -28.695839 10.535114 934.439819
4.840000 -6.920000 -5.120000 -47.419926 -1.775998 2251.803467
4.840000 -6.920000 -5.080000 -56.184128 -29.809399 4045.256348
4.840000 -6.920000 -5.040000 -43.730675 -62.789185 5854.853516
4.840000 -6.920000 -5.000000 -10.239317 -83.558380 7086.846680
4.840000 -6.920000 -4.960000 30.911402 -79.543549 7282.690918
4.840000 -6.920000 -4.920000 60.711716 -51.682724 6357.016602
4.840000 -6.920000 -4.880000 66.697777 -14.405856 4656.122070
4.840000 -6.920000 -4.840000 50.881371 13.972204 2784.136230
4.840000 -6.920000 -4.800000 27.215672 23.558125 1295.677979
4.840000 -6.880000 -5.200000 -9.388094 4.204664 105.815506
4.840000 -6.880000 -5.160000 -24.638935 -2.166794 611.772156
4.840000 -6.880000 -5.120000 -31.847801 -23.070412 1546.526367
4.840000 -6.880000 -5.080000 -21.050232 -47.775013 2725.564209
4.840000 -6.880000 -5.040000 6.053348 -61.463177 3814.365234
4.840000 -6.880000 -5.000000 37.484112 -55.384987 4472.555664
4.840000 -6.880000 -4.960000 59.040886 -31.883541 4502.386230
4.840000 -6.880000 -4.920000 62.608616 -1.932367 3923.572998
4.840000 -6.880000 -4.880000 49.691738 21.880146 2948.009521
4.840000 -6.880000 -4.840000 29.132877 32.129230 1881.011963
4.840000 -6.880000 -4.800000 11.188368 29.525839 996.954712
4.840000 -6.840000 -5.200000 -10.786121 6.952513 164.677856
4.840000 -6.840000 -5.160000 -19.222767 -9.206842 454.280701
4.840000 -6.840000 -5.120000 -10.060039 -28.792473 930.210815
4.840000 -6.840000 -5.080000 12.649562 -36.169773 1468.263916
4.840000 -6.840000 -5.040000 34.652145 -25.814089 1867.138428
4.840000 -6.840000 -5.000000 44.162468 -4.997088 1975.294556
4.840000 -6.840000 -4.960000 39.769455 14.497065 1791.774414
4.840000 -6.840000 -4.920000 27.965195 25.797539 1447.565186
4.840000 -6.840000 -4.880000 15.593683 29.129116 1091.668457
4.840000 -6.840000 -4.840000 5.541878 27.651739 795.331055
4.840000 -6.840000 -4.800000 -1.966131 23.437729 553.192810
4.840000 -6.800000 -5.200000 -19.721104 4.128597 405.967255
4.840000 -6.800000 -5.160000 -14.314514 -15.554882 446.859680
4.840000 -6.800000 -5.120000 6.780275 -22.486313 551.606384
4.840000 -6.800000 -5.080000 25.592180 -9.417858 743.655762
4.840000 -6.800000 -5.040000 27.231520 12.536022 898.707520
4.840000 -6.800000 -5.000000 13.258636 26.129894 858.562805
4.840000 -6.800000 -4.960000 -2.319510 24.500769 605.667786
4.840000 -6.800000 -4.920000 -8.223277 15.117979 296.175568
4.840000 -6.800000 -4.880000 -5.439238 9.283020 115.759766
4.840000 -6.800000 -4.840000 -2.664198 10.280141 112.779251
4.840000 -6.800000 -4.800000 -5.112951 12.479445 181.878830
4.880000 -7.200000 -5.200000 -8.923235 -26.071146 759.328796
4.880000 -7.200000 -5.160000 2.074764 -8.297321 73.150192
4.880000 -7.200000 -5.120000 -12.634108 8.897020 238.777649
4.880000 -7.200000 -5.080000 -39.113728 0.126242 1529.899658
4.880000 -7.200000 -5.040000 -45.957634 -33.794712 3254.186523
4.880000 -7.200000 -5.000000 -17.813015 -62.647804 4242.050781
4.880000 -7.200000 -4.960000 25.300842 -56.329903 3813.190430
4.880000 -7.200000 -4.920000 45.525112 -17.114216 2365.432373
4.880000 -7.200000 -4.880000 25.002880 20.304985 1037.436523
4.880000 -7.200000 -4.840000 -15.451856 22.508629 745.398193
4.880000 -7.200000 -4.800000 -36.866009 -9.739083 1453.952393
4.880000 -7.160000 -5.200000 13.805689 -30.398602 1114.671997
4.880000 -7.160000 -5.160000 15.969244 -7.271685 307.894165
4.880000 -7.160000 -5.120000 -2.525938 2.835382 14.419756
4.880000 -7.160000 -5.080000 -18.303528 -11.903633 476.715637
4.880000 -7.160000 -5.040000 -9.269638 -35.377644 1337.503784
4.880000 -7.160000 -5.000000 20.211788 -39.236717 1948.036377
4.880000 -7.160000 -4.960000 41.686546 -13.521317 1920.594238
4.880000 -7.160000 -4.920000 31.625984 20.747736 1430.671387
4.880000 -7.160000 -4.880000 -3.151994 31.641117 1011.095337
4.880000 -7.160000 -4.840000 -31.104992 8.753649 1044.146851
4.880000 -7.160000 -4.800000 -27.297115 -26.113941 1427.070435
4.880000 -7.120000 -5.200000 34.545551 -13.912157 1386.943237
4.880000 -7.120000 -5.160000 28.128294 8.573084 864.698669
4.880000 -7.120000 -5.120000 11.055118 15.417294 359.908569
4.880000 -7.120000 -5.080000 1.603855 7.631893 60.818142
4.880000 -7.120000 -5.040000 6.498871 1.402656 44.202763
4.880000 -7.120000 -5.000000 13.773926 9.115810 272.819031
4.880000 -7.120000 -4.960000 6.847559 24.373154 640.939636
4.880000 -7.120000 -4.920000 -15.417614 28.105118 1027.600464
4.880000 -7.120000 -4.880000 -35.124733 9.790127 1329.593384
4.880000 -7.120000 -4.840000 -33.082500 -19.381420 1470.091187
4.880000 -7.120000 -4.800000 -9.100628 -36.308128 1401.101562
4.880000 -7.080000 -5.200000 36.098969 13.710079 1491.101807
4.880000 -7.080000 -5.160000 24.447521 33.083149 1692.176025
4.880000 -7.080000 -5.120000 6.260317 41.929977 1797.314575
4.880000 -7.080000 -5.080000 -10.986427 41.784557 1866.650757
4.880000 -7.080000 -5.040000 -25.772005 36.960129 2030.247314
4.880000 -7.080000 -5.000000 -39.889957 27.657665 2356.155273
4.880000 -7.080000 -4.960000 -51.299541 10.462517 2741.107422
4.880000 -7.080000 -4.920000 -52.379356 -14.162291 2944.167480
4.880000 -7.080000 -4.880000 -37.276680 -37.006069 2759.000000
4.880000 -7.080000 -4.840000 -10.603141 -45.451550 2178.269775
4.880000 -7.080000 -4.800000 13.352930 -35.020134 1404.710571
4.880000 -7.040000 -5.200000 17.430965 32.352528 1350.524658
4.880000 -7.040000 -5.160000 2.292433 49.519424 2457.428467
4.880000 -7.040000 -5.120000 -23.920181 58.689106 4016.586182
4.880000 -7.040000 -5.080000 -56.153896 51.991268 5856.352051
4.880000 -7.040000 -5.040000 -83.142776 25.638283 7570.042969
4.880000 -7.040000 -5.000000 -91.609573 -14.938427 8615.469727
4.880000 -7.040000 -4.960000 -74.478951 -54.851376 8555.787109
4.880000 -7.040000 -4.920000 -37.410713 -76.945007 7320.095703
4.880000 -7.040000 -4.880000 2.740705 -72.694519 5292.004395
4.880000 -7.040000 -4.840000 28.169014 -48.360756 3132.256104
4.880000 -7.040000 -4.800000 31.886139 -20.561197 1439.488647
4.880000 -7.000000 -5.200000 -5.277802 30.679983 969.116516
4.880000 -7.000000 -5.160000 -25.362459 45.866413 2746.982178
4.880000 -7.000000 -5.120000 -61.561447 46.033615 5908.905273
4.880000 -7.000000 -5.080000 -98.494156 17.534359 10008.552734
4.880000 -7.000000 -5.040000 -111.842590 -36.019409 13806.162109
4.880000 -7.000000 -5.000000 -86.610985 -91.178497 15814.981445
4.880000 -7.000000 -4.960000 -30.992723 -119.095200 15144.215820
4.880000 -7.000000 -4.920000 27.247450 -106.372749 12057.585938
4.880000 -7.000000 -4.880000 60.215843 -64.791237 7823.852051
4.880000 -7.000000 -4.840000 59.226494 -21.437443 3967.341553
4.880000 -7.000000 -4.800000 38.117432 2.179347 1457.688110
4.880000 -6.960000 -5.200000 -14.976175 16.276241 489.201874
4.880000 -6.960000 -5.160000 -41.520813 25.992729 2399.599854
4.880000 -6.960000 -5.120000 -79.419960 8.473127 6379.324219
4.880000 -6.960000 -5.080000 -100.324760 -41.678627 11802.166016
4.880000 -6.960000 -5.040000 -79.624214 -102.550507 16856.621094
4.880000 -6.960000 -5.000000 -19.074375 -138.111969 19438.748047
4.880000 -6.960000 -4.960000 51.072681 -125.661972 18399.349609
4.880000 -6.960000 -4.920000 93.831177 -73.838287 14256.382812
4.880000 -6.960000 -4.880000 92.790924 -15.268842 8843.292969
4.880000 -6.960000 -4.840000 61.654350 19.345552 4175.509277
4.880000 -6.960000 -4.800000 29.181335 22.836613 1373.061279
4.880000 -6.920000 -5.200000 -10.175808 6.206177 142.063690
4.880000 -6.920000 -5.160000 -40.345242 4.973022 1652.469482
4.880000 -6.920000 -5.120000 -66.096130 -29.085875 5214.686523
4.880000 -6.920000 -5.080000 -57.803638 -82.946686 10221.413086
4.880000 -6.920000 -5.040000 -7.502426 -121.899063 14915.667969
4.880000 -6.920000 -5.000000 60.917618 -116.544891 17293.667969
4.880000 -6.920000 -4.960000 108.664825 -67.080101 16307.783203
4.880000 -6.920000 -4.920000 111.757874 -3.208244 12500.115234
4.880000 -6.920000 -4.880000 77.659622 39.780842 7613.532227
4.880000 -6.920000 -4.840000 35.563583 47.261780 3498.444336
4.880000 -6.920000 -4.800000 10.930867 31.658802 1121.763550
4.880000 -6.880000 -5.200000 -4.173974 8.514930 89.926086
4.880000 -6.880000 -5.160000 -30.161457 -5.896811 944.485901
4.880000 -6.880000 -5.120000 -34.882183 -44.528286 3199.535156
4.880000 -6.880000 -5.080000 -3.287477 -80.280075 6455.698242
4.880000 -6.880000 -5.040000 50.851036 -83.349724 9533.003906
4.880000 -6.880000 -5.000000 94.542656 -46.380356 11089.451172
4.880000 -6.880000 -4.960000 101.723450 9.360641 10435.282227
4.880000 -6.880000 -4.920000 72.708702 51.593864 7948.481934
4.880000 -6.880000 -4.880000 30.937675 61.959858 4796.163574
4.880000 -6.880000 -4.840000 1.993286 46.742733 2188.856201
4.880000 -6.880000 -4.800000 -5.327705 26.496235 730.434937
4.880000 -6.840000 -5.200000 -8.673603 14.815009 294.715881
4.880000 -6.840000 -5.160000 -22.210121 -8.087716 558.700623
4.880000 -6.840000 -5.120000 -8.677372 -36.614380 1415.909546
4.880000 -6.840000 -5.080000 26.549700 -45.234951 2751.087402
4.880000 -6.840000 -5.040000 59.253540 -23.454269 4061.084717
4.880000 -6.840000 -5.000000 66.945053 15.633953 4726.060547
4.880000 -6.840000 -4.960000 46.623436 47.349567 4415.726562
4.880000 -6.840000 -4.920000 14.639959 55.610374 3306.842041
4.880000 -6.840000 -4.880000 -8.859501 43.204460 1945.116089
4.880000 -6.840000 -4.840000 -15.419956 25.228354 874.244873
4.880000 -6.840000 -4.800000 -10.954926 14.494571 330.102997
4.880000 -6.800000 -5.200000 -20.262312 11.522145 543.321106
4.880000 -6.800000 -5.160000 -18.647869 -9.991152 447.566132
4.880000 -6.800000 -5.120000 1.325359 -20.763096 432.862732
4.880000 -6.800000 -5.080000 22.485943 -10.474268 615.327881
4.880000 -6.800000 -5.040000 27.529282 12.415962 912.017456
4.880000 -6.800000 -5.000000 14.132908 29.961481 1097.429443
4.880000 -6.800000 -4.960000 -5.253551 31.302567 1007.450439
4.880000 -6.800000 -4.920000 -16.544277 20.278639 684.936279
4.880000 -6.800000 -4.880000 -15.900524 8.715878 328.793213
4.880000 -6.800000 -4.840000 -9.849561 4.443735 116.760628
4.880000 -6.800000 -4.800000 -6.347502 6.192930 78.643166
4.920000 -7.200000 -5.200000 4.014375 -18.349697 352.826599
4.920000 -7.200000 -5.160000 -2.242862 -2.388018 10.733057
4.920000 -7.200000 -5.120000 -22.041634 -3.023605 494.975800
4.920000 -7.200000 -5.080000 -32.062073 -26.011381 1704.568481
4.920000 -7.200000 -5.040000 -14.423800 -51.670486 2877.885010
4.920000 -7.200000 -5.000000 21.742226 -52.334946 3211.670898
4.920000 -7.200000 -4.960000 45.707981 -21.401445 2547.241211
4.920000 -7.200000 -4.920000 34.727673 16.895531 1491.470215
4.920000 -7.200000 -4.880000 -2.079388 29.345711 865.494568
4.920000 -7.200000 -4.840000 -31.154682 6.197748 1009.026306
4.920000 -7.200000 -4.800000 -26.799458 -29.118454 1566.095215
4.920000 -7.160000 -5.200000 21.075497 -14.382372 651.029175
4.920000 -7.160000 -5.160000 10.253725 -0.266260 105.209770
4.920000 -7.160000 -5.120000 -4.630270 -4.153605 38.691830
4.920000 -7.160000 -5.080000 -4.629658 -19.547890 403.553711
4.920000 -7.160000 -5.040000 13.096714 -25.496469 821.593872
4.920000 -7.160000 -5.000000 29.960323 -9.139172 981.145447
4.920000 -7.160000 -4.960000 24.350266 18.319550 928.541321
4.920000 -7.160000 -4.920000 -4.537090 30.756313 966.536011
4.920000 -7.160000 -4.880000 -33.238712 13.458103 1285.932617
4.920000 -7.160000 -4.840000 -36.061081 -20.628824 1725.949951
4.920000 -7.160000 -4.800000 -10.520767 -42.423195 1910.413940
4.920000 -7.120000 -5.200000 31.307837 4.797883 1003.200256
4.920000 -7.120000 -5.160000 18.406168 18.234756 671.293335
4.920000 -7.120000 -5.120000 4.445980 19.685785 407.296875
4.920000 -7.120000 -5.080000 -2.527874 16.167332 267.772766
4.920000 -7.120000 -5.040000 -5.787529 16.535362 306.913696
4.920000 -7.120000 -5.000000 -14.587654 19.885067 608.215576
4.920000 -7.120000 -4.960000 -30.974899 15.646267 1204.250000
4.920000 -7.120000 -4.920000 -44.014168 -3.706314 1950.983765
4.920000 -7.120000 -4.880000 -39.388378 -31.143124 2521.338379
4.920000 -7.120000 -4.840000 -15.097524 -48.598213 2589.721680
4.920000 -7.120000 -4.800000 13.872084 -43.400490 2076.037354
4.920000 -7.080000 -5.200000 23.454250 27.277618 1294.170410
4.920000 -7.080000 -5.160000 6.771340 42.434235 1846.515381
4.920000 -7.080000 -5.120000 -17.403620 48.190758 2625.235107
4.920000 -7.080000 -5.080000 -43.839375 41.006863 3603.453613
4.920000 -7.080000 -5.040000 -65.391953 19.914700 4672.702637
4.920000 -7.080000 -5.000000 -73.989304 -11.772118 5612.999512
4.920000 -7.080000 -4.960000 -63.882484 -45.172680 6121.542969
4.920000 -7.080000 -4.920000 -36.330929 -67.942551 5936.126953
4.920000 -7.080000 -4.880000 -1.556564 -70.697563 5000.568359
4.920000 -7.080000 -4.840000 25.701109 -53.768913 3551.643066
4.920000 -7.080000 -4.800000 35.300240 -28.094763 2035.422607
4.920000 -7.040000 -5.200000 2.090717 36.533226 1339.047729
4.920000 -7.040000 -5.160000 -22.986954 51.834381 3215.203125
4.920000 -7.040000 -5.120000 -62.605221 49.015575 6321.940430
4.920000 -7.040000 -5.080000 -99.804794 16.686157 10239.424805
4.920000 -7.040000 -5.040000 -111.046906 -38.979576 13850.822266
4.920000 -7.040000 -5.000000 -83.753708 -93.715401 15797.259766
4.920000 -7.040000 -4.960000 -27.995136 -120.184029 15227.928711
4.920000 -7.040000 -4.920000 28.830862 -107.225266 12328.476562
4.920000 -7.040000 -4.880000 60.920025 -67.303825 8241.054688
4.920000 -7.040000 -4.840000 61.130089 -25.942791 4409.916016
4.920000 -7.040000 -4.800000 42.575874 -2.517729 1819.044067
4.920000 -7.000000 -5.200000 -16.169483 27.900866 1039.910522
4.920000 -7.000000 -5.160000 -51.602077 36.546249 3998.402832
4.920000 -7.000000 -5.120000 -97.348602 11.377508 9606.197266
4.920000 -7.000000 -5.080000 -119.519440 -51.270226 16913.533203
4.920000 -7.000000 -5.040000 -90.975639 -123.064842 23421.523438
4.920000 -7.000000 -5.000000 -17.272305 -161.363525 26336.519531
4.920000 -7.000000 -4.960000 63.456112 -142.352203 24290.828125
4.920000 -7.000000 -4.920000 108.650284 -80.207870 18238.185547
4.920000 -7.000000 -4.880000 103.040726 -14.892866 10839.189453
4.920000 -7.000000 -4.840000 66.426735 20.018669 4813.258301
4.920000 -7.000000 -4.800000 32.525024 20.567434 1480.896484
4.920000 -6.960000 -5.200000 -19.270924 13.050671 541.688477
4.920000 -6.960000 -5.160000 -60.287994 7.552946 3691.689209
4.920000 -6.960000 -5.120000 -93.578583 -41.187523 10453.363281
4.920000 -6.960000 -5.080000 -79.665375 -115.010834 19574.064453
4.920000 -6.960000 -5.040000 -8.943950 -166.090027 27665.890625
4.920000 -6.960000 -5.000000 83.873657 -154.971375 31050.917969
4.920000 -6.960000 -4.960000 144.633911 -84.791214 28108.519531
4.920000 -6.960000 -4.920000 142.619934 0.474088 20340.669922
4.920000 -6.960000 -4.880000 92.754860 52.257919 11334.353516
4.920000 -6.960000 -4.840000 38.313793 54.709980 4461.128906
4.920000 -6.960000 -4.800000 12.499361 30.326115 1075.907227
4.920000 -6.920000 -5.200000 -11.466498 7.338982 185.341248
4.920000 -6.920000 -5.160000 -48.301304 -14.364096 2539.343018
4.920000 -6.920000 -5.120000 -55.679741 -72.704254 8386.142578
4.920000 -6.920000 -5.080000 -7.676508 -128.723083 16628.562500
4.920000 -6.920000 -5.040000 77.106628 -134.590698 24060.087891
4.920000 -6.920000 -5.000000 146.207947 -76.135559 27173.386719
4.920000 -6.920000 -4.960000 155.855682 12.676800 24451.695312
4.920000 -6.920000 -4.920000 106.519531 77.573151 17364.003906
4.920000 -6.920000 -4.880000 39.199127 88.129349 9303.353516
4.920000 -6.920000 -4.840000 -2.036257 57.950344 3362.388672
4.920000 -6.920000 -4.800000 -5.020403 25.239803 662.252136
4.920000 -6.880000 -5.200000 -7.547624 13.637863 242.957947
4.920000 -6.880000 -5.160000 -31.476423 -18.872540 1346.937988
4.920000 -6.880000 -5.120000 -14.381720 -68.084457 4842.327148
4.920000 -6.880000 -5.080000 45.037777 -90.143143 10154.187500
4.920000 -6.880000 -5.040000 108.903725 -57.388180 15153.424805
4.920000 -6.880000 -5.000000 131.004913 14.865623 17383.273438
4.920000 -6.880000 -4.960000 96.352936 80.115051 15702.310547
4.920000 -6.880000 -4.920000 32.542503 99.947800 11048.577148
4.920000 -6.880000 -4.880000 -16.328806 74.002655 5743.022949
4.920000 -6.880000 -4.840000 -27.061262 34.368591 1913.511963
4.920000 -6.880000 -4.800000 -11.513365 13.300594 309.463379
4.920000 -6.840000 -5.200000 -15.996040 20.157434 662.195496
4.920000 -6.840000 -5.160000 -24.272522 -13.773851 778.874329
4.920000 -6.840000 -5.120000 4.052849 -43.445236 1903.914062
4.920000 -6.840000 -5.080000 50.795761 -37.805969 4009.500488
4.920000 -6.840000 -5.040000 78.807755 5.332958 6239.102539
4.920000 -6.840000 -5.000000 64.981010 56.348335 7397.666504
4.920000 -6.840000 -4.960000 20.066555 79.969353 6797.763672
4.920000 -6.840000 -4.920000 -22.645672 65.198547 4763.677246
4.920000 -6.840000 -4.880000 -37.307152 31.337301 2373.850098
4.920000 -6.840000 -4.840000 -25.222088 7.108465 686.683960
4.920000 -6.840000 -4.800000 -7.905996 5.050310 88.010406
4.920000 -6.800000 -5.200000 -29.576357 14.416353 1082.592041
4.920000 -6.800000 -5.160000 -25.729465 -12.984271 830.596680
4.920000 -6.800000 -5.120000 0.107172 -25.128544 631.455200
4.920000 -6.800000 -5.080000 25.344532 -10.409454 750.702026
4.920000 -6.800000 -5.040000 28.346737 18.657642 1151.645020
4.920000 -6.800000 -5.000000 7.862347 37.977303 1504.092041
4.920000 -6.800000 -4.960000 -17.670242 34.131721 1477.211792
4.920000 -6.800000 -4.920000 -28.586414 14.702934 1033.359375
4.920000 -6.800000 -4.880000 -21.144810 -1.649124 449.822571
4.920000 -6.800000 -4.840000 -7.661747 -3.410397 70.333176
4.920000 -6.800000 -4.800000 -2.273280 5.332909 33.607719
4.960000 -7.200000 -5.200000 7.501238 -8.263532 124.554527
4.960000 -7.200000 -5.160000 -5.436052 -5.201912 56.610550
4.960000 -7.200000 -5.120000 -15.011175 -17.885777 545.236389
4.960000 -7.200000 -5.080000 -6.782669 -36.208984 1357.095215
4.960000 -7.200000 -5.040000 17.584450 -40.373955 1939.269165
4.960000 -7.200000 -5.000000 38.303974 -20.654907 1893.819580
4.960000 -7.200000 -4.960000 35.065643 10.175766 1333.145630
4.960000 -7.200000 -4.920000 7.882681 26.540318 766.525085
4.960000 -7.200000 -4.880000 -20.708717 14.175074 629.783691
4.960000 -7.200000 -4.840000 -26.081297 -15.284632 913.854004
4.960000 -7.200000 -4.800000 -4.955111 -34.758812 1232.728149
4.960000 -7.160000 -5.200000 18.418503 -2.027262 343.351044
4.960000 -7.160000 -5.160000 7.653908 0.501991 58.834301
4.960000 -7.160000 -5.120000 2.800436 -6.249231 46.895332
4.960000 -7.160000 -5.080000 8.900452 -11.002493 200.272888
4.960000 -7.160000 -5.040000 17.271957 -3.578552 311.126556
4.960000 -7.160000 -5.000000 13.513136 12.330864 334.655029
4.960000 -7.160000 -4.960000 -6.283749 20.426743 456.737305
4.960000 -7.160000 -4.920000 -28.450584 7.825029 870.666809
4.960000 -7.160000 -4.880000 -33.051056 -20.056999 1494.655518
4.960000 -7.160000 -4.840000 -13.491220 -42.124413 1956.479248
4.960000 -7.160000 -4.800000 15.631546 -40.671272 1898.497559
4.960000 -7.120000 -5.200000 21.480061 15.390591 698.263306
4.960000 -7.120000 -5.160000 9.216934 22.796570 604.635498
4.960000 -7.120000 -5.120000 -4.079277 23.949284 590.208679
4.960000 -7.120000 -5.080000 -16.579243 20.790512 707.116699
4.960000 -7.120000 -5.040000 -28.902521 13.460491 1016.540527
4.960000 -7.120000 -5.000000 -39.639347 -0.727242 1571.806763
4.960000 -7.120000 -4.960000 -42.626667 -22.600292 2327.805908
4.960000 -7.120000 -4.920000 -31.035950 -45.783695 3059.376953
4.960000 -7.120000 -4.880000 -5.487272 -58.196426 3416.934082
4.960000 -7.120000 -4.840000 22.645048 -51.265903 3140.991211
4.960000 -7.120000 -4.800000 38.197353 -28.637808 2279.161865
4.960000 -7.080000 -5.200000 8.820918 32.018654 1103.002808
4.960000 -7.080000 -5.160000 -13.201883 42.776024 2004.077881
4.960000 -7.080000 -5.120000 -44.188309 38.596424 3442.290527
4.960000 -7.080000 -5.080000 -71.776642 13.241436 5327.221680
4.960000 -7.080000 -5.040000 -80.526596 -28.231819 7281.568359
4.960000 -7.080000 -5.000000 -62.120262 -69.739265 8722.492188
4.960000 -7.080000 -4.960000 -22.205910 -92.854401 9115.041992
4.960000 -7.080000 -4.920000 21.948427 -88.172203 8256.071289
4.960000 -7.080000 -4.880000 51.820744 -61.006977 6407.240723
4.960000 -7.080000 -4.840000 58.625397 -27.243885 4179.166504
4.960000 -7.080000 -4.800000 47.117889 -2.585979 2226.782715
4.960000 -7.040000 -5.200000 -12.581683 34.233456 1330.228149
4.960000 -7.040000 -5.160000 -48.277916 38.536110 3815.788818
4.960000 -7.040000 -5.120000 -89.401672 11.281651 8119.935059
4.960000 -7.040000 -5.080000 -106.420418 -47.494411 13581.025391
4.960000 -7.040000 -5.040000 -77.987122 -111.387100 18489.078125
4.960000 -7.040000 -5.000000 -11.219643 -144.018250 20867.136719
4.960000 -7.040000 -4.960000 60.303932 -126.455566 19627.574219
4.960000 -7.040000 -4.920000 100.651520 -71.777725 15282.770508
4.960000 -7.040000 -4.880000 97.243530 -13.940134 9650.630859
4.960000 -7.040000 -4.840000 66.455811 18.747643 4767.848633
4.960000 -7.040000 -4.800000 36.168385 22.202698 1801.111816
4.960000 -7.000000 -5.200000 -26.951466 21.202381 1175.922363
4.960000 -7.000000 -5.160000 -70.020897 8.479332 4974.824707
4.960000 -7.000000 -5.120000 -100.008774 -46.744286 12186.783203
4.960000 -7.000000 -5.080000 -79.678894 -122.836395 21437.505859
4.960000 -7.000000 -5.040000 -3.379707 -171.352844 29373.218750
4.960000 -7.000000 -5.000000 91.305862 -155.249588 32439.195312
4.960000 -7.000000 -4.960000 150.191772 -81.088608 29132.929688
4.960000 -7.000000 -4.920000 144.918884 5.205611 21028.580078
4.960000 -7.000000 -4.880000 92.995628 55.662922 11746.546875
4.960000 -7.000000 -4.840000 38.549095 56.514885 4679.964844
4.960000 -7.000000 -4.800000 13.708635 31.796883 1198.968384
4.960000 -6.960000 -5.200000 -25.726652 6.219097 700.537842
4.960000 -6.960000 -5.160000 -63.223183 -25.751038 4660.287109
4.960000 -6.960000 -5.120000 -63.999992 -94.525818 13031.128906
4.960000 -6.960000 -5.080000 -2.602404 -155.220764 24100.259766
4.960000 -6.960000 -5.040000 96.631088 -155.563477 33537.562500
4.960000 -6.960000 -5.000000 173.096161 -83.020081 36854.617188
4.960000 -6.960000 -4.960000 178.759918 20.577843 32378.554688
4.960000 -6.960000 -4.920000 117.629951 92.496330 22392.376953
4.960000 -6.960000 -4.880000 39.400875 100.014893 11555.407227
4.960000 -6.960000 -4.840000 -5.287140 62.085953 3882.619385
4.960000 -6.960000 -4.800000 -4.945299 24.634617 631.320312
4.960000 -6.920000 -5.200000 -16.345556 2.886690 275.510193
4.960000 -6.920000 -5.160000 -38.150177 -40.470764 3093.318848
4.960000 -6.920000 -5.120000 -9.206749 -100.068298 10098.428711
4.960000 -6.920000 -5.080000 70.343987 -122.253967 19894.308594
4.960000 -6.920000 -5.040000 151.694244 -73.798904 28457.421875
4.960000 -6.920000 -5.000000 175.961945 23.653980 31522.117188
4.960000 -6.920000 -4.960000 125.417679 108.457382 27492.597656
4.960000 -6.920000 -4.920000 38.550812 130.600571 18542.675781
4.960000 -6.920000 -4.880000 -24.960323 91.727989 9037.041992
4.960000 -6.920000 -4.840000 -35.067863 37.190788 2612.909668
4.960000 -6.920000 -4.800000 -10.422432 11.181665 233.656738
4.960000 -6.880000 -5.200000 -13.951040 10.786718 310.984833
4.960000 -6.880000 -5.160000 -18.898949 -32.735409 1428.777222
4.960000 -6.880000 -5.120000 24.403500 -69.412285 5413.596191
4.960000 -6.880000 -5.080000 92.244835 -55.969826 11641.730469
4.960000 -6.880000 -5.040000 131.603699 11.929245 17461.839844
4.960000 -6.880000 -5.000000 107.309845 91.086182 19812.093750
4.960000 -6.880000 -4.960000 34.676846 127.219818 17387.365234
4.960000 -6.880000 -4.920000 -34.312691 101.924492 11565.961914
4.960000 -6.880000 -4.880000 -57.339447 45.503914 5358.418457
4.960000 -6.880000 -4.840000 -35.716160 5.459583 1305.451050
4.960000 -6.880000 -4.800000 -5.600601 3.532745 43.847023
4.960000 -6.840000 -5.200000 -24.797073 16.264446 879.427063
4.960000 -6.840000 -5.160000 -18.353220 -20.625504 762.252075
4.960000 -6.840000 -5.120000 22.494633 -36.658871 1849.881348
4.960000 -6.840000 -5.080000 64.544800 -8.878353 4244.856445
4.960000 -6.840000 -5.040000 68.955376 46.276939 6896.398926
4.960000 -6.840000 -5.000000 28.059242 86.413193 8254.560547
4.960000 -6.840000 -4.960000 -27.282803 81.828255 7440.214844
4.960000 -6.840000 -4.920000 -56.645493 41.393623 4922.144043
4.960000 -6.840000 -4.880000 -46.143124 1.385876 2131.108398
4.960000 -6.840000 -4.840000 -16.922909 -9.672127 379.934875
4.960000 -6.840000 -4.800000 -0.651888 5.279135 28.294222
4.960000 -6.800000 -5.200000 -39.289940 7.519351 1600.239990
4.960000 -6.800000 -5.160000 -26.891052 -21.816479 1199.087402
4.960000 -6.800000 -5.120000 5.042074 -27.631155 788.903198
4.960000 -6.800000 -5.080000 27.645216 -4.169193 781.640137
4.960000 -6.800000 -5.040000 21.047905 27.228119 1184.384766
4.960000 -6.800000 -5.000000 -7.253723 39.199287 1589.200562
4.960000 -6.800000 -4.960000 -31.226192 24.178299 1559.665283
4.960000 -6.800000 -4.920000 -32.176857 -0.576660 1035.682617
4.960000 -6.800000 -4.880000 -15.102076 -12.066479 373.672607
4.960000 -6.800000 -4.840000 -0.568562 -3.857803 15.205909
4.960000 -6.800000 -4.800000 -2.776832 10.472009 117.373756
5.000000 -7.200000 -5.200000 4.829435 -2.104269 27.751394
5.000000 -7.200000 -5.160000 -1.221621 -9.474752 91.263290
5.000000 -7.200000 -5.120000 2.626657 -19.899055 402.871735
5.000000 -7.200000 -5.080000 15.878782 -22.920538 777.486816
5.000000 -7.200000 -5.040000 28.348740 -12.286980 954.620911
5.000000 -7.200000 -5.000000 27.838593 6.514744 817.429138
5.000000 -7.200000 -4.960000 11.792421 19.036690 501.456787
5.000000 -7.200000 -4.920000 -8.495020 14.272669 275.874451
5.000000 -7.200000 -4.880000 -16.783760 -4.424543 301.271179
5.000000 -7.200000 -4.840000 -6.606953 -21.225117 494.157410
5.000000 -7.200000 -4.800000 12.286589 -21.819553 627.053162
5.000000 -7.160000 -5.200000 12.527340 3.680853 170.482925
5.000000 -7.160000 -5.160000 9.327669 2.798351 94.836182
5.000000 -7.160000 -5.120000 8.923878 2.439957 85.588989
5.000000 -7.160000 -5.080000 8.365162 5.551414 100.794144
5.000000 -7.160000 -5.040000 2.685999 10.291973 113.139305
5.000000 -7.160000 -5.000000 -9.076626 9.858292 179.571045
5.000000 -7.160000 -4.960000 -20.218788 -1.372181 410.682281
5.000000 -7.160000 -4.920000 -20.441570 -20.497082 837.988159
5.000000 -7.160000 -4.880000 -5.481251 -35.768322 1309.416870
5.000000 -7.160000 -4.840000 16.910789 -35.548901 1549.699219
5.000000 -7.160000 -4.800000 31.754297 -19.104519 1373.317993
5.000000 -7.120000 -5.200000 11.387620 18.833206 484.367554
5.000000 -7.120000 -5.160000 0.007313 25.246265 637.373962
5.000000 -7.120000 -5.120000 -16.917786 24.408901 882.005859
5.000000 -7.120000 -5.080000 -33.568687 12.374691 1279.989746
5.000000 -7.120000 -5.040000 -41.955021 -9.736145 1855.016235
5.000000 -7.120000 -5.000000 -36.116024 -35.180115 2542.007812
5.000000 -7.120000 -4.960000 -15.789627 -54.086433 3174.654541
5.000000 -7.120000 -4.920000 12.368271 -58.101654 3528.776367
5.000000 -7.120000 -4.880000 37.205101 -45.133568 3421.258301
5.000000 -7.120000 -4.840000 48.627831 -21.341684 2820.133545
5.000000 -7.120000 -4.800000 43.520393 1.688860 1896.876953
5.000000 -7.080000 -5.200000 -4.387481 30.229708 933.085205
5.000000 -7.080000 -5.160000 -31.304758 33.051666 2072.400391
5.000000 -7.080000 -5.120000 -61.191349 12.655647 3904.546387
5.000000 -7.080000 -5.080000 -73.289413 -29.712166 6254.150879
5.000000 -7.080000 -5.040000 -53.558865 -75.397835 8553.385742
5.000000 -7.080000 -5.000000 -7.007050 -99.893448 10027.799805
5.000000 -7.080000 -4.960000 44.318947 -90.125870 10086.841797
5.000000 -7.080000 -4.920000 76.343475 -53.338722 8673.345703
5.000000 -7.080000 -4.880000 78.736450 -10.752258 6315.039551
5.000000 -7.080000 -4.840000 59.250431 17.920626 3831.762451
5.000000 -7.080000 -4.800000 34.882580 26.296572 1908.304199
5.000000 -7.040000 -5.200000 -25.265852 25.667305 1297.173828
5.000000 -7.040000 -5.160000 -62.084652 10.904329 3973.408203
5.000000 -7.040000 -5.120000 -84.323235 -37.991310 8553.747070
5.000000 -7.040000 -5.080000 -63.934258 -100.679878 14224.027344
5.000000 -7.040000 -5.040000 0.541164 -138.274109 19120.021484
5.000000 -7.040000 -5.000000 77.694405 -123.229118 21221.835938
5.000000 -7.040000 -4.960000 125.177353 -62.360939 19558.257812
5.000000 -7.040000 -4.920000 121.551743 8.072224 14839.987305
5.000000 -7.040000 -4.880000 80.319939 50.883175 9040.389648
5.000000 -7.040000 -4.840000 35.112965 54.648132 4219.338867
5.000000 -7.040000 -4.800000 11.253622 36.348152 1447.832153
5.000000 -7.000000 -5.200000 -35.112705 7.645401 1291.354248
5.000000 -7.000000 -5.160000 -66.086868 -28.883057 5201.705078
5.000000 -7.000000 -5.120000 -59.368465 -94.040451 12368.220703
5.000000 -7.000000 -5.080000 2.887703 -145.830658 21274.917969
5.000000 -7.000000 -5.040000 94.820648 -140.022217 28597.175781
5.000000 -7.000000 -5.000000 161.789459 -69.569283 31015.714844
5.000000 -7.000000 -4.960000 163.289551 25.777412 27327.951172
5.000000 -7.000000 -4.920000 105.425163 90.344040 19276.509766
5.000000 -7.000000 -4.880000 33.328419 96.404724 10404.654297
5.000000 -7.000000 -4.840000 -8.285915 61.606533 3864.021484
5.000000 -7.000000 -4.800000 -9.393955 26.716360 802.010315
5.000000 -6.960000 -5.200000 -28.039574 -8.107312 851.946228
5.000000 -6.960000 -5.160000 -40.100204 -56.630882 4815.083008
5.000000 -6.960000 -5.120000 -0.803967 -113.173378 12808.860352
5.000000 -6.960000 -5.080000 83.828224 -126.580322 23049.750000
5.000000 -6.960000 -5.040000 163.213318 -69.183289 31424.916016
5.000000 -6.960000 -5.000000 181.091400 32.979942 33881.769531
5.000000 -6.960000 -4.960000 123.968185 117.395935 29149.917969
5.000000 -6.960000 -4.920000 33.183060 136.075348 19617.615234
5.000000 -6.960000 -4.880000 -31.151695 93.333221 9681.517578
5.000000 -6.960000 -4.840000 -40.134087 36.200779 2921.241211
5.000000 -6.960000 -4.800000 -13.893112 9.244696 278.482971
5.000000 -6.920000 -5.200000 -15.130647 -8.730886 305.164856
5.000000 -6.920000 -5.160000 -7.772396 -54.298866 3008.777100
5.000000 -6.920000 -5.120000 47.810654 -84.771713 9472.101562
5.000000 -6.920000 -5.080000 122.289215 -57.989502 18317.433594
5.000000 -6.920000 -5.040000 158.605576 25.288628 25795.244141
5.000000 -6.920000 -5.000000 122.166351 114.690865 28078.611328
5.000000 -6.920000 -4.960000 34.185421 150.886444 23935.361328
5.000000 -6.920000 -4.920000 -45.321899 116.390350 15600.788086
5.000000 -6.920000 -4.880000 -69.446877 48.178207 7144.008301
5.000000 -6.920000 -4.840000 -41.731422 1.289814 1743.175171
5.000000 -6.920000 -4.800000 -5.280127 -0.001959 27.879740
5.000000 -6.880000 -5.200000 -13.042583 1.959782 173.949722
5.000000 -6.880000 -5.160000 4.263641 -32.829094 1095.927979
5.000000 -6.880000 -5.120000 55.382015 -38.999435 4588.123535
5.000000 -6.880000 -5.080000 100.319565 6.036583 10100.455078
5.000000 -6.880000 -5.040000 94.776627 78.744194 15183.257812
5.000000 -6.880000 -5.000000 33.413330 126.225967 17049.445312
5.000000 -6.880000 -4.960000 -42.111088 113.341370 14619.609375
5.000000 -6.880000 -4.920000 -79.732681 54.378567 9314.329102
5.000000 -6.880000 -4.880000 -62.811539 -1.694580 3948.160889
5.000000 -6.880000 -4.840000 -20.949089 -16.985613 727.375366
5.000000 -6.880000 -4.800000 2.430325 3.845131 20.691509
5.000000 -6.840000 -5.200000 -26.111792 7.156433 733.040222
5.000000 -6.840000 -5.160000 -7.139575 -19.401949 427.409149
5.000000 -6.840000 -5.120000 31.039669 -15.278763 1196.901611
5.000000 -6.840000 -5.080000 51.308281 24.348671 3225.397461
5.000000 -6.840000 -5.040000 29.160877 68.579758 5553.540039
5.000000 -6.840000 -5.000000 -21.675522 79.096855 6726.140625
5.000000 -6.840000 -4.960000 -61.218307 46.929344 5950.044434
5.000000 -6.840000 -4.920000 -61.022953 0.453949 3724.006836
5.000000 -6.840000 -4.880000 -29.673082 -22.884024 1404.170410
5.000000 -6.840000 -4.840000 -1.281816 -11.799320 140.867004
5.000000 -6.840000 -4.800000 -0.659693 11.726449 137.944809
5.000000 -6.800000 -5.200000 -41.085194 -5.149237 1714.507812
5.000000 -6.800000 -5.160000 -20.498707 -28.499977 1232.445679
5.000000 -6.800000 -5.120000 10.165876 -23.961937 677.519470
5.000000 -6.800000 -5.080000 22.474541 3.572397 517.867004
5.000000 -6.800000 -5.040000 6.392815 27.527508 798.631775
5.000000 -6.800000 -5.000000 -20.706165 26.563316 1134.355103
5.000000 -6.800000 -4.960000 -32.919956 4.986664 1108.590332
5.000000 -6.800000 -4.920000 -21.968798 -13.864414 674.850098
5.000000 -6.800000 -4.880000 -3.487377 -12.822563 176.579926
5.000000 -6.800000 -4.840000 1.466976 2.460131 8.204262
5.000000 -6.800000 -4.800000 -11.330562 11.799892 267.619080
5.040000 -7.200000 -5.200000 1.368064 -1.092562 3.065290
5.040000 -7.200000 -5.160000 6.684446 -7.335581 98.492569
5.040000 -7.200000 -5.120000 14.616192 -6.437405 255.073242
5.040000 -7.200000 -5.080000 18.833849 0.801573 355.356384
5.040000 -7.200000 -5.040000 15.938193 9.306595 340.638702
5.040000 -7.200000 -5.000000 7.416563 13.328709 232.659882
5.040000 -7.200000 -4.960000 -1.516275 10.141462 105.148346
5.040000 -7.200000 -4.920000 -5.310287 1.842295 31.593204
5.040000 -7.200000 -4.880000 -1.847363 -5.898278 38.202431
5.040000 -7.200000 -4.840000 5.808388 -7.655661 92.346512
5.040000 -7.200000 -4.800000 11.310829 -2.366983 133.537460
5.040000 -7.160000 -5.200000 7.910056 4.984586 87.415085
5.040000 -7.160000 -5.160000 9.098389 9.465843 172.382874
5.040000 -7.160000 -5.120000 3.843473 14.538713 226.146454
5.040000 -7.160000 -5.080000 -6.115908 14.023247 234.055771
5.040000 -7.160000 -5.040000 -14.718825 5.477119 246.642654
5.040000 -7.160000 -5.000000 -16.061581 -8.095772 323.515869
5.040000 -7.160000 -4.960000 -8.192345 -20.330917 480.460693
5.040000 -7.160000 -4.920000 5.928955 -25.243591 672.391418
5.040000 -7.160000 -4.880000 20.028109 -20.318058 813.948608
5.040000 -7.160000 -4.840000 27.594933 -7.889475 823.724121
5.040000 -7.160000 -4.800000 25.288738 5.742318 672.494507
5.040000 -7.120000 -5.200000 3.197025 18.119331 338.531158
5.040000 -7.120000 -5.160000 -10.705779 24.111414 695.973999
5.040000 -7.120000 -5.120000 -30.035198 15.853020 1153.431396
5.040000 -7.120000 -5.080000 -40.576378 -7.936043 1709.423096
5.040000 -7.120000 -5.040000 -31.840210 -36.177860 2322.636475
5.040000 -7.120000 -5.000000 -5.556957 -53.243080 2865.705566
5.040000 -7.120000 -4.960000 25.573895 -50.067638 3160.792480
5.040000 -7.120000 -4.920000 46.966721 -29.579762 3080.834961
5.040000 -7.120000 -4.880000 51.173954 -3.231739 2629.217773
5.040000 -7.120000 -4.840000 40.609688 17.108690 1941.854004
5.040000 -7.120000 -4.800000 23.800880 25.472513 1215.330811
5.040000 -7.080000 -5.200000 -14.764135 23.199549 756.198730
5.040000 -7.080000 -5.160000 -41.426567 14.636814 1930.396729
5.040000 -7.080000 -5.120000 -58.038185 -18.823797 3722.766113
5.040000 -7.080000 -5.080000 -44.775673 -62.167534 5869.663086
5.040000 -7.080000 -5.040000 -1.129616 -88.326569 7802.858398
5.040000 -7.080000 -5.000000 51.357853 -78.873055 8858.587891
5.040000 -7.080000 -4.960000 84.533203 -38.329666 8615.025391
5.040000 -7.080000 -4.920000 83.963272 9.890799 7147.659180
5.040000 -7.080000 -4.880000 57.234638 41.534859 5000.948242
5.040000 -7.080000 -4.840000 24.954304 47.669796 2895.126709
5.040000 -7.080000 -4.800000 4.088728 36.707138 1364.131592
5.040000 -7.040000 -5.200000 -32.380245 10.720975 1163.419556
5.040000 -7.040000 -5.160000 -55.755646 -20.156080 3514.959717
5.040000 -7.040000 -5.120000 -47.845749 -70.971848 7326.218750
5.040000 -7.040000 -5.080000 1.868210 -108.655586 11809.526367
5.040000 -7.040000 -5.040000 71.620651 -101.676971 15467.723633
5.040000 -7.040000 -5.000000 120.867226 -47.126114 16829.757812
5.040000 -7.040000 -4.960000 121.154938 24.892410 15298.150391
5.040000 -7.040000 -4.920000 77.565582 74.196495 11521.539062
5.040000 -7.040000 -4.880000 22.324854 80.658455 7004.185059
5.040000 -7.040000 -4.840000 -12.349722 55.714901 3256.665771
5.040000 -7.040000 -4.800000 -17.493172 27.492886 1061.869873
5.040000 -7.000000 -5.200000 -33.690865 -11.355916 1264.031128
5.040000 -7.000000 -5.160000 -37.463928 -55.655113 4501.037598
5.040000 -7.000000 -5.120000 2.119465 -100.161896 10036.897461
5.040000 -7.000000 -5.080000 74.748215 -104.813934 16573.255859
5.040000 -7.000000 -5.040000 137.746307 -51.900379 21667.695312
5.040000 -7.000000 -5.000000 148.001160 34.122101 23068.662109
5.040000 -7.000000 -4.960000 97.727448 102.794838 20117.433594
5.040000 -7.000000 -4.920000 21.295856 117.114189 14169.247070
5.040000 -7.000000 -4.880000 -33.469433 81.224373 7717.601562
5.040000 -7.000000 -4.840000 -43.251709 32.333313 2916.153320
5.040000 -7.000000 -4.800000 -22.804310 6.300673 559.735046
5.040000 -6.960000 -5.200000 -17.875492 -24.233990 906.819458
5.040000 -6.960000 -5.160000 0.309227 -63.921814 4086.093994
5.040000 -6.960000 -5.120000 57.033253 -82.032509 9982.125000
5.040000 -6.960000 -5.080000 122.093933 -47.428917 17156.431641
5.040000 -6.960000 -5.040000 147.103851 32.865936 22719.712891
5.040000 -6.960000 -5.000000 106.723495 112.388702 24021.125000
5.040000 -6.960000 -4.960000 23.420584 140.934814 20411.144531
5.040000 -6.960000 -4.920000 -49.322289 105.982002 13664.873047
5.040000 -6.960000 -4.880000 -71.081215 41.491543 6774.086914
5.040000 -6.960000 -4.840000 -45.439072 -3.688190 2078.312012
5.040000 -6.960000 -4.800000 -10.531311 -7.431323 166.133087
5.040000 -6.920000 -5.200000 -1.622208 -17.720371 316.643127
5.040000 -6.920000 -5.160000 26.319801 -41.597878 2423.115234
5.040000 -6.920000 -5.120000 76.971695 -32.894360 7006.680664
5.040000 -6.920000 -5.080000 111.936310 21.606585 12996.582031
5.040000 -6.920000 -5.040000 94.398262 94.402725 17822.906250
5.040000 -6.920000 -5.000000 25.544369 135.508667 19015.115234
5.040000 -6.920000 -4.960000 -51.572685 115.228058 15937.247070
5.040000 -6.920000 -4.920000 -87.317192 51.067787 10232.210938
5.040000 -6.920000 -4.880000 -67.539780 -7.886982 4623.826660
5.040000 -6.920000 -4.840000 -22.687862 -24.536478 1116.777832
5.040000 -6.920000 -4.800000 3.548851 -3.684819 26.172234
5.040000 -6.880000 -5.200000 -2.418203 -1.918060 9.526663
5.040000 -6.880000 -5.160000 21.843410 -13.708302 665.052124
5.040000 -6.880000 -5.120000 54.517471 5.539597 3002.841797
5.040000 -6.880000 -5.080000 61.198902 53.564072 6614.415527
5.040000 -6.880000 -5.040000 23.704124 96.342545 9843.771484
5.040000 -6.880000 -5.000000 -37.936974 97.179703 10883.108398
5.040000 -6.880000 -4.960000 -80.178261 51.988335 9131.340820
5.040000 -6.880000 -4.920000 -74.916382 -5.110722 5638.583984
5.040000 -6.880000 -4.880000 -34.649395 -32.731590 2271.937500
5.040000 -6.880000 -4.840000 1.098595 -19.510174 381.853790
5.040000 -6.880000 -4.800000 3.990585 8.701839 91.646782
5.040000 -6.840000 -5.200000 -19.633291 2.255342 390.552704
5.040000 -6.840000 -5.160000 -0.895429 -8.353460 70.582092
5.040000 -6.840000 -5.120000 20.064484 6.493675 444.751312
5.040000 -6.840000 -5.080000 17.319759 37.089149 1675.579102
5.040000 -6.840000 -5.040000 -13.562286 54.271458 3129.326660
5.040000 -6.840000 -5.000000 -48.494408 38.618919 3843.128418
5.040000 -6.840000 -4.960000 -57.685066 1.119469 3328.820068
5.040000 -6.840000 -4.920000 -35.158962 -26.966946 1963.368774
5.040000 -6.840000 -4.880000 -4.258825 -24.933689 639.826416
5.040000 -6.840000 -4.840000 6.460827 -2.261403 46.856228
5.040000 -6.840000 -4.800000 -8.395848 12.820218 234.848251
5.040000 -6.800000 -5.200000 -33.794529 -15.082312 1369.546265
5.040000 -6.800000 -5.160000 -12.061306 -28.228064 942.298645
5.040000 -6.800000 -5.120000 9.632439 -17.776880 408.801361
5.040000 -6.800000 -5.080000 11.763618 4.064739 154.904831
5.040000 -6.800000 -5.040000 -4.457359 15.152100 249.454178
5.040000 -6.800000 -5.000000 -19.905865 6.583614 439.587402
5.040000 -6.800000 -4.960000 -18.907148 -9.362572 445.138000
5.040000 -6.800000 -4.920000 -5.466507 -14.321127 234.977386
5.040000 -6.800000 -4.880000 2.841593 -4.430138 27.700769
5.040000 -6.800000 -4.840000 -4.444249 6.168276 57.798973
5.040000 -6.800000 -4.800000 -18.808067 2.084517 358.088623
5.080000 -7.200000 -5.200000 0.411887 -2.689273 7.401840
5.080000 -7.200000 -5.160000 10.098621 0.992271 102.966759
5.080000 -7.200000 -5.120000 10.999210 10.053843 222.062378
5.080000 -7.200000 -5.080000 3.981636 14.705700 232.111038
5.080000 -7.200000 -5.040000 -2.915396 11.427240 139.081345
5.080000 -7.200000 -5.000000 -3.630411 5.071548 38.900490
5.080000 -7.200000 -4.960000 0.405369 2.349264 5.683365
5.080000 -7.200000 -4.920000 3.322544 4.692910 33.062706
5.080000 -7.200000 -4.880000 1.788982 7.968620 66.699364
5.080000 -7.200000 -4.840000 -2.113726 8.046450 69.213196
5.080000 -7.200000 -4.800000 -4.447544 5.151474 46.318333
5.080000 -7.160000 -5.200000 5.194818 4.855883 50.565727
5.080000 -7.160000 -5.160000 2.602921 15.397175 243.848190
5.080000 -7.160000 -5.120000 -10.087172 17.706844 415.283386
5.080000 -7.160000 -5.080000 -20.705738 6.623135 472.593506
5.080000 -7.160000 -5.040000 -18.582375 -10.289761 451.183838
5.080000 -7.160000 -5.000000 -4.211193 -20.319523 430.617157
5.080000 -7.160000 -4.960000 12.204298 -17.058435 439.935120
5.080000 -7.160000 -4.920000 20.540489 -4.688646 443.895081
5.080000 -7.160000 -4.880000 18.526344 7.577419 400.642700
5.080000 -7.160000 -4.840000 11.054670 13.769386 311.801727
5.080000 -7.160000 -4.800000 3.882266 14.100118 213.885315
5.080000 -7.120000 -5.200000 -2.949948 14.643523 223.134964
5.080000 -7.120000 -5.160000 -20.082850 16.595100 678.718201
5.080000 -7.120000 -5.120000 -34.907032 -0.556185 1218.810181
5.080000 -7.120000 -5.080000 -30.785809 -27.801941 1720.713867
5.080000 -7.120000 -5.040000 -5.530838 -45.632401 2112.906006
5.080000 -7.120000 -5.000000 26.329885 -40.579910 2339.991943
5.080000 -7.120000 -4.960000 45.749245 -15.812580 2343.031006
5.080000 -7.120000 -4.920000 43.907703 12.893053 2094.117188
5.080000 -7.120000 -4.880000 26.718838 30.498871 1644.077393
5.080000 -7.120000 -4.840000 7.226315 32.682262 1120.349854
5.080000 -7.120000 -4.800000 -5.177402 25.217934 662.749634
5.080000 -7.080000 -5.200000 -19.901592 11.942749 538.702637
5.080000 -7.080000 -5.160000 -38.582497 -5.860485 1522.954346
5.080000 -7.080000 -5.120000 -36.245720 -39.597668 2881.727539
5.080000 -7.080000 -5.080000 -4.810465 -65.529991 4317.320312
5.080000 -7.080000 -5.040000 40.605556 -61.645748 5449.009277
5.080000 -7.080000 -5.000000 72.501892 -26.215302 5943.766602
5.080000 -7.080000 -4.960000 72.309494 20.561726 5651.447754
5.080000 -7.080000 -4.920000 43.601494 52.637207 4671.765625
5.080000 -7.080000 -4.880000 6.910586 57.182190 3317.558838
5.080000 -7.080000 -4.840000 -17.481712 40.906380 1978.942139
5.080000 -7.080000 -4.800000 -23.145111 20.687664 963.675598
5.080000 -7.040000 -5.200000 -29.084309 -6.575826 889.138489
5.080000 -7.040000 -5.160000 -31.700481 -39.157505 2538.230713
5.080000 -7.040000 -5.120000 -2.575216 -70.318626 4951.340820
5.080000 -7.040000 -5.080000 48.674011 -71.957565 7547.050781
5.080000 -7.040000 -5.040000 91.448235 -33.643177 9494.642578
5.080000 -7.040000 -5.000000 97.021980 26.387323 10109.555664
5.080000 -7.040000 -4.960000 61.195862 73.825272 9195.104492
5.080000 -7.040000 -4.920000 7.221425 84.101074 7125.139648
5.080000 -7.040000 -4.880000 -33.085167 59.386688 4621.407227
5.080000 -7.040000 -4.840000 -43.093700 23.421429 2405.630371
5.080000 -7.040000 -4.800000 -30.289833 0.489151 917.713257
5.080000 -7.000000 -5.200000 -18.696907 -26.599766 1057.121826
5.080000 -7.000000 -5.160000 0.703278 -56.118706 3149.803711
5.080000 -7.000000 -5.120000 46.287598 -64.704498 6329.213867
5.080000 -7.000000 -5.080000 92.980568 -33.606113 9774.756836
5.080000 -7.000000 -5.040000 107.116646 28.041697 12260.312500
5.080000 -7.000000 -5.000000 73.647995 85.909271 12804.429688
5.080000 -7.000000 -4.960000 10.259180 105.458206 11226.684570
5.080000 -7.000000 -4.920000 -45.177021 78.565979 8213.576172
5.080000 -7.000000 -4.880000 -63.737396 28.750130 4889.025391
5.080000 -7.000000 -4.840000 -46.115005 -9.327904 2213.603516
5.080000 -7.000000 -4.800000 -17.778481 -17.537346 623.632874
5.080000 -6.960000 -5.200000 3.878181 -29.475777 883.861694
5.080000 -6.960000 -5.160000 34.044601 -41.293892 2864.220459
5.080000 -6.960000 -5.120000 73.917206 -23.897356 6034.836914
5.080000 -6.960000 -5.080000 94.332779 25.549120 9551.430664
5.080000 -6.960000 -5.040000 72.351578 82.578842 12054.015625
5.080000 -6.960000 -5.000000 13.428437 110.755051 12447.004883
5.080000 -6.960000 -4.960000 -48.753635 90.598068 10584.926758
5.080000 -6.960000 -4.920000 -77.411476 36.651142 7335.842773
5.080000 -6.960000 -4.880000 -61.705475 -13.854357 3999.508789
5.080000 -6.960000 -4.840000 -23.760073 -31.525795 1558.416748
5.080000 -6.960000 -4.800000 2.472541 -17.326925 306.335815
5.080000 -6.920000 -5.200000 17.439201 -12.364606 457.009216
5.080000 -6.920000 -5.160000 41.167374 -7.973391 1758.327637
5.080000 -6.920000 -5.120000 60.667160 20.130604 4085.745605
5.080000 -6.920000 -5.080000 53.414520 63.090050 6833.465820
5.080000 -6.920000 -5.040000 12.260845 93.264557 8848.605469
5.080000 -6.920000 -5.000000 -42.724689 85.565308 9146.821289
5.080000 -6.920000 -4.960000 -76.935959 40.891911 7591.290039
5.080000 -6.920000 -4.920000 -69.570099 -11.595655 4974.458008
5.080000 -6.920000 -4.880000 -31.752880 -37.928356 2446.805664
5.080000 -6.920000 -4.840000 3.502663 -27.905602 790.991211
5.080000 -6.920000 -4.800000 10.826073 -2.047248 121.395073
5.080000 -6.880000 -5.200000 8.462420 6.651386 115.853485
5.080000 -6.880000 -5.160000 19.263563 13.125662 543.367859
5.080000 -6.880000 -5.120000 22.784771 33.474937 1639.717285
5.080000 -6.880000 -5.080000 5.465942 56.066864 3173.369629
5.080000 -6.880000 -5.040000 -29.379745 59.749397 4433.160156
5.080000 -6.880000 -5.000000 -59.462791 34.315411 4713.371094
5.080000 -6.880000 -4.960000 -61.763992 -6.398220 3855.728027
5.080000 -6.880000 -4.920000 -34.575195 -34.175827 2363.431152
5.080000 -6.880000 -4.880000 -0.677525 -31.563545 996.716431
5.080000 -6.880000 -4.840000 13.210619 -7.992712 238.403900
5.080000 -6.880000 -4.800000 1.194964 9.697738 95.474060
5.080000 -6.840000 -5.200000 -13.362147 5.887614 213.210983
5.080000 -6.840000 -5.160000 -6.485430 3.826784 56.705074
5.080000 -6.840000 -5.120000 -3.113525 12.081724 155.662109
5.080000 -6.840000 -5.080000 -12.454426 20.838123 589.340088
5.080000 -6.840000 -5.040000 -28.977150 16.353149 1107.100708
5.080000 -6.840000 -5.000000 -36.448112 -2.813911 1336.382935
5.080000 -6.840000 -4.960000 -25.108995 -21.985374 1113.818359
5.080000 -6.840000 -4.920000 -3.441755 -24.569729 615.517273
5.080000 -6.840000 -4.880000 9.287340 -9.780210 181.907196
5.080000 -6.840000 -4.840000 2.832466 5.613245 39.531384
5.080000 -6.840000 -4.800000 -12.878931 4.351803 184.805054
5.080000 -6.800000 -5.200000 -23.127895 -16.909878 820.843506
5.080000 -6.800000 -5.160000 -7.691797 -23.066174 591.212097
5.080000 -6.800000 -5.120000 4.462154 -15.644793 264.670349
5.080000 -6.800000 -5.080000 4.957554 -4.841892 48.021263
5.080000 -6.800000 -5.040000 -1.359143 -1.491539 4.071959
5.080000 -6.800000 -5.000000 -3.912996 -5.476810 45.306992
5.080000 -6.800000 -4.960000 0.464123 -7.725292 59.895550
5.080000 -6.800000 -4.920000 4.289658 -2.712618 25.759459
5.080000 -6.800000 -4.880000 -0.342503 3.765404 14.295573
5.080000 -6.800000 -4.840000 -10.404907 1.184359 109.664795
5.080000 -6.800000 -4.800000 -13.573107 -12.171619 332.377563
5.120000 -7.200000 -5.200000 1.976019 -3.789494 18.264915
5.120000 -7.200000 -5.160000 5.901488 8.268616 103.197571
5.120000 -7.200000 -5.120000 -2.545372 15.471942 245.859894
5.120000 -7.200000 -5.080000 -11.693619 10.636780 249.881805
5.120000 -7.200000 -5.040000 -10.701788 0.773479 115.126541
5.120000 -7.200000 -5.000000 -1.332502 -1.839908 5.160825
5.120000 -7.200000 -4.960000 4.751036 6.290796 62.146461
5.120000 -7.200000 -4.920000 -0.601118 16.186596 262.367218
5.120000 -7.200000 -4.880000 -13.034079 16.587559 445.034302
5.120000 -7.200000 -4.840000 -20.706696 6.166307 466.790588
5.120000 -7.200000 -4.800000 -17.120102 -5.559443 324.005310
5.120000 -7.160000 -5.200000 3.416990 4.351597 30.612221
5.120000 -7.160000 -5.160000 -6.700183 14.328500 250.198364
5.120000 -7.160000 -5.120000 -20.656734 8.302408 495.630676
5.120000 -7.160000 -5.080000 -22.103924 -8.675575 563.849060
5.120000 -7.160000 -5.040000 -7.524710 -20.087753 460.139069
5.120000 -7.160000 -5.000000 10.754486 -14.838781 335.848419
5.120000 -7.160000 -4.960000 17.410019 2.317747 308.480713
5.120000 -7.160000 -4.920000 8.764481 16.676929 354.936096
5.120000 -7.160000 -4.880000 -5.434771 18.350887 366.291809
5.120000 -7.160000 -4.840000 -13.270050 10.265078 281.466034
5.120000 -7.160000 -4.800000 -11.901644 2.460971 147.705505
5.120000 -7.120000 -5.200000 -6.148003 8.971774 118.290665
5.120000 -7.120000 -5.160000 -22.520409 4.512173 527.528503
5.120000 -7.120000 -5.120000 -27.171041 -15.698225 984.699768
5.120000 -7.120000 -5.080000 -10.755001 -34.057503 1275.583496
5.120000 -7.120000 -5.040000 16.698997 -32.903194 1361.476807
5.120000 -7.120000 -5.000000 34.907795 -10.732170 1333.733643
5.120000 -7.120000 -4.960000 31.368868 17.092470 1276.158447
5.120000 -7.120000 -4.920000 10.951236 32.599335 1182.646240
5.120000 -7.120000 -4.880000 -10.639986 29.803616 1001.464783
5.120000 -7.120000 -4.840000 -21.292297 16.615196 729.426697
5.120000 -7.120000 -4.800000 -20.539425 4.853401 445.423492
5.120000 -7.080000 -5.200000 -17.285595 0.118003 298.805695
5.120000 -7.080000 -5.160000 -24.314774 -18.788528 944.216980
5.120000 -7.080000 -5.120000 -9.677629 -40.184311 1708.435303
5.120000 -7.080000 -5.080000 21.317085 -43.446178 2341.988525
5.120000 -7.080000 -5.040000 47.829723 -20.594311 2711.808105
5.120000 -7.080000 -5.000000 50.540028 16.212055 2817.125244
5.120000 -7.080000 -4.960000 27.167191 44.428673 2711.963135
5.120000 -7.080000 -4.920000 -6.787359 48.817791 2429.245117
5.120000 -7.080000 -4.880000 -31.341824 31.609980 1981.500732
5.120000 -7.080000 -4.840000 -36.783276 7.854317 1414.699707
5.120000 -7.080000 -4.800000 -27.924994 -7.864365 841.653442
5.120000 -7.040000 -5.200000 -15.157818 -17.732574 544.203613
5.120000 -7.040000 -5.160000 -4.012970 -37.276756 1405.660400
5.120000 -7.040000 -5.120000 24.499336 -43.077190 2455.861816
5.120000 -7.040000 -5.080000 53.380924 -23.439741 3398.944336
5.120000 -7.040000 -5.040000 61.408886 15.058537 3997.810791
5.120000 -7.040000 -5.000000 39.741516 50.831341 4163.213379
5.120000 -7.040000 -4.960000 -0.650748 62.752087 3938.248047
5.120000 -7.040000 -4.920000 -36.820526 45.420803 3418.800293
5.120000 -7.040000 -4.880000 -50.452980 12.170477 2693.623779
5.120000 -7.040000 -4.840000 -39.989044 -15.916873 1852.470459
5.120000 -7.040000 -4.800000 -19.315239 -25.582848 1027.560547
5.120000 -7.000000 -5.200000 3.611277 -27.476505 767.999634
5.120000 -7.000000 -5.160000 25.904819 -32.341591 1717.038208
5.120000 -7.000000 -5.120000 50.718323 -17.155146 2866.647217
5.120000 -7.000000 -5.080000 60.374268 16.197454 3907.409668
5.120000 -7.000000 -5.040000 43.456722 51.574932 4548.460449
5.120000 -7.000000 -5.000000 4.715476 68.043663 4652.175781
5.120000 -7.000000 -4.960000 -36.059956 54.490730 4269.560059
5.120000 -7.000000 -4.920000 -56.769981 18.455070 3563.420410
5.120000 -7.000000 -4.880000 -48.525681 -18.464903 2695.694336
5.120000 -7.000000 -4.840000 -21.810928 -36.092327 1778.372681
5.120000 -7.000000 -4.800000 2.190785 -30.195808 916.586426
5.120000 -6.960000 -5.200000 24.235910 -16.627836 863.864258
5.120000 -6.960000 -5.160000 40.952492 -4.524050 1697.573608
5.120000 -6.960000 -5.120000 47.536892 20.202766 2667.907959
5.120000 -6.960000 -5.080000 35.115601 47.837547 3521.536133
5.120000 -6.960000 -5.040000 4.315326 63.115303 4002.163574
5.120000 -6.960000 -5.000000 -31.989880 54.355194 3977.839355
5.120000 -6.960000 -4.960000 -54.586609 22.975927 3507.591064
5.120000 -6.960000 -4.920000 -50.687317 -14.735651 2786.343506
5.120000 -6.960000 -4.880000 -24.363798 -37.597916 2007.197998
5.120000 -6.960000 -4.840000 5.221408 -35.215370 1267.385376
5.120000 -6.960000 -4.800000 18.462921 -16.334465 607.694214
5.120000 -6.920000 -5.200000 26.883427 7.513810 779.175964
5.120000 -6.920000 -5.160000 27.575947 23.845572 1329.044189
5.120000 -6.920000 -5.120000 17.305986 40.179718 1913.906982
5.120000 -6.920000 -5.080000 -3.490644 48.828789 2396.435303
5.120000 -6.920000 -5.040000 -28.473709 42.579174 2623.738281
5.120000 -6.920000 -5.000000 -45.880909 20.095516 2508.887695
5.120000 -6.920000 -4.960000 -44.771721 -9.823664 2101.011230
5.120000 -6.920000 -4.920000 -24.212322 -31.265730 1563.782471
5.120000 -6.920000 -4.880000 3.204735 -32.315598 1054.568115
5.120000 -6.920000 -4.840000 19.513336 -15.701297 627.301025
5.120000 -6.920000 -4.800000 16.248531 2.104251 268.442627
5.120000 -6.880000 -5.200000 7.752178 22.546991 568.463074
5.120000 -6.880000 -5.160000 -1.996658 28.326847 806.396912
5.120000 -6.880000 -5.120000 -14.092312 28.355688 1002.638306
5.120000 -6.880000 -5.080000 -25.816780 21.640356 1134.811157
5.120000 -6.880000 -5.040000 -33.128460 7.979893 1161.173584
5.120000 -6.880000 -5.000000 -30.957567 -9.397383 1046.681763
5.120000 -6.880000 -4.960000 -17.480608 -22.569754 814.965454
5.120000 -6.880000 -4.920000 1.380531 -23.429113 550.829224
5.120000 -6.880000 -4.880000 14.047215 -11.592685 331.714569
5.120000 -6.880000 -4.840000 12.738903 2.842758 170.360916
5.120000 -6.880000 -4.800000 1.843394 6.990267 52.261932
5.120000 -6.840000 -5.200000 -14.501261 13.093727 381.732239
5.120000 -6.840000 -5.160000 -19.684664 6.462446 429.249207
5.120000 -6.840000 -5.120000 -20.299971 -1.329729 413.856995
5.120000 -6.840000 -5.080000 -17.409550 -8.194880 370.248474
5.120000 -6.840000 -5.040000 -11.696978 -13.413137 316.731567
5.120000 -6.840000 -5.000000 -3.372695 -15.474525 250.836014
5.120000 -6.840000 -4.960000 5.305475 -12.086864 174.240356
5.120000 -6.840000 -4.920000 9.458610 -3.657413 102.841965
5.120000 -6.840000 -4.880000 5.737116 4.265626 51.110062
5.120000 -6.840000 -4.840000 -2.483094 4.488822 26.315279
5.120000 -6.840000 -4.800000 -5.936275 -4.192147 52.813469
5.120000 -6.800000 -5.200000 -15.935699 -11.807871 393.372314
5.120000 -6.800000 -5.160000 -8.521470 -18.402637 411.272522
5.120000 -6.800000 -5.120000 0.883755 -19.272369 372.205261
5.120000 -6.800000 -5.080000 8.711368 -15.391844 312.796783
5.120000 -6.800000 -5.040000 13.481609 -8.669451 256.913147
5.120000 -6.800000 -5.000000 14.380223 -0.471533 207.013153
5.120000 -6.800000 -4.960000 10.236543 7.087182 155.014954
5.120000 -6.800000 -4.920000 1.534784 9.922438 100.810333
5.120000 -6.800000 -4.880000 -6.879589 4.526381 67.816879
5.120000 -6.800000 -4.840000 -7.458346 -7.033311 105.094398
5.120000 -6.800000 -4.800000 3.350014 -15.834588 261.956757
5.160000 -7.200000 -5.200000 4.204414 -3.000957 26.682842
5.160000 -7.200000 -5.160000 -0.986701 8.724714 77.094215
5.160000 -7.200000 -5.120000 -11.838948 8.051821 204.992508
5.160000 -7.200000 -5.080000 -14.067457 -1.656534 200.637466
5.160000 -7.200000 -5.040000 -5.105326 -6.455215 67.734146
5.160000 -7.200000 -5.000000 3.269464 1.550696 13.094054
5.160000 -7.200000 -4.960000 -1.348815 14.675945 217.202682
5.160000 -7.200000 -4.920000 -17.436089 17.802959 620.962524
5.160000 -7.200000 -4.880000 -30.397507 5.077150 949.785889
5.160000 -7.200000 -4.840000 -27.866814 -13.375428 955.461426
5.160000 -7.200000 -4.800000 -12.592321 -21.922411 639.158691
5.160000 -7.160000 -5.200000 2.304809 3.319324 16.330061
5.160000 -7.160000 -5.160000 -11.247064 6.730106 171.790771
5.160000 -7.160000 -5.120000 -18.852215 -4.697382 377.471405
5.160000 -7.160000 -5.080000 -10.698277 -16.932419 401.159973
5.160000 -7.160000 -5.040000 5.255443 -15.094887 255.475281
5.160000 -7.160000 -5.000000 12.238764 0.625824 150.179001
5.160000 -7.160000 -4.960000 2.506138 15.510178 246.846344
5.160000 -7.160000 -4.920000 -15.048512 15.910807 479.611450
5.160000 -7.160000 -4.880000 -24.820951 2.781397 623.815796
5.160000 -7.160000 -4.840000 -20.394791 -10.718623 530.836365
5.160000 -7.160000 -4.800000 -9.465991 -13.667080 276.394073
5.160000 -7.120000 -5.200000 -5.206312 3.034121 36.311573
5.160000 -7.120000 -5.160000 -16.189465 -5.227522 289.425751
5.160000 -7.120000 -5.120000 -12.318410 -20.148035 557.686523
5.160000 -7.120000 -5.080000 4.992314 -24.661840 633.129578
5.160000 -7.120000 -5.040000 20.146294 -11.426063 536.428040
5.160000 -7.120000 -5.000000 18.797913 10.026693 453.896088
5.160000 -7.120000 -4.960000 1.299035 22.799452 521.502502
5.160000 -7.120000 -4.920000 -18.670532 18.337082 684.837341
5.160000 -7.120000 -4.880000 -27.566561 2.777751 767.631165
5.160000 -7.120000 -4.840000 -23.300016 -10.881137 661.289917
5.160000 -7.120000 -4.800000 -14.183300 -15.180473 431.612793
5.160000 -7.080000 -5.200000 -8.109772 -6.612327 109.491257
5.160000 -7.080000 -5.160000 -7.607877 -18.639027 405.293091
5.160000 -7.080000 -5.120000 6.005321 -25.481657 685.378662
5.160000 -7.080000 -5.080000 22.549316 -17.032524 798.578552
5.160000 -7.080000 -5.040000 27.464386 3.769310 768.500183
5.160000 -7.080000 -5.000000 14.539607 23.072720 743.750610
5.160000 -7.080000 -4.960000 -8.930588 27.596373 841.315186
5.160000 -7.080000 -4.920000 -28.439983 14.932115 1031.800659
5.160000 -7.080000 -4.880000 -33.643555 -5.739902 1164.835327
5.160000 -7.080000 -4.840000 -25.015865 -21.830166 1102.349609
5.160000 -7.080000 -4.800000 -11.395742 -26.574244 836.053345
5.160000 -7.040000 -5.200000 1.801353 -16.349598 270.554230
5.160000 -7.040000 -5.160000 11.498665 -19.907320 528.520691
5.160000 -7.040000 -5.120000 23.547260 -13.519498 737.250244
5.160000 -7.040000 -5.080000 28.624985 2.423715 825.264160
5.160000 -7.040000 -5.040000 20.429396 20.098770 821.320801
5.160000 -7.040000 -5.000000 0.499768 28.818251 830.741333
5.160000 -7.040000 -4.960000 -21.801838 21.875965 953.877991
5.160000 -7.040000 -4.920000 -34.522133 1.464147 1193.921387
5.160000 -7.040000 -4.880000 -30.765102 -21.827135 1422.915283
5.160000 -7.040000 -4.840000 -13.759666 -35.492882 1449.072998
5.160000 -7.040000 -4.800000 4.909183 -33.751259 1163.247559
5.160000 -7.000000 -5.200000 19.496357 -12.695425 541.281738
5.160000 -7.000000 -5.160000 26.198071 -3.227567 696.756104
5.160000 -7.000000 -5.120000 25.616493 9.429471 745.119629
5.160000 -7.000000 -5.080000 17.374296 20.356237 716.242554
5.160000 -7.000000 -5.040000 3.179507 25.620121 666.499878
5.160000 -7.000000 -5.000000 -13.602033 21.784870 659.595825
5.160000 -7.000000 -4.960000 -26.667599 7.141953 762.168335
5.160000 -7.000000 -4.920000 -28.100643 -14.555824 1001.518127
5.160000 -7.000000 -4.880000 -14.459038 -32.901749 1291.588745
5.160000 -7.000000 -4.840000 7.602058 -36.953064 1423.320190
5.160000 -7.000000 -4.800000 23.989897 -25.075611 1204.301392
5.160000 -6.960000 -5.200000 28.742388 6.898235 873.710510
5.160000 -6.960000 -5.160000 21.767349 21.068781 917.711060
5.160000 -6.960000 -5.120000 8.184173 26.431238 765.591064
5.160000 -6.960000 -5.080000 -4.021914 23.260075 557.206848
5.160000 -6.960000 -5.040000 -12.202020 16.080664 407.477020
5.160000 -6.960000 -5.000000 -17.582014 6.528989 351.754913
5.160000 -6.960000 -4.960000 -18.883957 -6.615946 400.374573
5.160000 -6.960000 -4.920000 -11.467810 -21.055916 574.862244
5.160000 -6.960000 -4.880000 5.522445 -28.464077 840.701050
5.160000 -6.960000 -4.840000 23.544558 -21.855959 1032.029175
5.160000 -6.960000 -4.800000 30.119303 -5.233937 934.566528
5.160000 -6.920000 -5.200000 17.931860 28.208000 1117.242920
5.160000 -6.920000 -5.160000 -1.276331 33.274635 1108.830444
5.160000 -6.920000 -5.120000 -16.624237 23.323765 820.363281
5.160000 -6.920000 -5.080000 -19.874138 8.353109 464.755798
5.160000 -6.920000 -5.040000 -14.718567 -1.779016 219.801117
5.160000 -6.920000 -5.000000 -8.818118 -6.320530 117.708313
5.160000 -6.920000 -4.960000 -3.925664 -9.981647 115.044121
5.160000 -6.920000 -4.920000 3.727777 -13.530405 196.968185
5.160000 -6.920000 -4.880000 14.752493 -11.878088 358.725037
5.160000 -6.920000 -4.840000 22.494518 -2.167809 510.702759
5.160000 -6.920000 -4.800000 20.203066 9.377789 496.106812
5.160000 -6.880000 -5.200000 -6.032625 32.407650 1086.648315
5.160000 -6.880000 -5.160000 -24.940441 22.279049 1118.381592
5.160000 -6.880000 -5.120000 -29.230240 1.869765 857.902954
5.160000 -6.880000 -5.080000 -18.026714 -13.289134 501.563538
5.160000 -6.880000 -5.040000 -2.597617 -15.177816 237.113724
5.160000 -6.880000 -5.000000 6.401691 -8.371129 111.057449
5.160000 -6.880000 -4.960000 8.004972 -1.866776 67.564423
5.160000 -6.880000 -4.920000 7.770530 0.939600 61.263981
5.160000 -6.880000 -4.880000 8.889790 2.939240 87.667488
5.160000 -6.880000 -4.840000 9.338295 6.306965 126.981567
5.160000 -6.880000 -4.800000 7.321484 8.559090 126.862137
5.160000 -6.840000 -5.200000 -22.007444 15.591475 727.421692
5.160000 -6.840000 -5.160000 -29.112656 -2.269023 852.695129
5.160000 -6.840000 -5.120000 -19.565758 -20.140270 788.449341
5.160000 -6.840000 -5.080000 -0.056074 -24.906780 620.350891
5.160000 -6.840000 -5.040000 15.486267 -14.701586 455.961090
5.160000 -6.840000 -5.000000 18.292660 1.010553 335.642609
5.160000 -6.840000 -4.960000 10.647335 11.087597 236.300552
5.160000 -6.840000 -4.920000 1.316869 11.514157 134.309967
5.160000 -6.840000 -4.880000 -2.755594 5.994721 43.529976
5.160000 -6.840000 -4.840000 -0.289747 0.594837 0.437784
5.160000 -6.840000 -4.800000 6.121216 -0.628515 37.864315
5.160000 -6.800000 -5.200000 -15.101845 -4.970646 252.773041
5.160000 -6.800000 -5.160000 -11.212148 -17.226318 422.458282
5.160000 -6.800000 -5.120000 2.924839 -23.884594 579.028503
5.160000 -6.800000 -5.080000 19.379414 -17.768827 691.292908
5.160000 -6.800000 -5.040000 26.976326 -1.107286 728.948242
5.160000 -6.800000 -5.000000 20.520855 15.540730 662.619812
5.160000 -6.800000 -4.960000 5.167184 21.453442 486.949951
5.160000 -6.800000 -4.920000 -7.514141 14.018782 252.988556
5.160000 -6.800000 -4.880000 -8.367999 0.573801 70.352654
5.160000 -6.800000 -4.840000 2.615857 -7.252748 59.445065
5.160000 -6.800000 -4.800000 16.416622 -2.165388 274.194397
5.200000 -7.200000 -5.200000 5.393659 -0.880038 29.866020
5.200000 -7.200000 -5.160000 -3.550296 4.040239 28.928135
5.200000 -7.200000 -5.120000 -9.168201 -1.425715 86.088577
5.200000 -7.200000 -5.080000 -4.808843 -6.744408 68.612000
5.200000 -7.200000 -5.040000 2.160401 -2.036402 8.814268
5.200000 -7.200000 -5.000000 -0.706213 9.354763 88.010330
5.200000 -7.200000 -4.960000 -15.574619 13.657987 429.109375
5.200000 -7.200000 -4.920000 -30.119528 2.092831 911.565918
5.200000 -7.200000 -4.880000 -29.823746 -18.272560 1223.342285
5.200000 -7.200000 -4.840000 -13.549929 -30.704376 1126.359253
5.200000 -7.200000 -4.800000 4.722138 -25.690739 682.312622
5.200000 -7.160000 -5.200000 2.289482 2.012873 9.293383
5.200000 -7.160000 -5.160000 -7.833073 -0.391353 61.510185
5.200000 -7.160000 -5.120000 -8.034158 -9.384130 152.609589
5.200000 -7.160000 -5.080000 0.953755 -11.538235 134.040512
5.200000 -7.160000 -5.040000 6.670217 -2.201688 49.339218
5.200000 -7.160000 -5.000000 -0.451024 9.023298 81.623337
5.200000 -7.160000 -4.960000 -15.842958 8.912848 330.438171
5.200000 -7.160000 -4.920000 -25.316185 -4.671036 662.727844
5.200000 -7.160000 -4.880000 -20.127026 -20.237844 814.667480
5.200000 -7.160000 -4.840000 -5.929853 -24.791416 649.777466
5.200000 -7.160000 -4.800000 3.777551 -17.037399 304.542877
5.200000 -7.120000 -5.200000 -0.948714 -0.294476 0.986775
5.200000 -7.120000 -5.160000 -6.182849 -6.888611 85.680588
5.200000 -7.120000 -5.120000 -1.295207 -13.202538 175.984558
5.200000 -7.120000 -5.080000 7.118682 -10.065780 151.995560
5.200000 -7.120000 -5.040000 8.015485 0.650764 64.671486
5.200000 -7.120000 -5.000000 -2.047326 8.198301 71.403687
5.200000 -7.120000 -4.960000 -15.309069 4.309297 252.937622
5.200000 -7.120000 -4.920000 -20.888130 -8.552130 509.452911
5.200000 -7.120000 -4.880000 -15.390910 -20.285549 648.383606
5.200000 -7.120000 -4.840000 -5.121919 -23.371429 572.457764
5.200000 -7.120000 -4.800000 1.344127 -19.177954 369.600586
5.200000 -7.080000 -5.200000 1.895672 -5.334885 32.054565
5.200000 -7.080000 -5.160000 1.702500 -9.139216 86.423782
5.200000 -7.080000 -5.120000 5.862259 -9.932064 133.011978
5.200000 -7.080000 -5.080000 8.983412 -5.169106 107.421356
5.200000 -7.080000 -5.040000 6.045520 1.727389 39.532185
5.200000 -7.080000 -5.000000 -2.832910 4.451685 27.842876
5.200000 -7.080000 -4.960000 -12.292585 -0.732095 151.643616
5.200000 -7.080000 -4.920000 -15.968920 -11.881394 396.173920
5.200000 -7.080000 -4.880000 -11.278452 -22.884079 650.884583
5.200000 -7.080000 -4.840000 -1.088931 -27.922047 780.826477
5.200000 -7.080000 -4.800000 8.593848 -25.365328 717.254089
5.200000 -7.040000 -5.200000 11.554661 -4.846974 157.003357
5.200000 -7.040000 -5.160000 9.891361 -2.230606 102.814629
5.200000 -7.040000 -5.120000 7.516675 -1.474044 58.673210
5.200000 -7.040000 -5.080000 6.083021 -1.585337 39.516441
5.200000 -7.040000 -5.040000 4.666939 -0.758412 22.355507
5.200000 -7.040000 -5.000000 0.698249 -0.015021 0.487777
5.200000 -7.040000 -4.960000 -5.555480 -3.431167 42.636269
5.200000 -7.040000 -4.920000 -8.837591 -13.218556 252.833252
5.200000 -7.040000 -4.880000 -3.213447 -24.982365 634.444763
5.200000 -7.040000 -4.840000 10.679224 -29.839348 1004.432495
5.200000 -7.040000 -4.800000 23.924915 -22.856012 1094.798828
5.200000 -7.000000 -5.200000 19.661343 6.787951 432.644653
5.200000 -7.000000 -5.160000 9.476493 11.535017 222.860535
5.200000 -7.000000 -5.120000 0.908197 6.029106 37.174942
5.200000 -7.000000 -5.080000 1.304725 -2.274203 6.874309
5.200000 -7.000000 -5.040000 6.769436 -4.270869 64.065582
5.200000 -7.000000 -5.000000 7.816996 -0.580745 61.442684
5.200000 -7.000000 -4.960000 2.165235 -0.549612 4.990315
5.200000 -7.000000 -4.920000 -1.351431 -9.715594 96.219139
5.200000 -7.000000 -4.880000 6.722507 -21.054792 488.496399
5.200000 -7.000000 -4.840000 23.571699 -21.565453 1020.693726
5.200000 -7.000000 -4.800000 34.920036 -7.593503 1277.070190
5.200000 -6.960000 -5.200000 15.496332 24.425604 836.746399
5.200000 -6.960000 -5.160000 -3.370272 22.162195 502.521637
5.200000 -6.960000 -5.120000 -10.846437 5.804807 151.340973
5.200000 -6.960000 -5.080000 -1.650160 -7.322320 56.339397
5.200000 -6.960000 -5.040000 11.514521 -5.650597 164.513428
5.200000 -6.960000 -5.000000 13.873054 4.261107 210.618652
5.200000 -6.960000 -4.960000 5.987898 7.073702 85.892181
5.200000 -6.960000 -4.920000 2.104680 -1.970132 8.311099
5.200000 -6.960000 -4.880000 11.854645 -11.006170 261.668396
5.200000 -6.960000 -4.840000 27.456036 -6.082512 790.830811
5.200000 -6.960000 -4.800000 32.167263 11.077989 1157.454590
5.200000 -6.920000 -5.200000 -2.332238 34.577774 1201.061768
5.200000 -6.920000 -5.160000 -21.873487 19.587542 862.121216
5.200000 -6.920000 -5.120000 -19.715649 -4.343423 407.572113
5.200000 -6.920000 -5.080000 0.090186 -14.488470 209.923904
5.200000 -6.920000 -5.040000 16.565104 -4.336277 293.205963
5.200000 -6.920000 -5.000000 15.579437 11.257491 369.449982
5.200000 -6.920000 -4.960000 4.103235 14.685862 232.511078
5.200000 -6.920000 -4.920000 -0.315235 5.471394 30.035521
5.200000 -6.920000 -4.880000 8.884654 -1.164002 80.291985
5.200000 -6.920000 -4.840000 20.281086 6.018963 447.550354
5.200000 -6.920000 -4.800000 19.423607 20.563972 800.153442
5.200000 -6.880000 -5.200000 -21.993771 28.099186 1273.290283
5.200000 -6.880000 -5.160000 -32.655449 3.672148 1079.862915
5.200000 -6.880000 -5.120000 -18.180092 -18.966892 690.258789
5.200000 -6.880000 -5.080000 7.497164 -19.833515 449.575775
5.200000 -6.880000 -5.040000 21.172226 -1.257895 449.845459
5.200000 -6.880000 -5.000000 14.364173 16.724371 486.034058
5.200000 -6.880000 -4.960000 -0.347766 18.771660 352.496155
5.200000 -6.880000 -4.920000 -5.613123 8.899207 110.703033
5.200000 -6.880000 -4.880000 1.787451 2.657579 10.257707
5.200000 -6.880000 -4.840000 10.227274 8.161764 171.211517
5.200000 -6.880000 -4.800000 9.055039 18.448299 422.333496
5.200000 -6.840000 -5.200000 -28.492937 10.687454 926.069153
5.200000 -6.840000 -5.160000 -27.565952 -13.682573 947.094543
5.200000 -6.840000 -5.120000 -5.967670 -27.808136 808.905518
5.200000 -6.840000 -5.080000 18.291204 -19.018391 696.267334
5.200000 -6.840000 -5.040000 25.601568 4.003215 671.466064
5.200000 -6.840000 -5.000000 13.421471 21.136059 626.868835
5.200000 -6.840000 -4.960000 -3.548021 20.870613 448.170929
5.200000 -6.840000 -4.920000 -9.723612 9.411145 183.118286
5.200000 -6.840000 -4.880000 -3.085119 1.382404 11.429001
5.200000 -6.840000 -4.840000 6.154155 4.453576 57.707958
5.200000 -6.840000 -4.800000 8.142391 14.192426 267.723480
5.200000 -6.800000 -5.200000 -18.919798 -0.987295 358.933502
5.200000 -6.800000 -5.160000 -12.539149 -18.359234 494.291748
5.200000 -6.800000 -5.120000 8.041597 -24.018471 641.554260
5.200000 -6.800000 -5.080000 26.675724 -10.363781 819.002197
5.200000 -6.800000 -5.040000 28.128517 12.862817 956.665527
5.200000 -6.800000 -5.000000 12.315207 27.772848 922.995422
5.200000 -6.800000 -4.960000 -6.326733 24.873514 658.719238
5.200000 -6.800000 -4.920000 -12.782485 10.722065 278.354614
5.200000 -6.800000 -4.880000 -4.558852 0.489225 21.022474
5.200000 -6.800000 -4.840000 7.723259 3.834779 74.354256
5.200000 -6.800000 -4.800000 11.040396 17.468309 427.032166
