#kx 	ky 	kz 	real 	imag 	intensity
-5.200000 6.800000 -5.200000 8.417751 -39.113178 1600.699219
-5.200000 6.800000 -5.160000 18.178131 -26.537203 1034.667603
-5.200000 6.800000 -5.120000 14.521975 -15.781689 459.949432
-5.200000 6.800000 -5.080000 7.745732 -17.108084 352.682892
-5.200000 6.800000 -5.040000 11.158579 -25.394432 769.391113
-5.200000 6.800000 -5.000000 25.629578 -26.394268 1353.532715
-5.200000 6.800000 -4.960000 38.566944 -13.033838 1657.290161
-5.200000 6.800000 -4.920000 37.853569 6.736681 1478.275513
-5.200000 6.800000 -4.880000 24.645605 18.757490 959.249268
-5.200000 6.800000 -4.840000 11.232523 17.470587 431.390991
-5.200000 6.800000 -4.800000 7.443830 10.347267 162.476532
-5.200000 6.840000 -5.200000 16.743973 -27.759645 1050.958496
-5.200000 6.840000 -5.160000 20.670322 -18.440865 767.327759
-5.200000 6.840000 -5.120000 16.993103 -13.397480 468.258057
-5.200000 6.840000 -5.080000 14.861251 -16.741817 501.145233
-5.200000 6.840000 -5.040000 21.979902 -21.671135 952.754150
-5.200000 6.840000 -5.000000 35.580360 -17.821856 1583.580566
-5.200000 6.840000 -4.960000 44.873802 -2.485329 2019.834961
-5.200000 6.840000 -4.920000 41.890060 16.488728 2026.655396
-5.200000 6.840000 -4.880000 28.830044 28.586746 1648.373535
-5.200000 6.840000 -4.840000 14.724640 30.244469 1131.542969
-5.200000 6.840000 -4.800000 6.224982 26.256739 728.166748
-5.200000 6.880000 -5.200000 19.322639 -17.779549 689.476746
-5.200000 6.880000 -5.160000 21.709782 -11.811028 610.814941
-5.200000 6.880000 -5.120000 20.229088 -9.020497 490.585388
-5.200000 6.880000 -5.080000 21.075270 -10.986539 564.871033
-5.200000 6.880000 -5.040000 28.658997 -12.206465 970.335876
-5.200000 6.880000 -5.000000 39.885437 -5.360921 1619.587646
-5.200000 6.880000 -4.960000 46.088089 11.004860 2245.218994
-5.200000 6.880000 -4.920000 40.629429 30.309147 2569.395020
-5.200000 6.880000 -4.880000 24.626364 43.168613 2469.986816
-5.200000 6.880000 -4.840000 5.641664 44.687183 2028.772705
-5.200000 6.880000 -4.800000 -8.578319 37.104168 1450.306763
-5.200000 6.920000 -5.200000 19.617504 -8.943390 464.830688
-5.200000 6.920000 -5.160000 21.207527 -4.171473 467.160400
-5.200000 6.920000 -5.120000 20.250553 -1.724477 413.058716
-5.200000 6.920000 -5.080000 21.508778 -2.565319 469.208374
-5.200000 6.920000 -5.040000 28.305405 -1.879081 804.726868
-5.200000 6.920000 -5.000000 37.412598 6.733799 1445.046631
-5.200000 6.920000 -4.960000 40.294464 24.240078 2211.225098
-5.200000 6.920000 -4.920000 30.251753 43.417374 2800.236816
-5.200000 6.920000 -4.880000 8.858191 53.637768 2955.477783
-5.200000 6.920000 -4.840000 -14.407124 49.031956 2611.697754
-5.200000 6.920000 -4.800000 -29.022461 32.836269 1920.523804
-5.200000 6.960000 -5.200000 16.695562 0.356439 278.868835
-5.200000 6.960000 -5.160000 15.814339 3.483694 262.229431
-5.200000 6.960000 -5.120000 14.224324 3.832705 217.021027
-5.200000 6.960000 -5.080000 16.194799 2.137506 266.840454
-5.200000 6.960000 -5.040000 23.279207 3.914837 557.247437
-5.200000 6.960000 -5.000000 30.376301 14.498138 1132.915649
-5.200000 6.960000 -4.960000 28.511482 32.407242 1863.134033
-5.200000 6.960000 -4.920000 12.734206 48.142288 2479.839844
-5.200000 6.960000 -4.880000 -12.086914 50.725784 2719.198730
-5.200000 6.960000 -4.840000 -33.599232 36.644775 2471.748047
-5.200000 6.960000 -4.800000 -40.871117 13.175025 1844.029419
-5.200000 7.000000 -5.200000 7.840986 7.413814 116.445686
-5.200000 7.000000 -5.160000 5.324202 5.470116 58.269287
-5.200000 7.000000 -5.120000 5.916264 1.743341 38.041412
-5.200000 7.000000 -5.080000 11.380288 -0.317760 129.611923
-5.200000 7.000000 -5.040000 19.415792 4.212803 394.720703
-5.200000 7.000000 -5.000000 23.142811 16.958986 823.196899
-5.200000 7.000000 -4.960000 15.673416 32.602703 1308.592285
-5.200000 7.000000 -4.920000 -3.375810 40.920151 1685.854858
-5.200000 7.000000 -4.880000 -25.509193 34.093906 1813.113281
-5.200000 7.000000 -4.840000 -38.270473 13.541409 1647.998901
-5.200000 7.000000 -4.800000 -34.203369 -9.968299 1269.237427
-5.200000 7.040000 -5.200000 -4.821503 6.050369 59.853855
-5.200000 7.040000 -5.160000 -3.522797 -2.383405 18.090714
-5.200000 7.040000 -5.120000 3.857098 -7.585269 72.413513
-5.200000 7.040000 -5.080000 13.746063 -5.779738 222.359634
-5.200000 7.040000 -5.040000 20.484550 3.602052 432.591583
-5.200000 7.040000 -5.000000 18.898460 16.842396 640.818115
-5.200000 7.040000 -4.960000 7.509487 26.913052 780.704712
-5.200000 7.040000 -4.920000 -9.429535 26.894115 812.209595
-5.200000 7.040000 -4.880000 -23.083050 14.596045 745.871704
-5.200000 7.040000 -4.840000 -24.872181 -4.718517 640.889771
-5.200000 7.040000 -4.800000 -12.504484 -20.404167 572.692139
-5.200000 7.080000 -5.200000 -12.511685 -5.940206 191.828308
-5.200000 7.080000 -5.160000 -1.718533 -15.815840 253.094147
-5.200000 7.080000 -5.120000 12.869324 -15.401727 402.832672
-5.200000 7.080000 -5.080000 23.006264 -5.557188 560.170471
-5.200000 7.080000 -5.040000 24.143843 7.743126 642.881104
-5.200000 7.080000 -5.000000 17.027098 17.960514 612.502136
-5.200000 7.080000 -4.960000 5.766184 21.128616 479.667297
-5.200000 7.080000 -4.920000 -4.520532 16.394302 289.208374
-5.200000 7.080000 -4.880000 -8.951003 5.785963 113.597824
-5.200000 7.080000 -4.840000 -4.288450 -5.613326 49.900238
-5.200000 7.080000 -4.800000 8.511133 -10.699847 186.926117
-5.200000 7.120000 -5.200000 -6.740320 -21.184107 494.198303
-5.200000 7.120000 -5.160000 12.582047 -23.252480 698.985718
-5.200000 7.120000 -5.120000 27.614243 -11.749742 900.602783
-5.200000 7.120000 -5.080000 30.785639 5.017324 972.929077
-5.200000 7.120000 -5.040000 23.843237 17.313992 868.274231
-5.200000 7.120000 -5.000000 13.989958 21.379555 652.804260
-5.200000 7.120000 -4.960000 6.786894 19.670668 432.997131
-5.200000 7.120000 -4.920000 3.423638 15.948923 266.089447
-5.200000 7.120000 -4.880000 3.315910 12.043413 156.039062
-5.200000 7.120000 -4.840000 6.680489 9.304852 131.209198
-5.200000 7.120000 -4.800000 12.977604 10.772787 284.471130
-5.200000 7.160000 -5.200000 11.257795 -26.677357 838.419312
-5.200000 7.160000 -5.160000 29.903992 -15.529998 1135.429565
-5.200000 7.160000 -5.120000 35.740425 4.606269 1298.595703
-5.200000 7.160000 -5.080000 27.881752 20.985672 1217.790527
-5.200000 7.160000 -5.040000 15.316511 26.487486 936.182434
-5.200000 7.160000 -5.000000 7.246390 24.196316 637.971863
-5.200000 7.160000 -4.960000 5.294369 21.683804 498.217682
-5.200000 7.160000 -4.920000 4.927459 22.573141 533.826538
-5.200000 7.160000 -4.880000 2.640930 24.712360 617.675232
-5.200000 7.160000 -4.840000 -0.388197 25.417149 646.182129
-5.200000 7.160000 -4.800000 -1.849526 25.982164 678.493652
-5.200000 7.200000 -5.200000 28.989979 -15.111488 1068.776001
-5.200000 7.200000 -5.160000 36.215717 4.731862 1333.968628
-5.200000 7.200000 -5.120000 28.644241 23.574776 1376.262573
-5.200000 7.200000 -5.080000 13.216386 31.260134 1151.868896
-5.200000 7.200000 -5.040000 1.382136 27.953890 783.330261
-5.200000 7.200000 -5.000000 -1.641390 22.428139 505.715546
-5.200000 7.200000 -4.960000 -0.340867 22.327236 498.621643
-5.200000 7.200000 -4.920000 -2.359773 27.034845 736.451416
-5.200000 7.200000 -4.880000 -9.896162 30.162275 1007.696899
-5.200000 7.200000 -4.840000 -18.396137 27.677334 1104.452637
-5.200000 7.200000 -4.800000 -22.960407 22.042435 1013.049194
-5.160000 6.800000 -5.200000 46.417397 -28.571730 2970.918457
-5.160000 6.800000 -5.160000 44.655945 -7.788300 2054.811035
-5.160000 6.800000 -5.120000 32.718552 1.629129 1073.157715
-5.160000 6.800000 -5.080000 25.450462 -0.877509 648.496033
-5.160000 6.800000 -5.040000 28.997051 -3.085855 850.351501
-5.160000 6.800000 -5.000000 35.043850 4.715236 1250.304810
-5.160000 6.800000 -4.960000 31.895687 18.656460 1365.398315
-5.160000 6.800000 -4.920000 18.520647 26.620365 1051.658203
-5.160000 6.800000 -4.880000 5.372054 22.690825 543.732483
-5.160000 6.800000 -4.840000 1.996058 13.528862 187.014359
-5.160000 6.800000 -4.800000 6.617045 9.952590 142.839340
-5.160000 6.840000 -5.200000 42.249901 -0.069321 1785.058838
-5.160000 6.840000 -5.160000 33.800468 9.502726 1232.773438
-5.160000 6.840000 -5.120000 26.199730 9.685725 780.239136
-5.160000 6.840000 -5.080000 26.514740 7.431318 758.255920
-5.160000 6.840000 -5.040000 31.449650 11.802982 1128.390869
-5.160000 6.840000 -5.000000 31.489346 23.586843 1547.917969
-5.160000 6.840000 -4.960000 21.760155 34.608551 1671.256104
-5.160000 6.840000 -4.920000 7.144856 36.912922 1413.612793
-5.160000 6.840000 -4.880000 -3.588712 30.948057 970.661072
-5.160000 6.840000 -4.840000 -7.092201 23.774124 615.508301
-5.160000 6.840000 -4.800000 -7.475309 20.500956 476.169434
-5.160000 6.880000 -5.200000 24.912670 14.756329 838.390381
-5.160000 6.880000 -5.160000 19.567057 15.035505 608.936157
-5.160000 6.880000 -5.120000 19.220936 13.935549 563.643921
-5.160000 6.880000 -5.080000 22.043522 17.128246 779.293701
-5.160000 6.880000 -5.040000 21.982817 25.738850 1145.732666
-5.160000 6.880000 -5.000000 14.958075 34.993877 1448.315430
-5.160000 6.880000 -4.960000 2.834721 39.019680 1530.571045
-5.160000 6.880000 -4.920000 -8.935890 36.284653 1396.426147
-5.160000 6.880000 -4.880000 -16.788410 29.874527 1174.338135
-5.160000 6.880000 -4.840000 -21.302948 23.108246 987.806641
-5.160000 6.880000 -4.800000 -24.302502 16.273489 855.437988
-5.160000 6.920000 -5.200000 8.775539 15.102223 305.087250
-5.160000 6.920000 -5.160000 9.323154 13.220467 261.701935
-5.160000 6.920000 -5.120000 11.789833 15.785771 388.190735
-5.160000 6.920000 -5.080000 11.172853 22.385635 625.949341
-5.160000 6.920000 -5.040000 5.218164 28.786419 855.887146
-5.160000 6.920000 -5.000000 -3.980433 31.123550 984.519287
-5.160000 6.920000 -4.960000 -12.742115 29.075430 1007.742126
-5.160000 6.920000 -4.920000 -19.510263 24.799726 995.676819
-5.160000 6.920000 -4.880000 -25.194120 19.436359 1012.515747
-5.160000 6.920000 -4.840000 -30.102303 11.756680 1044.368164
-5.160000 6.920000 -4.800000 -31.707235 0.854610 1006.079102
-5.160000 6.960000 -5.200000 0.433363 9.792493 96.080719
-5.160000 6.960000 -5.160000 3.265528 9.647057 103.729378
-5.160000 6.960000 -5.120000 3.819015 13.985239 210.171783
-5.160000 6.960000 -5.080000 -0.469975 18.405041 338.966400
-5.160000 6.960000 -5.040000 -7.220793 19.012060 413.598267
-5.160000 6.960000 -5.000000 -12.507059 16.149174 417.222351
-5.160000 6.960000 -4.960000 -15.402118 12.949965 404.926819
-5.160000 6.960000 -4.920000 -18.416889 10.739965 454.528656
-5.160000 6.960000 -4.880000 -23.316311 6.895801 591.202393
-5.160000 6.960000 -4.840000 -27.363426 -1.892643 752.339172
-5.160000 6.960000 -4.800000 -24.920130 -14.374247 827.631836
-5.160000 7.000000 -5.200000 -3.335460 5.671168 43.287445
-5.160000 7.000000 -5.160000 -1.175699 5.316381 29.646181
-5.160000 7.000000 -5.120000 -1.631119 7.213000 54.687923
-5.160000 7.000000 -5.080000 -4.609074 7.562226 78.430824
-5.160000 7.000000 -5.040000 -6.931965 5.265353 75.776077
-5.160000 7.000000 -5.000000 -6.752266 2.871256 53.837204
-5.160000 7.000000 -4.960000 -6.130655 2.874895 45.849957
-5.160000 7.000000 -4.920000 -8.481795 3.776550 86.203178
-5.160000 7.000000 -4.880000 -13.553695 0.916786 184.543137
-5.160000 7.000000 -4.840000 -15.905453 -8.039021 317.609283
-5.160000 7.000000 -4.800000 -9.592896 -18.762527 444.056091
-5.160000 7.040000 -5.200000 -7.115058 1.711766 53.554195
-5.160000 7.040000 -5.160000 -3.383879 -1.455561 13.569292
-5.160000 7.040000 -5.120000 -0.192928 -1.682079 2.866612
-5.160000 7.040000 -5.080000 1.645900 -1.119129 3.961436
-5.160000 7.040000 -5.040000 3.326066 -0.540815 11.355193
-5.160000 7.040000 -5.000000 5.144082 1.253626 28.033157
-5.160000 7.040000 -4.960000 5.108659 4.741377 48.579048
-5.160000 7.040000 -4.920000 1.385909 7.284370 54.982796
-5.160000 7.040000 -4.880000 -3.957529 4.858969 39.271614
-5.160000 7.040000 -4.840000 -4.997342 -2.901487 33.392059
-5.160000 7.040000 -4.800000 2.648396 -9.998164 106.977287
-5.160000 7.080000 -5.200000 -9.218015 -5.761814 118.170296
-5.160000 7.080000 -5.160000 0.210039 -9.177159 84.264366
-5.160000 7.080000 -5.120000 8.371123 -5.897645 104.857925
-5.160000 7.080000 -5.080000 12.033306 0.211478 144.845184
-5.160000 7.080000 -5.040000 12.273348 5.621938 182.241257
-5.160000 7.080000 -5.000000 11.205078 9.966652 224.887924
-5.160000 7.080000 -4.960000 8.743842 14.085939 274.868469
-5.160000 7.080000 -4.920000 3.813092 16.649082 291.731598
-5.160000 7.080000 -4.880000 -1.862370 14.790553 222.228882
-5.160000 7.080000 -4.840000 -3.265266 8.735791 86.976013
-5.160000 7.080000 -4.800000 2.738240 4.412412 26.967337
-5.160000 7.120000 -5.200000 -4.138974 -14.629004 231.138870
-5.160000 7.120000 -5.160000 10.096521 -11.731608 239.570374
-5.160000 7.120000 -5.120000 17.643295 -0.534784 311.571838
-5.160000 7.120000 -5.080000 16.257065 10.603258 376.721222
-5.160000 7.120000 -5.040000 10.906100 16.572065 393.576385
-5.160000 7.120000 -5.000000 6.682936 19.033632 406.940796
-5.160000 7.120000 -4.960000 3.398196 21.706722 482.729523
-5.160000 7.120000 -4.920000 -1.969556 24.283520 593.568481
-5.160000 7.120000 -4.880000 -8.960682 23.031195 610.729736
-5.160000 7.120000 -4.840000 -12.482947 17.252123 453.459717
-5.160000 7.120000 -4.800000 -9.196620 12.685320 245.495163
-5.160000 7.160000 -5.200000 8.376879 -16.553905 344.203888
-5.160000 7.160000 -5.160000 19.802233 -4.214677 409.891907
-5.160000 7.160000 -5.120000 18.987429 11.714611 497.754578
-5.160000 7.160000 -5.080000 9.448934 20.851297 524.058960
-5.160000 7.160000 -5.040000 0.635448 21.502689 462.769470
-5.160000 7.160000 -5.000000 -2.851611 20.239750 417.779175
-5.160000 7.160000 -4.960000 -4.995211 22.456400 529.242004
-5.160000 7.160000 -4.920000 -11.433907 25.688997 790.658813
-5.160000 7.160000 -4.880000 -20.996771 23.565838 996.213074
-5.160000 7.160000 -4.840000 -26.464542 15.117559 928.912598
-5.160000 7.160000 -4.800000 -23.815310 7.436495 622.470398
-5.160000 7.200000 -5.200000 19.282742 -6.062358 408.576324
-5.160000 7.200000 -5.160000 20.086206 10.209391 507.687347
-5.160000 7.200000 -5.120000 9.386539 21.603374 554.812927
-5.160000 7.200000 -5.080000 -3.396443 21.984383 494.848907
-5.160000 7.200000 -5.040000 -9.180237 16.424677 354.046753
-5.160000 7.200000 -5.000000 -8.720123 14.362411 282.319397
-5.160000 7.200000 -4.960000 -10.473251 18.308302 444.882904
-5.160000 7.200000 -4.920000 -19.606018 21.204708 834.035583
-5.160000 7.200000 -4.880000 -31.166153 15.305563 1205.589355
-5.160000 7.200000 -4.840000 -35.452988 2.079431 1261.238281
-5.160000 7.200000 -4.800000 -29.379070 -8.648013 937.917908
-5.120000 6.800000 -5.200000 66.467606 9.788590 4513.758789
-5.120000 6.800000 -5.160000 50.478046 28.035070 3333.998291
-5.120000 6.800000 -5.120000 33.183769 30.881435 2054.825684
-5.120000 6.800000 -5.080000 25.337950 27.340931 1389.538208
-5.120000 6.800000 -5.040000 23.246250 28.839327 1372.094971
-5.120000 6.800000 -5.000000 16.221977 35.180408 1500.813721
-5.120000 6.800000 -4.960000 1.727671 36.082355 1304.921265
-5.120000 6.800000 -4.920000 -10.551057 25.468163 759.952148
-5.120000 6.800000 -4.880000 -10.401117 10.516698 218.784180
-5.120000 6.800000 -4.840000 0.019805 4.255341 18.108316
-5.120000 6.800000 -4.800000 7.911759 10.676779 176.589539
-5.120000 6.840000 -5.200000 35.822609 40.072388 2889.055664
-5.120000 6.840000 -5.160000 20.248219 39.423347 1964.190674
-5.120000 6.840000 -5.120000 14.949362 34.460266 1410.993286
-5.120000 6.840000 -5.080000 15.257042 36.859673 1591.412842
-5.120000 6.840000 -5.040000 8.687392 46.413605 2229.693359
-5.120000 6.840000 -5.000000 -9.357859 50.855289 2673.830078
-5.120000 6.840000 -4.960000 -28.855495 40.201054 2448.764404
-5.120000 6.840000 -4.920000 -35.478096 19.107540 1623.793457
-5.120000 6.840000 -4.880000 -26.315519 2.754789 700.095398
-5.120000 6.840000 -4.840000 -12.997770 0.893176 169.739792
-5.120000 6.840000 -4.800000 -8.795884 8.212265 144.808868
-5.120000 6.880000 -5.200000 -1.167698 38.786236 1505.735596
-5.120000 6.880000 -5.160000 -3.614557 29.099760 859.861023
-5.120000 6.880000 -5.120000 1.449989 29.613260 879.047668
-5.120000 6.880000 -5.080000 -1.121867 41.136082 1693.435791
-5.120000 6.880000 -5.040000 -19.118198 49.662960 2831.915283
-5.120000 6.880000 -5.000000 -43.193043 40.894375 3537.988770
-5.120000 6.880000 -4.960000 -55.393623 15.937977 3322.472656
-5.120000 6.880000 -4.920000 -47.293823 -8.924615 2316.354492
-5.120000 6.880000 -4.880000 -28.214977 -18.404926 1134.826294
-5.120000 6.880000 -4.840000 -14.902056 -12.725439 384.008057
-5.120000 6.880000 -4.800000 -14.403990 -5.212021 234.640076
-5.120000 6.920000 -5.200000 -19.929794 16.538603 670.722107
-5.120000 6.920000 -5.160000 -10.584658 11.837858 252.169861
-5.120000 6.920000 -5.120000 -6.282407 22.230726 533.673828
-5.120000 6.920000 -5.080000 -19.302999 34.525574 1564.621094
-5.120000 6.920000 -5.040000 -43.735893 30.676088 2853.850830
-5.120000 6.920000 -5.000000 -60.109234 6.492321 3655.270020
-5.120000 6.920000 -4.960000 -54.292412 -23.231937 3487.388916
-5.120000 6.920000 -4.920000 -31.244484 -38.786560 2480.614990
-5.120000 6.920000 -4.880000 -9.413960 -34.205120 1258.612915
-5.120000 6.920000 -4.840000 -2.188405 -21.181637 453.450867
-5.120000 6.920000 -4.800000 -6.148067 -15.121799 266.467560
-5.120000 6.960000 -5.200000 -16.316385 -3.536959 278.734497
-5.120000 6.960000 -5.160000 -6.119555 1.692583 40.313797
-5.120000 6.960000 -5.120000 -10.591486 14.712121 328.626068
-5.120000 6.960000 -5.080000 -30.012724 17.169533 1195.556396
-5.120000 6.960000 -5.040000 -47.753456 -0.809214 2281.047363
-5.120000 6.960000 -5.000000 -45.999207 -29.662441 2995.787354
-5.120000 6.960000 -4.960000 -23.350964 -48.764172 2923.211914
-5.120000 6.960000 -4.920000 3.715526 -45.942520 2124.520264
-5.120000 6.960000 -4.880000 16.972023 -28.314451 1089.757690
-5.120000 6.960000 -4.840000 13.393669 -13.694113 366.919098
-5.120000 6.960000 -4.800000 5.753074 -12.182692 181.515823
-5.120000 7.000000 -5.200000 -5.249352 -8.334948 97.027054
-5.120000 7.000000 -5.160000 -2.030651 0.417805 4.298102
-5.120000 7.000000 -5.120000 -12.311082 6.525229 194.141357
-5.120000 7.000000 -5.080000 -26.773659 -2.369402 722.442871
-5.120000 7.000000 -5.040000 -28.938534 -24.153158 1420.813721
-5.120000 7.000000 -5.000000 -11.635449 -42.626953 1952.440796
-5.120000 7.000000 -4.960000 14.825623 -42.441624 2021.090454
-5.120000 7.000000 -4.920000 31.736702 -23.983761 1582.438965
-5.120000 7.000000 -4.880000 29.595669 -2.935903 884.523132
-5.120000 7.000000 -4.840000 16.480316 5.238837 299.046234
-5.120000 7.000000 -4.800000 8.689289 0.050319 75.506279
-5.120000 7.040000 -5.200000 -1.940223 -3.744695 17.787205
-5.120000 7.040000 -5.160000 -3.228064 0.241182 10.478563
-5.120000 7.040000 -5.120000 -9.939026 -1.752520 101.855560
-5.120000 7.040000 -5.080000 -12.609880 -12.998112 327.959991
-5.120000 7.040000 -5.040000 -2.756495 -25.752159 670.771973
-5.120000 7.040000 -5.000000 16.986870 -27.242085 1030.684937
-5.120000 7.040000 -4.960000 33.139591 -12.389244 1251.725952
-5.120000 7.040000 -4.920000 33.305248 9.684951 1203.037720
-5.120000 7.040000 -4.880000 18.455173 23.138140 875.966919
-5.120000 7.040000 -4.840000 2.568845 20.410105 423.171356
-5.120000 7.040000 -4.800000 -0.983388 9.585978 92.858017
-5.120000 7.080000 -5.200000 -6.766458 -3.166509 55.811726
-5.120000 7.080000 -5.160000 -4.787482 -4.381812 42.120255
-5.120000 7.080000 -5.120000 -3.185232 -6.788861 56.234344
-5.120000 7.080000 -5.080000 1.719478 -10.466835 112.511238
-5.120000 7.080000 -5.040000 11.846025 -10.403507 248.561279
-5.120000 7.080000 -5.000000 22.295631 -1.008755 498.112762
-5.120000 7.080000 -4.960000 23.713371 16.134239 822.637634
-5.120000 7.080000 -4.920000 11.578211 30.654352 1073.744263
-5.120000 7.080000 -4.880000 -7.135594 31.869186 1066.561768
-5.120000 7.080000 -4.840000 -18.687960 19.896357 745.104858
-5.120000 7.080000 -4.800000 -15.680222 7.043814 295.484680
-5.120000 7.120000 -5.200000 -8.729635 -10.526320 187.009949
-5.120000 7.120000 -5.160000 -0.688880 -9.997645 100.427467
-5.120000 7.120000 -5.120000 4.360239 -5.609633 50.479671
-5.120000 7.120000 -5.080000 6.951422 -0.781124 48.932423
-5.120000 7.120000 -5.040000 9.135969 5.058884 109.058243
-5.120000 7.120000 -5.000000 9.020972 14.320596 286.457397
-5.120000 7.120000 -4.960000 1.645401 24.910126 623.221680
-5.120000 7.120000 -4.920000 -13.684689 29.022635 1029.583984
-5.120000 7.120000 -4.880000 -28.872501 20.721497 1263.001709
-5.120000 7.120000 -4.840000 -32.975224 4.409261 1106.806885
-5.120000 7.120000 -4.800000 -23.814434 -6.985836 615.929138
-5.120000 7.160000 -5.200000 -1.229558 -16.712309 280.813080
-5.120000 7.160000 -5.160000 7.188189 -9.322300 138.575333
-5.120000 7.160000 -5.120000 7.365280 0.322571 54.351398
-5.120000 7.160000 -5.080000 2.937260 5.987085 44.472683
-5.120000 7.160000 -5.040000 -0.834997 8.754456 77.337715
-5.120000 7.160000 -5.000000 -4.607419 12.742390 183.596802
-5.120000 7.160000 -4.960000 -13.080465 16.880438 456.047760
-5.120000 7.160000 -4.920000 -26.284849 14.317608 895.887207
-5.120000 7.160000 -4.880000 -35.881821 1.260087 1289.092773
-5.120000 7.160000 -4.840000 -32.932983 -15.552736 1326.468994
-5.120000 7.160000 -4.800000 -18.994734 -23.439064 910.189636
-5.120000 7.200000 -5.200000 8.898147 -12.081551 225.140884
-5.120000 7.200000 -5.160000 10.400757 -1.360570 110.026894
-5.120000 7.200000 -5.120000 3.843466 5.330842 43.190098
-5.120000 7.200000 -5.080000 -2.821281 5.092826 33.896503
-5.120000 7.200000 -5.040000 -5.121150 3.498064 38.462631
-5.120000 7.200000 -5.000000 -7.166252 5.481118 81.397827
-5.120000 7.200000 -4.960000 -14.896892 7.531744 278.644531
-5.120000 7.200000 -4.920000 -26.163906 1.497908 686.793701
-5.120000 7.200000 -4.880000 -30.721542 -14.126870 1143.381592
-5.120000 7.200000 -4.840000 -21.422649 -29.475864 1327.756470
-5.120000 7.200000 -4.800000 -3.925611 -32.170082 1050.324585
-5.080000 6.800000 -5.200000 53.063538 53.224197 5648.554199
-5.080000 6.800000 -5.160000 28.287447 60.437050 4452.816406
-5.080000 6.800000 -5.120000 10.270024 55.002312 3130.727783
-5.080000 6.800000 -5.080000 1.133756 48.943539 2396.755371
-5.080000 6.800000 -5.040000 -7.799726 46.604683 2232.832275
-5.080000 6.800000 -5.000000 -21.400700 40.573528 2104.201172
-5.080000 6.800000 -4.960000 -32.091827 23.806601 1596.639648
-5.080000 6.800000 -4.920000 -28.398109 2.176250 811.188721
-5.080000 6.800000 -4.880000 -10.475624 -9.076666 192.124573
-5.080000 6.800000 -4.840000 6.878786 -1.874300 50.830700
-5.080000 6.800000 -4.800000 8.689999 14.601599 288.722748
-5.080000 6.840000 -5.200000 -0.428345 62.422279 3896.724609
-5.080000 6.840000 -5.160000 -12.185846 50.169827 2665.506348
-5.080000 6.840000 -5.120000 -12.675655 44.833309 2170.697754
-5.080000 6.840000 -5.080000 -18.053335 50.539028 2880.116211
-5.080000 6.840000 -5.040000 -38.266739 52.802650 4252.462891
-5.080000 6.840000 -5.000000 -62.671467 35.147480 5163.058105
-5.080000 6.840000 -4.960000 -69.301521 0.032810 4802.701660
-5.080000 6.840000 -4.920000 -48.669098 -30.257223 3284.180664
-5.080000 6.840000 -4.880000 -15.678730 -35.130875 1480.000977
-5.080000 6.840000 -4.840000 4.277750 -16.553928 292.331665
-5.080000 6.840000 -4.800000 0.303522 3.594488 13.012471
-5.080000 6.880000 -5.200000 -38.310291 31.228872 2442.920898
-5.080000 6.880000 -5.160000 -28.883480 19.361187 1209.110962
-5.080000 6.880000 -5.120000 -22.771500 28.308208 1319.895874
-5.080000 6.880000 -5.080000 -39.501415 41.517532 3284.067383
-5.080000 6.880000 -5.040000 -72.414886 32.084843 6273.353027
-5.080000 6.880000 -5.000000 -92.244553 -7.569649 8566.357422
-5.080000 6.880000 -4.960000 -75.983879 -54.476322 8741.219727
-5.080000 6.880000 -4.920000 -31.241215 -75.588730 6689.669922
-5.080000 6.880000 -4.880000 9.976059 -59.429558 3631.394043
-5.080000 6.880000 -4.840000 21.777903 -26.008289 1150.708130
-5.080000 6.880000 -4.800000 7.352297 -5.400057 83.216881
-5.080000 6.920000 -5.200000 -38.013012 -10.153443 1548.081543
-5.080000 6.920000 -5.160000 -19.257666 -5.327122 399.235931
-5.080000 6.920000 -5.120000 -23.607721 15.139186 786.519470
-5.080000 6.920000 -5.080000 -54.840900 19.554630 3389.907959
-5.080000 6.920000 -5.040000 -85.009438 -12.272461 7377.217773
-5.080000 6.920000 -5.000000 -80.113045 -65.560318 10716.255859
-5.080000 6.920000 -4.960000 -34.263073 -101.674263 11511.613281
-5.080000 6.920000 -4.920000 22.781727 -93.974907 9350.290039
-5.080000 6.920000 -4.880000 52.964287 -52.377724 5548.641602
-5.080000 6.920000 -4.840000 44.392433 -12.156585 2118.470703
-5.080000 6.920000 -4.800000 18.498688 0.426454 342.383301
-5.080000 6.960000 -5.200000 -11.585297 -28.913788 970.226257
-5.080000 6.960000 -5.160000 -2.230639 -9.245575 90.456406
-5.080000 6.960000 -5.120000 -22.557119 6.650572 553.053772
-5.080000 6.960000 -5.080000 -54.712524 -9.228148 3078.619141
-5.080000 6.960000 -5.040000 -62.724758 -55.554508 7020.698730
-5.080000 6.960000 -5.000000 -27.425219 -98.802269 10514.031250
-5.080000 6.960000 -4.960000 32.707493 -102.906502 11659.528320
-5.080000 6.960000 -4.920000 76.743698 -63.007568 9859.548828
-5.080000 6.960000 -4.880000 78.212425 -9.653224 6210.368164
-5.080000 6.960000 -4.840000 47.241745 20.340452 2645.516602
-5.080000 6.960000 -4.800000 17.031952 16.721382 569.692017
-5.080000 7.000000 -5.200000 9.993123 -18.826080 454.283813
-5.080000 7.000000 -5.160000 2.859568 -0.380936 8.322239
-5.080000 7.000000 -5.120000 -22.124493 -1.618684 492.113312
-5.080000 7.000000 -5.080000 -37.374886 -32.058685 2424.641357
-5.080000 7.000000 -5.040000 -18.134642 -71.244797 5404.686523
-5.080000 7.000000 -5.000000 31.472719 -84.581047 8144.485840
-5.080000 7.000000 -4.960000 78.637543 -55.280525 9239.799805
-5.080000 7.000000 -4.920000 90.119705 -1.283161 8123.207520
-5.080000 7.000000 -4.880000 61.831024 40.275440 5445.186523
-5.080000 7.000000 -4.840000 20.884827 46.302078 2580.058594
-5.080000 7.000000 -4.800000 -1.290367 26.184839 687.310852
-5.080000 7.040000 -5.200000 8.278596 -1.131154 69.814659
-5.080000 7.040000 -5.160000 -5.415343 3.029491 38.503757
-5.080000 7.040000 -5.120000 -18.741297 -11.961691 494.318237
-5.080000 7.040000 -5.080000 -11.913301 -38.787956 1646.432251
-5.080000 7.040000 -5.040000 20.203896 -53.857548 3308.833008
-5.080000 7.040000 -5.000000 58.917629 -37.660954 4889.634766
-5.080000 7.040000 -4.960000 75.234680 5.271400 5688.044922
-5.080000 7.040000 -4.920000 55.438599 47.382507 5318.540039
-5.080000 7.040000 -4.880000 14.251343 61.234245 3952.733643
-5.080000 7.040000 -4.840000 -18.120846 43.394890 2211.481445
-5.080000 7.040000 -4.800000 -23.233500 15.874114 791.782959
-5.080000 7.080000 -5.200000 -7.530817 0.919191 57.558117
-5.080000 7.080000 -5.160000 -12.679235 -6.935378 208.862457
-5.080000 7.080000 -5.120000 -9.014573 -20.621735 506.518494
-5.080000 7.080000 -5.080000 8.328373 -29.923166 964.757690
-5.080000 7.080000 -5.040000 32.493439 -22.194931 1548.438599
-5.080000 7.080000 -5.000000 46.275078 5.029783 2166.681641
-5.080000 7.080000 -4.960000 35.470219 37.574314 2669.965332
-5.080000 7.080000 -4.920000 3.226812 53.496269 2872.263184
-5.080000 7.080000 -4.880000 -29.762323 41.687500 2623.643555
-5.080000 7.080000 -4.840000 -42.006290 12.742863 1926.908936
-5.080000 7.080000 -4.800000 -30.209011 -9.959627 1011.778503
-5.080000 7.120000 -5.200000 -14.952257 -14.233999 426.176727
-5.080000 7.120000 -5.160000 -6.785124 -20.859293 481.148010
-5.080000 7.120000 -5.120000 4.526034 -21.842363 497.573822
-5.080000 7.120000 -5.080000 16.149673 -15.283724 494.404175
-5.080000 7.120000 -5.040000 22.653114 -0.235302 513.218933
-5.080000 7.120000 -5.000000 16.897137 18.914028 643.253662
-5.080000 7.120000 -4.960000 -3.210335 31.005507 971.647705
-5.080000 7.120000 -4.920000 -28.628555 25.238207 1456.561279
-5.080000 7.120000 -4.880000 -43.035995 2.220394 1857.027100
-5.080000 7.120000 -4.840000 -36.305496 -23.234350 1857.924072
-5.080000 7.120000 -4.800000 -15.068287 -33.473732 1347.543945
-5.080000 7.160000 -5.200000 -4.119373 -28.248455 814.944458
-5.080000 7.160000 -5.160000 8.699238 -24.247448 663.615479
-5.080000 7.160000 -5.120000 14.783046 -14.673573 433.852203
-5.080000 7.160000 -5.080000 14.618451 -4.688136 235.677734
-5.080000 7.160000 -5.040000 9.617635 4.197477 110.117722
-5.080000 7.160000 -5.000000 -0.987783 10.231379 105.656822
-5.080000 7.160000 -4.960000 -16.173603 8.259024 329.796936
-5.080000 7.160000 -4.920000 -28.397074 -5.767463 839.657410
-5.080000 7.160000 -4.880000 -27.207150 -26.994658 1468.940552
-5.080000 7.160000 -4.840000 -9.980152 -41.705723 1838.970703
-5.080000 7.160000 -4.800000 12.248611 -38.649059 1643.778198
-5.080000 7.200000 -5.200000 12.888577 -25.504999 816.620422
-5.080000 7.200000 -5.160000 19.329136 -14.192327 575.037659
-5.080000 7.200000 -5.120000 16.814907 -4.725851 305.074768
-5.080000 7.200000 -5.080000 11.431471 -0.288054 130.761505
-5.080000 7.200000 -5.040000 6.029062 1.714503 39.289112
-5.080000 7.200000 -5.000000 -1.287430 1.898942 5.263454
-5.080000 7.200000 -4.960000 -10.223279 -3.896843 119.700821
-5.080000 7.200000 -4.920000 -13.800522 -17.960337 513.028076
-5.080000 7.200000 -4.880000 -4.277931 -33.371700 1131.971069
-5.080000 7.200000 -4.840000 16.206444 -37.299503 1653.901733
-5.080000 7.200000 -4.800000 33.851120 -23.686741 1706.959961
-5.040000 6.800000 -5.200000 13.519987 75.724953 5917.058594
-5.040000 6.800000 -5.160000 -11.497631 69.690804 4989.003418
-5.040000 6.800000 -5.120000 -26.198017 56.624561 3892.677246
-5.040000 6.800000 -5.080000 -34.738861 45.157700 3246.006348
-5.040000 6.800000 -5.040000 -43.721275 33.155708 3010.851074
-5.040000 6.800000 -5.000000 -50.179558 13.872791 2710.442383
-5.040000 6.800000 -4.960000 -43.750633 -10.453365 2023.390747
-5.040000 6.800000 -4.920000 -21.134975 -25.885509 1116.746826
-5.040000 6.800000 -4.880000 5.105583 -20.341171 439.830231
-5.040000 6.800000 -4.840000 16.051237 1.494615 259.876099
-5.040000 6.800000 -4.800000 5.231517 20.201630 435.474609
-5.040000 6.840000 -5.200000 -41.524078 50.906425 4315.712891
-5.040000 6.840000 -5.160000 -42.692581 34.544910 3016.007324
-5.040000 6.840000 -5.120000 -41.285282 32.462467 2758.286133
-5.040000 6.840000 -5.080000 -54.275696 34.448570 4132.555176
-5.040000 6.840000 -5.040000 -77.782455 19.043856 6412.778809
-5.040000 6.840000 -5.000000 -87.461624 -19.873615 8044.496094
-5.040000 6.840000 -4.960000 -63.942230 -61.088692 7820.437500
-5.040000 6.840000 -4.920000 -16.282295 -74.166054 5765.716797
-5.040000 6.840000 -4.880000 23.230087 -49.935413 3033.182373
-5.040000 6.840000 -4.840000 29.144278 -10.758310 965.130127
-5.040000 6.840000 -4.800000 6.527739 10.971562 162.986557
-5.040000 6.880000 -5.200000 -56.007576 -3.684090 3150.421143
-5.040000 6.880000 -5.160000 -37.215534 -5.447056 1414.666382
-5.040000 6.880000 -5.120000 -39.685272 10.925872 1694.295410
-5.040000 6.880000 -5.080000 -69.986282 12.065682 5043.660156
-5.040000 6.880000 -5.040000 -98.730698 -25.137300 10379.634766
-5.040000 6.880000 -5.000000 -87.843483 -84.820480 14910.991211
-5.040000 6.880000 -4.960000 -30.598967 -122.734840 16000.137695
-5.040000 6.880000 -4.920000 37.676594 -107.776047 13035.201172
-5.040000 6.880000 -4.880000 70.963402 -52.400990 7781.667969
-5.040000 6.880000 -4.840000 54.647537 -0.645861 2986.770508
-5.040000 6.880000 -4.800000 15.908768 13.626942 438.782410
-5.040000 6.920000 -5.200000 -25.465340 -43.089520 2505.190186
-5.040000 6.920000 -5.160000 -9.740047 -20.941793 533.427246
-5.040000 6.920000 -5.120000 -32.376595 -0.449352 1048.445801
-5.040000 6.920000 -5.080000 -72.448624 -20.079823 5652.002441
-5.040000 6.920000 -5.040000 -82.076248 -80.624657 13236.845703
-5.040000 6.920000 -5.000000 -33.623314 -138.042557 20186.275391
-5.040000 6.920000 -4.960000 49.320927 -142.305054 22683.281250
-5.040000 6.920000 -4.920000 110.315498 -85.026131 19398.951172
-5.040000 6.920000 -4.880000 110.895477 -7.990921 12361.661133
-5.040000 6.920000 -4.840000 63.571915 35.856583 5327.083008
-5.040000 6.920000 -4.800000 15.480373 29.354317 1101.317871
-5.040000 6.960000 -5.200000 16.224470 -40.529713 1905.890991
-5.040000 6.960000 -5.160000 9.461853 -9.376143 177.438721
-5.040000 6.960000 -5.120000 -28.557499 -6.752766 861.130615
-5.040000 6.960000 -5.080000 -55.086510 -51.218430 5657.851074
-5.040000 6.960000 -5.040000 -28.598274 -113.078659 13604.644531
-5.040000 6.960000 -5.000000 47.847992 -137.189270 21110.326172
-5.040000 6.960000 -4.960000 123.938576 -93.998940 24196.570312
-5.040000 6.960000 -4.920000 145.529495 -8.894171 21257.939453
-5.040000 6.960000 -4.880000 102.722549 59.806381 14128.724609
-5.040000 6.960000 -4.840000 35.921398 72.836533 6595.507324
-5.040000 6.960000 -4.800000 -4.347418 41.016285 1701.235596
-5.040000 7.000000 -5.200000 31.055252 -9.923953 1062.913574
-5.040000 7.000000 -5.160000 4.717890 6.273349 61.613388
-5.040000 7.000000 -5.120000 -26.554188 -16.396574 973.972534
-5.040000 7.000000 -5.080000 -22.014242 -67.145966 4993.207520
-5.040000 7.000000 -5.040000 32.294659 -101.450455 11335.139648
-5.040000 7.000000 -5.000000 104.369301 -79.929375 17281.656250
-5.040000 7.000000 -4.960000 140.637878 -6.878548 19826.328125
-5.040000 7.000000 -4.920000 113.018524 70.224304 17704.640625
-5.040000 7.000000 -4.880000 43.773766 101.458519 12209.973633
-5.040000 7.000000 -4.840000 -15.887314 76.845634 6157.658203
-5.040000 7.000000 -4.800000 -31.908648 30.190287 1929.615234
-5.040000 7.040000 -5.200000 12.421955 11.833361 294.333374
-5.040000 7.040000 -5.160000 -11.899511 3.420441 153.297791
-5.040000 7.040000 -5.120000 -17.970825 -29.660362 1202.687622
-5.040000 7.040000 -5.080000 12.505665 -60.953987 3871.780029
-5.040000 7.040000 -5.040000 66.239258 -56.532166 7583.524902
-5.040000 7.040000 -5.000000 104.072662 -6.933792 10879.196289
-5.040000 7.040000 -4.960000 93.232971 59.671455 12253.069336
-5.040000 7.040000 -4.920000 37.270847 98.568764 11104.916992
-5.040000 7.040000 -4.880000 -25.556515 86.212082 8085.658203
-5.040000 7.040000 -4.840000 -55.228664 39.302139 4594.863281
-5.040000 7.040000 -4.800000 -43.252716 -2.688810 1878.027222
-5.040000 7.080000 -5.200000 -12.818388 2.922205 172.850342
-5.040000 7.080000 -5.160000 -16.306967 -17.219194 562.417847
-5.040000 7.080000 -5.120000 0.710906 -37.572304 1412.183350
-5.040000 7.080000 -5.080000 33.974834 -38.676346 2650.149170
-5.040000 7.080000 -5.040000 62.152973 -10.374100 3970.614258
-5.040000 7.080000 -5.000000 61.064461 35.221672 4969.434570
-5.040000 7.080000 -4.960000 24.834309 68.806984 5351.143555
-5.040000 7.080000 -4.920000 -25.708475 66.289642 5055.242676
-5.040000 7.080000 -4.880000 -57.875965 29.607071 4226.206055
-5.040000 7.080000 -4.840000 -53.801521 -14.144127 3094.660156
-5.040000 7.080000 -4.800000 -24.550592 -35.949444 1895.094116
-5.040000 7.120000 -5.200000 -15.144852 -24.119724 811.127625
-5.040000 7.120000 -5.160000 1.163290 -34.537376 1194.183594
-5.040000 7.120000 -5.120000 22.200804 -31.721392 1499.122437
-5.040000 7.120000 -5.080000 37.873802 -13.980129 1629.868896
-5.040000 7.120000 -5.040000 37.552319 12.545799 1567.573730
-5.040000 7.120000 -5.000000 17.042204 33.718601 1427.380859
-5.040000 7.120000 -4.960000 -15.054138 34.559219 1420.966675
-5.040000 7.120000 -4.920000 -39.595703 11.141204 1691.946167
-5.040000 7.120000 -4.880000 -39.941284 -23.298941 2138.146729
-5.040000 7.120000 -4.840000 -16.079021 -46.483158 2419.218994
-5.040000 7.120000 -4.800000 14.086714 -44.826572 2207.857178
-5.040000 7.160000 -5.200000 7.642544 -39.400360 1610.796875
-5.040000 7.160000 -5.160000 26.477539 -30.760338 1647.258423
-5.040000 7.160000 -5.120000 34.472195 -13.894053 1381.376831
-5.040000 7.160000 -5.080000 30.603592 2.842395 944.659058
-5.040000 7.160000 -5.040000 17.551868 13.333839 485.859375
-5.040000 7.160000 -5.000000 0.028107 13.019922 169.519165
-5.040000 7.160000 -4.960000 -14.063152 -0.227123 197.823837
-5.040000 7.160000 -4.920000 -15.092613 -21.992870 711.473328
-5.040000 7.160000 -4.880000 1.244853 -39.936790 1596.496948
-5.040000 7.160000 -4.840000 27.298977 -40.957878 2422.781738
-5.040000 7.160000 -4.800000 46.543102 -22.696020 2681.369629
-5.040000 7.200000 -5.200000 31.408522 -28.330935 1789.137085
-5.040000 7.200000 -5.160000 37.940487 -9.810015 1535.717041
-5.040000 7.200000 -5.120000 32.038670 4.750413 1049.042725
-5.040000 7.200000 -5.080000 21.274342 10.825077 569.779907
-5.040000 7.200000 -5.040000 10.920029 9.699741 213.332001
-5.040000 7.200000 -5.000000 3.245404 2.734402 18.009602
-5.040000 7.200000 -4.960000 1.640037 -9.293934 89.066925
-5.040000 7.200000 -4.920000 10.643868 -21.653265 582.155823
-5.040000 7.200000 -4.880000 29.584259 -24.658875 1483.288574
-5.040000 7.200000 -4.840000 48.139778 -11.197340 2442.818604
-5.040000 7.200000 -4.800000 52.245682 14.086305 2928.035400
-5.000000 6.800000 -5.200000 -28.800461 66.323227 5228.237305
-5.000000 6.800000 -5.160000 -47.145897 50.001350 4722.870605
-5.000000 6.800000 -5.120000 -54.969971 31.307915 4001.883301
-5.000000 6.800000 -5.080000 -57.567955 14.255808 3517.297363
-5.000000 6.800000 -5.040000 -56.904743 -4.422981 3257.712646
-5.000000 6.800000 -5.000000 -47.352951 -25.575111 2896.388184
-5.000000 6.800000 -4.960000 -24.287926 -40.397980 2221.900146
-5.000000 6.800000 -4.920000 5.012497 -36.867439 1384.333252
-5.000000 6.800000 -4.880000 23.201092 -14.106737 737.290649
-5.000000 6.800000 -4.840000 18.303282 12.355721 487.673950
-5.000000 6.800000 -4.800000 -3.295624 22.774769 529.551270
-5.000000 6.840000 -5.200000 -60.792263 15.189902 3926.432373
-5.000000 6.840000 -5.160000 -53.207218 3.406658 2842.613281
-5.000000 6.840000 -5.120000 -53.785728 3.392602 2904.414307
-5.000000 6.840000 -5.080000 -68.674995 -4.564188 4737.086914
-5.000000 6.840000 -5.040000 -79.649353 -35.234623 7585.498047
-5.000000 6.840000 -5.000000 -61.804871 -76.931503 9738.297852
-5.000000 6.840000 -4.960000 -12.640564 -97.992249 9762.264648
-5.000000 6.840000 -4.920000 39.544228 -77.340141 7545.243652
-5.000000 6.840000 -4.880000 59.506279 -27.718765 4309.327148
-5.000000 6.840000 -4.840000 38.074066 13.919788 1643.395020
-5.000000 6.840000 -4.800000 0.375509 20.232460 409.493469
-5.000000 6.880000 -5.200000 -40.899651 -38.980278 3192.243408
-5.000000 6.880000 -5.160000 -25.038858 -26.080526 1307.138306
-5.000000 6.880000 -5.120000 -40.976223 -12.337749 1831.270996
-5.000000 6.880000 -5.080000 -71.763657 -32.372265 6197.985840
-5.000000 6.880000 -5.040000 -74.611069 -87.441414 13212.812500
-5.000000 6.880000 -5.000000 -24.613380 -137.076355 19395.746094
-5.000000 6.880000 -4.960000 55.153206 -134.945511 21252.167969
-5.000000 6.880000 -4.920000 110.415672 -74.556297 17750.261719
-5.000000 6.880000 -4.880000 104.777596 1.994968 10982.324219
-5.000000 6.880000 -4.840000 52.393162 42.042458 4512.611816
-5.000000 6.880000 -4.800000 2.074284 29.201775 857.046326
-5.000000 6.920000 -5.200000 9.660029 -53.349049 2939.437256
-5.000000 6.920000 -5.160000 6.973448 -20.973148 488.501923
-5.000000 6.920000 -5.120000 -30.951817 -17.030941 1248.067871
-5.000000 6.920000 -5.080000 -58.169746 -64.063774 7487.886719
-5.000000 6.920000 -5.040000 -27.876652 -130.733917 17868.464844
-5.000000 6.920000 -5.000000 57.640034 -155.676086 27557.416016
-5.000000 6.920000 -4.960000 142.216675 -105.194862 31291.541016
-5.000000 6.920000 -4.920000 164.383820 -7.888885 27084.275391
-5.000000 6.920000 -4.880000 112.818665 69.426735 17548.121094
-5.000000 6.920000 -4.840000 34.383438 81.293488 7790.852051
-5.000000 6.920000 -4.800000 -11.614923 40.294468 1758.550659
-5.000000 6.960000 -5.200000 44.481819 -23.145870 2514.363525
-5.000000 6.960000 -5.160000 13.942438 2.337444 199.855225
-5.000000 6.960000 -5.120000 -27.501644 -22.216911 1249.931641
-5.000000 6.960000 -5.080000 -25.195387 -86.215813 8067.974121
-5.000000 6.960000 -5.040000 42.365677 -132.307236 19300.054688
-5.000000 6.960000 -5.000000 135.632996 -107.207901 29889.843750
-5.000000 6.960000 -4.960000 184.500107 -14.074120 34238.371094
-5.000000 6.960000 -4.920000 150.611389 86.176537 30110.187500
-5.000000 6.960000 -4.880000 61.482346 127.738373 20097.169922
-5.000000 6.960000 -4.840000 -16.310278 96.129768 9506.958008
-5.000000 6.960000 -4.800000 -37.262856 34.471554 2576.808350
-5.000000 7.000000 -5.200000 36.480827 16.007324 1587.085205
-5.000000 7.000000 -5.160000 -3.769459 12.549084 171.688324
-5.000000 7.000000 -5.120000 -21.456217 -34.270058 1634.806152
-5.000000 7.000000 -5.080000 17.285366 -85.560493 7619.381836
-5.000000 7.000000 -5.040000 96.631401 -86.500275 16819.925781
-5.000000 7.000000 -5.000000 157.714203 -18.059555 25199.917969
-5.000000 7.000000 -4.960000 148.481155 80.301155 28494.929688
-5.000000 7.000000 -4.920000 70.835648 141.785950 25120.945312
-5.000000 7.000000 -4.880000 -20.543354 129.372375 17159.240234
-5.000000 7.000000 -4.840000 -66.708862 64.958557 8669.686523
-5.000000 7.000000 -4.800000 -53.316051 4.398895 2861.951660
-5.000000 7.040000 -5.200000 1.782979 24.832481 619.831177
-5.000000 7.040000 -5.160000 -19.640709 -3.840994 400.510681
-5.000000 7.040000 -5.120000 -3.306942 -45.825500 2110.912354
-5.000000 7.040000 -5.080000 51.105042 -60.423405 6262.712891
-5.000000 7.040000 -5.040000 106.256996 -21.400759 11748.541016
-5.000000 7.040000 -5.000000 115.130081 54.677338 16244.546875
-5.000000 7.040000 -4.960000 62.487988 117.176498 17635.080078
-5.000000 7.040000 -4.920000 -19.208046 122.588776 15396.957031
-5.000000 7.040000 -4.880000 -76.132393 71.031647 10841.635742
-5.000000 7.040000 -4.840000 -77.940453 4.031376 6090.966309
-5.000000 7.040000 -4.800000 -39.504295 -33.498161 2682.716309
-5.000000 7.080000 -5.200000 -19.816221 -1.720877 395.644043
-5.000000 7.080000 -5.160000 -10.320850 -29.954983 1003.820923
-5.000000 7.080000 -5.120000 23.675915 -43.380711 2442.435059
-5.000000 7.080000 -5.080000 62.626778 -23.505201 4474.607910
-5.000000 7.080000 -5.040000 76.096161 25.112148 6421.245605
-5.000000 7.080000 -5.000000 47.180462 72.830406 7530.264160
-5.000000 7.080000 -4.960000 -10.347240 85.667496 7445.985352
-5.000000 7.080000 -4.920000 -59.882355 53.012707 6396.243652
-5.000000 7.080000 -4.880000 -70.378006 -2.700058 4960.354492
-5.000000 7.080000 -4.840000 -40.752621 -44.357853 3628.395264
-5.000000 7.080000 -4.800000 1.825246 -50.434471 2546.967529
-5.000000 7.120000 -5.200000 -5.999468 -33.016251 1126.066406
-5.000000 7.120000 -5.160000 20.093323 -37.787338 1831.624512
-5.000000 7.120000 -5.120000 44.430786 -22.495176 2480.127686
-5.000000 7.120000 -5.080000 52.338425 7.500633 2795.570312
-5.000000 7.120000 -5.040000 36.147720 36.499966 2638.905273
-5.000000 7.120000 -5.000000 2.344322 46.180130 2138.100342
-5.000000 7.120000 -4.960000 -29.581177 28.049541 1661.822754
-5.000000 7.120000 -4.920000 -38.967827 -8.407524 1589.177979
-5.000000 7.120000 -4.880000 -19.261421 -40.477665 2009.443726
-5.000000 7.120000 -4.840000 16.186470 -48.455536 2609.940674
-5.000000 7.120000 -4.800000 44.295101 -30.472311 2890.617676
-5.000000 7.160000 -5.200000 27.805552 -36.692692 2119.502441
-5.000000 7.160000 -5.160000 45.424030 -17.758745 2378.715576
-5.000000 7.160000 -5.120000 46.120491 5.975150 2162.802002
-5.000000 7.160000 -5.080000 32.315086 22.767139 1562.607422
-5.000000 7.160000 -5.040000 12.206154 25.798073 814.530762
-5.000000 7.160000 -5.000000 -4.080587 14.318623 221.674149
-5.000000 7.160000 -4.960000 -7.504149 -6.091114 93.413925
-5.000000 7.160000 -4.920000 5.782081 -24.273148 622.618103
-5.000000 7.160000 -4.880000 30.362961 -28.125210 1712.936768
-5.000000 7.160000 -4.840000 52.476711 -12.719049 2915.579346
-5.000000 7.160000 -4.800000 58.503590 14.475355 3632.205811
-5.000000 7.200000 -5.200000 47.725075 -11.134207 2401.653320
-5.000000 7.200000 -5.160000 45.039642 12.421559 2182.864502
-5.000000 7.200000 -5.120000 30.333691 25.136587 1551.980835
-5.000000 7.200000 -5.080000 14.860516 24.720970 831.961304
-5.000000 7.200000 -5.040000 5.848091 15.799263 283.816895
-5.000000 7.200000 -5.000000 5.707821 4.088589 49.295776
-5.000000 7.200000 -4.960000 14.661152 -5.118614 241.149582
-5.000000 7.200000 -4.920000 30.466967 -5.781166 961.657959
-5.000000 7.200000 -4.880000 45.852566 6.850592 2149.388428
-5.000000 7.200000 -4.840000 49.936012 30.569267 3428.085449
-5.000000 7.200000 -4.800000 36.082588 53.976791 4215.447266
-4.960000 6.800000 -5.200000 -51.882057 34.456192 3878.977051
-4.960000 6.800000 -5.160000 -59.780762 13.219482 3748.494141
-4.960000 6.800000 -5.120000 -57.838913 -6.930822 3393.376221
-4.960000 6.800000 -5.080000 -50.037971 -23.979774 3078.828125
-4.960000 6.800000 -5.040000 -36.654232 -38.637585 2836.395508
-4.960000 6.800000 -5.000000 -15.600914 -47.652340 2514.134033
-4.960000 6.800000 -4.960000 10.046982 -43.592018 2001.205933
-4.960000 6.800000 -4.920000 28.876385 -23.350029 1379.069458
-4.960000 6.800000 -4.880000 28.965309 4.134567 856.083801
-4.960000 6.800000 -4.840000 10.129933 21.772129 576.641174
-4.960000 6.800000 -4.800000 -13.050406 18.405050 509.058990
-4.960000 6.840000 -5.200000 -50.174480 -19.662386 2904.087891
-4.960000 6.840000 -5.160000 -40.542137 -23.752773 2207.859131
-4.960000 6.840000 -5.120000 -43.315273 -25.317764 2517.202148
-4.960000 6.840000 -5.080000 -51.045841 -41.837654 4356.067383
-4.960000 6.840000 -5.040000 -41.652065 -73.175591 7089.561523
-4.960000 6.840000 -5.000000 -3.310951 -95.919952 9211.599609
-4.960000 6.840000 -4.960000 47.668579 -84.332321 9384.234375
-4.960000 6.840000 -4.920000 77.287346 -37.956196 7414.006836
-4.960000 6.840000 -4.880000 64.692574 13.502449 4367.444824
-4.960000 6.840000 -4.840000 22.764727 35.208893 1757.898926
-4.960000 6.840000 -4.800000 -13.035834 18.265877 503.575226
-4.960000 6.880000 -5.200000 -7.006422 -49.521851 2501.503418
-4.960000 6.880000 -5.160000 -4.936989 -29.758648 909.950989
-4.960000 6.880000 -5.120000 -28.410242 -29.358042 1669.036377
-4.960000 6.880000 -5.080000 -43.128162 -65.677917 6173.626953
-4.960000 6.880000 -5.040000 -13.741096 -114.345192 13263.640625
-4.960000 6.880000 -5.000000 56.493889 -127.686401 19495.376953
-4.960000 6.880000 -4.960000 121.862961 -80.760201 21372.791016
-4.960000 6.880000 -4.920000 133.566711 0.943218 17840.957031
-4.960000 6.880000 -4.880000 84.874603 61.642166 11003.455078
-4.960000 6.880000 -4.840000 17.261875 64.734337 4488.506348
-4.960000 6.880000 -4.800000 -18.341713 23.352440 881.754883
-4.960000 6.920000 -5.200000 38.667221 -32.216957 2533.086426
-4.960000 6.920000 -5.160000 14.004635 -7.980989 259.825989
-4.960000 6.920000 -5.120000 -22.345217 -29.533718 1371.549194
-4.960000 6.920000 -5.080000 -18.480722 -88.109680 8104.853027
-4.960000 6.920000 -5.040000 46.553177 -129.520599 18942.785156
-4.960000 6.920000 -5.000000 134.982285 -102.938560 28816.564453
-4.960000 6.920000 -4.960000 179.436798 -11.981218 32341.113281
-4.960000 6.920000 -4.920000 143.596237 83.779144 27638.824219
-4.960000 6.920000 -4.880000 55.572186 120.479950 17603.685547
-4.960000 6.920000 -4.840000 -18.513474 85.223373 7605.771973
-4.960000 6.920000 -4.800000 -34.039932 22.188053 1651.026733
-4.960000 6.960000 -5.200000 47.297455 11.299343 2364.724365
-4.960000 6.960000 -5.160000 3.304079 12.287149 161.890991
-4.960000 6.960000 -5.120000 -18.848028 -36.954323 1720.870117
-4.960000 6.960000 -5.080000 21.497833 -94.326614 9359.666992
-4.960000 6.960000 -5.040000 108.912689 -97.314102 21332.007812
-4.960000 6.960000 -5.000000 177.806305 -22.682611 32129.582031
-4.960000 6.960000 -4.960000 168.920776 86.357307 35991.812500
-4.960000 6.960000 -4.920000 83.594299 154.827637 30959.605469
-4.960000 6.960000 -4.880000 -16.964710 140.919067 20145.984375
-4.960000 6.960000 -4.840000 -66.505318 69.309235 9226.727539
-4.960000 6.960000 -4.800000 -49.106869 3.066694 2420.889160
-4.960000 7.000000 -5.200000 16.524914 37.423634 1673.601074
-4.960000 7.000000 -5.160000 -18.027271 6.633717 368.988708
-4.960000 7.000000 -5.120000 -5.033342 -48.846672 2411.331787
-4.960000 7.000000 -5.080000 61.672905 -74.040611 9285.559570
-4.960000 7.000000 -5.040000 135.285767 -29.863167 19194.046875
-4.960000 7.000000 -5.000000 152.534958 65.944107 27615.539062
-4.960000 7.000000 -4.960000 90.285126 148.493713 30201.787109
-4.960000 7.000000 -4.920000 -11.766146 160.131760 25780.621094
-4.960000 7.000000 -4.880000 -84.887756 99.110397 17028.802734
-4.960000 7.000000 -4.840000 -89.678093 17.225834 8338.889648
-4.960000 7.000000 -4.800000 -44.023773 -28.974060 2777.588867
-4.960000 7.040000 -5.200000 -18.419054 22.944221 865.698853
-4.960000 7.040000 -5.160000 -20.267176 -19.432869 788.394775
-4.960000 7.040000 -5.120000 21.575071 -50.388859 3004.520752
-4.960000 7.040000 -5.080000 82.149429 -32.776348 7822.817871
-4.960000 7.040000 -5.040000 111.876106 34.499577 13706.483398
-4.960000 7.040000 -5.000000 78.434631 108.816620 17993.046875
-4.960000 7.040000 -4.960000 -2.391323 136.416595 18615.207031
-4.960000 7.040000 -4.920000 -77.373489 97.446350 15482.447266
-4.960000 7.040000 -4.880000 -99.651535 21.919315 10410.884766
-4.960000 7.040000 -4.840000 -65.499199 -37.777519 5717.286133
-4.960000 7.040000 -4.800000 -11.324827 -50.931736 2722.293457
-4.960000 7.080000 -5.200000 -21.400448 -13.748905 647.011536
-4.960000 7.080000 -5.160000 5.343032 -37.255371 1416.510620
-4.960000 7.080000 -5.120000 47.138206 -31.130007 3191.087891
-4.960000 7.080000 -5.080000 73.808144 9.829761 5544.266113
-4.960000 7.080000 -5.040000 60.045898 62.724808 7539.911621
-4.960000 7.080000 -5.000000 8.350613 90.716232 8299.166992
-4.960000 7.080000 -4.960000 -49.335808 71.856186 7597.333496
-4.960000 7.080000 -4.920000 -75.331993 17.700233 5988.207520
-4.960000 7.080000 -4.880000 -55.533417 -35.641167 4354.252930
-4.960000 7.080000 -4.840000 -8.618443 -56.509098 3267.555664
-4.960000 7.080000 -4.800000 32.209190 -40.764473 2699.174316
-4.960000 7.120000 -5.200000 9.093347 -33.814503 1226.109619
-4.960000 7.120000 -5.160000 37.694504 -25.603970 2076.438965
-4.960000 7.120000 -5.120000 53.732040 1.927146 2890.845947
-4.960000 7.120000 -5.080000 45.586288 34.521404 3269.836914
-4.960000 7.120000 -5.040000 15.687691 52.468788 2999.077148
-4.960000 7.120000 -5.000000 -18.827370 43.317436 2230.870117
-4.960000 7.120000 -4.960000 -36.219231 11.565735 1445.598877
-4.960000 7.120000 -4.920000 -25.066914 -23.076099 1160.856445
-4.960000 7.120000 -4.880000 7.355070 -39.009201 1575.814819
-4.960000 7.120000 -4.840000 40.568958 -27.845495 2421.211914
-4.960000 7.120000 -4.800000 56.176174 0.908977 3156.588623
-4.960000 7.160000 -5.200000 41.223164 -18.007792 2023.629761
-4.960000 7.160000 -5.160000 48.147503 7.468011 2373.953369
-4.960000 7.160000 -5.120000 36.999901 29.028698 2211.657959
-4.960000 7.160000 -5.080000 16.321426 36.374905 1589.522583
-4.960000 7.160000 -5.040000 -1.762672 27.904575 781.772339
-4.960000 7.160000 -5.000000 -7.687536 9.936432 157.830902
-4.960000 7.160000 -4.960000 1.718115 -6.819550 49.458176
-4.960000 7.160000 -4.920000 21.857889 -11.987478 621.466980
-4.960000 7.160000 -4.880000 41.997581 -0.686995 1764.268799
-4.960000 7.160000 -4.840000 50.495171 23.102098 3083.469238
-4.960000 7.160000 -4.800000 41.803246 48.112839 4062.356445
-4.960000 7.200000 -5.200000 44.305050 15.890967 2215.460449
-4.960000 7.200000 -5.160000 29.585007 33.697445 2010.790527
-4.960000 7.200000 -5.120000 10.665692 35.438797 1369.665283
-4.960000 7.200000 -5.080000 -0.673771 25.392910 645.253845
-4.960000 7.200000 -5.040000 -0.448244 12.874756 165.960266
-4.960000 7.200000 -5.000000 8.784399 5.436810 106.724564
-4.960000 7.200000 -4.960000 21.907768 7.035067 529.442505
-4.960000 7.200000 -4.920000 32.855156 18.869747 1435.528687
-4.960000 7.200000 -4.880000 34.792061 38.663971 2705.390137
-4.960000 7.200000 -4.840000 22.746037 59.069885 4006.633789
-4.960000 7.200000 -4.800000 -1.634663 69.656273 4854.668945
-4.920000 6.800000 -5.200000 -48.625633 0.505633 2364.707764
-4.920000 6.800000 -5.160000 -45.353607 -19.341665 2431.049805
-4.920000 6.800000 -5.120000 -33.805626 -34.486099 2332.111328
-4.920000 6.800000 -5.080000 -17.725508 -43.152748 2176.353271
-4.920000 6.800000 -5.040000 0.779259 -44.780647 2005.913696
-4.920000 6.800000 -5.000000 19.368217 -37.574368 1786.960938
-4.920000 6.800000 -4.960000 32.512115 -20.488846 1476.830444
-4.920000 6.800000 -4.920000 33.043472 2.113701 1096.338867
-4.920000 6.800000 -4.880000 18.672382 19.655445 734.994385
-4.920000 6.800000 -4.840000 -3.042274 21.870701 487.582977
-4.920000 6.800000 -4.800000 -18.033716 7.873934 387.213776
-4.920000 6.840000 -5.200000 -22.942413 -34.086853 1688.267822
-4.920000 6.840000 -5.160000 -16.363087 -33.111816 1364.142944
-4.920000 6.840000 -5.120000 -18.261284 -37.528469 1741.860474
-4.920000 6.840000 -5.080000 -14.759214 -54.214546 3157.051514
-4.920000 6.840000 -5.040000 8.160187 -71.470528 5174.625000
-4.920000 6.840000 -5.000000 46.170605 -67.893219 6741.213867
-4.920000 6.840000 -4.960000 75.428886 -34.563931 6884.182617
-4.920000 6.840000 -4.920000 72.724525 12.009674 5433.088867
-4.920000 6.840000 -4.880000 38.207043 41.251762 3161.485840
-4.920000 6.840000 -4.840000 -2.344847 34.996498 1230.253174
-4.920000 6.840000 -4.800000 -19.308287 3.740903 386.804291
-4.920000 6.880000 -5.200000 18.920481 -32.766685 1431.640259
-4.920000 6.880000 -5.160000 7.251255 -19.291386 424.738251
-4.920000 6.880000 -5.120000 -11.222002 -34.014767 1282.937744
-4.920000 6.880000 -5.080000 -3.002794 -70.482544 4976.805664
-4.920000 6.880000 -5.040000 44.071571 -92.551506 10508.084961
-4.920000 6.880000 -5.000000 102.858482 -67.762756 15171.658203
-4.920000 6.880000 -4.960000 127.726616 -1.502407 16316.345703
-4.920000 6.880000 -4.920000 96.261200 63.281013 13270.705078
-4.920000 6.880000 -4.880000 31.346540 82.781082 7835.312988
-4.920000 6.880000 -4.840000 -18.634357 50.775372 2925.377686
-4.920000 6.880000 -4.800000 -22.540787 2.010627 512.129700
-4.920000 6.920000 -5.200000 39.117172 1.241850 1531.695435
-4.920000 6.920000 -5.160000 5.596068 2.628008 38.222404
-4.920000 6.920000 -5.120000 -10.384655 -36.625374 1449.259033
-4.920000 6.920000 -5.080000 24.521133 -81.693634 7275.135742
-4.920000 6.920000 -5.040000 96.837784 -81.208771 15972.420898
-4.920000 6.920000 -5.000000 151.843124 -17.149542 23350.441406
-4.920000 6.920000 -4.960000 141.275513 73.153992 25310.275391
-4.920000 6.920000 -4.920000 68.319229 127.010803 20799.261719
-4.920000 6.920000 -4.880000 -14.124363 111.082909 12538.910156
-4.920000 6.920000 -4.840000 -50.474861 48.670723 4916.550781
-4.920000 6.920000 -4.800000 -29.274534 -5.162210 883.646790
-4.920000 6.960000 -5.200000 20.965191 33.679958 1573.878784
-4.920000 6.960000 -5.160000 -13.552464 6.231001 222.494629
-4.920000 6.960000 -5.120000 -2.513845 -47.261627 2239.980713
-4.920000 6.960000 -5.080000 61.657108 -72.586205 9070.356445
-4.920000 6.960000 -5.040000 133.591919 -30.533916 18779.121094
-4.920000 6.960000 -5.000000 151.193481 62.044853 26709.033203
-4.920000 6.960000 -4.960000 91.825417 141.809601 28541.871094
-4.920000 6.960000 -4.920000 -5.447091 152.827362 23385.873047
-4.920000 6.960000 -4.880000 -73.668182 94.308304 14321.057617
-4.920000 6.960000 -4.840000 -75.413452 17.550667 5995.214844
-4.920000 6.960000 -4.800000 -29.678152 -22.472321 1385.797852
-4.920000 7.000000 -5.200000 -14.583883 33.154835 1311.932739
-4.920000 7.000000 -5.160000 -23.286871 -13.645223 728.470459
-4.920000 7.000000 -5.120000 19.829411 -52.729095 3173.562988
-4.920000 7.000000 -5.080000 89.045418 -38.102806 9380.910156
-4.920000 7.000000 -5.040000 126.964798 35.194138 17358.687500
-4.920000 7.000000 -5.000000 94.121071 120.068901 23275.316406
-4.920000 7.000000 -4.960000 6.275612 154.816757 24007.611328
-4.920000 7.000000 -4.920000 -77.167961 115.668320 19334.054688
-4.920000 7.000000 -4.880000 -103.475937 35.465988 11965.105469
-4.920000 7.000000 -4.840000 -68.405190 -27.762480 5450.025391
-4.920000 7.000000 -4.800000 -12.311234 -40.510597 1792.675049
-4.920000 7.040000 -5.200000 -30.547817 2.179475 937.919250
-4.920000 7.040000 -5.160000 -6.583778 -35.251785 1286.034546
-4.920000 7.040000 -5.120000 46.699661 -38.505302 3663.516602
-4.920000 7.040000 -5.080000 88.757545 8.002194 7941.937012
-4.920000 7.040000 -5.040000 79.926422 78.228317 12507.902344
-4.920000 7.040000 -5.000000 17.540697 121.866600 15159.143555
-4.920000 7.040000 -4.960000 -58.557049 105.660912 14593.156250
-4.920000 7.040000 -4.920000 -97.929398 41.270603 11293.429688
-4.920000 7.040000 -4.880000 -80.094711 -25.833672 7082.541016
-4.920000 7.040000 -4.840000 -27.204031 -55.039589 3769.415771
-4.920000 7.040000 -4.800000 20.014786 -40.540375 2044.113647
-4.920000 7.080000 -5.200000 -11.312489 -26.550407 832.896545
-4.920000 7.080000 -5.160000 25.066675 -32.948849 1713.964844
-4.920000 7.080000 -5.120000 58.184280 -6.028127 3421.748779
-4.920000 7.080000 -5.080000 60.408791 41.797592 5396.260742
-4.920000 7.080000 -5.040000 23.846336 78.536911 6736.694336
-4.920000 7.080000 -5.000000 -30.161739 76.718750 6795.497070
-4.920000 7.080000 -4.960000 -65.983658 35.925873 5644.511719
-4.920000 7.080000 -4.920000 -61.181252 -16.514080 4015.860352
-4.920000 7.080000 -4.880000 -22.661667 -47.389370 2759.303711
-4.920000 7.080000 -4.840000 21.715490 -42.403221 2269.595703
-4.920000 7.080000 -4.800000 46.707958 -12.772303 2344.765137
-4.920000 7.120000 -5.200000 22.725040 -24.258768 1104.915283
-4.920000 7.120000 -5.160000 43.204651 -4.421426 1886.190796
-4.920000 7.120000 -5.120000 43.930443 25.695213 2590.127686
-4.920000 7.120000 -5.080000 22.504093 48.191296 2828.834961
-4.920000 7.120000 -5.040000 -8.814281 48.553558 2435.139648
-4.920000 7.120000 -5.000000 -30.441849 26.205036 1613.410156
-4.920000 7.120000 -4.960000 -28.751835 -4.481426 846.751221
-4.920000 7.120000 -4.920000 -5.356945 -24.010422 605.197205
-4.920000 7.120000 -4.880000 24.775673 -20.977308 1053.881470
-4.920000 7.120000 -4.840000 44.393623 1.507550 1973.066528
-4.920000 7.120000 -4.800000 44.996994 30.257782 2940.262939
-4.920000 7.160000 -5.200000 37.575047 5.302336 1439.998901
-4.920000 7.160000 -5.160000 31.662586 26.655170 1713.017456
-4.920000 7.160000 -5.120000 14.277348 36.875778 1563.665649
-4.920000 7.160000 -5.080000 -3.041822 32.295883 1052.276733
-4.920000 7.160000 -5.040000 -10.468838 18.150787 439.047638
-4.920000 7.160000 -5.000000 -4.894523 4.205479 41.642403
-4.920000 7.160000 -4.960000 9.669697 -0.905083 94.322212
-4.920000 7.160000 -4.920000 25.001478 6.503998 667.375916
-4.920000 7.160000 -4.880000 32.714581 24.099710 1651.039795
-4.920000 7.160000 -4.840000 27.866905 44.917927 2794.184570
-4.920000 7.160000 -4.800000 10.986232 60.572662 3789.744629
-4.920000 7.200000 -5.200000 20.562946 31.710760 1428.407104
-4.920000 7.200000 -5.160000 2.583575 34.798077 1217.580933
-4.920000 7.200000 -5.120000 -8.970327 25.066574 708.799927
-4.920000 7.200000 -5.080000 -8.303514 12.543837 226.296188
-4.920000 7.200000 -5.040000 1.266242 6.420155 42.821751
-4.920000 7.200000 -5.000000 12.485535 9.870550 253.316345
-4.920000 7.200000 -4.960000 19.392643 21.121120 822.176331
-4.920000 7.200000 -4.920000 18.560043 36.520477 1678.220459
-4.920000 7.200000 -4.880000 8.204046 51.520035 2721.620361
-4.920000 7.200000 -4.840000 -11.137381 60.273880 3756.981934
-4.920000 7.200000 -4.800000 -34.682858 57.291351 4485.199219
-4.880000 6.800000 -5.200000 -27.778900 -18.784365 1124.519653
-4.880000 6.800000 -5.160000 -16.200117 -31.053192 1226.744507
-4.880000 6.800000 -5.120000 -0.464976 -35.618191 1268.871704
-4.880000 6.800000 -5.080000 14.967220 -32.116592 1255.493164
-4.880000 6.800000 -5.040000 26.663589 -21.995920 1194.767578
-4.880000 6.800000 -5.000000 32.088219 -7.504950 1085.978027
-4.880000 6.800000 -4.960000 29.294521 8.028885 922.632019
-4.880000 6.800000 -4.920000 18.008286 19.620960 709.280396
-4.880000 6.800000 -4.880000 1.736963 21.885948 482.011749
-4.880000 6.800000 -4.840000 -11.937678 12.720771 304.326172
-4.880000 6.800000 -4.800000 -14.997060 -3.368379 236.257782
-4.880000 6.840000 -5.200000 0.458356 -26.628965 709.311890
-4.880000 6.840000 -5.160000 3.145796 -24.510803 610.675537
-4.880000 6.840000 -5.120000 4.217180 -29.518997 889.155823
-4.880000 6.840000 -5.080000 14.515835 -38.615170 1701.840820
-4.880000 6.840000 -5.040000 36.163361 -38.763962 2810.433594
-4.880000 6.840000 -5.000000 56.915619 -20.101339 3643.451660
-4.880000 6.840000 -4.960000 59.430912 11.686951 3668.617920
-4.880000 6.840000 -4.920000 37.784790 37.073944 2802.167480
-4.880000 6.840000 -4.880000 5.232515 38.509312 1510.346313
-4.880000 6.840000 -4.840000 -15.316540 16.237640 498.257385
-4.880000 6.840000 -4.800000 -10.290923 -10.926004 225.280670
-4.880000 6.880000 -5.200000 21.248409 -7.504139 507.807007
-4.880000 6.880000 -5.160000 5.824036 -7.645172 92.368050
-4.880000 6.880000 -5.120000 1.268027 -28.987858 841.903809
-4.880000 6.880000 -5.080000 24.807024 -50.701050 3185.984863
-4.880000 6.880000 -5.040000 66.335510 -44.621017 6391.435059
-4.880000 6.880000 -5.000000 93.859909 -3.528210 8822.130859
-4.880000 6.880000 -4.960000 81.818359 48.384861 9035.338867
-4.880000 6.880000 -4.920000 35.726250 74.785721 6869.268555
-4.880000 6.880000 -4.880000 -11.086567 58.983959 3602.019287
-4.880000 6.880000 -4.840000 -26.215313 18.314734 1022.672119
-4.880000 6.880000 -4.800000 -5.460005 -12.151687 177.475143
-4.880000 6.920000 -5.200000 14.706481 18.884754 572.914551
-4.880000 6.920000 -5.160000 -7.926010 -1.376463 64.716286
-4.880000 6.920000 -5.120000 2.720682 -38.820061 1514.399170
-4.880000 6.920000 -5.080000 50.249588 -54.251362 5468.231445
-4.880000 6.920000 -5.040000 100.758835 -21.330206 10607.320312
-4.880000 6.920000 -5.000000 110.637833 45.452255 14306.637695
-4.880000 6.920000 -4.960000 66.424774 100.034874 14419.226562
-4.880000 6.920000 -4.920000 -1.558826 104.287292 10878.269531
-4.880000 6.920000 -4.880000 -45.384312 60.797279 5756.044922
-4.880000 6.920000 -4.840000 -40.638840 8.458141 1723.055420
-4.880000 6.920000 -4.800000 -4.127411 -13.479694 198.737686
-4.880000 6.960000 -5.200000 -11.673481 24.991032 760.821777
-4.880000 6.960000 -5.160000 -18.636852 -15.156550 577.053284
-4.880000 6.960000 -5.120000 19.153749 -48.457375 2714.983398
-4.880000 6.960000 -5.080000 78.941780 -35.452763 7488.703125
-4.880000 6.960000 -5.040000 111.519913 27.201042 13176.587891
-4.880000 6.960000 -5.000000 84.314346 98.788544 16868.085938
-4.880000 6.960000 -4.960000 12.032583 127.744965 16463.558594
-4.880000 6.960000 -4.920000 -55.026703 95.881264 12221.154297
-4.880000 6.960000 -4.880000 -74.134216 32.274654 6537.535156
-4.880000 6.960000 -4.840000 -44.113052 -14.730435 2162.947266
-4.880000 6.960000 -4.800000 -0.197883 -19.146618 366.632141
-4.880000 7.000000 -5.200000 -29.885294 3.802626 907.590759
-4.880000 7.000000 -5.160000 -8.312791 -35.286652 1314.250366
-4.880000 7.000000 -5.120000 45.189350 -41.346195 3751.585205
-4.880000 7.000000 -5.080000 89.714859 3.313687 8059.736328
-4.880000 7.000000 -5.040000 84.398376 73.539246 12531.106445
-4.880000 7.000000 -5.000000 25.616871 119.211021 14867.491211
-4.880000 7.000000 -4.960000 -47.728302 107.248291 13780.187500
-4.880000 7.000000 -4.920000 -86.683731 49.002865 9915.349609
-4.880000 7.000000 -4.880000 -72.133209 -11.708939 5340.298828
-4.880000 7.000000 -4.840000 -26.013100 -36.896698 2038.047607
-4.880000 7.000000 -4.800000 13.173094 -22.571615 683.008179
-4.880000 7.040000 -5.200000 -20.100191 -23.478765 955.270142
-4.880000 7.040000 -5.160000 19.085430 -38.327461 1833.247925
-4.880000 7.040000 -5.120000 61.422928 -13.321859 3950.248047
-4.880000 7.040000 -5.080000 71.029671 41.478893 6765.712891
-4.880000 7.040000 -5.040000 33.841091 88.779739 9027.061523
-4.880000 7.040000 -5.000000 -27.946770 93.709320 9562.458008
-4.880000 7.040000 -4.960000 -72.946480 52.778358 8106.744141
-4.880000 7.040000 -4.920000 -73.941261 -4.208805 5485.023926
-4.880000 7.040000 -4.880000 -37.391788 -39.970375 2995.776855
-4.880000 7.040000 -4.840000 6.603352 -38.519203 1527.333252
-4.880000 7.040000 -4.800000 31.342899 -11.916771 1124.386719
-4.880000 7.080000 -5.200000 8.738271 -29.223801 930.387878
-4.880000 7.080000 -5.160000 40.038887 -16.078014 1861.614990
-4.880000 7.080000 -5.120000 52.604584 19.992687 3166.949707
-4.880000 7.080000 -5.080000 33.120506 56.455788 4284.223633
-4.880000 7.080000 -5.040000 -8.354389 67.548691 4632.621582
-4.880000 7.080000 -5.000000 -44.767090 44.961563 4025.634277
-4.880000 7.080000 -4.960000 -52.909355 4.435883 2819.076904
-4.880000 7.080000 -4.920000 -30.420568 -27.247313 1667.827026
-4.880000 7.080000 -4.880000 5.046534 -32.612053 1089.013550
-4.880000 7.080000 -4.840000 31.590759 -13.554741 1181.707031
-4.880000 7.080000 -4.800000 38.266907 15.069105 1691.434082
-4.880000 7.120000 -5.200000 28.257652 -7.885404 860.674561
-4.880000 7.120000 -5.160000 35.111191 14.588434 1445.618164
-4.880000 7.120000 -5.120000 23.670399 36.121948 1865.083008
-4.880000 7.120000 -5.080000 0.279724 43.125298 1859.869507
-4.880000 7.120000 -5.040000 -20.347136 31.457558 1403.583862
-4.880000 7.120000 -5.000000 -25.526844 9.466526 741.234863
-4.880000 7.120000 -4.960000 -13.207438 -8.328239 243.796005
-4.880000 7.120000 -4.920000 7.828079 -11.304993 189.081680
-4.880000 7.120000 -4.880000 25.063663 1.445479 630.276672
-4.880000 7.120000 -4.840000 30.044949 22.867138 1425.604980
-4.880000 7.120000 -4.800000 21.202473 43.776413 2365.919189
-4.880000 7.160000 -5.200000 20.052223 18.683506 751.165039
-4.880000 7.160000 -5.160000 9.054646 28.048599 868.710571
-4.880000 7.160000 -5.120000 -3.687223 26.634998 723.018799
-4.880000 7.160000 -5.080000 -9.989567 17.496017 405.902069
-4.880000 7.160000 -5.040000 -7.030859 8.090660 114.891754
-4.880000 7.160000 -5.000000 2.011840 4.781864 26.913723
-4.880000 7.160000 -4.960000 11.286892 9.566959 218.920639
-4.880000 7.160000 -4.920000 15.915207 20.551958 675.676819
-4.880000 7.160000 -4.880000 13.329599 34.137772 1343.065674
-4.880000 7.160000 -4.840000 2.814767 46.348667 2156.121826
-4.880000 7.160000 -4.800000 -14.659304 52.961304 3019.794922
-4.880000 7.200000 -5.200000 -5.913549 24.322313 626.545044
-4.880000 7.200000 -5.160000 -13.915050 15.438873 431.987427
-4.880000 7.200000 -5.120000 -11.058237 4.715992 144.525192
-4.880000 7.200000 -5.080000 -0.732575 1.100328 1.747389
-4.880000 7.200000 -5.040000 8.975833 6.957912 128.978119
-4.880000 7.200000 -5.000000 12.298012 18.315941 486.714783
-4.880000 7.200000 -4.960000 8.510582 29.951241 969.506775
-4.880000 7.200000 -4.920000 -0.637335 39.045235 1524.936646
-4.880000 7.200000 -4.880000 -14.055578 44.297325 2159.812256
-4.880000 7.200000 -4.840000 -30.864740 43.432251 2838.992676
-4.880000 7.200000 -4.800000 -47.746765 33.646008 3411.807617
-4.840000 6.800000 -5.200000 -4.751036 -18.819323 376.739227
-4.840000 6.800000 -5.160000 8.397841 -19.970869 469.359344
-4.840000 6.800000 -5.120000 19.573578 -14.084724 581.504395
-4.840000 6.800000 -5.080000 25.521931 -3.594727 664.291016
-4.840000 6.800000 -5.040000 24.948364 7.843216 683.936951
-4.840000 6.800000 -5.000000 18.748260 16.777493 632.981567
-4.840000 6.800000 -4.960000 9.187241 21.015903 526.073608
-4.840000 6.800000 -4.920000 -1.092575 19.641054 386.964722
-4.840000 6.800000 -4.880000 -9.176931 12.659529 244.479736
-4.840000 6.800000 -4.840000 -11.721951 1.594074 139.945206
-4.840000 6.800000 -4.800000 -6.182796 -9.356678 125.774399
-4.840000 6.840000 -5.200000 8.546755 -9.914479 171.343918
-4.840000 6.840000 -5.160000 8.641830 -8.596186 148.575653
-4.840000 6.840000 -5.120000 11.329802 -11.694540 265.126678
-4.840000 6.840000 -5.080000 20.396870 -12.758166 578.803101
-4.840000 6.840000 -5.040000 31.110352 -4.885420 991.721313
-4.840000 6.840000 -5.000000 33.908756 11.162636 1274.408203
-4.840000 6.840000 -4.960000 23.537140 25.906158 1225.125977
-4.840000 6.840000 -4.920000 5.073177 28.527754 839.569885
-4.840000 6.840000 -4.880000 -8.930379 16.350750 347.098694
-4.840000 6.840000 -4.840000 -8.131996 -1.944506 69.910469
-4.840000 6.840000 -4.800000 7.071537 -12.398355 203.725861
-4.840000 6.880000 -5.200000 6.058618 5.511820 67.087006
-4.840000 6.880000 -5.160000 -2.469500 -5.093870 32.045940
-4.840000 6.880000 -5.120000 5.968090 -21.847214 512.918823
-4.840000 6.880000 -5.080000 30.268795 -25.526836 1567.819336
-4.840000 6.880000 -5.040000 52.320477 -6.263390 2776.662354
-4.840000 6.880000 -5.000000 52.857456 25.674673 3453.099609
-4.840000 6.880000 -4.960000 29.343197 47.756443 3141.700928
-4.840000 6.880000 -4.920000 -0.989279 44.692875 1998.431763
-4.840000 6.880000 -4.880000 -15.816439 21.618536 717.520813
-4.840000 6.880000 -4.840000 -6.537791 -0.828151 43.428547
-4.840000 6.880000 -4.800000 15.503789 -4.379798 259.550110
-4.840000 6.920000 -5.200000 -10.294880 9.265219 191.828827
-4.840000 6.920000 -5.160000 -11.124858 -17.212154 420.020752
-4.840000 6.920000 -5.120000 15.975395 -36.238224 1568.422119
-4.840000 6.920000 -5.080000 53.788570 -24.914848 3513.959961
-4.840000 6.920000 -5.040000 71.981316 15.122918 5410.012207
-4.840000 6.920000 -5.000000 54.022430 57.087570 6177.414062
-4.840000 6.920000 -4.960000 12.327676 71.718353 5295.493652
-4.840000 6.920000 -4.920000 -22.616600 52.215958 3238.016846
-4.840000 6.920000 -4.880000 -28.547392 18.556789 1159.308105
-4.840000 6.920000 -4.840000 -8.716710 -1.471898 78.147514
-4.840000 6.920000 -4.800000 14.257690 4.219412 221.085175
-4.840000 6.960000 -5.200000 -22.465488 -5.940793 539.991211
-4.840000 6.960000 -5.160000 -2.484945 -35.291599 1251.671875
-4.840000 6.960000 -5.120000 40.164227 -37.476585 3017.659668
-4.840000 6.960000 -5.080000 73.562485 -1.882688 5414.983398
-4.840000 6.960000 -5.040000 69.269157 50.404266 7338.806641
-4.840000 6.960000 -5.000000 27.805264 83.182388 7692.442383
-4.840000 6.960000 -4.960000 -21.517826 75.718117 6196.250000
-4.840000 6.960000 -4.920000 -45.975922 38.962036 3631.825684
-4.840000 6.960000 -4.880000 -35.867535 3.578361 1299.284668
-4.840000 6.960000 -4.840000 -8.597548 -7.155845 125.123932
-4.840000 6.960000 -4.800000 10.333915 6.006680 142.870010
-4.840000 7.000000 -5.200000 -14.610392 -26.957455 940.167908
-4.840000 7.000000 -5.160000 22.082287 -39.788071 2070.718018
-4.840000 7.000000 -5.120000 61.054935 -16.446247 3998.184082
-4.840000 7.000000 -5.080000 70.576729 32.970360 6068.119141
-4.840000 7.000000 -5.040000 39.679382 75.489914 7273.180664
-4.840000 7.000000 -5.000000 -11.515779 82.375137 6918.276367
-4.840000 7.000000 -4.960000 -48.790817 52.476379 5134.314453
-4.840000 7.000000 -4.920000 -51.861958 10.880363 2808.044922
-4.840000 7.000000 -4.880000 -27.845102 -13.981932 970.844116
-4.840000 7.000000 -4.840000 -0.351441 -12.210594 149.222122
-4.840000 7.000000 -4.800000 12.217732 5.227288 176.597519
-4.840000 7.040000 -5.200000 9.194584 -32.536049 1143.134888
-4.840000 7.040000 -5.160000 43.443027 -21.291786 2340.636719
-4.840000 7.040000 -5.120000 59.904263 16.109655 3848.041748
-4.840000 7.040000 -5.080000 42.751831 56.459457 5015.389648
-4.840000 7.040000 -5.040000 1.268730 72.347000 5235.698242
-4.840000 7.040000 -5.000000 -37.322624 54.500359 4363.267578
-4.840000 7.040000 -4.960000 -50.006050 18.064075 2826.915771
-4.840000 7.040000 -4.920000 -34.639370 -11.672588 1336.135254
-4.840000 7.040000 -4.880000 -7.516013 -19.312420 429.460022
-4.840000 7.040000 -4.840000 12.687029 -7.338541 214.814896
-4.840000 7.040000 -4.800000 18.012779 11.698313 461.310730
-4.840000 7.080000 -5.200000 27.578590 -15.574217 1003.134888
-4.840000 7.080000 -5.160000 42.520241 7.938029 1870.983154
-4.840000 7.080000 -5.120000 35.307594 37.364052 2642.698730
-4.840000 7.080000 -5.080000 8.509380 53.269882 2910.090088
-4.840000 7.080000 -5.040000 -20.832575 45.623436 2515.493896
-4.840000 7.080000 -5.000000 -34.790413 21.306013 1664.318970
-4.840000 7.080000 -4.960000 -27.804125 -2.657314 780.130676
-4.840000 7.080000 -4.920000 -8.332147 -12.679333 230.190140
-4.840000 7.080000 -4.880000 10.205257 -6.494129 146.320984
-4.840000 7.080000 -4.840000 19.033499 9.451174 451.598755
-4.840000 7.080000 -4.800000 16.279287 27.261091 1008.182312
-4.840000 7.120000 -5.200000 23.346838 8.436691 616.252563
-4.840000 7.120000 -5.160000 19.804903 24.363321 985.805603
-4.840000 7.120000 -5.120000 5.961586 33.222553 1139.278564
-4.840000 7.120000 -5.080000 -9.303286 29.873671 978.987366
-4.840000 7.120000 -5.040000 -16.730484 17.881609 599.661011
-4.840000 7.120000 -5.000000 -13.395213 5.968246 215.051697
-4.840000 7.120000 -4.960000 -3.411213 1.160297 12.982663
-4.840000 7.120000 -4.920000 6.606892 5.071472 69.370850
-4.840000 7.120000 -4.880000 11.830801 15.336319 375.170532
-4.840000 7.120000 -4.840000 9.804178 28.537796 910.527710
-4.840000 7.120000 -4.800000 -0.858921 40.762718 1662.337036
-4.840000 7.160000 -5.200000 1.467039 16.573345 276.827972
-4.840000 7.160000 -5.160000 -4.150329 15.944567 271.454437
-4.840000 7.160000 -5.120000 -6.307619 11.570634 173.665619
-4.840000 7.160000 -5.080000 -3.683722 7.922533 76.336342
-4.840000 7.160000 -5.040000 1.050096 8.332912 70.540131
-4.840000 7.160000 -5.000000 4.223486 12.591158 176.375092
-4.840000 7.160000 -4.960000 4.337929 18.357452 355.813690
-4.840000 7.160000 -4.920000 1.987913 24.214926 590.314392
-4.840000 7.160000 -4.880000 -2.825724 30.406778 932.556885
-4.840000 7.160000 -4.840000 -12.029940 36.294991 1462.045776
-4.840000 7.160000 -4.800000 -27.003817 38.023331 2174.979736
-4.840000 7.200000 -5.200000 -15.716140 1.763714 250.107742
-4.840000 7.200000 -5.160000 -8.630098 -6.104755 111.746628
-4.840000 7.200000 -5.120000 3.325231 -5.723977 43.821072
-4.840000 7.200000 -5.080000 11.860945 3.774197 154.926575
-4.840000 7.200000 -5.040000 11.745769 16.508440 410.491669
-4.840000 7.200000 -5.000000 4.519512 25.732016 682.562622
-4.840000 7.200000 -4.960000 -4.666924 29.490421 891.465088
-4.840000 7.200000 -4.920000 -13.002604 30.355808 1090.542847
-4.840000 7.200000 -4.880000 -22.012768 30.282448 1401.588623
-4.840000 7.200000 -4.840000 -33.677498 26.993332 1862.813721
-4.840000 7.200000 -4.800000 -45.548676 16.381838 2343.046387
-4.800000 6.800000 -5.200000 8.632322 -5.848705 108.724342
-4.800000 6.800000 -5.160000 15.304474 1.951725 238.036148
-4.800000 6.800000 -5.120000 15.955685 11.147459 378.849731
-4.800000 6.800000 -5.080000 11.441032 18.347954 467.544617
-4.800000 6.800000 -5.040000 4.082176 21.353666 472.643219
-4.800000 6.800000 -5.000000 -3.173645 19.786058 401.560120
-4.800000 6.800000 -4.960000 -8.135746 15.012442 291.563751
-4.800000 6.800000 -4.920000 -10.197203 8.831347 181.975647
-4.800000 6.800000 -4.880000 -9.486531 2.221331 94.928589
-4.800000 6.800000 -4.840000 -5.484287 -4.156018 47.349892
-4.800000 6.800000 -4.800000 2.579131 -8.201618 73.918457
-4.800000 6.840000 -5.200000 3.539657 2.706414 19.853848
-4.800000 6.840000 -5.160000 1.832263 2.636108 10.306255
-4.800000 6.840000 -5.120000 3.533361 0.843941 13.196879
-4.800000 6.840000 -5.080000 7.602673 2.092725 62.180126
-4.800000 6.840000 -5.040000 9.372566 7.135172 138.755676
-4.800000 6.840000 -5.000000 6.080323 11.951956 179.819580
-4.800000 6.840000 -4.960000 -0.058647 11.943286 142.645508
-4.800000 6.840000 -4.920000 -3.771951 6.346967 54.511600
-4.800000 6.840000 -4.880000 -1.117387 -0.998727 2.246009
-4.800000 6.840000 -4.840000 7.595621 -4.414097 77.177704
-4.800000 6.840000 -4.800000 17.876688 -0.030523 319.576935
-4.800000 6.880000 -5.200000 -8.811909 0.919361 78.494957
-4.800000 6.880000 -5.160000 -7.049212 -11.411181 179.906433
-4.800000 6.880000 -5.120000 6.532370 -18.175629 373.025330
-4.800000 6.880000 -5.080000 21.891172 -11.434902 609.980408
-4.800000 6.880000 -5.040000 27.122499 4.485050 755.745667
-4.800000 6.880000 -5.000000 19.537296 17.570217 690.418457
-4.800000 6.880000 -4.960000 7.325929 19.428848 431.149353
-4.800000 6.880000 -4.920000 1.299975 12.156425 149.468597
-4.800000 6.880000 -4.880000 5.434691 5.225039 56.836891
-4.800000 6.880000 -4.840000 14.562531 6.705094 257.025574
-4.800000 6.880000 -4.800000 19.720770 17.184494 684.215576
-4.800000 6.920000 -5.200000 -14.827778 -14.330719 425.232483
-4.800000 6.920000 -5.160000 1.477924 -30.510717 933.088135
-4.800000 6.920000 -5.120000 27.815687 -28.278051 1573.360596
-4.800000 6.920000 -5.080000 45.102798 -6.318869 2074.190430
-4.800000 6.920000 -5.040000 41.613407 20.486874 2151.387695
-4.800000 6.920000 -5.000000 22.688183 34.813591 1726.739746
-4.800000 6.920000 -4.960000 4.337192 31.639080 1019.842590
-4.800000 6.920000 -4.920000 -1.648156 20.370840 417.687561
-4.800000 6.920000 -4.880000 3.505661 14.219886 214.494812
-4.800000 6.920000 -4.840000 9.549553 18.497559 433.353638
-4.800000 6.920000 -4.800000 7.809614 28.251751 859.151489
-4.800000 6.960000 -5.200000 -3.706464 -31.431458 1001.674377
-4.800000 6.960000 -5.160000 25.995081 -36.468338 2005.683960
-4.800000 6.960000 -5.120000 52.769791 -15.989674 3040.320557
-4.800000 6.960000 -5.080000 57.236721 18.508173 3618.594727
-4.800000 6.960000 -5.040000 37.498203 44.908901 3422.924805
-4.800000 6.960000 -5.000000 9.454002 49.558990 2545.471680
-4.800000 6.960000 -4.960000 -8.479258 36.994850 1440.516724
-4.800000 6.960000 -4.920000 -10.431045 22.610191 620.027466
-4.800000 6.960000 -4.880000 -4.392474 17.590431 328.717102
-4.800000 6.960000 -4.840000 -1.434383 21.277685 454.797363
-4.800000 6.960000 -4.800000 -5.552020 25.982420 705.911072
-4.800000 7.000000 -5.200000 19.609707 -33.437759 1502.624390
-4.800000 7.000000 -5.160000 48.828590 -19.644449 2770.135498
-4.800000 7.000000 -5.120000 60.521469 13.685839 3850.150391
-4.800000 7.000000 -5.080000 45.667099 46.072121 4208.124023
-4.800000 7.000000 -5.040000 15.108578 58.614449 3663.922607
-4.800000 7.000000 -5.000000 -11.057725 48.981781 2521.488037
-4.800000 7.000000 -4.960000 -20.707695 30.258886 1344.408813
-4.800000 7.000000 -4.920000 -16.852552 17.033360 574.143860
-4.800000 7.000000 -4.880000 -10.265198 13.800283 295.822113
-4.800000 7.000000 -4.840000 -7.886168 15.746386 310.140289
-4.800000 7.000000 -4.800000 -9.227324 17.457489 389.907440
-4.800000 7.040000 -5.200000 36.552986 -15.332664 1571.211426
-4.800000 7.040000 -5.160000 50.913029 9.798287 2688.142822
-4.800000 7.040000 -5.120000 43.201202 39.661827 3439.404297
-4.800000 7.040000 -5.080000 17.673800 55.939899 3441.635742
-4.800000 7.040000 -5.040000 -9.200781 51.421017 2728.775146
-4.800000 7.040000 -5.000000 -23.270763 34.111572 1705.127808
-4.800000 7.040000 -4.960000 -22.795620 17.727533 833.905762
-4.800000 7.040000 -4.920000 -15.665455 9.786624 341.184479
-4.800000 7.040000 -4.880000 -9.465532 8.876423 168.387177
-4.800000 7.040000 -4.840000 -6.045905 10.946448 156.377701
-4.800000 7.040000 -4.800000 -4.752925 14.902328 244.669693
-4.800000 7.080000 -5.200000 32.197235 8.876442 1115.453247
-4.800000 7.080000 -5.160000 30.199253 29.399590 1776.330811
-4.800000 7.080000 -5.120000 14.188914 43.323524 2078.252930
-4.800000 7.080000 -5.080000 -5.781965 42.911285 1874.809570
-4.800000 7.080000 -5.040000 -18.436750 31.391869 1325.363159
-4.800000 7.080000 -5.000000 -20.198536 18.260984 741.444458
-4.800000 7.080000 -4.960000 -15.401764 10.320370 343.724365
-4.800000 7.080000 -4.920000 -9.662696 8.045588 158.099167
-4.800000 7.080000 -4.880000 -5.098581 9.323516 112.923477
-4.800000 7.080000 -4.840000 -2.153697 13.829475 195.892807
-4.800000 7.080000 -4.800000 -3.517881 21.773993 486.482239
-4.800000 7.120000 -5.200000 10.763052 18.292637 450.463867
-4.800000 7.120000 -5.160000 4.713306 24.944977 644.467163
-4.800000 7.120000 -5.120000 -3.770470 25.592434 669.189087
-4.800000 7.120000 -5.080000 -9.413616 21.279753 541.444031
-4.800000 7.120000 -5.040000 -10.527813 16.282127 375.942505
-4.800000 7.120000 -5.000000 -9.221850 13.452524 266.012939
-4.800000 7.120000 -4.960000 -7.700687 12.517113 215.978699
-4.800000 7.120000 -4.920000 -6.007465 12.745123 198.527802
-4.800000 7.120000 -4.880000 -4.131044 15.417158 254.754288
-4.800000 7.120000 -4.840000 -5.083269 21.875551 504.379364
-4.800000 7.120000 -4.800000 -13.468081 29.131010 1030.004883
-4.800000 7.160000 -5.200000 -7.337166 5.418284 83.191803
-4.800000 7.160000 -5.160000 -3.953188 3.974111 31.421249
-4.800000 7.160000 -5.120000 0.470682 5.566692 31.209606
-4.800000 7.160000 -5.080000 2.973676 10.526958 119.659607
-4.800000 7.160000 -5.040000 1.336597 16.250837 265.876221
-4.800000 7.160000 -5.000000 -3.314691 19.267773 382.234253
-4.800000 7.160000 -4.960000 -7.321850 18.957380 412.991760
-4.800000 7.160000 -4.920000 -8.685812 18.571720 420.352112
-4.800000 7.160000 -4.880000 -10.143131 21.452583 563.096436
-4.800000 7.160000 -4.840000 -16.860033 26.020281 961.315674
-4.800000 7.160000 -4.800000 -30.178373 25.511168 1561.553833
-4.800000 7.200000 -5.200000 -5.058958 -16.152710 286.503082
-4.800000 7.200000 -5.160000 9.033870 -11.653494 217.414734
-4.800000 7.200000 -5.120000 16.915358 1.884295 289.679901
-4.800000 7.200000 -5.080000 13.865671 16.947189 479.464050
-4.800000 7.200000 -5.040000 2.990963 25.366138 652.386841
-4.800000 7.200000 -5.000000 -7.792573 25.124062 691.942627
-4.800000 7.200000 -4.960000 -13.252579 21.317379 630.061462
-4.800000 7.200000 -4.920000 -15.426521 20.087589 641.488770
-4.800000 7.200000 -4.880000 -20.464600 21.632797 886.777710
-4.800000 7.200000 -4.840000 -30.847504 19.798553 1343.551270
-4.800000 7.200000 -4.800000 -41.343552 8.921806 1788.887939
