#kx 	ky 	kz 	real 	imag 	intensity
2.800000 2.800000 4.983333 -85.628906 -43.121235 9191.750000
2.800000 2.800000 4.991667 -13.940178 -36.002914 1490.538452
2.800000 2.800000 5.000000 -31.871880 -25.590279 1670.679077
2.800000 2.800000 5.008333 -27.784170 -58.886650 4239.597656
2.800000 2.800000 5.016667 37.209560 -31.353100 2367.568359
2.800000 2.900000 4.983333 -13.643677 -74.818298 5783.927734
2.800000 2.900000 4.991667 58.659821 16.025887 3697.803711
2.800000 2.900000 5.000000 -50.433743 -7.970335 2607.088623
2.800000 2.900000 5.008333 30.805901 -53.404572 3801.051758
2.800000 2.900000 5.016667 32.526245 -17.903149 1378.479370
2.800000 3.000000 4.983333 47.496159 -40.573830 3902.120605
2.800000 3.000000 4.991667 20.786930 20.457911 850.622559
2.800000 3.000000 5.000000 29.615326 -13.378262 1056.045410
2.800000 3.000000 5.008333 38.083813 -0.614628 1450.754639
2.800000 3.000000 5.016667 94.328888 80.251114 15338.180664
2.800000 3.100000 4.983333 6.344254 17.428761 344.011230
2.800000 3.100000 4.991667 73.430450 66.828537 9858.083984
2.800000 3.100000 5.000000 -101.802933 102.653366 20901.550781
2.800000 3.100000 5.008333 -1.707340 -26.302328 694.727478
2.800000 3.100000 5.016667 -127.182175 117.170387 29904.205078
2.800000 3.200000 4.983333 15.966305 -42.796684 2086.479004
2.800000 3.200000 4.991667 -35.424843 124.929337 16862.257812
2.800000 3.200000 5.000000 -125.744583 -149.071838 38034.113281
2.800000 3.200000 5.008333 98.761314 -21.128448 10200.208008
2.800000 3.200000 5.016667 -50.751694 -98.914734 12359.859375
2.900000 2.800000 4.983333 -88.308632 -19.244484 8168.764648
2.900000 2.800000 4.991667 -36.441727 -161.622345 27449.783203
2.900000 2.800000 5.000000 64.683563 8.775749 4260.977051
2.900000 2.800000 5.008333 -69.788513 -92.739609 13471.071289
2.900000 2.800000 5.016667 115.897461 -24.111694 14013.595703
2.900000 2.900000 4.983333 380.112518 -610.705200 517446.375000
2.900000 2.900000 4.991667 -247.029083 826.960999 744887.875000
2.900000 2.900000 5.000000 -1025.945801 -663.794434 1493187.750000
2.900000 2.900000 5.008333 100.139694 -771.203064 604782.125000
2.900000 2.900000 5.016667 297.683197 -634.014587 490589.781250
2.900000 3.000000 4.983333 995.758972 431.325378 1177577.500000
2.900000 3.000000 4.991667 -1348.037598 -238.193024 1873941.250000
2.900000 3.000000 5.000000 766.508484 -1669.094727 3373412.500000
2.900000 3.000000 5.008333 1092.722656 -128.685730 1210602.750000
2.900000 3.000000 5.016667 1144.330811 293.966553 1395909.375000
2.900000 3.100000 4.983333 -103.096710 700.353394 501123.812500
2.900000 3.100000 4.991667 -60.512512 -759.550232 580578.312500
2.900000 3.100000 5.000000 1017.376404 226.892426 1086534.875000
2.900000 3.100000 5.008333 253.421143 638.493958 471896.812500
2.900000 3.100000 5.016667 -119.239586 767.199219 602812.687500
2.900000 3.200000 4.983333 -26.128437 157.592667 25518.144531
2.900000 3.200000 4.991667 -214.705719 -98.767960 55853.656250
2.900000 3.200000 5.000000 133.783600 -132.047699 35334.648438
2.900000 3.200000 5.008333 -17.599249 96.281723 9579.903320
2.900000 3.200000 5.016667 -15.701103 -82.866577 7113.394043
3.000000 2.800000 4.983333 -91.159500 -161.035873 34242.609375
3.000000 2.800000 4.991667 206.501541 -123.757133 57958.714844
3.000000 2.800000 5.000000 -10.330101 66.889694 4580.941895
3.000000 2.800000 5.008333 76.665207 -172.124146 35504.273438
3.000000 2.800000 5.016667 154.328003 92.042755 32289.001953
3.000000 2.900000 4.983333 1008.641663 352.593750 1141680.375000
3.000000 2.900000 4.991667 -1258.005371 -182.657410 1615941.250000
3.000000 2.900000 5.000000 725.938232 -1730.865112 3522880.250000
3.000000 2.900000 5.008333 1255.806030 -102.590149 1587573.500000
3.000000 2.900000 5.016667 1095.650146 334.904907 1312610.500000
3.000000 3.000000 4.983333 -394.058105 1571.851562 2625999.000000
3.000000 3.000000 4.991667 72.061951 -2086.570312 4358968.500000
3.000000 3.000000 5.000000 2765.258789 728.787537 8177787.000000
3.000000 3.000000 5.008333 511.150574 1674.188110 3064180.750000
3.000000 3.000000 5.016667 -103.493149 1847.867188 3425324.000000
3.000000 3.100000 4.983333 -1078.376099 -14.670944 1163110.250000
3.000000 3.100000 4.991667 1225.909546 -221.233185 1551798.375000
3.000000 3.100000 5.000000 -160.334930 1715.327881 2968057.000000
3.000000 3.100000 5.008333 -943.776489 509.250153 1150049.750000
3.000000 3.100000 5.016667 -1238.061646 105.128944 1543848.750000
3.000000 3.200000 4.983333 -202.619522 -59.986526 44653.054688
3.000000 3.200000 4.991667 98.069717 -206.980133 52458.445312
3.000000 3.200000 5.000000 92.815689 39.936394 10209.667969
3.000000 3.200000 5.008333 -27.779839 -48.691277 3142.559814
3.000000 3.200000 5.016667 96.466759 -96.841530 18684.117188
3.100000 2.800000 4.983333 115.527557 -78.087914 19444.337891
3.100000 2.800000 4.991667 60.921669 118.842773 17835.054688
3.100000 2.800000 5.000000 -41.748756 4.368790 1762.044922
3.100000 2.800000 5.008333 101.658592 -18.835003 10689.226562
3.100000 2.800000 5.016667 45.922943 165.017532 29339.701172
3.100000 2.900000 4.983333 -124.678680 672.220459 467425.125000
3.100000 2.900000 4.991667 2.633057 -827.946350 685502.125000
3.100000 2.900000 5.000000 1172.377441 271.725616 1448303.750000
3.100000 2.900000 5.008333 236.962753 798.405212 693602.250000
3.100000 2.900000 5.016667 -148.360718 768.499390 612602.187500
3.100000 3.000000 4.983333 -1010.280334 -142.797165 1041057.375000
3.100000 3.000000 4.991667 1308.253296 -133.338348 1729305.750000
3.100000 3.000000 5.000000 -170.858459 1799.567871 3267637.000000
3.100000 3.000000 5.008333 -1036.063232 502.869385 1326304.625000
3.100000 3.000000 5.016667 -1148.791138 83.128113 1326631.375000
3.100000 3.100000 4.983333 -23.814064 -702.643799 494275.437500
3.100000 3.100000 4.991667 237.213486 736.261475 598351.187500
3.100000 3.100000 5.000000 -1068.108398 30.886023 1141809.500000
3.100000 3.100000 5.008333 -374.821838 -579.102661 475851.312500
3.100000 3.100000 5.016667 -139.431793 -736.988525 562593.312500
3.100000 3.200000 4.983333 97.974518 -89.372406 17586.433594
3.100000 3.200000 4.991667 121.874512 53.482986 17713.826172
3.100000 3.200000 5.000000 66.631042 60.878365 8145.871094
3.100000 3.200000 5.008333 59.120789 52.977669 6301.900879
3.100000 3.200000 5.016667 81.449455 113.644432 19549.070312
3.200000 2.800000 4.983333 -36.081146 47.038960 3514.512939
3.200000 2.800000 4.991667 -32.167816 -102.101532 11459.491211
3.200000 2.800000 5.000000 22.907288 -37.507114 1931.527588
3.200000 2.800000 5.008333 88.193924 -33.627281 8908.962891
3.200000 2.800000 5.016667 -30.476933 120.610283 15475.684570
3.200000 2.900000 4.983333 -17.589504 -68.878624 5053.655273
3.200000 2.900000 4.991667 114.396500 12.581956 13244.865234
3.200000 2.900000 5.000000 25.970404 58.373409 4081.916748
3.200000 2.900000 5.008333 -5.981207 73.112122 5381.157227
3.200000 2.900000 5.016667 -53.978035 -32.713318 3983.789307
3.200000 3.000000 4.983333 120.781845 -24.601986 15193.511719
3.200000 3.000000 4.991667 -22.532057 40.151577 2119.842773
3.200000 3.000000 5.000000 1.469555 -5.433972 31.687647
3.200000 3.000000 5.008333 -6.437988 -41.017532 1723.885742
3.200000 3.000000 5.016667 74.360374 27.387848 6279.559570
3.200000 3.100000 4.983333 95.337563 100.814034 19252.720703
3.200000 3.100000 4.991667 50.388252 -9.931147 2637.603760
3.200000 3.100000 5.000000 83.084709 68.833015 11641.052734
3.200000 3.100000 5.008333 63.296169 66.980362 8492.773438
3.200000 3.100000 5.016667 -18.566427 128.132446 16762.636719
3.200000 3.200000 4.983333 -21.385967 150.692490 23165.585938
3.200000 3.200000 4.991667 -23.402124 49.459000 2993.852051
3.200000 3.200000 5.000000 -41.407383 120.022018 16119.856445
3.200000 3.200000 5.008333 -91.671333 59.433559 11935.981445
3.200000 3.200000 5.016667 -128.013077 31.499336 17379.556641
