#kx 	ky 	kz 	real 	imag 	intensity
2.800000 2.800000 4.800000 -14.948297 -0.426131 223.633163
2.800000 2.800000 4.840000 -15.039778 -3.377090 237.599655
2.800000 2.800000 4.880000 -15.025387 -7.865314 287.625397
2.800000 2.800000 4.920000 -12.161942 -14.287431 352.043518
2.800000 2.800000 4.960000 -4.075895 -19.552938 398.930328
2.800000 2.800000 5.000000 7.708286 -18.865274 415.316284
2.800000 2.800000 5.040000 17.566673 -10.228319 413.206543
2.800000 2.800000 5.080000 19.984430 2.877730 407.658783
2.800000 2.800000 5.120000 14.254745 13.895195 396.274231
2.800000 2.800000 5.160000 4.785601 18.566967 367.634247
2.800000 2.800000 5.200000 -3.336578 17.778929 327.223053
2.800000 2.840000 4.800000 -13.409882 -11.694061 316.575989
2.800000 2.840000 4.840000 -11.676297 -12.050433 281.548859
2.800000 2.840000 4.880000 -10.769395 -14.601601 329.186615
2.800000 2.840000 4.920000 -6.663573 -18.550484 388.523651
2.800000 2.840000 4.960000 1.375434 -19.253593 372.592682
2.800000 2.840000 5.000000 8.862932 -13.631454 264.368103
2.800000 2.840000 5.040000 10.407668 -4.376814 127.476059
2.800000 2.840000 5.080000 5.646154 2.201891 36.727386
2.800000 2.840000 5.120000 -0.119263 2.768531 7.678987
2.800000 2.840000 5.160000 -1.764002 0.476510 3.338764
2.800000 2.840000 5.200000 -0.235700 1.084959 1.232690
2.800000 2.880000 4.800000 -3.127436 -20.818214 443.178894
2.800000 2.880000 4.840000 -1.437977 -18.090916 329.348999
2.800000 2.880000 4.880000 -0.763723 -18.298573 335.421051
2.800000 2.880000 4.920000 2.388470 -19.132175 371.744934
2.800000 2.880000 4.960000 6.578932 -16.954550 330.739105
2.800000 2.880000 5.000000 7.715165 -12.399761 213.277847
2.800000 2.880000 5.040000 5.185300 -10.083079 128.555817
2.800000 2.880000 5.080000 3.801586 -12.425460 168.844116
2.800000 2.880000 5.120000 8.279913 -15.171612 298.734772
2.800000 2.880000 5.160000 16.261307 -11.087173 387.355499
2.800000 2.880000 5.200000 18.723925 1.206083 352.040009
2.800000 2.920000 4.800000 12.742959 -20.408855 578.904419
2.800000 2.920000 4.840000 12.285450 -15.059291 377.714539
2.800000 2.920000 4.880000 10.883923 -13.452577 299.431580
2.800000 2.920000 4.920000 10.760269 -13.045990 285.981262
2.800000 2.920000 4.960000 10.501400 -12.572840 268.355713
2.800000 2.920000 5.000000 9.732550 -14.043014 291.928772
2.800000 2.920000 5.040000 12.109480 -18.404440 485.362915
2.800000 2.920000 5.080000 21.299036 -20.913212 891.011353
2.800000 2.920000 5.120000 34.008087 -13.786313 1346.612427
2.800000 2.920000 5.160000 39.396439 4.770205 1574.834229
2.800000 2.920000 5.200000 28.213987 24.998865 1420.972290
2.800000 2.960000 4.800000 25.011295 -7.824669 686.790344
2.800000 2.960000 4.840000 20.566042 -1.756168 426.046204
2.800000 2.960000 4.880000 15.795862 -0.681149 249.973221
2.800000 2.960000 4.920000 12.637877 -2.656840 166.774734
2.800000 2.960000 4.960000 11.885514 -7.116620 191.911728
2.800000 2.960000 5.000000 16.174068 -13.114706 433.596008
2.800000 2.960000 5.040000 27.825651 -15.577875 1016.937012
2.800000 2.960000 5.080000 42.937912 -6.868708 1890.843506
2.800000 2.960000 5.120000 50.043495 15.120111 2732.968994
2.800000 2.960000 5.160000 38.280579 40.567123 3111.094238
2.800000 2.960000 5.200000 8.983197 52.190651 2804.561768
2.800000 3.000000 4.800000 24.936554 10.844057 739.425293
2.800000 3.000000 4.840000 16.220383 14.395718 470.337463
2.800000 3.000000 4.880000 9.198838 11.710104 221.745163
2.800000 3.000000 4.920000 6.625424 5.101838 69.924988
2.800000 3.000000 4.960000 10.755674 -2.527210 122.071327
2.800000 3.000000 5.000000 22.620951 -5.712875 544.344360
2.800000 3.000000 5.040000 37.926384 2.602173 1445.182007
2.800000 3.000000 5.080000 45.594551 24.585976 2683.333252
2.800000 3.000000 5.120000 34.391785 51.274269 3811.845703
2.800000 3.000000 5.160000 3.997742 65.397934 4292.871582
2.800000 3.000000 5.200000 -30.545826 54.160107 3866.364746
2.800000 3.040000 4.800000 11.710376 24.433386 734.123291
2.800000 3.040000 4.840000 1.011872 22.410675 503.262238
2.800000 3.040000 4.880000 -4.480801 14.414991 227.869553
2.800000 3.040000 4.920000 -1.943739 4.948184 28.262646
2.800000 3.040000 4.960000 8.788044 0.156878 77.254326
2.800000 3.040000 5.000000 23.013542 6.484057 571.666077
2.800000 3.040000 5.040000 30.501511 25.755547 1593.690430
2.800000 3.040000 5.080000 20.805511 50.116959 2944.578857
2.800000 3.040000 5.120000 -7.294640 63.868683 4132.420410
2.800000 3.040000 5.160000 -40.951096 54.141594 4608.304688
2.800000 3.040000 5.200000 -60.088856 22.620571 4122.360840
2.800000 3.080000 4.800000 -6.518715 25.366615 685.958801
2.800000 3.080000 4.840000 -15.031567 17.029819 515.962769
2.800000 3.080000 4.880000 -14.853098 5.722661 253.363373
2.800000 3.080000 4.920000 -5.665773 -1.452817 34.211662
2.800000 3.080000 4.960000 7.484605 1.964134 59.877132
2.800000 3.080000 5.000000 14.895047 17.408167 524.906738
2.800000 3.080000 5.040000 7.260763 37.709068 1474.692505
2.800000 3.080000 5.080000 -16.548353 49.099148 2684.574219
2.800000 3.080000 5.120000 -45.587944 40.187569 3693.301270
2.800000 3.080000 5.160000 -62.387169 11.886906 4033.457520
2.800000 3.080000 5.200000 -55.543289 -20.956657 3524.238281
2.800000 3.120000 4.800000 -19.465199 15.257414 611.682617
2.800000 3.120000 4.840000 -22.124474 3.003198 498.511536
2.800000 3.120000 4.880000 -14.856781 -6.942583 268.923401
2.800000 3.120000 4.920000 -2.192994 -7.093800 55.131218
2.800000 3.120000 4.960000 6.158560 4.516871 58.329994
2.800000 3.120000 5.000000 1.205667 21.132927 448.054230
2.800000 3.120000 5.040000 -17.923893 30.102896 1227.450195
2.800000 3.120000 5.080000 -41.186394 21.586380 2162.290771
2.800000 3.120000 5.120000 -53.382584 -3.007214 2858.743408
2.800000 3.120000 5.160000 -45.297058 -30.415640 2976.934570
2.800000 3.120000 5.200000 -21.322699 -44.636662 2447.088867
2.800000 3.160000 4.800000 -22.841217 2.145157 526.322876
2.800000 3.160000 4.840000 -18.630438 -9.965882 446.412018
2.800000 3.160000 4.880000 -6.673984 -14.351757 250.514984
2.800000 3.160000 4.920000 3.758944 -6.814875 60.572186
2.800000 3.160000 4.960000 2.673847 7.272349 60.036526
2.800000 3.160000 5.000000 -11.864440 15.566492 383.080627
2.800000 3.160000 5.040000 -30.440237 8.264565 994.911072
2.800000 3.160000 5.080000 -38.618202 -12.994053 1660.211060
2.800000 3.160000 5.120000 -28.543982 -35.191689 2053.213867
2.800000 3.160000 5.160000 -5.841256 -43.842525 1956.287231
2.800000 3.160000 5.200000 14.634293 -34.579327 1409.892334
2.800000 3.200000 4.800000 -20.043451 -7.463303 457.440826
2.800000 3.200000 4.840000 -10.633726 -16.236677 376.705841
2.800000 3.200000 4.880000 1.745320 -13.968827 198.174271
2.800000 3.200000 4.920000 5.911416 -2.412695 40.765938
2.800000 3.200000 4.960000 -3.236222 7.105206 60.957092
2.800000 3.200000 5.000000 -18.446396 3.199637 350.507202
2.800000 3.200000 5.040000 -25.230438 -14.394473 843.775879
2.800000 3.200000 5.080000 -14.772310 -33.130058 1315.821899
2.800000 3.200000 5.120000 7.346281 -38.050365 1501.798218
2.800000 3.200000 5.160000 25.345346 -25.144161 1274.615479
2.800000 3.200000 5.200000 26.917576 -5.078958 750.351746
2.840000 2.800000 4.800000 -19.810812 -0.921487 393.317413
2.840000 2.800000 4.840000 -17.742144 -7.736025 374.629730
2.840000 2.800000 4.880000 -12.736470 -13.061520 332.820984
2.840000 2.800000 4.920000 -5.746754 -15.968118 288.005981
2.840000 2.800000 4.960000 2.395317 -15.795280 255.228439
2.840000 2.800000 5.000000 10.468246 -11.701414 246.507278
2.840000 2.800000 5.040000 16.169930 -3.384007 272.918121
2.840000 2.800000 5.080000 16.757055 7.559597 337.946411
2.840000 2.800000 5.120000 10.982416 17.475790 426.016693
2.840000 2.800000 5.160000 0.547945 22.436831 503.711609
2.840000 2.800000 5.200000 -10.548196 20.596401 535.476196
2.840000 2.840000 4.800000 -11.999631 -15.560637 386.124573
2.840000 2.840000 4.840000 -2.324414 -16.995556 294.251801
2.840000 2.840000 4.880000 6.020249 -11.639952 171.731873
2.840000 2.840000 4.920000 8.217419 -2.533255 73.943352
2.840000 2.840000 4.960000 3.695450 4.352832 32.603493
2.840000 2.840000 5.000000 -3.052113 4.959728 33.914295
2.840000 2.840000 5.040000 -6.188437 0.586803 38.641083
2.840000 2.840000 5.080000 -3.595314 -3.295633 23.787483
2.840000 2.840000 5.120000 1.296112 -2.010963 5.723880
2.840000 2.840000 5.160000 2.653756 4.035948 23.331297
2.840000 2.840000 5.200000 -2.440066 9.568443 97.509033
2.840000 2.880000 4.800000 6.196499 -20.276789 449.544769
2.840000 2.880000 4.840000 18.105194 -9.968579 427.170654
2.840000 2.880000 4.880000 19.006336 8.059649 426.198730
2.840000 2.880000 4.920000 4.802580 22.075396 510.387878
2.840000 2.880000 4.960000 -16.593605 20.228741 684.549683
2.840000 2.880000 5.000000 -29.485634 1.634697 872.074829
2.840000 2.880000 5.040000 -23.035585 -20.830635 964.553528
2.840000 2.880000 5.080000 -1.277994 -30.069336 905.798218
2.840000 2.880000 5.120000 19.327015 -19.014091 735.069214
2.840000 2.880000 5.160000 23.331125 3.262964 554.988342
2.840000 2.880000 5.200000 8.973675 19.250937 451.125366
2.840000 2.920000 4.800000 23.178524 -8.645345 611.985962
2.840000 2.920000 4.840000 26.786539 13.363403 896.099243
2.840000 2.920000 4.880000 10.207478 34.865555 1319.799561
2.840000 2.920000 4.920000 -21.418905 37.268066 1847.678345
2.840000 2.920000 4.960000 -47.038879 12.342192 2364.985840
2.840000 2.920000 5.000000 -44.990479 -26.560307 2729.593018
2.840000 2.920000 5.040000 -12.641711 -51.872650 2850.584473
2.840000 2.920000 5.080000 28.465355 -43.830864 2731.421143
2.840000 2.920000 5.120000 48.824406 -7.873833 2445.819824
2.840000 2.920000 5.160000 35.070164 29.136690 2078.863037
2.840000 2.920000 5.200000 0.436899 41.092461 1688.781250
2.840000 2.960000 4.800000 25.459497 13.237595 823.419922
2.840000 2.960000 4.840000 12.901149 37.386002 1564.152832
2.840000 2.960000 4.880000 -19.880991 46.602802 2567.075195
2.840000 2.960000 4.920000 -54.364212 25.147533 3587.865967
2.840000 2.960000 4.960000 -62.509598 -20.569374 4330.548828
2.840000 2.960000 5.000000 -30.956333 -60.725113 4645.833984
2.840000 2.960000 5.040000 23.075411 -63.905403 4616.375000
2.840000 2.960000 5.080000 61.965401 -24.523123 4441.094727
2.840000 2.960000 5.120000 57.722130 29.985687 4230.985840
2.840000 2.960000 5.160000 15.431589 60.676388 3919.758057
2.840000 2.960000 5.200000 -31.503414 48.785019 3372.443115
2.840000 3.000000 4.800000 9.641735 29.888512 986.286194
2.840000 3.000000 4.840000 -16.444687 42.710278 2094.595703
2.840000 3.000000 4.880000 -50.974976 30.027557 3500.102539
2.840000 3.000000 4.920000 -68.042305 -10.763588 4745.610352
2.840000 3.000000 4.960000 -46.619022 -56.813618 5401.120117
2.840000 3.000000 5.000000 6.952879 -73.189590 5405.058594
2.840000 3.000000 5.040000 57.749359 -42.173256 5113.572266
2.840000 3.000000 5.080000 68.176888 17.990372 4971.741211
2.840000 3.000000 5.120000 29.784784 64.861740 5094.178711
2.840000 3.000000 5.160000 -28.443398 65.961952 5160.005859
2.840000 3.000000 5.200000 -64.060921 24.985550 4728.079590
2.840000 3.040000 4.800000 -13.551258 29.013807 1025.437622
2.840000 3.040000 4.840000 -40.441742 23.679001 2196.229492
2.840000 3.040000 4.880000 -59.477966 -5.319614 3565.926758
2.840000 3.040000 4.920000 -49.933380 -45.877441 4598.082031
2.840000 3.040000 4.960000 -8.279351 -69.366165 4880.212891
2.840000 3.040000 5.000000 41.721428 -52.566921 4503.958984
2.840000 3.040000 5.040000 63.580997 -0.811279 4043.201416
2.840000 3.040000 5.080000 38.110229 51.246277 4078.570557
2.840000 3.040000 5.120000 -18.014973 65.857735 4661.780273
2.840000 3.040000 5.160000 -64.131477 33.484802 5234.078125
2.840000 3.040000 5.200000 -68.728493 -19.424820 5100.929688
2.840000 3.080000 4.800000 -28.034481 12.003197 930.008850
2.840000 3.080000 4.840000 -42.395336 -5.899259 1832.165771
2.840000 3.080000 4.880000 -39.678860 -34.306080 2751.318848
2.840000 3.080000 4.920000 -13.305722 -55.523193 3259.867188
2.840000 3.080000 4.960000 24.828032 -50.022919 3118.723633
2.840000 3.080000 5.000000 48.360092 -14.773459 2556.953613
2.840000 3.080000 5.040000 36.555546 28.966476 2175.364746
2.840000 3.080000 5.080000 -6.015362 49.369286 2473.510986
2.840000 3.080000 5.120000 -49.860466 29.949873 3383.061035
2.840000 3.080000 5.160000 -63.362709 -15.461332 4253.885742
2.840000 3.080000 5.200000 -38.659229 -53.488594 4355.565918
2.840000 3.120000 4.800000 -26.022587 -7.917291 739.858521
2.840000 3.120000 4.840000 -24.122498 -25.155025 1214.670166
2.840000 3.120000 4.880000 -8.678417 -38.483654 1556.306519
2.840000 3.120000 4.920000 14.492951 -36.774639 1562.419678
2.840000 3.120000 4.960000 30.630377 -16.672340 1216.186890
2.840000 3.120000 5.000000 25.827263 11.020592 788.500916
2.840000 3.120000 5.040000 -0.219009 26.476654 701.061157
2.840000 3.120000 5.080000 -30.700233 16.025682 1199.326904
2.840000 3.120000 5.120000 -43.199890 -15.179864 2096.658691
2.840000 3.120000 5.160000 -27.792927 -45.546001 2846.885010
2.840000 3.120000 5.200000 4.296045 -53.964478 2930.620850
2.840000 3.160000 4.800000 -13.528405 -18.113667 511.122681
2.840000 3.160000 4.840000 -2.770289 -24.784294 621.935730
2.840000 3.160000 4.880000 10.110037 -21.747437 575.163818
2.840000 3.160000 4.920000 16.754459 -9.796085 376.675201
2.840000 3.160000 4.960000 11.571476 3.567661 146.627274
2.840000 3.160000 5.000000 -3.255697 8.211340 78.025665
2.840000 3.160000 5.040000 -17.727596 -1.248869 315.827332
2.840000 3.160000 5.080000 -20.469765 -20.244900 828.867188
2.840000 3.160000 5.120000 -7.578240 -36.429955 1384.571289
2.840000 3.160000 5.160000 13.573091 -38.583733 1672.933228
2.840000 3.160000 5.200000 29.457111 -25.463600 1516.116455
2.840000 3.200000 4.800000 -2.771353 -17.228848 304.513580
2.840000 3.200000 4.840000 6.426452 -13.561368 225.209991
2.840000 3.200000 4.880000 8.416754 -4.223333 88.678284
2.840000 3.200000 4.920000 1.034223 2.294374 6.333770
2.840000 3.200000 4.960000 -9.758226 -1.206581 96.678825
2.840000 3.200000 5.000000 -14.044899 -14.176689 398.237701
2.840000 3.200000 5.040000 -5.999807 -27.958958 817.700989
2.840000 3.200000 5.080000 10.971975 -32.278206 1162.266846
2.840000 3.200000 5.120000 26.499496 -23.410976 1250.297119
2.840000 3.200000 5.160000 31.259808 -7.154853 1028.367554
2.840000 3.200000 5.200000 24.030144 5.845753 611.620667
2.880000 2.800000 4.800000 -23.669098 -8.161353 626.833862
2.880000 2.800000 4.840000 -15.959106 -16.056444 512.502441
2.880000 2.800000 4.880000 -6.000655 -17.685638 348.789673
2.880000 2.800000 4.920000 1.584648 -14.501247 212.797287
2.880000 2.800000 4.960000 5.934471 -10.229984 139.870529
2.880000 2.800000 5.000000 9.335815 -6.325825 127.173508
2.880000 2.800000 5.040000 12.984970 -0.834381 169.305649
2.880000 2.800000 5.080000 14.312956 8.101177 270.489777
2.880000 2.800000 5.120000 9.344326 18.194948 418.372589
2.880000 2.800000 5.160000 -2.258977 23.502628 557.476501
2.880000 2.800000 5.200000 -15.094562 19.497101 607.982727
2.880000 2.840000 4.800000 -6.448168 -20.071194 444.431671
2.880000 2.840000 4.840000 10.674072 -12.902069 280.399231
2.880000 2.840000 4.880000 15.818695 6.682064 294.881104
2.880000 2.840000 4.920000 2.566391 23.236315 546.512695
2.880000 2.840000 4.960000 -18.963444 22.165249 850.910461
2.880000 2.840000 5.000000 -30.400679 4.063511 940.713379
2.880000 2.840000 5.040000 -22.183022 -15.105881 720.274109
2.880000 2.840000 5.080000 -2.572426 -18.800406 360.072632
2.880000 2.840000 5.120000 10.452219 -5.220224 136.499619
2.880000 2.840000 5.160000 6.239945 11.837301 179.058624
2.880000 2.840000 5.200000 -9.350943 16.816732 370.242615
2.880000 2.880000 4.800000 15.316172 -13.348561 412.769196
2.880000 2.880000 4.840000 26.098297 15.874933 933.134583
2.880000 2.880000 4.880000 5.637470 48.392639 2373.628418
2.880000 2.880000 4.920000 -38.946190 53.735649 4404.325684
2.880000 2.880000 4.960000 -75.257156 19.639374 6049.344727
2.880000 2.880000 5.000000 -72.751663 -32.789452 6367.953125
2.880000 2.880000 5.040000 -31.200180 -64.967491 5194.226074
2.880000 2.880000 5.080000 17.718933 -54.364685 3269.479736
2.880000 2.880000 5.120000 38.163273 -13.782141 1646.382812
2.880000 2.880000 5.160000 20.832329 21.758686 907.426392
2.880000 2.880000 5.200000 -12.090298 26.940441 871.962646
2.880000 2.920000 4.800000 23.466307 9.616606 643.146667
2.880000 2.920000 4.840000 9.593445 50.879292 2680.736572
2.880000 2.920000 4.880000 -43.109695 70.172874 6782.678223
2.880000 2.920000 4.920000 -101.994003 37.019154 11773.194336
2.880000 2.920000 4.960000 -118.076347 -37.667961 15360.898438
2.880000 2.920000 5.000000 -70.367523 -103.637825 15692.386719
2.880000 2.920000 5.040000 11.184715 -112.261505 12727.743164
2.880000 2.920000 5.080000 68.775238 -59.283840 8244.607422
2.880000 2.920000 5.120000 65.859177 11.602922 4472.059082
2.880000 2.920000 5.160000 16.292130 47.878662 2557.799805
2.880000 2.920000 5.200000 -32.604935 32.425354 2114.485352
2.880000 2.960000 4.800000 8.837400 31.072399 1043.593628
2.880000 2.960000 4.840000 -33.529419 60.913704 4834.701172
2.880000 2.960000 4.880000 -99.309998 42.996426 11711.167969
2.880000 2.960000 4.920000 -135.993866 -31.586712 19492.052734
2.880000 2.960000 4.960000 -101.366791 -119.688828 24600.640625
2.880000 2.960000 5.000000 -6.925215 -156.343994 24491.404297
2.880000 2.960000 5.040000 84.782280 -111.017525 19512.925781
2.880000 2.960000 5.080000 110.955124 -16.794266 12593.085938
2.880000 2.960000 5.120000 61.500164 57.003345 7031.651367
2.880000 2.960000 5.160000 -15.349322 63.840115 4311.162109
2.880000 2.960000 5.200000 -58.457912 15.575009 3659.908447
2.880000 3.000000 4.800000 -18.663097 32.295937 1391.338623
2.880000 3.000000 4.840000 -72.186829 31.795261 6221.876465
2.880000 3.000000 4.880000 -117.925339 -22.838585 14427.986328
2.880000 3.000000 4.920000 -105.910538 -109.473953 23201.589844
2.880000 3.000000 4.960000 -24.032698 -166.914917 28438.160156
2.880000 3.000000 5.000000 81.001335 -144.917847 27562.398438
2.880000 3.000000 5.040000 136.885864 -51.817612 21422.804688
2.880000 3.000000 5.080000 106.459045 47.698471 13608.671875
2.880000 3.000000 5.120000 19.578243 85.925339 7766.471680
2.880000 3.000000 5.160000 -54.188179 47.898315 5230.607422
2.880000 3.000000 5.200000 -65.876785 -21.466305 4800.553223
2.880000 3.040000 4.800000 -37.354378 10.646008 1508.687012
2.880000 3.040000 4.840000 -75.728302 -18.179520 6065.270996
2.880000 3.040000 4.880000 -80.948242 -82.370483 13337.513672
2.880000 3.040000 4.920000 -27.432461 -141.067383 20652.544922
2.880000 3.040000 4.960000 63.642498 -142.962296 24488.585938
2.880000 3.040000 5.000000 132.574890 -73.359268 22957.683594
2.880000 3.040000 5.040000 128.698746 25.943893 17236.453125
2.880000 3.040000 5.080000 55.326412 87.255646 10674.559570
2.880000 3.040000 5.120000 -31.293276 72.949554 6300.906738
2.880000 3.040000 5.160000 -69.580597 5.475133 4871.436523
2.880000 3.040000 5.200000 -42.977409 -55.769577 4957.303223
2.880000 3.080000 4.800000 -32.674763 -17.487133 1373.439941
2.880000 3.080000 4.840000 -41.700798 -52.995018 4547.428711
2.880000 3.080000 4.880000 -15.255297 -94.674004 9195.890625
2.880000 3.080000 4.920000 44.460030 -107.199127 13468.347656
2.880000 3.080000 4.960000 102.739326 -68.245926 15212.875000
2.880000 3.080000 5.000000 116.246490 6.081520 13550.231445
2.880000 3.080000 5.040000 70.611504 68.010742 9611.445312
2.880000 3.080000 5.080000 -3.514389 75.535065 5717.896973
2.880000 3.080000 5.120000 -53.672108 27.907516 3659.524414
2.880000 3.080000 5.160000 -48.704315 -34.056961 3531.986816
2.880000 3.080000 5.200000 -2.613678 -63.537159 4043.801758
2.880000 3.120000 4.800000 -9.864490 -31.376287 1081.779541
2.880000 3.120000 4.840000 2.199089 -50.763229 2581.741455
2.880000 3.120000 4.880000 31.371368 -58.646740 4423.603027
2.880000 3.120000 4.920000 63.990398 -41.209328 5792.979492
2.880000 3.120000 4.960000 77.004837 -0.966568 5930.679199
2.880000 3.120000 5.000000 56.294510 39.634583 4739.971680
2.880000 3.120000 5.040000 11.618458 53.100571 2954.659180
2.880000 3.120000 5.080000 -27.657290 29.583954 1640.135986
2.880000 3.120000 5.120000 -35.038059 -13.224335 1402.548706
2.880000 3.120000 5.160000 -8.580329 -43.586842 1973.434814
2.880000 3.120000 5.200000 28.129822 -41.587471 2520.804688
2.880000 3.160000 4.800000 11.949432 -24.355667 735.987488
2.880000 3.160000 4.840000 24.154907 -21.819183 1059.536255
2.880000 3.160000 4.880000 32.941833 -11.158800 1209.683228
2.880000 3.160000 4.920000 33.116127 3.714035 1110.471924
2.880000 3.160000 4.960000 23.167675 15.794842 786.218140
2.880000 3.160000 5.000000 7.155651 18.139221 380.234680
2.880000 3.160000 5.040000 -6.206192 8.383896 108.806534
2.880000 3.160000 5.080000 -8.386234 -8.311905 139.416687
2.880000 3.160000 5.120000 2.645472 -21.362839 463.369385
2.880000 3.160000 5.160000 19.842171 -21.878002 872.358704
2.880000 3.160000 5.200000 31.556604 -9.604767 1088.070801
2.880000 3.200000 4.800000 18.161804 -8.139524 396.102997
2.880000 3.200000 4.840000 16.500847 3.988565 288.186615
2.880000 3.200000 4.880000 5.071718 9.508644 116.136642
2.880000 3.200000 4.920000 -6.373209 2.821781 48.580242
2.880000 3.200000 4.960000 -7.740284 -11.078696 182.649506
2.880000 3.200000 5.000000 2.589115 -21.263750 458.850586
2.880000 3.200000 5.040000 17.004829 -20.435266 706.764343
2.880000 3.200000 5.080000 25.919704 -10.335148 778.646362
2.880000 3.200000 5.120000 25.544693 1.227739 654.038635
2.880000 3.200000 5.160000 19.359161 7.708858 434.203613
2.880000 3.200000 5.200000 13.321773 8.294342 246.265732
2.920000 2.800000 4.800000 -19.766472 -17.658989 702.553345
2.920000 2.800000 4.840000 -7.037683 -21.380266 506.644775
2.920000 2.800000 4.880000 3.349312 -16.374126 279.329926
2.920000 2.800000 4.920000 6.721771 -8.774018 122.165604
2.920000 2.800000 4.960000 6.039810 -4.790161 59.424950
2.920000 2.800000 5.000000 7.478481 -4.027428 72.147858
2.920000 2.800000 5.040000 12.502911 -0.592827 156.674210
2.920000 2.800000 5.080000 15.468307 9.201855 323.942688
2.920000 2.800000 5.120000 9.704178 21.133141 540.780701
2.920000 2.800000 5.160000 -4.318007 26.112103 700.487122
2.920000 2.800000 5.200000 -17.807724 19.187233 685.264893
2.920000 2.840000 4.800000 2.613686 -18.947395 365.835144
2.920000 2.840000 4.840000 16.641716 2.226070 281.902100
2.920000 2.840000 4.880000 5.321243 29.094692 874.816711
2.920000 2.840000 4.920000 -26.434540 35.844013 1983.578247
2.920000 2.840000 4.960000 -52.357071 12.359840 2894.028564
2.920000 2.840000 5.000000 -48.760536 -23.814499 2944.720215
2.920000 2.840000 5.040000 -17.639854 -42.587360 2124.847656
2.920000 2.840000 5.080000 14.650772 -29.338165 1075.373047
2.920000 2.840000 5.120000 22.197077 1.966015 496.575409
2.920000 2.840000 5.160000 3.067232 23.256235 550.260376
2.920000 2.840000 5.200000 -21.278954 19.176664 820.538330
2.920000 2.880000 4.800000 17.177359 0.058558 295.065063
2.920000 2.880000 4.840000 7.632019 43.252991 1929.068848
2.920000 2.880000 4.880000 -44.209030 65.553009 6251.635254
2.920000 2.880000 4.920000 -103.777832 33.721081 11906.950195
2.920000 2.880000 4.960000 -119.682014 -40.403610 15956.236328
2.920000 2.880000 5.000000 -71.672096 -104.344498 16024.664062
2.920000 2.880000 5.040000 7.500168 -110.114258 12181.402344
2.920000 2.880000 5.080000 59.724548 -57.288063 6848.943848
2.920000 2.880000 5.120000 52.746613 7.956093 2845.504395
2.920000 2.880000 5.160000 5.635464 36.204720 1342.540161
2.920000 2.880000 5.200000 -34.192417 17.417242 1472.481689
2.920000 2.920000 4.800000 8.521873 24.318869 664.029663
2.920000 2.920000 4.840000 -39.424610 63.667179 5607.809570
2.920000 2.920000 4.880000 -119.115341 44.796989 16195.235352
2.920000 2.920000 4.920000 -164.385239 -44.236744 28979.394531
2.920000 2.920000 4.960000 -123.356888 -149.699097 37626.742188
2.920000 2.920000 5.000000 -11.695759 -192.924988 37356.839844
2.920000 2.920000 5.040000 94.592796 -140.033478 28557.171875
2.920000 2.920000 5.080000 123.682495 -33.394596 16412.558594
2.920000 2.920000 5.120000 68.973251 46.455376 6915.411621
2.920000 2.920000 5.160000 -10.899799 51.479065 2768.899902
2.920000 2.920000 5.200000 -49.942192 1.810413 2497.500244
2.920000 2.960000 4.800000 -18.900780 30.931049 1313.969238
2.920000 2.960000 4.840000 -92.207031 35.487991 9761.534180
2.920000 2.960000 4.880000 -158.037079 -37.892509 26411.560547
2.920000 2.960000 4.920000 -143.550781 -158.307938 45668.226562
2.920000 2.960000 4.960000 -31.599108 -239.017532 58127.882812
2.920000 2.960000 5.000000 111.972305 -211.013611 57064.539062
2.920000 2.960000 5.040000 188.840988 -88.037262 43411.476562
2.920000 2.960000 5.080000 152.366486 41.772491 24960.488281
2.920000 2.960000 5.120000 45.706680 91.803970 10517.069336
2.920000 2.960000 5.160000 -41.305962 48.531555 4061.494141
2.920000 2.960000 5.200000 -52.602493 -27.270357 3510.694580
2.920000 3.000000 4.800000 -42.162327 10.353836 1884.863647
2.920000 3.000000 4.840000 -106.096451 -29.096092 12103.040039
2.920000 3.000000 4.880000 -119.425674 -130.198669 31214.185547
2.920000 3.000000 4.920000 -37.464390 -226.229370 52583.308594
2.920000 3.000000 4.960000 106.530586 -233.338791 65795.757812
2.920000 3.000000 5.000000 217.693527 -128.083389 63795.828125
2.920000 3.000000 5.040000 217.926514 23.838348 48060.230469
2.920000 3.000000 5.080000 114.207558 119.823906 27401.134766
2.920000 3.000000 5.120000 -8.655148 106.747543 11469.949219
2.920000 3.000000 5.160000 -63.671989 20.708504 4482.964355
2.920000 3.000000 5.200000 -33.018486 -54.224430 4030.509277
2.920000 3.040000 4.800000 -39.684311 -23.094212 2108.187012
2.920000 3.040000 4.840000 -65.140900 -84.247101 11340.911133
2.920000 3.040000 4.880000 -23.502541 -165.093597 27808.265625
2.920000 3.040000 4.920000 85.664352 -195.555038 45580.156250
2.920000 3.040000 4.960000 197.759369 -129.790009 55954.218750
2.920000 3.040000 5.000000 231.060577 4.538033 53409.585938
2.920000 3.040000 5.040000 157.987778 121.179848 39644.695312
2.920000 3.040000 5.080000 32.035423 145.708527 22257.242188
2.920000 3.040000 5.120000 -57.215858 77.149323 9225.672852
2.920000 3.040000 5.160000 -59.480061 -16.350471 3805.215576
2.920000 3.040000 5.200000 0.440107 -61.234081 3749.806396
2.920000 3.080000 4.800000 -11.253435 -42.998734 1975.530884
2.920000 3.080000 4.840000 1.597721 -90.111145 8122.571289
2.920000 3.080000 4.880000 62.515388 -120.455536 18417.710938
2.920000 3.080000 4.920000 143.232849 -92.053978 28989.582031
2.920000 3.080000 4.960000 185.999191 -3.088028 34605.234375
2.920000 3.080000 5.000000 151.362289 96.668900 32255.417969
2.920000 3.080000 5.040000 56.215858 142.173065 23373.402344
2.920000 3.080000 5.080000 -36.145432 107.103065 12777.558594
2.920000 3.080000 5.120000 -67.554398 25.745495 5226.427246
2.920000 3.080000 5.160000 -31.432377 -37.915878 2425.608154
2.920000 3.080000 5.200000 27.689140 -44.535294 2750.080811
2.920000 3.120000 4.800000 21.459314 -34.487389 1649.882202
2.920000 3.120000 4.840000 45.631874 -47.957138 4382.155273
2.920000 3.120000 4.880000 83.483521 -37.788406 8397.461914
2.920000 3.120000 4.920000 109.962448 4.351776 12110.677734
2.920000 3.120000 4.960000 99.468048 61.259720 13646.645508
2.920000 3.120000 5.000000 49.376114 98.443619 12129.147461
2.920000 3.120000 5.040000 -12.963440 90.542274 8365.954102
2.920000 3.120000 5.080000 -49.272583 43.430611 4314.005371
2.920000 3.120000 5.120000 -40.489914 -9.092289 1722.102783
2.920000 3.120000 5.160000 -1.306042 -32.399139 1051.409912
2.920000 3.120000 5.200000 33.954781 -18.023499 1477.773682
2.920000 3.160000 4.800000 34.800144 -7.077185 1261.136597
2.920000 3.160000 4.840000 42.075531 3.257923 1780.964355
2.920000 3.160000 4.880000 42.570465 17.938538 2134.035645
2.920000 3.160000 4.920000 34.415894 32.138103 2217.311523
2.920000 3.160000 4.960000 18.696686 40.475792 1987.855713
2.920000 3.160000 5.000000 -0.040489 38.517384 1483.590454
2.920000 3.160000 5.040000 -14.295582 25.481373 853.664001
2.920000 3.160000 5.080000 -16.972109 6.590237 331.483704
2.920000 3.160000 5.120000 -6.601458 -8.341066 113.152634
2.920000 3.160000 5.160000 10.054611 -10.942921 220.842712
2.920000 3.160000 5.200000 21.789782 -0.850517 475.517975
2.920000 3.200000 4.800000 24.209465 15.551428 827.945129
2.920000 3.200000 4.840000 8.591753 24.547384 676.392334
2.920000 3.200000 4.880000 -8.873837 16.762951 359.741486
2.920000 3.200000 4.920000 -12.739372 -2.088297 166.652588
2.920000 3.200000 4.960000 0.139008 -15.626269 244.199615
2.920000 3.200000 5.000000 17.556896 -12.762478 471.125427
2.920000 3.200000 5.040000 24.247477 1.964005 591.797424
2.920000 3.200000 5.080000 16.568989 13.929771 468.569946
2.920000 3.200000 5.120000 4.672962 13.476132 203.442719
2.920000 3.200000 5.160000 0.841290 4.566128 21.557293
2.920000 3.200000 5.200000 7.011281 -1.086119 50.337715
2.960000 2.800000 4.800000 -9.270847 -20.645662 512.192017
2.960000 2.800000 4.840000 3.148846 -17.617809 320.302429
2.960000 2.800000 4.880000 8.511108 -8.381731 142.692383
2.960000 2.800000 4.920000 6.318363 -1.677032 42.734154
2.960000 2.800000 4.960000 3.777287 -1.507187 16.539507
2.960000 2.800000 5.000000 7.217293 -2.928383 60.664742
2.960000 2.800000 5.040000 14.380974 2.108219 211.257004
2.960000 2.800000 5.080000 16.210716 15.013911 488.204834
2.960000 2.800000 5.120000 6.615429 27.633156 807.355225
2.960000 2.800000 5.160000 -10.148149 29.735710 987.197388
2.960000 2.800000 5.200000 -22.571661 19.344913 883.705566
2.960000 2.840000 4.800000 7.518208 -9.959171 155.708527
2.960000 2.840000 4.840000 6.583652 18.270613 377.159760
2.960000 2.840000 4.880000 -22.980751 35.294289 1773.801758
2.960000 2.840000 4.920000 -58.916336 18.305138 3806.212891
2.960000 2.840000 4.960000 -67.653152 -25.085014 5206.207031
2.960000 2.840000 5.000000 -36.953537 -60.615589 5039.813477
2.960000 2.840000 5.040000 10.439034 -58.475430 3528.349365
2.960000 2.840000 5.080000 36.974552 -21.334473 1822.277344
2.960000 2.840000 5.120000 24.754013 18.670990 961.367065
2.960000 2.840000 5.160000 -9.734621 30.662209 1034.933838
2.960000 2.840000 5.200000 -34.046379 12.409898 1313.161499
2.960000 2.880000 4.800000 6.316935 11.470739 171.481537
2.960000 2.880000 4.840000 -31.085930 46.707977 3147.970215
2.960000 2.880000 4.880000 -97.252342 33.117630 10554.795898
2.960000 2.880000 4.920000 -134.886841 -40.092659 19801.880859
2.960000 2.880000 4.960000 -99.851555 -126.449326 25959.765625
2.960000 2.880000 5.000000 -7.000244 -159.234283 25404.560547
2.960000 2.880000 5.040000 78.244865 -112.046127 18676.593750
2.960000 2.880000 5.080000 97.048698 -23.559521 9973.500977
2.960000 2.880000 5.120000 48.019516 38.256908 3769.465088
2.960000 2.880000 5.160000 -16.773079 36.910378 1643.712158
2.960000 2.880000 5.200000 -43.829113 -5.796680 1954.592651
2.960000 2.920000 4.800000 -15.412712 22.132320 727.391296
2.960000 2.920000 4.840000 -87.818619 29.599510 8588.241211
2.960000 2.920000 4.880000 -154.338013 -42.528511 25628.896484
2.960000 2.920000 4.920000 -139.800781 -162.596466 45981.867188
2.960000 2.920000 4.960000 -27.551453 -241.908310 59278.710938
2.960000 2.920000 5.000000 114.348976 -211.946579 57997.039062
2.960000 2.920000 5.040000 187.549515 -89.450531 43176.218750
2.960000 2.920000 5.080000 149.007416 35.922470 23493.632812
2.960000 2.920000 5.120000 45.599251 80.721634 8595.274414
2.960000 2.920000 5.160000 -33.945969 37.123875 2530.510742
2.960000 2.920000 5.200000 -39.846214 -31.757421 2596.254639
2.960000 2.960000 4.800000 -39.257607 7.201027 1593.014404
2.960000 2.960000 4.840000 -114.471527 -35.244980 14345.939453
2.960000 2.960000 4.880000 -131.596802 -151.861237 40379.554688
2.960000 2.960000 4.920000 -37.029228 -263.296021 70695.960938
2.960000 2.960000 4.960000 129.264069 -270.984741 90141.921875
2.960000 2.960000 5.000000 256.097778 -149.465286 87925.937500
2.960000 2.960000 5.040000 255.190475 23.000408 65651.195312
2.960000 2.960000 5.080000 138.584320 129.412476 35953.203125
2.960000 2.960000 5.120000 4.708988 114.032463 13025.577148
2.960000 2.960000 5.160000 -51.784515 22.556313 3190.423340
2.960000 2.960000 5.200000 -18.056938 -51.283783 2956.079346
2.960000 3.000000 4.800000 -41.048531 -25.292713 2324.703125
2.960000 3.000000 4.840000 -79.371078 -104.739128 17270.052734
2.960000 3.000000 4.880000 -26.640499 -214.279053 46625.226562
2.960000 3.000000 4.920000 118.796478 -256.899902 80110.164062
2.960000 3.000000 4.960000 268.646606 -170.221558 101146.375000
2.960000 3.000000 5.000000 313.309509 7.100238 98213.265625
2.960000 3.000000 5.040000 218.653488 159.614380 73286.093750
2.960000 3.000000 5.080000 57.825493 192.011276 40212.121094
2.960000 3.000000 5.120000 -53.614300 107.831726 14502.173828
2.960000 3.000000 5.160000 -56.684742 -3.135237 3222.989502
2.960000 3.000000 5.200000 11.232960 -51.768204 2806.126465
2.960000 3.040000 4.800000 -13.753536 -49.306183 2620.259277
2.960000 3.040000 4.840000 -1.007397 -125.655731 15790.376953
2.960000 3.040000 4.880000 92.635742 -179.400269 40765.835938
2.960000 3.040000 4.920000 222.038452 -139.032211 68631.031250
2.960000 3.040000 4.960000 292.694702 -0.500294 85670.437500
2.960000 3.040000 5.000000 241.485046 156.047516 82665.859375
2.960000 3.040000 5.040000 96.646133 228.467270 61537.769531
2.960000 3.040000 5.080000 -42.864784 178.774811 33797.824219
2.960000 3.040000 5.120000 -91.177048 62.339306 12199.443359
2.960000 3.040000 5.160000 -43.793640 -25.885246 2587.928955
2.960000 3.040000 5.200000 31.088436 -34.201263 2136.217285
2.960000 3.080000 4.800000 24.341288 -43.686203 2500.982666
2.960000 3.080000 4.840000 65.336182 -82.397964 11058.240234
2.960000 3.080000 4.880000 145.087418 -74.004883 26527.082031
2.960000 3.080000 4.920000 207.876038 6.173187 43250.554688
2.960000 3.080000 4.960000 194.659271 123.134888 53054.429688
2.960000 3.080000 5.000000 97.892654 202.796112 50709.234375
2.960000 3.080000 5.040000 -25.409615 192.297440 37623.953125
2.960000 3.080000 5.080000 -98.315002 105.198715 20732.609375
2.960000 3.080000 5.120000 -86.587006 8.908955 7576.679199
2.960000 3.080000 5.160000 -22.001137 -33.565102 1610.666138
2.960000 3.080000 5.200000 32.475250 -12.746506 1217.115234
2.960000 3.120000 4.800000 45.195583 -11.647215 2178.298340
2.960000 3.120000 4.840000 75.867523 -10.876696 5874.183594
2.960000 3.120000 4.880000 106.711418 22.181221 11879.333984
2.960000 3.120000 4.920000 106.975914 80.707863 17957.605469
2.960000 3.120000 4.960000 61.479706 131.990234 21201.175781
2.960000 3.120000 5.000000 -11.846817 140.607162 19910.722656
2.960000 3.120000 5.040000 -71.902008 97.866692 14747.789062
2.960000 3.120000 5.080000 -85.524338 30.774010 8261.452148
2.960000 3.120000 5.120000 -53.067677 -18.791857 3169.312012
2.960000 3.120000 5.160000 -5.809616 -26.664057 744.723572
2.960000 3.120000 5.200000 21.456148 -2.153645 465.004486
2.960000 3.160000 4.800000 35.939888 22.296535 1788.811035
2.960000 3.160000 4.840000 35.207726 35.081772 2470.314697
2.960000 3.160000 4.880000 26.619110 48.125397 3024.630859
2.960000 3.160000 4.920000 10.918503 56.672256 3330.958252
2.960000 3.160000 4.960000 -8.994995 56.964462 3325.859863
2.960000 3.160000 5.000000 -28.193413 46.677860 2973.691406
2.960000 3.160000 5.040000 -39.906837 26.687141 2304.759277
2.960000 3.160000 5.080000 -38.243164 3.087975 1472.075195
2.960000 3.160000 5.120000 -22.996996 -14.070339 726.836243
2.960000 3.160000 5.160000 -2.070638 -16.719364 283.824677
2.960000 3.160000 5.200000 12.456033 -5.310236 183.351364
2.960000 3.200000 4.800000 9.211334 34.972725 1307.940063
2.960000 3.200000 4.840000 -12.783604 31.536274 1157.957031
2.960000 3.200000 4.880000 -24.171204 10.638596 697.426758
2.960000 3.200000 4.920000 -14.121201 -10.519035 310.058411
2.960000 3.200000 4.960000 7.510941 -13.419739 236.503616
2.960000 3.200000 5.000000 19.514809 2.598923 387.582153
2.960000 3.200000 5.040000 10.932384 19.443108 497.551453
2.960000 3.200000 5.080000 -7.822174 18.984125 421.583405
2.960000 3.200000 5.120000 -16.151093 1.725311 263.834473
2.960000 3.200000 5.160000 -4.868760 -14.234701 226.331543
2.960000 3.200000 5.200000 14.633236 -12.467801 369.577637
3.000000 2.800000 4.800000 -1.208141 -13.735191 190.115097
3.000000 2.800000 4.840000 5.533928 -7.319382 84.197708
3.000000 2.800000 4.880000 4.959454 -0.063843 24.600256
3.000000 2.800000 4.920000 1.133419 1.700256 4.175510
3.000000 2.800000 4.960000 1.398411 -0.918549 2.799284
3.000000 2.800000 5.000000 7.734161 -0.437485 60.008644
3.000000 2.800000 5.040000 13.677094 8.591236 260.872223
3.000000 2.800000 5.080000 10.499588 22.731207 626.949097
3.000000 2.800000 5.120000 -3.519642 31.875885 1028.459961
3.000000 2.800000 5.160000 -20.419842 28.679714 1239.495972
3.000000 2.800000 5.200000 -29.469696 15.675973 1114.199097
3.000000 2.840000 4.800000 1.547676 -0.190208 2.431481
3.000000 2.840000 4.840000 -15.236618 19.906830 628.436401
3.000000 2.840000 4.880000 -48.660332 14.821136 2587.493896
3.000000 2.840000 4.920000 -67.397964 -21.849915 5019.904785
3.000000 2.840000 4.960000 -47.633797 -64.542679 6434.735840
3.000000 2.840000 5.000000 1.363846 -77.116982 5948.888672
3.000000 2.840000 5.040000 42.953194 -46.907547 4045.294678
3.000000 2.840000 5.080000 45.942924 2.513626 2117.070557
3.000000 2.840000 5.120000 12.474037 32.956932 1241.760986
3.000000 2.840000 5.160000 -26.095947 26.124521 1363.489014
3.000000 2.840000 5.200000 -39.935375 -2.731173 1602.293579
3.000000 2.880000 4.800000 -12.131231 9.047342 229.021179
3.000000 2.880000 4.840000 -62.213058 15.615879 4114.320312
3.000000 2.880000 4.880000 -108.884644 -35.036446 13083.417969
3.000000 2.880000 4.920000 -97.161491 -119.790871 23790.207031
3.000000 2.880000 4.960000 -15.724380 -173.808624 30456.693359
3.000000 2.880000 5.000000 84.627029 -148.332077 29164.138672
3.000000 2.880000 5.040000 132.556732 -57.929893 20927.160156
3.000000 2.880000 5.080000 99.294609 30.623314 10797.206055
3.000000 2.880000 5.120000 22.059610 57.901028 3839.155518
3.000000 2.880000 5.160000 -33.776138 21.723246 1612.726929
3.000000 2.880000 5.200000 -34.498272 -29.283068 2047.628784
3.000000 2.920000 4.800000 -30.811333 -0.771471 949.933350
3.000000 2.920000 4.840000 -94.557465 -35.777031 10221.110352
3.000000 2.920000 4.880000 -108.574677 -135.382736 30116.945312
3.000000 2.920000 4.920000 -25.948036 -229.916153 53534.738281
3.000000 2.920000 4.960000 117.352623 -233.640961 68359.734375
3.000000 2.920000 5.000000 223.901428 -126.349739 66096.101562
3.000000 2.920000 5.040000 218.771606 21.713577 48332.496094
3.000000 2.920000 5.080000 115.941002 109.328362 25395.007812
3.000000 2.920000 5.120000 2.654076 91.775711 8429.825195
3.000000 2.920000 5.160000 -41.346062 12.574524 1867.615479
3.000000 2.920000 5.200000 -9.845386 -46.957634 2301.950928
3.000000 2.960000 4.800000 -33.792797 -27.279831 1886.142334
3.000000 2.960000 4.840000 -72.680878 -104.955818 16298.233398
3.000000 2.960000 4.880000 -20.051632 -213.955811 46179.156250
3.000000 2.960000 4.920000 125.767700 -255.309280 81000.343750
3.000000 2.960000 4.960000 274.498077 -166.621506 103111.921875
3.000000 2.960000 5.000000 316.107971 10.953106 100044.218750
3.000000 2.960000 5.040000 219.326630 160.362411 73820.273438
3.000000 2.960000 5.080000 60.591904 188.684296 39273.140625
3.000000 2.960000 5.120000 -45.268951 104.275650 12922.689453
3.000000 2.960000 5.160000 -44.580196 -1.097298 1988.598022
3.000000 2.960000 5.200000 20.286236 -42.370720 2206.809326
3.000000 3.000000 4.800000 -10.945736 -49.856213 2605.450928
3.000000 3.000000 4.840000 0.968010 -138.090393 19069.894531
3.000000 3.000000 4.880000 108.618393 -201.555054 52422.398438
3.000000 3.000000 4.920000 258.657349 -154.921295 90904.234375
3.000000 3.000000 4.960000 339.458679 5.758179 115265.351562
3.000000 3.000000 5.000000 278.681396 185.219055 111969.421875
3.000000 3.000000 5.040000 112.380554 265.512329 83126.187500
3.000000 3.000000 5.080000 -43.687557 206.955017 44738.980469
3.000000 3.000000 5.120000 -94.326729 77.403664 14888.859375
3.000000 3.000000 5.160000 -40.835327 -15.459038 1906.505737
3.000000 3.000000 5.200000 36.131538 -19.645357 1691.428101
3.000000 3.040000 4.800000 25.330883 -47.000969 2850.744629
3.000000 3.040000 4.840000 78.156044 -104.811920 17093.906250
3.000000 3.040000 4.880000 189.025818 -97.772705 45290.265625
3.000000 3.040000 4.920000 278.014526 11.072567 77414.679688
3.000000 3.040000 4.960000 260.956543 171.730774 97589.781250
3.000000 3.040000 5.000000 128.884491 279.650635 94815.687500
3.000000 3.040000 5.040000 -36.677170 263.649292 70856.156250
3.000000 3.040000 5.080000 -130.910416 146.979279 38740.445312
3.000000 3.040000 5.120000 -112.902763 23.563385 13302.267578
3.000000 3.040000 5.160000 -31.415363 -26.029766 1664.473755
3.000000 3.040000 5.200000 30.050737 2.308592 908.376404
3.000000 3.080000 4.800000 49.078281 -16.546429 2682.461914
3.000000 3.080000 4.840000 105.116318 -27.457664 11803.363281
3.000000 3.080000 4.880000 169.133881 24.771343 29219.888672
3.000000 3.080000 4.920000 178.076385 130.172760 48656.148438
3.000000 3.080000 4.960000 100.489960 224.907074 60681.421875
3.000000 3.080000 5.000000 -28.409195 241.109985 58941.105469
3.000000 3.080000 5.040000 -130.744537 165.661240 44537.781250
3.000000 3.080000 5.080000 -149.438629 52.293510 25066.515625
3.000000 3.080000 5.120000 -92.765427 -24.702396 9215.632812
3.000000 3.080000 5.160000 -20.176193 -31.187525 1379.740479
3.000000 3.080000 5.200000 13.481504 7.139101 232.717728
3.000000 3.120000 4.800000 43.284363 21.222212 2323.918213
3.000000 3.120000 4.840000 69.230835 37.996250 6236.623535
3.000000 3.120000 4.880000 77.463638 83.928513 13044.610352
3.000000 3.120000 4.920000 44.493752 135.274078 20278.769531
3.000000 3.120000 4.960000 -24.357185 154.958313 24605.351562
3.000000 3.120000 5.000000 -94.091286 122.657852 23898.117188
3.000000 3.120000 5.040000 -125.427185 53.305077 18573.410156
3.000000 3.120000 5.080000 -105.061356 -13.362167 11216.436523
3.000000 3.120000 5.120000 -54.361275 -43.430874 4841.389160
3.000000 3.120000 5.160000 -9.890455 -32.662319 1164.648193
3.000000 3.120000 5.200000 5.562862 -4.143627 48.115082
3.000000 3.160000 4.800000 14.595379 41.185112 1909.238525
3.000000 3.160000 4.840000 7.354073 51.275585 2683.267822
3.000000 3.160000 4.880000 -7.344330 57.890259 3405.221191
3.000000 3.160000 4.920000 -26.149017 56.761383 3905.625488
3.000000 3.160000 4.960000 -44.464691 46.341957 4124.685547
3.000000 3.160000 5.000000 -57.446556 27.092712 4034.121826
3.000000 3.160000 5.040000 -59.995037 2.001930 3603.412354
3.000000 3.160000 5.080000 -48.645416 -22.075916 2853.722656
3.000000 3.160000 5.120000 -25.528316 -35.699135 1926.123169
3.000000 3.160000 5.160000 -0.189291 -32.525341 1057.933716
3.000000 3.160000 5.200000 14.884916 -15.376853 458.008331
3.000000 3.200000 4.800000 -13.806324 35.007183 1416.117432
3.000000 3.200000 4.840000 -30.872383 19.815660 1345.764404
3.000000 3.200000 4.880000 -29.363117 -4.858658 885.799194
3.000000 3.200000 4.920000 -9.085632 -17.803452 399.511597
3.000000 3.200000 4.960000 10.493656 -8.196770 177.303864
3.000000 3.200000 5.000000 9.958158 11.621910 234.233719
3.000000 3.200000 5.040000 -8.971687 18.145981 409.767792
3.000000 3.200000 5.080000 -24.247482 1.618496 590.559875
3.000000 3.200000 5.120000 -16.396553 -22.778547 787.709229
3.000000 3.200000 5.160000 10.507904 -30.102057 1016.549805
3.000000 3.200000 5.200000 32.274048 -11.586769 1175.867310
3.040000 2.800000 4.800000 -3.545566 -3.532637 25.050556
3.040000 2.800000 4.840000 -2.390951 -0.331669 5.826652
3.040000 2.800000 4.880000 -3.917236 0.871246 16.103811
3.040000 2.800000 4.920000 -3.852757 -0.889992 15.635818
3.040000 2.800000 4.960000 0.470490 -1.631870 2.884361
3.040000 2.800000 5.000000 6.197121 3.436156 50.211475
3.040000 2.800000 5.040000 6.832825 14.218773 248.860992
3.040000 2.800000 5.080000 -1.599754 24.543896 604.962036
3.040000 2.800000 5.120000 -16.193398 26.994755 990.942932
3.040000 2.800000 5.160000 -29.015764 19.336807 1215.826660
3.040000 2.800000 5.200000 -33.532822 6.439248 1165.913940
3.040000 2.840000 4.800000 -12.061356 -0.574314 145.806137
3.040000 2.840000 4.840000 -31.883219 1.604473 1019.113953
3.040000 2.840000 4.880000 -49.964027 -20.555153 2918.918457
3.040000 2.840000 4.920000 -42.046715 -56.308586 4938.583008
3.040000 2.840000 4.960000 -4.233574 -76.361145 5848.947754
3.040000 2.840000 5.000000 39.181496 -59.807602 5112.138672
3.040000 2.840000 5.040000 55.694702 -15.422104 3339.741211
3.040000 2.840000 5.080000 33.822655 24.601700 1749.215576
3.040000 2.840000 5.120000 -6.934538 32.987083 1136.235474
3.040000 2.840000 5.160000 -34.801128 10.353550 1318.314575
3.040000 2.840000 5.200000 -34.121033 -18.709314 1514.283325
3.040000 2.880000 4.800000 -23.034489 -10.150464 633.619568
3.040000 2.880000 4.840000 -58.750587 -31.775688 4461.326172
3.040000 2.880000 4.880000 -64.153221 -91.625343 12510.838867
3.040000 2.880000 4.920000 -10.991951 -146.627472 21620.437500
3.040000 2.880000 4.960000 77.296837 -144.403900 26827.287109
3.040000 2.880000 5.000000 139.779846 -74.271446 25054.654297
3.040000 2.880000 5.040000 131.148621 18.152306 17529.466797
3.040000 2.880000 5.080000 62.619629 69.445152 8743.847656
3.040000 2.880000 5.120000 -9.397072 53.411354 2941.077637
3.040000 2.880000 5.160000 -35.127480 -0.252390 1234.003540
3.040000 2.880000 5.200000 -12.515280 -39.279205 1699.488159
3.040000 2.920000 4.800000 -21.949995 -30.826899 1432.099976
3.040000 2.920000 4.840000 -47.668701 -86.704712 9790.011719
3.040000 2.920000 4.880000 -6.312141 -164.916260 27237.216797
3.040000 2.920000 4.920000 102.851776 -191.766357 47352.824219
3.040000 2.920000 4.960000 211.589462 -121.764351 59596.660156
3.040000 2.920000 5.000000 238.106842 12.294998 56846.035156
3.040000 2.920000 5.040000 161.378342 121.674255 40847.593750
3.040000 2.920000 5.080000 41.346794 138.152863 20795.769531
3.040000 2.920000 5.120000 -35.434811 71.198830 6324.899414
3.040000 2.920000 5.160000 -31.132507 -8.087276 1034.637085
3.040000 2.920000 5.200000 19.198208 -36.683815 1714.273438
3.040000 2.960000 4.800000 -1.168550 -47.377823 2246.023682
3.040000 2.960000 4.840000 10.095947 -120.822571 14700.021484
3.040000 2.960000 4.880000 103.464958 -172.939163 40612.953125
3.040000 2.960000 4.920000 232.237183 -129.478714 70698.843750
3.040000 2.960000 4.960000 298.953247 11.750977 89511.132812
3.040000 2.960000 5.000000 242.135773 166.224747 86260.398438
3.040000 2.960000 5.040000 96.090416 231.717529 62926.378906
3.040000 2.960000 5.080000 -36.888000 176.925980 32663.527344
3.040000 2.960000 5.120000 -76.083008 64.399117 9935.870117
3.040000 2.960000 5.160000 -27.133295 -12.071259 881.930969
3.040000 2.960000 5.200000 37.138863 -11.350534 1508.129761
3.040000 3.000000 4.800000 29.925949 -42.932957 2738.801270
3.040000 3.000000 4.840000 81.479607 -99.819977 16602.953125
3.040000 3.000000 4.880000 192.029694 -92.037155 45346.242188
3.040000 3.000000 4.920000 280.050201 18.339462 78764.453125
3.040000 3.000000 4.960000 260.247986 179.515442 99954.812500
3.040000 3.000000 5.000000 125.622734 284.934906 96968.968750
3.040000 3.000000 5.040000 -38.952393 264.761047 71615.703125
3.040000 3.000000 5.080000 -128.358582 146.636826 37978.285156
3.040000 3.000000 5.120000 -106.026291 27.226952 11982.880859
3.040000 3.000000 5.160000 -25.877449 -15.708183 916.389404
3.040000 3.000000 5.200000 28.404072 15.393465 1043.750122
3.040000 3.040000 4.800000 50.389153 -15.087123 2766.687988
3.040000 3.040000 4.840000 116.502029 -31.269253 14550.489258
3.040000 3.040000 4.880000 194.705414 29.437607 38776.773438
3.040000 3.040000 4.920000 206.433075 155.649414 66841.351562
3.040000 3.040000 4.960000 113.179054 268.272888 84779.843750
3.040000 3.040000 5.000000 -40.049854 284.822083 82727.609375
3.040000 3.040000 5.040000 -157.603577 192.732086 61984.542969
3.040000 3.040000 5.080000 -173.750931 60.728737 33877.367188
3.040000 3.040000 5.120000 -104.709023 -22.641838 11476.632812
3.040000 3.040000 5.160000 -24.954264 -23.264591 1163.956543
3.040000 3.040000 5.200000 4.479149 20.897316 456.760590
3.040000 3.080000 4.800000 45.150185 19.987156 2438.025635
3.040000 3.080000 4.840000 91.619568 38.914146 9908.456055
3.040000 3.080000 4.880000 113.171509 109.943848 24895.439453
3.040000 3.080000 4.920000 66.659485 193.889893 42036.777344
3.040000 3.080000 4.960000 -39.703262 226.848587 53036.628906
3.040000 3.080000 5.000000 -145.790894 175.673431 52116.140625
3.040000 3.080000 5.040000 -187.533569 69.212440 39959.203125
3.040000 3.080000 5.080000 -149.556580 -25.310875 23007.810547
3.040000 3.080000 5.120000 -73.774841 -58.420170 8855.643555
3.040000 3.080000 5.160000 -18.472866 -34.408195 1525.170776
3.040000 3.080000 5.200000 -9.246136 3.142127 95.363991
3.040000 3.120000 4.800000 18.222490 40.445553 1967.901855
3.040000 3.120000 4.840000 29.925663 65.657654 5206.473145
3.040000 3.120000 4.880000 12.889767 104.853333 11160.368164
3.040000 3.120000 4.920000 -38.655159 127.254333 17687.886719
3.040000 3.120000 4.960000 -101.483238 107.513336 21857.964844
3.040000 3.120000 5.000000 -139.294037 48.294800 21735.214844
3.040000 3.120000 5.040000 -130.850189 -20.095825 17525.613281
3.040000 3.120000 5.080000 -85.619507 -62.908356 11288.161133
3.040000 3.120000 5.120000 -34.061470 -66.178497 5539.777344
3.040000 3.120000 5.160000 -2.955334 -42.823452 1842.582031
3.040000 3.120000 5.200000 1.952040 -17.290565 302.774109
3.040000 3.160000 4.800000 -11.178446 36.964767 1491.351685
3.040000 3.160000 4.840000 -21.267227 42.206764 2233.705811
3.040000 3.160000 4.880000 -36.915562 40.542389 3006.443848
3.040000 3.160000 4.920000 -52.001442 29.643906 3582.911133
3.040000 3.160000 4.960000 -61.449673 11.501389 3908.344238
3.040000 3.160000 5.000000 -62.514263 -10.555344 4019.448486
3.040000 3.160000 5.040000 -53.352360 -32.754021 3919.300293
3.040000 3.160000 5.080000 -33.319180 -49.382977 3548.846191
3.040000 3.160000 5.120000 -6.218689 -53.254581 2874.722656
3.040000 3.160000 5.160000 18.034901 -40.751839 1985.969971
3.040000 3.160000 5.200000 28.117207 -17.405731 1093.536865
3.040000 3.200000 4.800000 -25.830128 19.028631 1029.284302
3.040000 3.200000 4.840000 -32.702019 0.639978 1069.831543
3.040000 3.200000 4.880000 -21.351519 -17.887596 775.853455
3.040000 3.200000 4.920000 -0.347494 -19.426872 377.524109
3.040000 3.200000 4.960000 9.941832 -3.907242 114.106552
3.040000 3.200000 5.000000 -0.245209 9.558849 91.431725
3.040000 3.200000 5.040000 -17.603096 2.724533 317.292053
3.040000 3.200000 5.080000 -18.564987 -20.686796 772.602295
3.040000 3.200000 5.120000 5.035730 -36.747883 1375.765381
3.040000 3.200000 5.160000 35.209290 -25.752211 1902.870361
3.040000 3.200000 5.200000 44.801277 6.162516 2045.130981
3.080000 2.800000 4.800000 -14.626520 -0.788826 214.557343
3.080000 2.800000 4.840000 -13.173750 -4.177505 190.999237
3.080000 2.800000 4.880000 -9.546616 -6.713619 136.210556
3.080000 2.800000 4.920000 -4.181927 -6.432926 58.871048
3.080000 2.800000 4.960000 0.507431 -2.008474 4.291456
3.080000 2.800000 5.000000 1.371986 5.528500 32.446655
3.080000 2.800000 5.040000 -3.252966 12.870598 176.234070
3.080000 2.800000 5.080000 -12.217531 16.264332 413.796570
3.080000 2.800000 5.120000 -22.070065 13.688736 674.469238
3.080000 2.800000 5.160000 -28.930574 5.896414 871.745850
3.080000 2.800000 5.200000 -30.424595 -4.120360 942.633301
3.080000 2.840000 4.800000 -20.969627 -14.430667 647.969421
3.080000 2.840000 4.840000 -28.267059 -24.876318 1417.857910
3.080000 2.840000 4.880000 -24.168007 -45.295170 2635.744873
3.080000 2.840000 4.920000 -0.962448 -60.580067 3670.870850
3.080000 2.840000 4.960000 31.252655 -53.801655 3871.346680
3.080000 2.840000 5.000000 50.501495 -23.575180 3106.190186
3.080000 2.840000 5.040000 41.843819 11.850288 1891.334473
3.080000 2.840000 5.080000 11.289398 29.003998 968.682373
3.080000 2.840000 5.120000 -19.018770 18.900208 718.931458
3.080000 2.840000 5.160000 -29.812794 -6.527357 931.409058
3.080000 2.840000 5.200000 -19.816895 -26.633591 1102.057495
3.080000 2.880000 4.800000 -13.894848 -33.899261 1342.226685
3.080000 2.880000 4.840000 -20.004930 -61.111313 4134.789551
3.080000 2.880000 4.880000 6.018860 -96.289169 9307.831055
3.080000 2.880000 4.920000 63.085857 -103.645630 14722.242188
3.080000 2.880000 4.960000 116.187813 -62.235710 17372.890625
3.080000 2.880000 5.000000 124.691940 9.258728 15633.803711
3.080000 2.880000 5.040000 79.858604 64.602577 10550.889648
3.080000 2.880000 5.080000 14.440853 69.357956 5019.063965
3.080000 2.880000 5.120000 -25.900763 29.952139 1567.980103
3.080000 2.880000 5.160000 -21.709209 -15.191347 702.066772
3.080000 2.880000 5.200000 7.881719 -32.276642 1103.903076
3.080000 2.920000 4.800000 9.489674 -45.021969 2117.031494
3.080000 2.920000 4.840000 21.320471 -85.307938 7732.006836
3.080000 2.920000 4.880000 80.707230 -111.106133 18858.228516
3.080000 2.920000 4.920000 158.651001 -78.100220 31269.785156
3.080000 2.920000 4.960000 195.345764 13.409821 38339.792969
3.080000 2.920000 5.000000 154.246017 109.669739 35819.285156
3.080000 2.920000 5.040000 59.042957 147.139236 25136.025391
3.080000 2.920000 5.080000 -24.724972 108.095306 12295.919922
3.080000 2.920000 5.120000 -46.746914 34.175537 3353.241211
3.080000 2.920000 5.160000 -12.511005 -14.395651 363.760010
3.080000 2.920000 5.200000 30.071993 -12.416273 1058.488647
3.080000 2.960000 4.800000 37.888451 -35.320053 2683.040771
3.080000 2.960000 4.840000 75.634392 -70.272873 10658.837891
3.080000 2.960000 4.880000 153.537689 -59.358437 27097.246094
3.080000 2.960000 4.920000 213.102905 24.181000 45997.570312
3.080000 2.960000 4.960000 193.313568 141.791443 57474.949219
3.080000 2.960000 5.000000 91.012398 215.561157 54749.871094
3.080000 2.960000 5.040000 -29.848295 196.027023 39317.515625
3.080000 2.960000 5.080000 -92.230003 106.319839 19810.281250
3.080000 2.960000 5.120000 -71.789444 19.322216 5527.072266
3.080000 2.960000 5.160000 -11.345243 -8.784317 205.878784
3.080000 2.960000 5.200000 26.524403 16.888123 988.752625
3.080000 3.000000 4.800000 52.717537 -6.361427 2819.606445
3.080000 3.000000 4.840000 105.552322 -16.625435 11417.698242
3.080000 3.000000 4.880000 168.153290 36.387367 29599.570312
3.080000 3.000000 4.920000 174.179199 143.226151 50852.125000
3.080000 3.000000 4.960000 91.720589 236.285980 64243.726562
3.080000 3.000000 5.000000 -39.144779 245.957214 62027.265625
3.080000 3.000000 5.040000 -135.992523 164.128922 45432.269531
3.080000 3.000000 5.080000 -144.746124 52.304466 23687.199219
3.080000 3.000000 5.120000 -83.401649 -13.946594 7150.342285
3.080000 3.000000 5.160000 -18.163849 -9.389872 418.095093
3.080000 3.000000 5.200000 0.865828 28.781075 829.099915
3.080000 3.040000 4.800000 43.271416 25.302044 2512.608887
3.080000 3.040000 4.840000 88.220810 43.335495 9660.875977
3.080000 3.040000 4.880000 109.280037 114.202347 24984.302734
3.080000 3.040000 4.920000 61.331909 198.161774 43029.691406
3.080000 3.040000 4.960000 -46.783142 229.152008 54699.308594
3.080000 3.040000 5.000000 -151.944412 174.282730 53461.574219
3.080000 3.040000 5.040000 -188.941696 66.166092 40076.917969
3.080000 3.040000 5.080000 -145.962173 -24.608921 21910.556641
3.080000 3.040000 5.120000 -70.457458 -50.353428 7499.721191
3.080000 3.040000 5.160000 -22.104504 -21.856304 966.307129
3.080000 3.040000 5.200000 -21.093138 12.270348 595.481934
3.080000 3.080000 4.800000 16.188107 40.951874 1939.110718
3.080000 3.080000 4.840000 36.193222 71.553345 6429.830566
3.080000 3.080000 4.880000 18.445004 124.984238 15961.277344
3.080000 3.080000 4.920000 -48.045338 157.552094 27131.015625
3.080000 3.080000 4.960000 -130.563065 132.124268 34503.535156
3.080000 3.080000 5.000000 -176.986450 53.708981 34208.859375
3.080000 3.080000 5.040000 -159.773361 -32.296474 26570.589844
3.080000 3.080000 5.080000 -98.013939 -78.061050 15700.259766
3.080000 3.080000 5.120000 -37.774097 -71.319199 6513.310547
3.080000 3.080000 5.160000 -11.587027 -38.749191 1635.759033
3.080000 3.080000 5.200000 -16.127918 -15.642608 504.800903
3.080000 3.120000 4.800000 -10.343843 34.859871 1322.205688
3.080000 3.120000 4.840000 -13.597839 56.040016 3325.384521
3.080000 3.120000 4.880000 -42.331017 73.633995 7213.880371
3.080000 3.120000 4.920000 -85.968750 64.702179 11576.998047
3.080000 3.120000 4.960000 -118.005814 23.749481 14489.410156
3.080000 3.120000 5.000000 -117.076065 -31.200523 14680.277344
3.080000 3.120000 5.040000 -83.566544 -72.526810 12243.505859
3.080000 3.120000 5.080000 -37.579788 -83.741699 8424.913086
3.080000 3.120000 5.120000 -1.966382 -68.882599 4748.679199
3.080000 3.120000 5.160000 13.288690 -44.714317 2175.959473
3.080000 3.120000 5.200000 13.049261 -25.784237 835.110046
3.080000 3.160000 4.800000 -22.375013 17.495705 806.740906
3.080000 3.160000 4.840000 -32.233871 18.217253 1370.890747
3.080000 3.160000 4.880000 -43.713127 9.929848 2009.439453
3.080000 3.160000 4.920000 -49.591141 -5.624458 2490.915771
3.080000 3.160000 4.960000 -47.300457 -23.040146 2768.181641
3.080000 3.160000 5.000000 -38.079418 -38.558773 2936.821045
3.080000 3.160000 5.040000 -22.860825 -50.528400 3075.736328
3.080000 3.160000 5.080000 -1.771393 -55.930222 3131.327637
3.080000 3.160000 5.120000 21.744442 -49.763863 2949.262939
3.080000 3.160000 5.160000 38.682556 -30.406929 2420.921631
3.080000 3.160000 5.200000 39.841133 -5.218767 1614.551392
3.080000 3.200000 4.800000 -20.878361 4.065590 452.434967
3.080000 3.200000 4.840000 -21.071835 -10.042437 544.872742
3.080000 3.200000 4.880000 -8.096354 -19.631763 450.957092
3.080000 3.200000 4.920000 6.665001 -14.463959 253.628342
3.080000 3.200000 4.960000 8.321999 -1.189014 70.669418
3.080000 3.200000 5.000000 -3.155701 2.738062 17.455429
3.080000 3.200000 5.040000 -10.627743 -10.590405 225.105591
3.080000 3.200000 5.080000 1.832109 -28.007647 787.784912
3.080000 3.200000 5.120000 29.321402 -27.372051 1608.973755
3.080000 3.200000 5.160000 48.136162 -1.831682 2320.445068
3.080000 3.200000 5.200000 39.341003 30.261791 2463.490723
3.120000 2.800000 4.800000 -24.183823 -9.860678 682.090271
3.120000 2.800000 4.840000 -16.435696 -16.394983 538.927551
3.120000 2.800000 4.880000 -6.671539 -16.178782 306.262390
3.120000 2.800000 4.920000 -0.276691 -9.988435 99.845390
3.120000 2.800000 4.960000 0.073368 -2.281483 5.210546
3.120000 2.800000 5.000000 -3.984470 2.663071 22.967949
3.120000 2.800000 5.040000 -8.956079 3.864990 95.149490
3.120000 2.800000 5.080000 -13.013542 2.947920 178.042511
3.120000 2.800000 5.120000 -16.671188 0.988647 278.905945
3.120000 2.800000 5.160000 -20.250679 -2.947481 418.777649
3.120000 2.800000 5.200000 -21.801672 -9.798640 571.326233
3.120000 2.840000 4.800000 -15.061665 -32.436760 1278.997192
3.120000 2.840000 4.840000 -5.770849 -39.803719 1617.638794
3.120000 2.840000 4.880000 9.057865 -42.784134 1912.526978
3.120000 2.840000 4.920000 25.969856 -36.025436 1972.265381
3.120000 2.840000 4.960000 36.626537 -18.561321 1686.025879
3.120000 2.840000 5.000000 33.663742 2.812569 1141.158081
3.120000 2.840000 5.040000 17.375517 16.922794 588.289551
3.120000 2.840000 5.080000 -3.161476 16.245798 273.920898
3.120000 2.840000 5.120000 -16.270943 2.709549 272.085205
3.120000 2.840000 5.160000 -16.059225 -13.961517 452.822693
3.120000 2.840000 5.200000 -5.924228 -23.870514 604.897949
3.120000 2.880000 4.800000 12.103825 -43.460342 2035.303955
3.120000 2.880000 4.840000 25.752563 -51.738743 3340.092041
3.120000 2.880000 4.880000 51.282330 -51.401447 5271.986328
3.120000 2.880000 4.920000 77.899429 -30.175789 6978.899414
3.120000 2.880000 4.960000 85.706894 9.190880 7430.144043
3.120000 2.880000 5.000000 63.823318 46.264351 6213.806152
3.120000 2.880000 5.040000 22.894146 58.200470 3911.436523
3.120000 2.880000 5.080000 -11.615498 39.427536 1689.450439
3.120000 2.880000 5.120000 -20.183691 6.683614 452.052063
3.120000 2.880000 5.160000 -4.616646 -15.818167 271.527832
3.120000 2.880000 5.200000 16.171017 -16.807106 543.980591
3.120000 2.920000 4.800000 42.540352 -30.212391 2722.470215
3.120000 2.920000 4.840000 62.855797 -35.381760 5202.719727
3.120000 2.920000 4.880000 95.741623 -20.548065 9588.680664
3.120000 2.920000 4.920000 116.503105 24.064997 14152.097656
3.120000 2.920000 4.960000 99.616547 80.039795 16329.824219
3.120000 2.920000 5.000000 45.713692 111.935791 14619.363281
3.120000 2.920000 5.040000 -14.081753 98.081665 9818.308594
3.120000 2.920000 5.080000 -43.217724 51.048687 4473.740234
3.120000 2.920000 5.120000 -30.788307 6.873035 995.158447
3.120000 2.920000 5.160000 1.423986 -6.843765 48.864861
3.120000 2.920000 5.200000 21.887506 7.151009 530.199829
3.120000 2.960000 4.800000 55.263298 2.862441 3062.225830
3.120000 2.960000 4.840000 79.704254 6.668561 6397.237793
3.120000 2.960000 4.880000 106.318649 40.910065 12977.289062
3.120000 2.960000 4.920000 101.499878 100.243889 20351.062500
3.120000 2.960000 4.960000 49.620678 148.432526 24494.425781
3.120000 2.960000 5.000000 -25.976971 148.494812 22725.511719
3.120000 2.960000 5.040000 -79.185959 97.876129 15850.152344
3.120000 2.960000 5.080000 -80.819321 32.809814 7608.246582
3.120000 2.960000 5.120000 -43.167751 -3.611404 1876.496948
3.120000 2.960000 5.160000 -5.562613 1.556028 33.363892
3.120000 2.960000 5.200000 3.494432 24.834660 628.971375
3.120000 3.000000 4.800000 40.590843 35.317539 2894.945312
3.120000 3.000000 4.840000 61.620995 50.300625 6327.299805
3.120000 3.000000 4.880000 67.783356 95.213928 13660.275391
3.120000 3.000000 4.920000 31.346462 145.806366 22242.097656
3.120000 3.000000 4.960000 -41.290390 160.564148 27485.742188
3.120000 3.000000 5.000000 -108.721466 119.676796 26142.892578
3.120000 3.000000 5.040000 -129.116852 46.444176 18828.222656
3.120000 3.000000 5.080000 -97.171341 -11.763769 9580.656250
3.120000 3.000000 5.120000 -46.884464 -24.966480 2821.478271
3.120000 3.000000 5.160000 -18.202686 -3.745912 345.369659
3.120000 3.000000 5.200000 -21.674915 17.118353 762.839966
3.120000 3.040000 4.800000 9.173769 46.896694 2283.457764
3.120000 3.040000 4.840000 19.328396 68.302582 5038.829590
3.120000 3.040000 4.880000 2.558523 106.121536 11268.326172
3.120000 3.040000 4.920000 -50.205345 127.378098 18745.755859
3.120000 3.040000 4.960000 -113.381104 103.535461 23574.867188
3.120000 3.040000 5.000000 -146.058105 39.858128 22921.640625
3.120000 3.040000 5.040000 -128.201050 -26.276539 17125.966797
3.120000 3.040000 5.080000 -78.100815 -57.540482 9410.644531
3.120000 3.040000 5.120000 -34.104252 -47.806038 3448.517090
3.120000 3.040000 5.160000 -19.783751 -22.465475 896.094360
3.120000 3.040000 5.200000 -27.108328 -10.120418 837.284302
3.120000 3.080000 4.800000 -17.001400 34.384033 1471.309326
3.120000 3.080000 4.840000 -19.308807 53.044952 3186.597168
3.120000 3.080000 4.880000 -46.810768 70.247238 7125.922363
3.120000 3.080000 4.920000 -90.265045 61.009823 11869.976562
3.120000 3.080000 4.960000 -121.293991 18.658737 15060.380859
3.120000 3.080000 5.000000 -116.900352 -36.507595 14998.497070
3.120000 3.080000 5.040000 -79.819046 -73.811768 11819.257812
3.120000 3.080000 5.080000 -35.083641 -77.873795 7295.189453
3.120000 3.080000 5.120000 -7.247751 -58.727882 3501.493896
3.120000 3.080000 5.160000 -1.258808 -38.433704 1478.734253
3.120000 3.080000 5.200000 -4.199075 -29.809069 906.212769
3.120000 3.120000 4.800000 -23.818047 12.998124 736.250549
3.120000 3.120000 4.840000 -33.041664 21.541103 1555.770752
3.120000 3.120000 4.880000 -53.814640 18.714691 3246.255127
3.120000 3.120000 4.920000 -71.837822 -2.776344 5168.380859
3.120000 3.120000 4.960000 -72.352798 -35.275093 6479.259277
3.120000 3.120000 5.000000 -52.446762 -62.540607 6661.990234
3.120000 3.120000 5.040000 -22.188095 -72.804497 5792.806152
3.120000 3.120000 5.080000 4.825045 -66.054733 4386.509277
3.120000 3.120000 5.120000 21.229763 -50.459255 2996.839355
3.120000 3.120000 5.160000 27.607067 -33.959202 1915.377563
3.120000 3.120000 5.200000 27.466002 -19.952530 1152.484619
3.120000 3.160000 4.800000 -16.144400 0.878593 261.413544
3.120000 3.160000 4.840000 -23.699776 -1.829659 565.027039
3.120000 3.160000 4.880000 -27.959595 -12.195034 930.457825
3.120000 3.160000 4.920000 -24.494095 -24.393799 1195.018066
3.120000 3.160000 4.960000 -15.551697 -32.962490 1328.380981
3.120000 3.160000 5.000000 -5.048550 -37.565987 1436.691162
3.120000 3.160000 5.040000 6.807762 -39.959515 1643.108398
3.120000 3.160000 5.080000 21.849615 -38.335968 1947.052124
3.120000 3.160000 5.120000 37.562439 -27.735613 2180.200928
3.120000 3.160000 5.160000 45.398476 -7.419423 2116.069336
3.120000 3.160000 5.200000 38.237103 13.981165 1657.549072
3.120000 3.200000 4.800000 -10.258286 2.015313 109.293907
3.120000 3.200000 4.840000 -9.913497 -7.381248 152.760254
3.120000 3.200000 4.880000 -0.524111 -12.018721 144.724335
3.120000 3.200000 4.920000 7.698761 -6.538952 102.028809
3.120000 3.200000 4.960000 5.989281 1.103753 37.089752
3.120000 3.200000 5.000000 -0.877655 -0.730921 1.304523
3.120000 3.200000 5.040000 1.027786 -11.708717 138.150406
3.120000 3.200000 5.080000 17.595757 -17.112780 602.457886
3.120000 3.200000 5.120000 36.623810 -3.575039 1354.084351
3.120000 3.200000 5.160000 38.403152 23.866686 2044.420898
3.120000 3.200000 5.200000 17.108215 43.718868 2204.030518
3.160000 2.800000 4.800000 -23.100906 -24.421370 1130.055176
3.160000 2.800000 4.840000 -9.015772 -27.146254 818.203186
3.160000 2.800000 4.880000 1.733072 -20.216663 411.717010
3.160000 2.800000 4.920000 3.811038 -10.121799 116.974831
3.160000 2.800000 4.960000 -0.570823 -4.288479 18.716888
3.160000 2.800000 5.000000 -4.832560 -4.419825 42.888481
3.160000 2.800000 5.040000 -5.166719 -6.181536 64.906372
3.160000 2.800000 5.080000 -3.888977 -5.195426 42.116592
3.160000 2.800000 5.120000 -5.553703 -2.439197 36.793304
3.160000 2.800000 5.160000 -10.538721 -2.885204 119.389046
3.160000 2.800000 5.200000 -13.704180 -9.037415 269.479401
3.160000 2.840000 4.800000 3.176839 -40.557697 1655.019043
3.160000 2.840000 4.840000 18.413967 -33.519070 1462.602295
3.160000 2.840000 4.880000 25.780857 -20.154823 1070.869507
3.160000 2.840000 4.920000 24.394573 -7.295080 648.313416
3.160000 2.840000 4.960000 17.965343 0.720106 323.272125
3.160000 2.840000 5.000000 10.716154 3.767998 129.033768
3.160000 2.840000 5.040000 4.426550 3.700741 33.289825
3.160000 2.840000 5.080000 -0.912478 1.356138 2.671727
3.160000 2.840000 5.120000 -4.544499 -3.620006 33.756912
3.160000 2.840000 5.160000 -4.318520 -10.431352 127.462708
3.160000 2.840000 5.200000 0.959456 -15.801624 250.611893
3.160000 2.880000 4.800000 36.876556 -30.496870 2289.939453
3.160000 2.880000 4.840000 45.936897 -15.109148 2338.484863
3.160000 2.880000 4.880000 46.420757 1.740936 2157.917480
3.160000 2.880000 4.920000 39.561085 16.021467 1821.766846
3.160000 2.880000 4.960000 27.550369 25.092546 1388.658691
3.160000 2.880000 5.000000 13.268435 27.082279 909.501221
3.160000 2.880000 5.040000 0.797583 21.415161 459.245270
3.160000 2.880000 5.080000 -5.412590 10.355272 136.527802
3.160000 2.880000 5.120000 -3.256256 -0.810901 11.260764
3.160000 2.880000 5.160000 4.853004 -6.507302 65.896622
3.160000 2.880000 5.200000 13.152077 -4.784743 195.870895
3.160000 2.920000 4.800000 53.373119 3.951961 2864.307861
3.160000 2.920000 4.840000 52.214539 21.221319 3176.702637
3.160000 2.920000 4.880000 44.811050 36.922180 3371.277832
3.160000 2.920000 4.920000 31.055815 49.231869 3388.240479
3.160000 2.920000 4.960000 11.808512 54.181511 3075.077148
3.160000 2.920000 5.000000 -7.820284 47.913330 2356.843994
3.160000 2.920000 5.040000 -19.630505 31.743435 1393.002319
3.160000 2.920000 5.080000 -18.481606 13.764253 531.024414
3.160000 2.920000 5.120000 -7.497878 3.664538 69.647018
3.160000 2.920000 5.160000 3.806257 4.892379 38.422970
3.160000 2.920000 5.200000 7.600433 12.031875 202.532593
3.160000 2.960000 4.800000 38.591972 40.444714 3125.115234
3.160000 2.960000 4.840000 29.227774 52.444012 3604.636963
3.160000 2.960000 4.880000 16.067463 62.692181 4188.473145
3.160000 2.960000 4.920000 -3.107541 68.399872 4688.199219
3.160000 2.960000 4.960000 -25.748478 63.385139 4680.660156
3.160000 2.960000 5.000000 -42.702114 45.412994 3885.810547
3.160000 2.960000 5.040000 -45.038498 21.651062 2497.234863
3.160000 2.960000 5.080000 -33.067642 4.707507 1115.629639
3.160000 2.960000 5.120000 -17.364300 1.956725 305.347687
3.160000 2.960000 5.160000 -9.557735 9.011660 172.560303
3.160000 2.960000 5.200000 -11.831617 14.605417 353.305359
3.160000 3.000000 4.800000 2.603280 53.632866 2883.261475
3.160000 3.000000 4.840000 -8.789829 57.437660 3376.345703
3.160000 3.000000 4.880000 -23.466068 60.303528 4187.171875
3.160000 3.000000 4.920000 -43.014053 56.547150 5047.789062
3.160000 3.000000 4.960000 -60.929111 40.571465 5358.400391
3.160000 3.000000 5.000000 -66.713318 15.522993 4691.630371
3.160000 3.000000 5.040000 -56.398544 -6.645015 3224.952148
3.160000 3.000000 5.080000 -37.857395 -15.202688 1664.304077
3.160000 3.000000 5.120000 -24.221535 -10.593891 698.913269
3.160000 3.000000 5.160000 -21.655323 -3.441534 480.797150
3.160000 3.000000 5.200000 -24.382921 -3.270220 605.221191
3.160000 3.040000 4.800000 -28.118580 37.035038 2162.248535
3.160000 3.040000 4.840000 -36.284119 35.176636 2553.933105
3.160000 3.040000 4.880000 -48.363338 31.730116 3345.812744
3.160000 3.040000 4.920000 -62.102451 20.077560 4259.822754
3.160000 3.040000 4.960000 -68.685364 -0.912699 4718.512207
3.160000 3.040000 5.000000 -61.490505 -23.103424 4314.850586
3.160000 3.040000 5.040000 -43.801922 -35.599377 3185.924072
3.160000 3.040000 5.080000 -26.510624 -34.951897 1924.448242
3.160000 3.040000 5.120000 -17.880127 -27.971146 1102.083984
3.160000 3.040000 5.160000 -16.293339 -24.023197 842.586914
3.160000 3.040000 5.200000 -13.726395 -25.232510 825.093506
3.160000 3.080000 4.800000 -33.937233 8.300592 1220.635620
3.160000 3.080000 4.840000 -38.195690 5.247808 1486.450195
3.160000 3.080000 4.880000 -45.482773 -1.687759 2071.531250
3.160000 3.080000 4.920000 -49.979401 -15.676145 2743.681885
3.160000 3.080000 4.960000 -45.358986 -32.606262 3120.605957
3.160000 3.080000 5.000000 -31.709324 -44.382034 2975.246094
3.160000 3.080000 5.040000 -15.715513 -46.574688 2416.178955
3.160000 3.080000 5.080000 -4.094356 -41.987442 1779.709106
3.160000 3.080000 5.120000 2.291587 -36.556049 1341.596069
3.160000 3.080000 5.160000 7.315120 -32.681694 1121.604126
3.160000 3.080000 5.200000 13.422134 -27.627962 943.457947
3.160000 3.120000 4.800000 -18.893272 -7.949339 420.147736
3.160000 3.120000 4.840000 -21.965313 -10.540302 593.572937
3.160000 3.120000 4.880000 -24.216000 -18.272024 920.281494
3.160000 3.120000 4.920000 -20.794373 -28.442919 1241.405518
3.160000 3.120000 4.960000 -11.671930 -35.668060 1408.444580
3.160000 3.120000 5.000000 -0.947805 -37.460999 1404.224731
3.160000 3.120000 5.040000 8.150790 -35.654724 1337.694824
3.160000 3.120000 5.080000 16.071831 -32.553207 1318.015015
3.160000 3.120000 5.120000 24.301010 -27.316307 1336.719727
3.160000 3.120000 5.160000 31.131645 -17.529831 1276.474365
3.160000 3.120000 5.200000 31.955238 -4.063597 1037.650146
3.160000 3.160000 4.800000 -4.699358 -3.329762 33.171284
3.160000 3.160000 4.840000 -8.024379 -7.707929 123.802826
3.160000 3.160000 4.880000 -5.684185 -14.395396 239.537384
3.160000 3.160000 4.920000 0.952858 -17.512421 307.592804
3.160000 3.160000 4.960000 6.649008 -16.348249 311.474548
3.160000 3.160000 5.000000 9.685362 -15.167919 323.872009
3.160000 3.160000 5.040000 14.053500 -16.162737 458.734924
3.160000 3.160000 5.080000 23.206398 -14.927870 761.378235
3.160000 3.160000 5.120000 33.168625 -5.208832 1127.289673
3.160000 3.160000 5.160000 34.569382 12.011419 1339.316284
3.160000 3.160000 5.200000 22.835102 26.500786 1223.733521
3.160000 3.200000 4.800000 -7.905256 7.876065 124.525482
3.160000 3.200000 4.840000 -8.587460 -0.621568 74.130806
3.160000 3.200000 4.880000 -2.088809 -4.487259 24.498615
3.160000 3.200000 4.920000 2.921484 -1.183867 9.936608
3.160000 3.200000 4.960000 1.661421 2.297253 8.037689
3.160000 3.200000 5.000000 -0.343423 -0.491282 0.359297
3.160000 3.200000 5.040000 5.408510 -5.579567 60.383549
3.160000 3.200000 5.080000 17.840454 -1.950192 322.085052
3.160000 3.200000 5.120000 24.476421 14.511615 809.682190
3.160000 3.200000 5.160000 14.485057 33.126453 1307.178833
3.160000 3.200000 5.200000 -7.532016 37.511940 1463.876953
3.200000 2.800000 4.800000 -11.851761 -33.844234 1285.896484
3.200000 2.800000 4.840000 2.672116 -29.323690 867.019043
3.200000 2.800000 4.880000 8.661140 -18.296160 409.764801
3.200000 2.800000 4.920000 5.926445 -9.895596 133.045563
3.200000 2.800000 4.960000 1.449875 -8.508267 74.492752
3.200000 2.800000 5.000000 1.531886 -10.394125 110.384506
3.200000 2.800000 5.040000 5.312693 -8.945359 108.244156
3.200000 2.800000 5.080000 6.500796 -2.653879 49.303429
3.200000 2.800000 5.120000 1.226060 2.973353 10.344053
3.200000 2.800000 5.160000 -6.830689 1.686148 49.501404
3.200000 2.800000 5.200000 -9.850601 -6.064724 133.815231
3.200000 2.840000 4.800000 20.571201 -33.429691 1540.718628
3.200000 2.840000 4.840000 27.562767 -15.065465 986.674316
3.200000 2.840000 4.880000 19.836803 -0.161645 393.524902
3.200000 2.840000 4.920000 7.045029 2.277668 54.820202
3.200000 2.840000 4.960000 0.904756 -4.654085 22.479094
3.200000 2.840000 5.000000 4.299931 -10.443361 127.553207
3.200000 2.840000 5.040000 10.104960 -8.445145 173.430695
3.200000 2.840000 5.080000 10.129079 -1.933889 106.338165
3.200000 2.840000 5.120000 4.118423 0.846688 17.678286
3.200000 2.840000 5.160000 -0.653141 -3.489147 12.600742
3.200000 2.840000 5.200000 1.908871 -9.679181 97.330338
3.200000 2.880000 4.800000 43.230087 -5.501780 1899.109985
3.200000 2.880000 4.840000 32.440872 16.686785 1330.858887
3.200000 2.880000 4.880000 10.942698 22.388180 620.973206
3.200000 2.880000 4.920000 -4.128245 11.106268 140.391602
3.200000 2.880000 4.960000 -3.514397 -4.123445 29.353779
3.200000 2.880000 5.000000 7.322395 -9.835118 150.347015
3.200000 2.880000 5.040000 15.632711 -4.011255 260.471832
3.200000 2.880000 5.080000 14.421494 4.466025 227.924896
3.200000 2.880000 5.120000 7.805692 6.626443 104.838577
3.200000 2.880000 5.160000 4.496418 2.400742 25.981339
3.200000 2.880000 5.200000 7.728918 -1.002380 60.740932
3.200000 2.920000 4.800000 36.073181 32.238708 2340.608887
3.200000 2.920000 4.840000 9.122325 42.682423 1905.005981
3.200000 2.920000 4.880000 -14.984454 30.199312 1136.532349
3.200000 2.920000 4.920000 -20.202496 6.605390 451.772003
3.200000 2.920000 4.960000 -6.934750 -9.258330 133.807434
3.200000 2.920000 5.000000 10.365830 -7.851998 169.104309
3.200000 2.920000 5.040000 17.413456 4.824892 326.508026
3.200000 2.920000 5.080000 11.876488 15.477386 380.600433
3.200000 2.920000 5.120000 2.392643 16.495739 277.834137
3.200000 2.920000 5.160000 -1.903236 10.999784 124.617569
3.200000 2.920000 5.200000 0.262983 6.889366 47.532528
3.200000 2.960000 4.800000 1.962200 51.669640 2673.602051
3.200000 2.960000 4.840000 -27.320450 41.518532 2470.195312
3.200000 2.960000 4.880000 -39.286713 14.085878 1741.857788
3.200000 2.960000 4.920000 -27.711697 -10.797218 884.518066
3.200000 2.960000 4.960000 -4.322281 -16.983383 307.117401
3.200000 2.960000 5.000000 12.262294 -4.346949 169.259811
3.200000 2.960000 5.040000 12.003460 13.495817 326.220154
3.200000 2.960000 5.080000 -0.445715 22.307869 497.839691
3.200000 2.960000 5.120000 -12.683065 18.324080 496.632019
3.200000 2.960000 5.160000 -16.147259 8.396393 331.233398
3.200000 2.960000 5.200000 -11.553182 1.569966 135.940811
3.200000 3.000000 4.800000 -33.810169 38.543583 2628.735352
3.200000 3.000000 4.840000 -49.845253 13.191726 2658.571045
3.200000 3.000000 4.880000 -42.923489 -15.556625 2084.434570
3.200000 3.000000 4.920000 -18.824881 -29.157249 1204.521362
3.200000 3.000000 4.960000 4.651019 -20.930862 459.732971
3.200000 3.000000 5.000000 12.079647 -0.366614 146.052277
3.200000 3.000000 5.040000 1.694095 15.761646 251.299438
3.200000 3.000000 5.080000 -15.320317 16.882267 519.723022
3.200000 3.000000 5.120000 -25.337425 5.268397 669.741089
3.200000 3.000000 5.160000 -22.692080 -8.239719 582.823486
3.200000 3.000000 5.200000 -11.925666 -13.968385 337.337280
3.200000 3.040000 4.800000 -45.194206 5.647926 2074.415283
3.200000 3.040000 4.840000 -43.016788 -19.933619 2247.793213
3.200000 3.040000 4.880000 -23.493179 -36.823112 1907.871094
3.200000 3.040000 4.920000 1.027951 -34.743397 1208.160278
3.200000 3.040000 4.960000 14.674298 -16.843426 499.036011
3.200000 3.040000 5.000000 10.067976 2.760533 108.984688
3.200000 3.040000 5.040000 -6.534204 10.009764 142.891190
3.200000 3.040000 5.080000 -20.929188 1.365447 439.895355
3.200000 3.040000 5.120000 -22.323902 -14.625483 712.261353
3.200000 3.040000 5.160000 -10.929095 -25.133991 751.162659
3.200000 3.040000 5.200000 3.709083 -23.103493 547.528687
3.200000 3.080000 4.800000 -28.634995 -18.928768 1178.261230
3.200000 3.080000 4.840000 -16.674967 -33.097183 1373.478027
3.200000 3.080000 4.880000 2.408655 -35.518036 1267.332520
3.200000 3.080000 4.920000 17.357191 -24.041042 879.243835
3.200000 3.080000 4.960000 18.803955 -6.479030 395.566528
3.200000 3.080000 5.000000 7.042331 4.510607 69.939995
3.200000 3.080000 5.040000 -7.551153 1.280294 58.659061
3.200000 3.080000 5.080000 -12.604317 -12.447259 313.803040
3.200000 3.080000 5.120000 -3.839895 -24.626532 621.210876
3.200000 3.080000 5.160000 11.633642 -24.956764 758.181702
3.200000 3.080000 5.200000 21.733107 -13.209202 646.810913
3.200000 3.120000 4.800000 -5.218327 -18.046253 352.898193
3.200000 3.120000 4.840000 4.009613 -21.503098 478.460205
3.200000 3.120000 4.880000 14.447290 -17.505951 515.182495
3.200000 3.120000 4.920000 19.120457 -6.820708 412.113922
3.200000 3.120000 4.960000 14.044479 3.356249 208.511810
3.200000 3.120000 5.000000 3.357559 4.759686 33.927811
3.200000 3.120000 5.040000 -2.957883 -3.859929 23.648125
3.200000 3.120000 5.080000 2.037912 -14.325771 209.380814
3.200000 3.120000 5.120000 15.092177 -15.891983 480.328949
3.200000 3.120000 5.160000 25.089838 -5.394979 658.605774
3.200000 3.120000 5.200000 23.300062 9.474005 632.649658
3.200000 3.160000 4.800000 0.823069 -0.885016 1.460696
3.200000 3.160000 4.840000 2.838556 -3.374115 19.442055
3.200000 3.160000 4.880000 7.027122 -2.202028 54.229362
3.200000 3.160000 4.920000 8.118032 2.720763 73.305000
3.200000 3.160000 4.960000 3.942800 5.894045 50.285439
3.200000 3.160000 5.000000 -0.653904 2.670386 7.558549
3.200000 3.160000 5.040000 1.438581 -4.055824 18.519222
3.200000 3.160000 5.080000 10.797683 -5.573838 147.657623
3.200000 3.160000 5.120000 19.064125 3.231636 373.884338
3.200000 3.160000 5.160000 16.897015 17.059744 576.543945
3.200000 3.160000 5.200000 4.257216 24.480268 617.407471
3.200000 3.200000 4.800000 -13.898249 7.848247 254.756287
3.200000 3.200000 4.840000 -12.590673 -0.691277 159.002914
3.200000 3.200000 4.880000 -6.742995 -3.607127 58.479347
3.200000 3.200000 4.920000 -3.362783 -1.519344 13.616720
3.200000 3.200000 4.960000 -3.867062 -0.406667 15.119543
3.200000 3.200000 5.000000 -3.055143 -2.764123 16.974276
3.200000 3.200000 5.040000 2.851974 -3.563947 20.835476
3.200000 3.200000 5.080000 9.366776 3.311400 98.701851
3.200000 3.200000 5.120000 7.522488 15.707993 303.328857
3.200000 3.200000 5.160000 -5.092438 23.087370 558.959595
3.200000 3.200000 5.200000 -19.333176 17.464468 678.779297
