#kx 	ky 	kz 	real 	imag 	intensity
2.800000 0.800000 -9.200000 -35.960098 -3.455534 1305.069336
2.800000 0.800000 -9.160000 -22.782181 -34.010601 1675.748779
2.800000 0.800000 -9.120000 10.211979 -40.378201 1734.683594
2.800000 0.800000 -9.080000 33.278854 -17.444309 1411.786133
2.800000 0.800000 -9.040000 27.118423 12.258209 885.672546
2.800000 0.800000 -9.000000 1.005989 21.548679 465.357605
2.800000 0.800000 -8.960000 -18.225632 5.066137 357.839386
2.800000 0.800000 -8.920000 -13.802797 -17.787434 506.910004
2.800000 0.800000 -8.880000 5.972118 -24.812792 651.340820
2.800000 0.800000 -8.840000 19.632076 -13.439260 566.032104
2.800000 0.800000 -8.800000 16.642105 -0.239922 277.017212
2.800000 0.840000 -9.200000 -23.833717 -28.661694 1389.538818
2.800000 0.840000 -9.160000 4.326249 -45.148434 2057.097412
2.800000 0.840000 -9.120000 34.929985 -33.385750 2334.712158
2.800000 0.840000 -9.080000 44.122398 -4.044718 1963.145752
2.800000 0.840000 -9.040000 28.293232 17.742657 1115.308838
2.800000 0.840000 -9.000000 5.937471 16.506226 307.709045
2.800000 0.840000 -8.960000 -1.748309 -0.359015 3.185475
2.800000 0.840000 -8.920000 8.991904 -12.668954 241.356735
2.800000 0.840000 -8.880000 23.740707 -8.748446 640.156494
2.800000 0.840000 -8.840000 27.323202 4.588107 767.608093
2.800000 0.840000 -8.800000 19.549044 12.416985 536.346619
2.800000 0.880000 -9.200000 -0.137409 -32.864037 1080.063843
2.800000 0.880000 -9.160000 27.588717 -31.258553 1738.234375
2.800000 0.880000 -9.120000 45.041420 -9.942099 2127.574707
2.800000 0.880000 -9.080000 41.512634 14.915808 1945.780151
2.800000 0.880000 -9.040000 24.118778 26.250683 1270.813721
2.800000 0.880000 -9.000000 9.660464 21.030033 535.586853
2.800000 0.880000 -8.960000 8.351067 10.728697 184.845245
2.800000 0.880000 -8.920000 15.810681 8.179380 316.879913
2.800000 0.880000 -8.880000 20.285646 15.143511 640.833374
2.800000 0.880000 -8.840000 15.966656 22.880104 778.433228
2.800000 0.880000 -8.800000 8.031311 23.509382 617.192993
2.800000 0.920000 -9.200000 13.009581 -18.819763 523.432678
2.800000 0.920000 -9.160000 29.915142 -7.839190 956.368591
2.800000 0.920000 -9.120000 34.576057 11.431211 1326.176392
2.800000 0.920000 -9.080000 25.911785 26.983824 1399.547363
2.800000 0.920000 -9.040000 12.392149 31.511696 1146.552368
2.800000 0.920000 -9.000000 3.587290 27.587006 773.911560
2.800000 0.920000 -8.960000 1.908390 23.284740 545.821106
2.800000 0.920000 -8.920000 2.378616 23.503380 558.066711
2.800000 0.920000 -8.880000 -0.429427 26.040806 678.307983
2.800000 0.920000 -8.840000 -6.307099 25.674080 698.937866
2.800000 0.920000 -8.800000 -10.421817 20.921722 546.332764
2.800000 0.960000 -9.200000 8.119133 -5.106174 91.993332
2.800000 0.960000 -9.160000 15.432409 4.756974 260.788055
2.800000 0.960000 -9.120000 14.535770 17.104906 503.866455
2.800000 0.960000 -9.080000 6.646801 25.424032 690.561401
2.800000 0.960000 -9.040000 -2.796884 27.028576 738.366516
2.800000 0.960000 -9.000000 -9.277429 24.383545 680.627930
2.800000 0.960000 -8.960000 -12.627289 21.528240 622.913574
2.800000 0.960000 -8.920000 -15.567781 19.719570 631.217285
2.800000 0.960000 -8.880000 -19.512093 16.943180 667.793091
2.800000 0.960000 -8.840000 -22.509789 11.328148 635.017517
2.800000 0.960000 -8.800000 -21.555141 4.327666 483.352814
2.800000 1.000000 -9.200000 -3.209119 -5.203016 37.369823
2.800000 1.000000 -9.160000 1.335956 0.918448 2.628325
2.800000 1.000000 -9.120000 -0.239916 8.599722 74.012772
2.800000 1.000000 -9.080000 -6.527112 12.556952 200.280258
2.800000 1.000000 -9.040000 -12.739193 11.381063 291.815643
2.800000 1.000000 -9.000000 -15.850502 8.053915 316.103973
2.800000 1.000000 -8.960000 -17.112055 5.742286 325.796265
2.800000 1.000000 -8.920000 -19.320677 4.018871 389.439880
2.800000 1.000000 -8.880000 -22.421614 -0.085970 502.736145
2.800000 1.000000 -8.840000 -22.799118 -7.553720 576.858521
2.800000 1.000000 -8.800000 -17.345671 -14.842350 521.167603
2.800000 1.040000 -9.200000 -5.762735 -14.885988 254.801773
2.800000 1.040000 -9.160000 -1.551939 -8.600655 76.379776
2.800000 1.040000 -9.120000 -4.604667 -3.486318 33.357368
2.800000 1.040000 -9.080000 -9.398385 -4.676843 110.202499
2.800000 1.040000 -9.040000 -9.524410 -9.329905 177.761505
2.800000 1.040000 -9.000000 -5.312117 -10.818400 145.256378
2.800000 1.040000 -8.960000 -3.019247 -7.254843 61.748596
2.800000 1.040000 -8.920000 -6.742339 -4.116049 62.400993
2.800000 1.040000 -8.880000 -12.592173 -7.786128 219.186584
2.800000 1.040000 -8.840000 -12.311656 -17.335148 452.084229
2.800000 1.040000 -8.800000 -2.568795 -24.193665 591.932068
2.800000 1.080000 -9.200000 2.304673 -20.027168 406.398987
2.800000 1.080000 -9.160000 2.067124 -12.070835 149.978073
2.800000 1.080000 -9.120000 -3.547439 -12.472034 168.135971
2.800000 1.080000 -9.080000 -2.750130 -20.310200 420.067413
2.800000 1.080000 -9.040000 8.018865 -24.132967 646.702271
2.800000 1.080000 -9.000000 19.142250 -15.818049 616.636475
2.800000 1.080000 -8.960000 18.509233 -1.039509 343.672302
2.800000 1.080000 -8.920000 5.800003 6.032261 70.028214
2.800000 1.080000 -8.880000 -5.968823 -1.761291 38.729000
2.800000 1.080000 -8.840000 -3.895585 -16.051313 272.820251
2.800000 1.080000 -8.800000 10.844469 -21.153685 565.080872
2.800000 1.120000 -9.200000 9.288428 -14.193821 287.739441
2.800000 1.120000 -9.160000 1.396928 -10.360044 109.281929
2.800000 1.120000 -9.120000 -1.904584 -20.402260 419.879639
2.800000 1.120000 -9.080000 11.086711 -30.718384 1066.534180
2.800000 1.120000 -9.040000 32.261829 -23.966576 1615.222412
2.800000 1.120000 -9.000000 41.044579 0.300823 1684.747925
2.800000 1.120000 -8.960000 26.673380 23.022181 1241.489990
2.800000 1.120000 -8.920000 0.952532 24.708181 611.401489
2.800000 1.120000 -8.880000 -12.996686 5.903561 203.765869
2.800000 1.120000 -8.840000 -4.222041 -13.200139 192.069290
2.800000 1.120000 -8.800000 15.351955 -13.601443 420.681793
2.800000 1.160000 -9.200000 5.104047 -5.864204 60.440186
2.800000 1.160000 -9.160000 -5.241105 -13.797450 217.838806
2.800000 1.160000 -9.120000 2.820594 -30.917665 963.857788
2.800000 1.160000 -9.080000 29.328337 -32.991402 1948.583984
2.800000 1.160000 -9.040000 50.921627 -8.093804 2658.521973
2.800000 1.160000 -9.000000 44.284489 27.999346 2745.079346
2.800000 1.160000 -8.960000 11.368141 45.788078 2225.782715
2.800000 1.160000 -8.920000 -20.996571 31.414351 1427.717407
2.800000 1.160000 -8.880000 -27.258343 0.505457 743.272766
2.800000 1.160000 -8.840000 -7.710480 -18.019629 384.158508
2.800000 1.160000 -8.800000 13.858625 -10.724341 307.072998
2.800000 1.200000 -9.200000 -6.178822 -7.963348 101.592758
2.800000 1.200000 -9.160000 -7.495347 -27.452240 809.805725
2.800000 1.200000 -9.120000 16.209606 -40.628983 1913.465576
2.800000 1.200000 -9.080000 47.284023 -24.922413 2856.905518
2.800000 1.200000 -9.040000 55.069420 14.971188 3256.777588
2.800000 1.200000 -9.000000 27.132599 48.530479 3091.385498
2.800000 1.200000 -8.960000 -16.496452 48.129021 2588.535645
2.800000 1.200000 -8.920000 -41.630383 15.889142 1985.553589
2.800000 1.200000 -8.880000 -32.217598 -18.986633 1398.465820
2.800000 1.200000 -8.840000 -3.694550 -29.090075 859.882141
2.800000 1.200000 -8.800000 15.031644 -13.730144 414.467163
2.840000 0.800000 -9.200000 -10.336820 -28.281307 906.682190
2.840000 0.800000 -9.160000 19.335953 -35.742943 1651.437012
2.840000 0.800000 -9.120000 43.636162 -14.240128 2106.895752
2.840000 0.800000 -9.080000 40.355125 18.048618 1954.288818
2.840000 0.800000 -9.040000 13.853260 33.113422 1288.411621
2.840000 0.800000 -9.000000 -10.292218 20.929726 543.983154
2.840000 0.800000 -8.960000 -11.763758 -2.078741 142.707169
2.840000 0.800000 -8.920000 5.068918 -11.835297 165.768188
2.840000 0.800000 -8.880000 18.477018 -1.702052 344.297180
2.840000 0.800000 -8.840000 14.105261 12.799738 362.791687
2.840000 0.800000 -8.800000 -0.294642 13.227316 175.048691
2.840000 0.840000 -9.200000 9.514133 -31.915436 1109.113770
2.840000 0.840000 -9.160000 39.793999 -24.562168 2186.862549
2.840000 0.840000 -9.120000 54.589424 4.670794 3001.821533
2.840000 0.840000 -9.080000 43.026306 34.210152 3021.597656
2.840000 0.840000 -9.040000 16.781160 44.021748 2219.521729
2.840000 0.840000 -9.000000 -2.693897 33.269569 1114.121338
2.840000 0.840000 -8.960000 -4.840294 17.955248 345.819366
2.840000 0.840000 -8.920000 2.664043 12.778706 170.392441
2.840000 0.840000 -8.880000 5.735315 17.271004 331.181396
2.840000 0.840000 -8.840000 0.274622 19.995880 399.910645
2.840000 0.840000 -8.800000 -4.939171 14.094501 223.050385
2.840000 0.880000 -9.200000 21.778009 -18.489933 816.159302
2.840000 0.880000 -9.160000 44.052071 -1.433372 1942.639526
2.840000 0.880000 -9.120000 48.452827 28.639786 3167.913818
2.840000 0.880000 -9.080000 31.403759 53.855873 3886.651123
2.840000 0.880000 -9.040000 4.263721 61.166489 3759.518555
2.840000 0.880000 -9.000000 -17.441196 51.428993 2949.136719
2.840000 0.880000 -8.960000 -26.280842 35.432903 1946.173218
2.840000 0.880000 -8.920000 -25.482338 22.813335 1169.797852
2.840000 0.880000 -8.880000 -21.751326 15.532562 714.380676
2.840000 0.880000 -8.840000 -17.814524 10.849409 435.066956
2.840000 0.880000 -8.800000 -12.465448 7.857981 217.135269
2.840000 0.920000 -9.200000 16.758835 -3.994668 296.815918
2.840000 0.920000 -9.160000 30.275627 15.098063 1144.565063
2.840000 0.920000 -9.120000 27.263466 42.395847 2540.704346
2.840000 0.920000 -9.080000 5.438181 63.183376 4021.712891
2.840000 0.920000 -9.040000 -25.534527 65.735550 4973.174805
2.840000 0.920000 -9.000000 -50.792671 49.218071 5002.313965
2.840000 0.920000 -8.960000 -60.151421 23.191952 4156.060059
2.840000 0.920000 -8.920000 -53.332943 0.241241 2844.460938
2.840000 0.920000 -8.880000 -37.795555 -11.730384 1566.105957
2.840000 0.920000 -8.840000 -22.547554 -12.191751 657.031006
2.840000 0.920000 -8.800000 -13.288794 -5.630509 208.294678
2.840000 0.960000 -9.200000 3.862672 -3.429477 26.681545
2.840000 0.960000 -9.160000 12.523807 14.847290 377.287750
2.840000 0.960000 -9.120000 3.870940 39.067062 1541.219482
2.840000 0.960000 -9.080000 -23.220755 52.994179 3347.586426
2.840000 0.960000 -9.040000 -55.918556 44.506599 5107.722656
2.840000 0.960000 -9.000000 -75.911026 15.614637 6006.300781
2.840000 0.960000 -8.960000 -72.689545 -18.522764 5626.862793
2.840000 0.960000 -8.920000 -50.518951 -40.661476 4205.520020
2.840000 0.960000 -8.880000 -23.953690 -43.207809 2440.694092
2.840000 0.960000 -8.840000 -6.556059 -31.398649 1028.857056
2.840000 0.960000 -8.800000 -2.519253 -16.808512 288.872711
2.840000 1.000000 -9.200000 -0.173529 -14.975292 224.289490
2.840000 1.000000 -9.160000 4.989335 4.371547 44.003891
2.840000 1.000000 -9.120000 -10.045367 24.183365 685.744568
2.840000 1.000000 -9.080000 -39.591969 26.296898 2259.050781
2.840000 1.000000 -9.040000 -64.470596 3.994670 4172.415527
2.840000 1.000000 -9.000000 -67.067192 -31.341352 5480.288574
2.840000 1.000000 -8.960000 -45.296074 -58.966312 5528.760254
2.840000 1.000000 -8.920000 -13.292359 -64.828949 4379.479492
2.840000 1.000000 -8.880000 10.785996 -50.824600 2699.477539
2.840000 1.000000 -8.840000 18.217270 -30.314699 1250.849854
2.840000 1.000000 -8.800000 13.179452 -15.871071 425.588837
2.840000 1.040000 -9.200000 9.931579 -23.340063 643.394775
2.840000 1.040000 -9.160000 8.186035 -2.645991 74.012436
2.840000 1.040000 -9.120000 -12.467419 8.047366 220.196625
2.840000 1.040000 -9.080000 -36.024399 -4.009968 1313.837158
2.840000 1.040000 -9.040000 -42.381081 -32.788364 2871.232910
2.840000 1.040000 -9.000000 -24.687014 -58.475739 4028.860840
2.840000 1.040000 -8.960000 5.608877 -64.377541 4175.927246
2.840000 1.040000 -8.920000 29.723923 -49.646721 3348.308594
2.840000 1.040000 -8.880000 37.006214 -27.122938 2105.113525
2.840000 1.040000 -8.840000 30.728704 -10.431945 1053.078735
2.840000 1.040000 -8.800000 21.089952 -3.723948 458.653900
2.840000 1.080000 -9.200000 22.854630 -17.551378 830.385010
2.840000 1.080000 -9.160000 11.324048 -1.106723 129.458908
2.840000 1.080000 -9.120000 -8.601990 -3.966484 89.727219
2.840000 1.080000 -9.080000 -16.345892 -24.468100 865.876099
2.840000 1.080000 -9.040000 -2.416540 -44.451977 1981.817993
2.840000 1.080000 -9.000000 23.358994 -46.570858 2714.487305
2.840000 1.080000 -8.960000 42.166012 -29.550451 2651.201660
2.840000 1.080000 -8.920000 43.530762 -7.040356 1944.493896
2.840000 1.080000 -8.880000 32.404263 6.799438 1096.268677
2.840000 1.080000 -8.840000 20.864796 9.276896 521.400513
2.840000 1.080000 -8.800000 15.231987 7.612504 289.963654
2.840000 1.120000 -9.200000 24.001068 -3.106344 585.700623
2.840000 1.120000 -9.160000 6.792196 1.226710 47.638748
2.840000 1.120000 -9.120000 -2.487993 -13.094952 177.667862
2.840000 1.120000 -9.080000 8.650231 -29.102438 921.778381
2.840000 1.120000 -9.040000 31.577269 -27.681152 1763.370117
2.840000 1.120000 -9.000000 45.682362 -6.770459 2132.717285
2.840000 1.120000 -8.960000 39.057121 17.455797 1830.163574
2.840000 1.120000 -8.920000 19.017618 27.486856 1117.197021
2.840000 1.120000 -8.880000 2.731982 20.951199 446.416443
2.840000 1.120000 -8.840000 -0.600856 10.031441 100.990837
2.840000 1.120000 -8.800000 3.204715 6.449088 51.860931
2.840000 1.160000 -9.200000 11.937935 4.488934 162.664810
2.840000 1.160000 -9.160000 -0.358489 -5.295776 28.173758
2.840000 1.160000 -9.120000 7.008669 -20.925634 487.003601
2.840000 1.160000 -9.080000 29.050428 -20.449625 1262.114502
2.840000 1.160000 -9.040000 43.457592 2.328743 1893.985352
2.840000 1.160000 -9.000000 33.431824 30.662508 2057.876221
2.840000 1.160000 -8.960000 4.859549 41.401169 1737.671997
2.840000 1.160000 -8.920000 -19.897083 27.682711 1162.226318
2.840000 1.160000 -8.880000 -24.255161 4.230650 606.211243
2.840000 1.160000 -8.840000 -12.102556 -9.041232 228.215744
2.840000 1.160000 -8.800000 -0.581274 -6.611712 44.052620
2.840000 1.200000 -9.200000 -0.112599 -3.051085 9.321800
2.840000 1.200000 -9.160000 1.610168 -19.300625 375.106781
2.840000 1.200000 -9.120000 21.819717 -24.191734 1061.340088
2.840000 1.200000 -9.080000 40.305679 -4.981730 1649.365356
2.840000 1.200000 -9.040000 34.858128 26.283199 1905.895752
2.840000 1.200000 -9.000000 4.409317 43.209023 1886.461792
2.840000 1.200000 -8.960000 -28.748158 30.603632 1763.038818
2.840000 1.200000 -8.920000 -40.023529 -1.070012 1603.027832
2.840000 1.200000 -8.880000 -25.111403 -26.647091 1340.649902
2.840000 1.200000 -8.840000 -1.460562 -30.416304 927.284790
2.840000 1.200000 -8.800000 11.029722 -18.477419 463.069763
2.880000 0.800000 -9.200000 25.203512 -20.555307 1057.737671
2.880000 0.800000 -9.160000 47.097801 0.897250 2219.008057
2.880000 0.800000 -9.120000 42.001762 34.627884 2963.238281
2.880000 0.800000 -9.080000 11.505800 51.512341 2785.904785
2.880000 0.800000 -9.040000 -18.348469 38.349236 1807.330078
2.880000 0.800000 -9.000000 -23.664074 10.811607 676.879272
2.880000 0.800000 -8.960000 -6.427471 -3.699216 54.996590
2.880000 0.800000 -8.920000 9.464958 5.342218 118.124733
2.880000 0.800000 -8.880000 4.876085 22.100172 512.193787
2.880000 0.800000 -8.840000 -14.400910 23.306911 750.598328
2.880000 0.800000 -8.800000 -25.232147 4.302644 655.174011
2.880000 0.840000 -9.200000 31.376728 -6.056625 1021.181763
2.880000 0.840000 -9.160000 44.971806 19.370800 2397.691162
2.880000 0.840000 -9.120000 34.442234 49.036545 3590.850098
2.880000 0.840000 -9.080000 6.326777 62.200691 3908.954102
2.880000 0.840000 -9.040000 -19.576241 53.388409 3233.551514
2.880000 0.840000 -9.000000 -29.618187 35.048431 2105.629639
2.880000 0.840000 -8.960000 -27.166382 22.567284 1247.294678
2.880000 0.840000 -8.920000 -24.725971 18.922604 969.438599
2.880000 0.840000 -8.880000 -27.934273 15.196667 1011.262268
2.880000 0.840000 -8.840000 -29.938381 4.509541 916.642578
2.880000 0.840000 -8.800000 -21.684263 -7.821898 531.389343
2.880000 0.880000 -9.200000 22.496891 7.068193 556.069458
2.880000 0.880000 -9.160000 30.495935 32.041290 1956.646362
2.880000 0.880000 -9.120000 17.608320 60.235989 3938.427246
2.880000 0.880000 -9.080000 -12.831343 74.935310 5779.944336
2.880000 0.880000 -9.040000 -46.461372 67.955490 6776.607910
2.880000 0.880000 -9.000000 -68.769905 43.881847 6654.916504
2.880000 0.880000 -8.960000 -73.679688 14.451820 5637.551270
2.880000 0.880000 -8.920000 -63.903778 -9.885239 4181.410645
2.880000 0.880000 -8.880000 -46.004208 -23.900852 2687.637939
2.880000 0.880000 -8.840000 -26.468529 -26.520256 1403.906982
2.880000 0.880000 -8.800000 -11.080274 -19.171940 490.335724
2.880000 0.920000 -9.200000 7.481869 5.680086 88.241737
2.880000 0.920000 -9.160000 13.146642 31.370512 1156.943237
2.880000 0.920000 -9.120000 -5.071373 60.939621 3739.356201
2.880000 0.920000 -9.080000 -45.521263 73.001854 7401.456055
2.880000 0.920000 -9.040000 -89.196007 53.773666 10847.535156
2.880000 0.920000 -9.000000 -111.926384 8.658875 12602.492188
2.880000 0.920000 -8.960000 -101.268021 -40.448441 11891.288086
2.880000 0.920000 -8.920000 -64.703018 -70.015648 9088.671875
2.880000 0.920000 -8.880000 -23.376740 -70.034317 5451.277344
2.880000 0.920000 -8.840000 2.849277 -48.408878 2351.537842
2.880000 0.920000 -8.800000 7.148185 -22.750469 568.680420
2.880000 0.960000 -9.200000 2.608498 -8.319076 76.011276
2.880000 0.960000 -9.160000 4.076403 21.420055 475.435852
2.880000 0.960000 -9.120000 -25.080509 48.878902 3018.179199
2.880000 0.960000 -9.080000 -75.099190 46.408222 7793.611328
2.880000 0.960000 -9.040000 -114.989471 3.901538 13237.799805
2.880000 0.960000 -9.000000 -115.522034 -59.452541 16879.945312
2.880000 0.960000 -8.960000 -72.870239 -107.710060 16911.529297
2.880000 0.960000 -8.920000 -12.101690 -115.053314 13383.715820
2.880000 0.960000 -8.880000 32.403553 -84.074608 8118.529785
2.880000 0.960000 -8.840000 42.274406 -40.683685 3442.287598
2.880000 0.960000 -8.800000 25.028198 -11.992461 770.229858
2.880000 1.000000 -9.200000 14.041012 -19.319683 570.400146
2.880000 1.000000 -9.160000 5.250228 13.153040 200.567352
2.880000 1.000000 -9.120000 -35.006237 28.860006 2058.336670
2.880000 1.000000 -9.080000 -81.862511 3.616529 6714.549805
2.880000 1.000000 -9.040000 -97.779953 -56.224686 12722.134766
2.880000 1.000000 -9.000000 -63.950970 -114.815468 17272.318359
2.880000 1.000000 -8.960000 2.512518 -134.233871 18025.044922
2.880000 1.000000 -8.920000 61.651581 -104.388901 14697.960938
2.880000 1.000000 -8.880000 82.144424 -49.070404 9155.611328
2.880000 1.000000 -8.840000 63.245861 -4.360075 4019.049072
2.880000 1.000000 -8.800000 29.632730 9.729560 972.763062
2.880000 1.040000 -9.200000 30.877441 -14.234655 1156.041748
2.880000 1.040000 -9.160000 8.604689 12.795696 237.770508
2.880000 1.040000 -9.120000 -33.379204 8.827087 1192.088745
2.880000 1.040000 -9.080000 -60.200420 -33.745998 4762.882812
2.880000 1.040000 -9.040000 -43.383003 -89.114655 9823.506836
2.880000 1.040000 -9.000000 13.096158 -117.232849 13915.050781
2.880000 1.040000 -8.960000 74.444763 -96.702682 14893.431641
2.880000 1.040000 -8.920000 103.177444 -41.675732 12382.451172
2.880000 1.040000 -8.880000 88.057739 11.691445 7890.855469
2.880000 1.040000 -8.840000 48.757679 35.189026 3615.578857
2.880000 1.040000 -8.800000 15.149171 27.529188 987.353577
2.880000 1.080000 -9.200000 36.305298 3.770642 1332.292480
2.880000 1.080000 -9.160000 5.845873 15.889339 286.645355
2.880000 1.080000 -9.120000 -23.950933 -5.789135 607.161316
2.880000 1.080000 -9.080000 -23.173492 -48.091843 2849.836182
2.880000 1.080000 -9.040000 14.820648 -77.278831 6191.668945
2.880000 1.080000 -9.000000 65.912247 -67.541260 8906.246094
2.880000 1.080000 -8.960000 95.045731 -22.885532 9557.438477
2.880000 1.080000 -8.920000 84.858734 27.302805 7946.448242
2.880000 1.080000 -8.880000 47.282497 53.530891 5101.190918
2.880000 1.080000 -8.840000 9.732111 48.238743 2421.690186
2.880000 1.080000 -8.800000 -8.571069 26.149143 757.240906
2.880000 1.120000 -9.200000 24.858839 18.627625 964.950256
2.880000 1.120000 -9.160000 -2.001105 13.310946 181.185715
2.880000 1.120000 -9.120000 -11.198645 -13.926947 319.369476
2.880000 1.120000 -9.080000 9.121025 -38.450714 1561.650513
2.880000 1.120000 -9.040000 44.744675 -36.061592 3302.524414
2.880000 1.120000 -9.000000 67.472488 -4.667336 4574.320801
2.880000 1.120000 -8.960000 59.555885 34.332352 4725.613770
2.880000 1.120000 -8.920000 27.523191 55.244881 3809.522949
2.880000 1.120000 -8.880000 -6.107033 48.846649 2423.291016
2.880000 1.120000 -8.840000 -23.056089 26.128296 1214.271118
2.880000 1.120000 -8.800000 -21.652763 4.650247 490.466949
2.880000 1.160000 -9.200000 7.536602 17.933737 378.419312
2.880000 1.160000 -9.160000 -5.742287 2.383281 38.653885
2.880000 1.160000 -9.120000 2.594427 -16.299524 272.405548
2.880000 1.160000 -9.080000 25.168530 -17.560156 941.813965
2.880000 1.160000 -9.040000 40.351425 3.333563 1639.350220
2.880000 1.160000 -9.000000 32.402203 30.767197 1996.523071
2.880000 1.160000 -8.960000 5.475103 43.367271 1910.697021
2.880000 1.160000 -8.920000 -21.400837 32.822479 1535.311035
2.880000 1.160000 -8.880000 -31.944189 9.004847 1101.518433
2.880000 1.160000 -8.840000 -24.971327 -11.531551 756.543823
2.880000 1.160000 -8.800000 -11.005985 -20.291632 532.882019
2.880000 1.200000 -9.200000 -0.080630 4.991274 24.919321
2.880000 1.200000 -9.160000 1.515153 -9.190278 86.756905
2.880000 1.200000 -9.120000 16.065029 -12.602446 416.906799
2.880000 1.200000 -9.080000 27.076969 1.369254 735.037109
2.880000 1.200000 -9.040000 20.065298 21.531151 866.206665
2.880000 1.200000 -9.000000 -2.990826 29.255381 864.822388
2.880000 1.200000 -8.960000 -25.294121 16.014622 896.260620
2.880000 1.200000 -8.920000 -30.758257 -9.264711 1031.905273
2.880000 1.200000 -8.880000 -17.652313 -29.431366 1177.809448
2.880000 1.200000 -8.840000 2.428003 -34.444050 1192.287720
2.880000 1.200000 -8.800000 17.096973 -27.535929 1050.533813
2.920000 0.800000 -9.200000 39.344460 13.780679 1737.893555
2.920000 0.800000 -9.160000 33.118690 47.953243 3396.361084
2.920000 0.800000 -9.120000 -1.975134 66.308220 4400.681152
2.920000 0.800000 -9.080000 -39.443863 50.178711 4073.721436
2.920000 0.800000 -9.040000 -49.248909 13.364117 2604.054688
2.920000 0.800000 -9.000000 -28.340752 -11.377002 932.634338
2.920000 0.800000 -8.960000 -3.150124 -5.806095 43.634018
2.920000 0.800000 -8.920000 -1.316024 15.904594 254.688049
2.920000 0.800000 -8.880000 -22.888039 23.637310 1082.584717
2.920000 0.800000 -8.840000 -41.500740 4.061381 1738.806274
2.920000 0.800000 -8.800000 -33.495300 -25.479424 1771.136230
2.920000 0.840000 -9.200000 22.710060 26.594845 1223.032593
2.920000 0.840000 -9.160000 12.021049 51.580460 2805.049316
2.920000 0.840000 -9.120000 -16.552351 62.454132 4174.499023
2.920000 0.840000 -9.080000 -44.557869 50.764103 4562.397949
2.920000 0.840000 -9.040000 -56.042885 27.112406 3875.887451
2.920000 0.840000 -9.000000 -51.933102 8.554123 2770.220215
2.920000 0.840000 -8.960000 -45.435097 0.973640 2065.295898
2.920000 0.840000 -8.920000 -45.044884 -4.143738 2046.212036
2.920000 0.840000 -8.880000 -45.144073 -16.147154 2298.718018
2.920000 0.840000 -8.840000 -34.586342 -31.579641 2193.488770
2.920000 0.840000 -8.800000 -12.617201 -36.837284 1516.179199
2.920000 0.880000 -9.200000 2.563299 21.172571 454.848267
2.920000 0.880000 -9.160000 -4.294962 42.794796 1849.841187
2.920000 0.880000 -9.120000 -29.527393 57.800552 4212.770508
2.920000 0.880000 -9.080000 -63.661091 53.241478 6887.389648
2.920000 0.880000 -9.040000 -90.759415 27.368572 8986.310547
2.920000 0.880000 -9.000000 -98.792160 -10.206749 9864.068359
2.920000 0.880000 -8.960000 -85.444069 -45.410465 9362.798828
2.920000 0.880000 -8.920000 -57.094624 -66.993828 7747.968750
2.920000 0.880000 -8.880000 -24.484421 -70.078339 5510.460449
2.920000 0.880000 -8.840000 1.421247 -56.589676 3204.411377
2.920000 0.880000 -8.800000 12.874681 -34.384094 1348.023438
2.920000 0.920000 -9.200000 -3.677395 1.997427 17.512947
2.920000 0.920000 -9.160000 -9.417316 29.824379 978.179443
2.920000 0.920000 -9.120000 -43.904369 49.808975 4408.527832
2.920000 0.920000 -9.080000 -93.347435 37.477383 10118.296875
2.920000 0.920000 -9.040000 -126.986740 -12.213821 16274.809570
2.920000 0.920000 -9.000000 -119.477539 -77.447769 20273.039062
2.920000 0.920000 -8.960000 -70.742668 -123.593491 20279.875000
2.920000 0.920000 -8.920000 -6.687668 -127.740616 16362.389648
2.920000 0.920000 -8.880000 39.627323 -93.900856 10387.695312
2.920000 0.920000 -8.840000 50.624733 -47.529533 4821.919922
2.920000 0.920000 -8.800000 33.093338 -15.524594 1336.182129
2.920000 0.960000 -9.200000 9.702144 -12.984894 262.739075
2.920000 0.960000 -9.160000 -6.098747 22.158703 528.202820
2.920000 0.960000 -9.120000 -56.837963 34.068344 4391.206055
2.920000 0.960000 -9.080000 -111.108627 -3.716267 12358.937500
2.920000 0.960000 -9.040000 -124.435020 -80.698448 21996.314453
2.920000 0.960000 -9.000000 -76.443413 -152.104660 28979.423828
2.920000 0.960000 -8.960000 9.646204 -172.382812 29808.882812
2.920000 0.960000 -8.920000 83.721619 -130.943909 24155.617188
2.920000 0.960000 -8.880000 107.359154 -58.889114 14993.916016
2.920000 0.960000 -8.840000 80.678238 -2.166328 6513.670898
2.920000 0.960000 -8.800000 35.986732 13.828417 1486.270020
2.920000 1.000000 -9.200000 30.321629 -9.060615 1001.495911
2.920000 1.000000 -9.160000 -3.051240 22.466644 514.060181
2.920000 1.000000 -9.120000 -61.245007 11.249012 3877.491211
2.920000 1.000000 -9.080000 -96.737274 -53.134758 12181.403320
2.920000 1.000000 -9.040000 -69.443130 -134.818146 22998.279297
2.920000 1.000000 -9.000000 15.649372 -176.394226 31359.826172
2.920000 1.000000 -8.960000 108.259064 -145.698181 32947.984375
2.920000 1.000000 -8.920000 152.096985 -62.557304 27046.908203
2.920000 1.000000 -8.880000 128.751373 18.539665 16920.634766
2.920000 1.000000 -8.840000 67.639252 53.062080 7390.652832
2.920000 1.000000 -8.800000 16.316196 37.805634 1695.484131
2.920000 1.040000 -9.200000 39.169128 11.205683 1659.787964
2.920000 1.040000 -9.160000 -6.429716 25.063038 669.497131
2.920000 1.040000 -9.120000 -52.784504 -11.329245 2914.555664
2.920000 1.040000 -9.080000 -53.024788 -82.655174 9643.505859
2.920000 1.040000 -9.040000 8.997887 -137.305237 18933.691406
2.920000 1.040000 -9.000000 99.277695 -128.804382 26446.628906
2.920000 1.040000 -8.960000 158.427063 -56.222702 28260.126953
2.920000 1.040000 -8.920000 149.657944 34.056259 23557.328125
2.920000 1.040000 -8.880000 86.674026 86.764549 15040.473633
2.920000 1.040000 -8.840000 17.814528 80.814987 6848.419434
2.920000 1.040000 -8.800000 -16.029333 39.274643 1799.437012
2.920000 1.080000 -9.200000 28.445580 30.786842 1756.980713
2.920000 1.080000 -9.160000 -14.220310 22.260094 697.729004
2.920000 1.080000 -9.120000 -34.511719 -25.130466 1822.599121
2.920000 1.080000 -9.080000 -4.360140 -77.867676 6082.385742
2.920000 1.080000 -9.040000 64.148964 -90.009003 12216.709961
2.920000 1.080000 -9.000000 124.231743 -43.209946 17300.625000
2.920000 1.080000 -8.960000 132.042130 35.363701 18685.714844
2.920000 1.080000 -8.920000 82.694504 94.674423 15801.626953
2.920000 1.080000 -8.880000 12.204063 101.188263 10388.003906
2.920000 1.080000 -8.840000 -34.574394 62.475849 5098.620605
2.920000 1.080000 -8.800000 -38.950371 14.323425 1722.291870
2.920000 1.120000 -9.200000 7.940406 34.786972 1273.183472
2.920000 1.120000 -9.160000 -18.769035 12.288601 503.286377
2.920000 1.120000 -9.120000 -14.531666 -26.916206 935.651489
2.920000 1.120000 -9.080000 24.697535 -49.002724 3011.235107
2.920000 1.120000 -9.040000 71.682526 -29.511074 6009.287598
2.920000 1.120000 -9.000000 88.883492 23.424763 8448.994141
2.920000 1.120000 -8.960000 60.156906 74.042900 9101.204102
2.920000 1.120000 -8.920000 4.161800 88.176613 7792.436035
2.920000 1.120000 -8.880000 -42.186604 60.102928 5392.071289
2.920000 1.120000 -8.840000 -53.839520 13.588250 3083.334473
2.920000 1.120000 -8.800000 -33.877407 -20.921114 1585.371704
2.920000 1.160000 -9.200000 -5.811153 23.722485 596.525818
2.920000 1.160000 -9.160000 -14.721610 1.062465 217.854630
2.920000 1.160000 -9.120000 0.315716 -19.928167 397.231537
2.920000 1.160000 -9.080000 28.535141 -18.680408 1163.211914
2.920000 1.160000 -9.040000 45.523972 7.784855 2133.035889
2.920000 1.160000 -9.000000 34.092102 40.519234 2804.079590
2.920000 1.160000 -8.960000 -0.427608 53.997162 2915.876465
2.920000 1.160000 -8.920000 -34.539963 37.286823 2583.316162
2.920000 1.160000 -8.880000 -46.083130 1.950598 2127.459717
2.920000 1.160000 -8.840000 -30.779692 -29.159628 1797.673340
2.920000 1.160000 -8.800000 -2.097225 -40.331905 1631.060913
2.920000 1.200000 -9.200000 -5.657414 10.717946 146.880707
2.920000 1.200000 -9.160000 -4.441360 -3.663793 33.149055
2.920000 1.200000 -9.120000 8.070982 -9.676389 158.773254
2.920000 1.200000 -9.080000 19.466526 -1.173656 380.323120
2.920000 1.200000 -9.040000 17.312429 14.489726 509.672363
2.920000 1.200000 -9.000000 0.788479 22.349384 500.116669
2.920000 1.200000 -8.960000 -17.947735 12.926986 489.228149
2.920000 1.200000 -8.920000 -23.917049 -9.499439 662.264648
2.920000 1.200000 -8.880000 -11.457031 -30.656744 1071.099487
2.920000 1.200000 -8.840000 12.256708 -37.826618 1581.079956
2.920000 1.200000 -8.800000 34.194874 -28.465946 1979.599609
2.960000 0.800000 -9.200000 19.996511 45.655361 2484.272461
2.960000 0.800000 -9.160000 -14.135460 66.227821 4585.935547
2.960000 0.800000 -9.120000 -57.395424 51.005699 5895.815918
2.960000 0.800000 -9.080000 -74.218834 6.527414 5551.042480
2.960000 0.800000 -9.040000 -51.585781 -32.070641 3689.618652
2.960000 0.800000 -9.000000 -13.288441 -35.448608 1433.186523
2.960000 0.800000 -8.960000 3.889486 -9.456886 104.560806
2.960000 0.800000 -8.920000 -12.492958 11.794685 295.188599
2.960000 0.800000 -8.880000 -38.884651 1.965948 1515.881104
2.960000 0.800000 -8.840000 -41.734413 -30.515871 2672.979492
2.960000 0.800000 -8.800000 -12.979307 -52.519566 2926.767090
2.960000 0.840000 -9.200000 -8.159683 38.312313 1534.413818
2.960000 0.840000 -9.160000 -33.727955 45.595306 3216.506836
2.960000 0.840000 -9.120000 -60.694611 30.796530 4632.261719
2.960000 0.840000 -9.080000 -70.430801 1.543163 4962.878906
2.960000 0.840000 -9.040000 -60.059689 -22.858799 4129.690918
2.960000 0.840000 -9.000000 -43.764305 -31.392677 2900.814697
2.960000 0.840000 -8.960000 -35.824814 -31.055569 2247.865723
2.960000 0.840000 -8.920000 -34.990826 -35.974976 2518.556641
2.960000 0.840000 -8.880000 -27.848114 -49.015118 3177.999023
2.960000 0.840000 -8.840000 -6.892918 -57.414803 3343.971680
2.960000 0.840000 -8.800000 17.932606 -47.704201 2597.269043
2.960000 0.880000 -9.200000 -18.806450 12.602416 512.503418
2.960000 0.880000 -9.160000 -33.329742 23.368420 1656.954712
2.960000 0.880000 -9.120000 -59.105686 20.696785 3921.839111
2.960000 0.880000 -9.080000 -82.402878 -1.800892 6793.477539
2.960000 0.880000 -9.040000 -89.101608 -38.065041 9388.043945
2.960000 0.880000 -9.000000 -73.593735 -74.122627 10910.201172
2.960000 0.880000 -8.960000 -40.778484 -96.469070 10969.166016
2.960000 0.880000 -8.920000 -2.239494 -98.119835 9632.517578
2.960000 0.880000 -8.880000 29.229584 -80.316742 7305.147461
2.960000 0.880000 -8.840000 44.215252 -51.440968 4601.161621
2.960000 0.880000 -8.800000 40.380302 -23.962009 2204.746826
2.960000 0.920000 -9.200000 -4.255003 -9.277275 104.172882
2.960000 0.920000 -9.160000 -21.815304 14.034283 672.868530
2.960000 0.920000 -9.120000 -63.424702 14.095520 4221.376465
2.960000 0.920000 -9.080000 -100.960640 -25.408348 10838.634766
2.960000 0.920000 -9.040000 -101.224335 -90.866516 18503.089844
2.960000 0.920000 -9.000000 -53.196571 -145.436569 23981.669922
2.960000 0.920000 -8.960000 21.150135 -155.872345 24743.515625
2.960000 0.920000 -8.920000 82.250931 -117.284714 20520.919922
2.960000 0.920000 -8.880000 101.593109 -55.505615 13402.033203
2.960000 0.920000 -8.840000 80.075150 -6.334612 6452.157227
2.960000 0.920000 -8.800000 42.735046 9.970051 1925.686035
2.960000 0.960000 -9.200000 21.201750 -8.603951 523.542175
2.960000 0.960000 -9.160000 -14.482531 18.013458 534.228394
2.960000 0.960000 -9.120000 -70.911652 -0.365915 5028.596191
2.960000 0.960000 -9.080000 -99.578918 -69.986061 14814.009766
2.960000 0.960000 -9.040000 -63.289108 -151.538666 26969.478516
2.960000 0.960000 -9.000000 28.485964 -187.715881 36048.703125
2.960000 0.960000 -8.960000 122.789429 -149.681671 37481.847656
2.960000 0.960000 -8.920000 164.020157 -61.079666 30633.335938
2.960000 0.960000 -8.880000 136.615250 21.827715 19140.175781
2.960000 0.960000 -8.840000 72.720985 55.215107 8337.049805
2.960000 0.960000 -8.800000 21.109657 37.842342 1877.660522
2.960000 1.000000 -9.200000 34.569176 13.039426 1365.054565
2.960000 1.000000 -9.160000 -18.678059 23.833662 916.913330
2.960000 1.000000 -9.120000 -69.346245 -23.989832 5384.414062
2.960000 1.000000 -9.080000 -63.211205 -109.989738 16093.398438
2.960000 1.000000 -9.040000 16.222624 -172.261917 29937.341797
2.960000 1.000000 -9.000000 126.155273 -157.053574 40580.976562
2.960000 1.000000 -8.960000 195.322128 -65.995331 42506.117188
2.960000 1.000000 -8.920000 181.442078 43.336960 34799.320312
2.960000 1.000000 -8.880000 103.602585 104.570038 21668.386719
2.960000 1.000000 -8.840000 21.733738 94.246941 9354.840820
2.960000 1.000000 -8.800000 -15.048492 42.840111 2061.732178
2.960000 1.040000 -9.200000 25.096241 36.445297 1958.080933
2.960000 1.040000 -9.160000 -28.646904 20.762484 1251.725830
2.960000 1.040000 -9.120000 -51.596329 -45.251011 4709.834961
2.960000 1.040000 -9.080000 -6.361370 -117.064285 13744.513672
2.960000 1.040000 -9.040000 90.839691 -132.483032 25803.603516
2.960000 1.040000 -9.000000 175.949677 -66.088127 35325.929688
2.960000 1.040000 -8.960000 187.968369 44.772179 37336.656250
2.960000 1.040000 -8.920000 119.684128 128.710327 30890.636719
2.960000 1.040000 -8.880000 21.823469 138.249664 19589.232422
2.960000 1.040000 -8.840000 -41.691093 84.405815 8862.489258
2.960000 1.040000 -8.800000 -44.566975 19.207121 2355.128662
2.960000 1.080000 -9.200000 2.399401 43.542156 1901.676392
2.960000 1.080000 -9.160000 -33.323788 8.805885 1188.018433
2.960000 1.080000 -9.120000 -24.330589 -51.287842 3222.420166
2.960000 1.080000 -9.080000 38.809307 -87.072304 9087.748047
2.960000 1.080000 -9.040000 117.238449 -58.318413 17145.890625
2.960000 1.080000 -9.000000 151.497070 26.695274 23664.000000
2.960000 1.080000 -8.960000 111.542152 113.227203 25262.050781
2.960000 1.080000 -8.920000 23.104862 143.948242 21254.929688
2.960000 1.080000 -8.880000 -54.309971 105.056946 13986.535156
2.960000 1.080000 -8.840000 -76.704071 33.199512 6985.722168
2.960000 1.080000 -8.800000 -46.816547 -20.056999 2594.072266
2.960000 1.120000 -9.200000 -15.072838 33.053791 1319.743530
2.960000 1.120000 -9.160000 -27.902250 -3.037012 787.759033
2.960000 1.120000 -9.120000 -2.041285 -40.492020 1643.770508
2.960000 1.120000 -9.080000 51.261246 -42.922821 4470.083984
2.960000 1.120000 -9.040000 91.820305 2.626717 8437.868164
2.960000 1.120000 -9.000000 82.987061 69.224648 11678.904297
2.960000 1.120000 -8.960000 24.654766 109.328293 12560.533203
2.960000 1.120000 -8.920000 -44.702690 93.912498 10817.887695
2.960000 1.120000 -8.880000 -79.603371 35.803936 7618.618652
2.960000 1.120000 -8.840000 -63.587570 -23.391106 4590.522949
2.960000 1.120000 -8.800000 -17.721893 -48.826019 2698.045654
2.960000 1.160000 -9.200000 -18.151918 18.346737 666.094910
2.960000 1.160000 -9.160000 -17.576347 -6.885838 356.342743
2.960000 1.160000 -9.120000 6.223066 -23.163971 575.296143
2.960000 1.160000 -9.080000 36.978691 -11.965651 1510.600342
2.960000 1.160000 -9.040000 47.507130 23.412798 2805.086670
2.960000 1.160000 -9.000000 23.795040 56.825062 3795.291504
2.960000 1.160000 -8.960000 -20.395969 60.123779 4030.864502
2.960000 1.160000 -8.920000 -53.368950 27.508799 3604.979004
2.960000 1.160000 -8.880000 -51.429466 -19.193363 3013.375244
2.960000 1.160000 -8.840000 -17.381859 -48.955612 2698.780762
2.960000 1.160000 -8.800000 24.351706 -46.060841 2714.606689
2.960000 1.200000 -9.200000 -13.251842 11.691385 312.299805
2.960000 1.200000 -9.160000 -10.973283 -3.456195 132.358215
2.960000 1.200000 -9.120000 3.326710 -10.948006 130.925827
2.960000 1.200000 -9.080000 17.859892 -2.869507 327.209808
2.960000 1.200000 -9.040000 18.373581 14.522627 548.495178
2.960000 1.200000 -9.000000 2.188526 24.622562 611.060242
2.960000 1.200000 -8.960000 -17.484957 15.223366 537.474609
2.960000 1.200000 -8.920000 -22.137508 -9.487007 580.072571
2.960000 1.200000 -8.880000 -4.121800 -31.402294 1003.093323
2.960000 1.200000 -8.840000 26.561600 -33.364265 1818.692749
2.960000 1.200000 -8.800000 50.657074 -12.746096 2728.602051
3.000000 0.800000 -9.200000 -15.792500 49.843300 2733.757568
3.000000 0.800000 -9.160000 -57.318348 41.050220 4970.513672
3.000000 0.800000 -9.120000 -81.016907 -2.108534 6568.185059
3.000000 0.800000 -9.080000 -63.121292 -50.526878 6537.262695
3.000000 0.800000 -9.040000 -16.620358 -66.953911 4759.062500
3.000000 0.800000 -9.000000 19.271757 -42.854500 2207.908691
3.000000 0.800000 -8.960000 17.308504 -7.244812 352.071625
3.000000 0.800000 -8.920000 -11.291473 2.706211 134.820953
3.000000 0.800000 -8.880000 -29.771582 -20.983353 1326.648193
3.000000 0.800000 -8.840000 -14.393950 -50.619663 2769.536133
3.000000 0.800000 -8.800000 21.944477 -53.095028 3300.642090
3.000000 0.840000 -9.200000 -34.380207 21.395660 1639.772949
3.000000 0.840000 -9.160000 -56.455246 7.706238 3246.580811
3.000000 0.840000 -9.120000 -64.384766 -22.337200 4644.348633
3.000000 0.840000 -9.080000 -49.419685 -50.587429 5001.393555
3.000000 0.840000 -9.040000 -22.784361 -60.083488 4129.152832
3.000000 0.840000 -9.000000 -3.976234 -52.027424 2722.663330
3.000000 0.840000 -8.960000 -0.378891 -42.927113 1842.880493
3.000000 0.840000 -8.920000 -0.908325 -45.192787 2043.213135
3.000000 0.840000 -8.880000 9.367229 -53.161163 2913.854248
3.000000 0.840000 -8.840000 30.411474 -50.392899 3464.302246
3.000000 0.840000 -8.800000 45.905296 -29.933035 3003.282715
3.000000 0.880000 -9.200000 -22.768686 -8.440117 589.648682
3.000000 0.880000 -9.160000 -35.892715 -8.381495 1358.536377
3.000000 0.880000 -9.120000 -51.071503 -23.492104 3160.177246
3.000000 0.880000 -9.080000 -54.247231 -51.696014 5615.240234
3.000000 0.880000 -9.040000 -37.985229 -80.692497 7954.157227
3.000000 0.880000 -9.000000 -6.105713 -96.981857 9442.759766
3.000000 0.880000 -8.960000 30.041466 -93.805542 9701.968750
3.000000 0.880000 -8.920000 58.447479 -73.081024 8756.943359
3.000000 0.880000 -8.880000 71.239548 -42.838322 6910.195312
3.000000 0.880000 -8.840000 66.597313 -13.735455 4623.864746
3.000000 0.880000 -8.800000 49.338825 4.419720 2453.853516
3.000000 0.920000 -9.200000 6.509350 -14.614574 255.957428
3.000000 0.920000 -9.160000 -18.690193 -2.034868 353.464020
3.000000 0.920000 -9.120000 -52.487213 -22.425104 3257.792725
3.000000 0.920000 -9.080000 -61.335510 -73.810631 9210.054688
3.000000 0.920000 -9.040000 -25.116783 -125.640236 16416.322266
3.000000 0.920000 -9.000000 43.825729 -141.090347 21827.181641
3.000000 0.920000 -8.960000 108.062958 -106.089294 22932.541016
3.000000 0.920000 -8.920000 132.970032 -40.290031 19304.316406
3.000000 0.920000 -8.880000 111.510895 18.693176 12784.114258
3.000000 0.920000 -8.840000 66.165543 43.338791 6256.129883
3.000000 0.920000 -8.800000 28.809576 33.293037 1938.418091
3.000000 0.960000 -9.200000 26.354855 5.826876 728.530823
3.000000 0.960000 -9.160000 -19.609333 11.109442 507.945618
3.000000 0.960000 -9.120000 -58.336430 -34.881027 4619.825195
3.000000 0.960000 -9.080000 -44.115334 -109.202095 13871.259766
3.000000 0.960000 -9.040000 31.931938 -156.451294 25496.656250
3.000000 0.960000 -9.000000 128.141479 -133.643661 34280.867188
3.000000 0.960000 -8.960000 183.021439 -47.875053 35788.867188
3.000000 0.960000 -8.920000 164.376221 48.019951 29325.457031
3.000000 0.960000 -8.880000 93.211060 98.141312 18320.019531
3.000000 0.960000 -8.840000 22.662182 86.043976 7917.140625
3.000000 0.960000 -8.800000 -6.598803 40.832413 1710.830078
3.000000 1.000000 -9.200000 20.538609 32.703140 1491.329834
3.000000 1.000000 -9.160000 -32.771416 12.573448 1232.057251
3.000000 1.000000 -9.120000 -50.346107 -57.339951 5822.600586
3.000000 1.000000 -9.080000 3.072153 -127.960663 16383.370117
3.000000 1.000000 -9.040000 105.952507 -136.251282 29790.345703
3.000000 1.000000 -9.000000 190.294373 -60.798916 39908.457031
3.000000 1.000000 -8.960000 195.985077 55.413986 41480.859375
3.000000 1.000000 -8.920000 120.813538 138.365601 33740.949219
3.000000 1.000000 -8.880000 20.453382 142.921066 20844.773438
3.000000 1.000000 -8.840000 -40.122520 85.225121 8873.137695
3.000000 1.000000 -8.800000 -37.892792 21.076494 1880.082275
3.000000 1.040000 -9.200000 -3.091281 43.343796 1888.240723
3.000000 1.040000 -9.160000 -40.894264 -0.646889 1672.759277
3.000000 1.040000 -9.120000 -23.911570 -71.075806 5623.533203
3.000000 1.040000 -9.080000 55.546577 -108.478050 14852.910156
3.000000 1.040000 -9.040000 148.601990 -67.767151 26674.937500
3.000000 1.040000 -9.000000 185.110123 37.204174 35649.910156
3.000000 1.040000 -8.960000 132.990753 139.291992 37088.800781
3.000000 1.040000 -8.920000 26.761585 172.042145 30314.681641
3.000000 1.040000 -8.880000 -61.814854 123.311691 19026.849609
3.000000 1.040000 -8.840000 -83.317474 40.188538 8556.919922
3.000000 1.040000 -8.800000 -45.717461 -16.111252 2349.658691
3.000000 1.080000 -9.200000 -23.405619 33.193508 1649.631958
3.000000 1.080000 -9.160000 -34.483002 -15.642729 1433.772339
3.000000 1.080000 -9.120000 6.035628 -62.732193 3971.756836
3.000000 1.080000 -9.080000 80.743805 -60.082565 10129.476562
3.000000 1.080000 -9.040000 134.529724 7.330700 18151.984375
3.000000 1.080000 -9.000000 119.142563 100.739235 24343.343750
3.000000 1.080000 -8.960000 37.120705 155.304688 25497.494141
3.000000 1.080000 -8.920000 -57.401539 133.634094 21153.007812
3.000000 1.080000 -8.880000 -103.274597 56.053741 13807.664062
3.000000 1.080000 -8.840000 -81.236588 -19.671244 6986.341309
3.000000 1.080000 -8.800000 -23.206186 -48.226990 2864.369629
3.000000 1.120000 -9.200000 -27.759212 16.331497 1037.291626
3.000000 1.120000 -9.160000 -20.435844 -19.303013 790.230042
3.000000 1.120000 -9.120000 20.233080 -38.492794 1891.072754
3.000000 1.120000 -9.080000 68.428436 -14.371735 4888.997559
3.000000 1.120000 -9.040000 82.438217 46.323082 8941.887695
3.000000 1.120000 -9.000000 41.689354 102.064125 12155.087891
3.000000 1.120000 -8.960000 -31.123516 109.199776 12893.263672
3.000000 1.120000 -8.920000 -86.065804 59.690552 10970.285156
3.000000 1.120000 -8.880000 -86.982552 -11.556889 7699.525879
3.000000 1.120000 -8.840000 -39.781570 -56.698753 4797.321777
3.000000 1.120000 -8.800000 16.893353 -53.621384 3160.637939
3.000000 1.160000 -9.200000 -21.943035 7.891442 543.771667
3.000000 1.160000 -9.160000 -12.553052 -12.190918 306.197601
3.000000 1.160000 -9.120000 14.052378 -17.398540 500.178528
3.000000 1.160000 -9.080000 37.576187 4.350470 1430.896484
3.000000 1.160000 -9.040000 33.723263 41.069370 2823.951660
3.000000 1.160000 -9.000000 -1.590424 62.883381 3956.849121
3.000000 1.160000 -8.960000 -44.393097 47.705208 4246.534180
3.000000 1.160000 -8.920000 -61.163940 2.520565 3747.380859
3.000000 1.160000 -8.880000 -37.479916 -40.882698 3076.139160
3.000000 1.160000 -8.840000 9.980398 -52.363113 2841.504150
3.000000 1.160000 -8.800000 48.760677 -27.320711 3124.024902
3.000000 1.200000 -9.200000 -19.837791 8.466506 465.219696
3.000000 1.200000 -9.160000 -15.880616 -6.315318 292.077209
3.000000 1.200000 -9.120000 0.302014 -12.350488 152.625763
3.000000 1.200000 -9.080000 15.178505 -1.670567 233.177795
3.000000 1.200000 -9.040000 13.728546 17.166233 483.152527
3.000000 1.200000 -9.000000 -4.357456 25.391254 663.703247
3.000000 1.200000 -8.960000 -22.015377 12.206833 633.683594
3.000000 1.200000 -8.920000 -19.828703 -13.185310 567.029907
3.000000 1.200000 -8.880000 5.379318 -28.485153 840.341003
3.000000 1.200000 -8.840000 36.645290 -17.972523 1665.888916
3.000000 1.200000 -8.800000 51.348331 13.841755 2828.245361
3.040000 0.800000 -9.200000 -39.238800 26.758251 2255.687500
3.040000 0.800000 -9.160000 -64.311310 -5.170787 4162.681152
3.040000 0.800000 -9.120000 -56.059822 -52.069550 5853.941406
3.040000 0.800000 -9.080000 -12.996363 -78.893013 6393.012695
3.040000 0.800000 -9.040000 34.318115 -64.236298 5304.034668
3.040000 0.800000 -9.000000 50.482155 -22.706268 3064.022705
3.040000 0.800000 -8.960000 29.114075 8.093227 913.129639
3.040000 0.800000 -8.920000 -1.646194 3.931781 18.168858
3.040000 0.800000 -8.880000 -8.135170 -23.424181 614.873230
3.040000 0.800000 -8.840000 15.379317 -40.343132 1864.091797
3.040000 0.800000 -8.800000 43.042137 -26.750858 2568.233887
3.040000 0.840000 -9.200000 -36.232281 -6.671818 1357.291382
3.040000 0.840000 -9.160000 -42.042931 -29.888391 2660.923828
3.040000 0.840000 -9.120000 -28.121717 -56.274300 3957.627930
3.040000 0.840000 -9.080000 1.987836 -67.159897 4514.403320
3.040000 0.840000 -9.040000 29.539417 -55.429047 3944.956299
3.040000 0.840000 -9.000000 38.697403 -33.351166 2609.789307
3.040000 0.840000 -8.960000 32.014767 -19.908268 1421.284424
3.040000 0.840000 -8.920000 26.255516 -21.172821 1137.640503
3.040000 0.840000 -8.880000 33.081680 -25.288208 1733.891113
3.040000 0.840000 -8.840000 46.194317 -17.425955 2437.578613
3.040000 0.840000 -8.800000 49.203300 2.247280 2426.015137
3.040000 0.880000 -9.200000 -8.494856 -21.704432 543.244934
3.040000 0.880000 -9.160000 -15.310905 -26.719416 948.351013
3.040000 0.880000 -9.120000 -16.356865 -43.363350 2147.927246
3.040000 0.880000 -9.080000 -2.332034 -62.254974 3881.120361
3.040000 0.880000 -9.040000 24.548149 -70.286926 5542.863770
3.040000 0.880000 -9.000000 53.091713 -61.103676 6552.389160
3.040000 0.880000 -8.960000 72.029434 -38.350101 6658.969727
3.040000 0.880000 -8.920000 76.472641 -11.087132 5970.989258
3.040000 0.880000 -8.880000 67.959930 12.233234 4768.204102
3.040000 0.880000 -8.840000 51.428627 26.269260 3334.977539
3.040000 0.880000 -8.800000 33.373035 28.817921 1944.232056
3.040000 0.920000 -9.200000 17.149172 -7.123682 344.840942
3.040000 0.920000 -9.160000 -7.980904 -7.542667 120.586655
3.040000 0.920000 -9.120000 -23.155914 -37.653126 1953.954346
3.040000 0.920000 -9.080000 -4.157461 -77.887146 6083.692383
3.040000 0.920000 -9.040000 47.243843 -95.025215 11261.772461
3.040000 0.920000 -9.000000 102.253830 -69.494843 15285.378906
3.040000 0.920000 -8.960000 127.037064 -11.919693 16280.495117
3.040000 0.920000 -8.920000 108.641838 45.179203 13844.208984
3.040000 0.920000 -8.880000 63.121845 72.484245 9238.333008
3.040000 0.920000 -8.840000 20.773129 64.126663 4543.751953
3.040000 0.920000 -8.800000 2.862850 37.656219 1426.186768
3.040000 0.960000 -9.200000 18.134642 20.738195 758.937988
3.040000 0.960000 -9.160000 -21.150595 2.991715 456.298004
3.040000 0.960000 -9.120000 -28.527119 -50.655045 3379.729980
3.040000 0.960000 -9.080000 18.522181 -98.663879 10077.632812
3.040000 0.960000 -9.040000 97.539398 -94.941437 18527.810547
3.040000 0.960000 -9.000000 155.169525 -29.604895 24954.031250
3.040000 0.960000 -8.960000 150.162201 59.765030 26120.546875
3.040000 0.960000 -8.920000 87.139175 117.770851 21463.208984
3.040000 0.960000 -8.880000 11.103657 115.321999 13422.454102
3.040000 0.960000 -8.840000 -30.952217 69.272751 5756.753418
3.040000 0.960000 -8.800000 -25.787439 22.656908 1178.327515
3.040000 1.000000 -9.200000 -3.328172 35.875088 1298.098755
3.040000 1.000000 -9.160000 -35.165245 -6.530956 1279.247925
3.040000 1.000000 -9.120000 -14.215488 -68.917488 4951.700195
3.040000 1.000000 -9.080000 60.998039 -95.975021 12931.965820
3.040000 1.000000 -9.040000 141.994476 -51.176003 22781.414062
3.040000 1.000000 -9.000000 166.778854 46.808613 30006.232422
3.040000 1.000000 -8.960000 112.418259 135.031158 30871.279297
3.040000 1.000000 -8.920000 15.404648 157.172699 24940.560547
3.040000 1.000000 -8.880000 -59.413933 108.593964 15322.665039
3.040000 1.000000 -8.840000 -72.257225 35.410545 6475.013184
3.040000 1.000000 -8.800000 -35.741158 -8.662813 1352.474609
3.040000 1.040000 -9.200000 -25.675287 28.030937 1444.953857
3.040000 1.040000 -9.160000 -32.509560 -24.484753 1656.374512
3.040000 1.040000 -9.120000 15.164320 -69.827332 5105.812988
3.040000 1.040000 -9.080000 93.835175 -59.434925 12337.550781
3.040000 1.040000 -9.040000 144.404541 16.692028 21131.294922
3.040000 1.040000 -9.000000 120.638428 113.502007 27436.335938
3.040000 1.040000 -8.960000 31.468601 164.275482 27976.707031
3.040000 1.040000 -8.920000 -63.828922 135.828125 22523.410156
3.040000 1.040000 -8.880000 -104.693756 55.033722 13989.492188
3.040000 1.040000 -8.840000 -77.521477 -17.167303 6304.295898
3.040000 1.040000 -8.800000 -20.035326 -38.242180 1863.878662
3.040000 1.080000 -9.200000 -31.559855 9.605717 1088.294189
3.040000 1.080000 -9.160000 -16.001890 -31.407700 1242.504150
3.040000 1.080000 -9.120000 36.730980 -47.105461 3568.089355
3.040000 1.080000 -9.080000 91.784096 -9.746681 8519.318359
3.040000 1.080000 -9.040000 100.806870 66.589188 14596.145508
3.040000 1.080000 -9.000000 45.210629 130.122833 18975.953125
3.040000 1.080000 -8.960000 -42.698658 132.546387 19391.720703
3.040000 1.080000 -8.920000 -103.656845 70.785179 15755.283203
3.040000 1.080000 -8.880000 -100.232086 -10.158998 10149.675781
3.040000 1.080000 -8.840000 -45.599274 -56.122509 5229.029785
3.040000 1.080000 -8.800000 12.910994 -47.610771 2433.479492
3.040000 1.120000 -9.200000 -23.821751 -0.919176 568.320740
3.040000 1.120000 -9.160000 -3.562767 -21.997162 496.568420
3.040000 1.120000 -9.120000 33.742374 -18.082111 1465.510620
3.040000 1.120000 -9.080000 58.726189 20.516306 3869.684082
3.040000 1.120000 -9.040000 42.894829 72.000893 7024.094727
3.040000 1.120000 -9.000000 -12.234367 96.310593 9425.410156
3.040000 1.120000 -8.960000 -70.704887 69.436203 9820.567383
3.040000 1.120000 -8.920000 -90.155899 6.748211 8173.624512
3.040000 1.120000 -8.880000 -57.622829 -48.294716 5652.770020
3.040000 1.120000 -8.840000 0.518740 -60.414822 3650.219727
3.040000 1.120000 -8.800000 43.085087 -29.879793 2749.126709
3.040000 1.160000 -9.200000 -18.323000 0.694889 336.215210
3.040000 1.160000 -9.160000 -7.033867 -9.898851 147.462540
3.040000 1.160000 -9.120000 12.914898 -5.685457 199.119019
3.040000 1.160000 -9.080000 22.944744 17.461929 831.380249
3.040000 1.160000 -9.040000 7.682228 43.241028 1928.803101
3.040000 1.160000 -9.000000 -26.576668 46.901749 2906.093262
3.040000 1.160000 -8.960000 -53.198853 19.100498 3194.947021
3.040000 1.160000 -8.920000 -47.769238 -22.313038 2779.771729
3.040000 1.160000 -8.880000 -10.786978 -45.923164 2225.295898
3.040000 1.160000 -8.840000 31.873505 -33.667747 2149.437500
3.040000 1.160000 -8.800000 51.297546 4.596103 2652.562500
3.040000 1.200000 -9.200000 -23.782673 2.232719 570.600586
3.040000 1.200000 -9.160000 -19.085472 -11.338709 492.821564
3.040000 1.200000 -9.120000 -3.327921 -15.346946 246.603806
3.040000 1.200000 -9.080000 9.186382 -3.861561 99.301270
3.040000 1.200000 -9.040000 5.699520 12.548571 189.951157
3.040000 1.200000 -9.000000 -10.344955 16.604202 382.717621
3.040000 1.200000 -8.960000 -21.127357 2.599827 453.124329
3.040000 1.200000 -8.920000 -11.976507 -16.108244 402.912231
3.040000 1.200000 -8.880000 13.086201 -19.012333 532.717468
3.040000 1.200000 -8.840000 33.912922 1.882597 1153.630493
3.040000 1.200000 -8.800000 32.365143 34.272633 2222.115723
3.080000 0.800000 -9.200000 -36.240788 -1.080547 1314.562256
3.080000 0.800000 -9.160000 -36.078873 -35.181885 2539.450195
3.080000 0.800000 -9.120000 -6.388548 -62.948822 4003.367676
3.080000 0.800000 -9.080000 37.857437 -60.050320 5039.226562
3.080000 0.800000 -9.040000 65.733200 -25.198915 4955.838867
3.080000 0.800000 -9.000000 58.141323 15.702286 3626.975098
3.080000 0.800000 -8.960000 26.134048 32.347084 1729.322266
3.080000 0.800000 -8.920000 0.338543 17.896872 320.412628
3.080000 0.800000 -8.880000 1.440366 -6.149033 39.885254
3.080000 0.800000 -8.840000 21.562267 -12.900974 631.366516
3.080000 0.800000 -8.800000 34.971146 3.059575 1232.342041
3.080000 0.840000 -9.200000 -17.770061 -21.910313 795.836914
3.080000 0.840000 -9.160000 -8.574937 -39.433624 1628.540283
3.080000 0.840000 -9.120000 15.398695 -49.462482 2683.656982
3.080000 0.840000 -9.080000 43.324257 -40.014206 3478.127930
3.080000 0.840000 -9.040000 57.533104 -14.073767 3508.128906
3.080000 0.840000 -9.000000 50.556126 11.230839 2682.053711
3.080000 0.840000 -8.960000 32.665237 20.566650 1490.004883
3.080000 0.840000 -8.920000 21.279890 14.765373 670.849976
3.080000 0.840000 -8.880000 23.347694 8.226542 612.790771
3.080000 0.840000 -8.840000 29.733147 12.293277 1035.184692
3.080000 0.840000 -8.800000 27.316586 23.111301 1280.328125
3.080000 0.880000 -9.200000 8.084730 -17.064428 356.557556
3.080000 0.880000 -9.160000 6.734066 -21.404337 503.493286
3.080000 0.880000 -9.120000 14.712253 -30.731815 1160.894775
3.080000 0.880000 -9.080000 33.323101 -33.119637 2207.339355
3.080000 0.880000 -9.040000 52.824596 -21.114510 3236.260498
3.080000 0.880000 -9.000000 61.685513 1.488750 3807.318848
3.080000 0.880000 -8.960000 56.227058 23.919853 3733.641602
3.080000 0.880000 -8.920000 41.709961 37.750202 3164.798584
3.080000 0.880000 -8.880000 25.930399 41.626747 2405.171631
3.080000 0.880000 -8.840000 13.529112 38.671986 1678.559326
3.080000 0.880000 -8.800000 5.965948 31.983130 1058.513184
3.080000 0.920000 -9.200000 16.347582 6.341116 307.453186
3.080000 0.920000 -9.160000 -1.301658 -3.532057 14.169739
3.080000 0.920000 -9.120000 1.521712 -28.707916 826.460083
3.080000 0.920000 -9.080000 30.836941 -44.277847 2911.444580
3.080000 0.920000 -9.040000 68.893250 -30.224218 5659.783203
3.080000 0.920000 -9.000000 88.276978 10.885674 7911.322754
3.080000 0.920000 -8.960000 74.297882 55.594265 8610.897461
3.080000 0.920000 -8.920000 36.038635 78.421883 7448.774902
3.080000 0.920000 -8.880000 -2.327173 70.901108 5032.382812
3.080000 0.920000 -8.840000 -20.755018 45.294472 2482.359863
3.080000 0.920000 -8.800000 -16.372524 22.320181 766.250000
3.080000 0.960000 -9.200000 1.205930 24.298323 591.862793
3.080000 0.960000 -9.160000 -18.671621 -4.922335 372.858826
3.080000 0.960000 -9.120000 -0.823439 -43.518490 1894.537109
3.080000 0.960000 -9.080000 49.881084 -53.859329 5388.950195
3.080000 0.960000 -9.040000 97.616608 -16.818035 9811.848633
3.080000 0.960000 -9.000000 104.012833 49.197475 13239.060547
3.080000 0.960000 -8.960000 60.557297 101.537277 13977.004883
3.080000 0.960000 -8.920000 -4.170609 107.811302 11640.670898
3.080000 0.960000 -8.880000 -48.645935 70.962959 7402.168945
3.080000 0.960000 -8.840000 -51.623169 23.583261 3221.121826
3.080000 0.960000 -8.800000 -25.344187 -1.192882 643.750793
3.080000 1.000000 -9.200000 -20.355141 21.164614 862.272644
3.080000 1.000000 -9.160000 -23.333200 -21.680069 1014.463623
3.080000 1.000000 -9.120000 17.336304 -54.061790 3223.224609
3.080000 1.000000 -9.080000 77.811394 -39.603729 7623.068359
3.080000 1.000000 -9.040000 110.703560 23.761997 12819.911133
3.080000 1.000000 -9.000000 84.378937 96.778831 16485.947266
3.080000 1.000000 -8.960000 11.765530 128.974045 16772.732422
3.080000 1.000000 -8.920000 -58.905296 100.273842 13524.677734
3.080000 1.000000 -8.880000 -83.894844 36.476765 8368.899414
3.080000 1.000000 -8.840000 -58.233719 -14.834930 3611.241211
3.080000 1.000000 -8.800000 -14.566704 -24.533195 814.066528
3.080000 1.040000 -9.200000 -28.335609 3.934634 818.388062
3.080000 1.040000 -9.160000 -9.697106 -33.242661 1199.108398
3.080000 1.040000 -9.120000 40.629196 -42.362068 3445.276367
3.080000 1.040000 -9.080000 87.220184 -2.647641 7614.370117
3.080000 1.040000 -9.040000 88.186111 67.497818 12332.746094
3.080000 1.040000 -9.000000 32.658127 119.850998 15430.814453
3.080000 1.040000 -8.960000 -45.709663 115.063278 15328.930664
3.080000 1.040000 -8.920000 -94.510757 56.501884 12124.746094
3.080000 1.040000 -8.880000 -85.606430 -12.623260 7487.807617
3.080000 1.040000 -8.840000 -36.245613 -46.436462 3470.089355
3.080000 1.040000 -8.800000 9.994204 -33.269100 1206.717163
3.080000 1.080000 -9.200000 -20.327381 -8.371979 483.292450
3.080000 1.080000 -9.160000 6.413299 -26.461552 741.344116
3.080000 1.080000 -9.120000 45.430111 -14.451346 2272.736328
3.080000 1.080000 -9.080000 64.904381 31.166348 5183.919922
3.080000 1.080000 -9.040000 40.204247 83.070580 8517.102539
3.080000 1.080000 -9.000000 -20.416626 101.369019 10692.516602
3.080000 1.080000 -8.960000 -77.449875 67.700081 10581.783203
3.080000 1.080000 -8.920000 -91.282028 3.410734 8344.041016
3.080000 1.080000 -8.880000 -55.371391 -47.059250 5280.563965
3.080000 1.080000 -8.840000 -0.474554 -53.233276 2834.006836
3.080000 1.080000 -8.800000 33.656479 -21.761503 1606.321533
3.080000 1.120000 -9.200000 -11.118255 -6.720704 168.783447
3.080000 1.120000 -9.160000 6.808740 -10.211493 150.633514
3.080000 1.120000 -9.120000 25.992542 5.264999 703.332458
3.080000 1.120000 -9.080000 26.713778 36.507504 2046.423828
3.080000 1.120000 -9.040000 -1.151009 61.584167 3793.934326
3.080000 1.120000 -9.000000 -43.561035 56.409294 5079.572266
3.080000 1.120000 -8.960000 -69.771477 18.098171 5195.603027
3.080000 1.120000 -8.920000 -58.009781 -28.658833 4186.463379
3.080000 1.120000 -8.880000 -15.527544 -50.812199 2822.984375
3.080000 1.120000 -8.840000 27.049608 -34.829964 1944.807617
3.080000 1.120000 -8.800000 42.163792 3.257176 1788.394531
3.080000 1.160000 -9.200000 -13.606001 -0.745186 185.678558
3.080000 1.160000 -9.160000 -7.984191 -4.774611 86.544220
3.080000 1.160000 -9.120000 1.286310 -0.181721 1.687616
3.080000 1.160000 -9.080000 2.415089 13.594169 190.634079
3.080000 1.160000 -9.040000 -11.431540 24.095116 711.254700
3.080000 1.160000 -9.000000 -31.330748 17.207943 1277.729004
3.080000 1.160000 -8.960000 -38.227184 -6.615562 1505.083252
3.080000 1.160000 -8.920000 -21.207153 -29.327940 1309.871338
3.080000 1.160000 -8.880000 10.135757 -30.493334 1032.576904
3.080000 1.160000 -8.840000 32.801941 -6.274059 1115.331055
3.080000 1.160000 -8.800000 30.527971 26.892374 1655.156738
3.080000 1.200000 -9.200000 -23.415892 -5.630929 580.011292
3.080000 1.200000 -9.160000 -19.070436 -18.532013 707.117065
3.080000 1.200000 -9.120000 -4.659910 -22.496727 527.817505
3.080000 1.200000 -9.080000 6.880177 -13.037385 217.310242
3.080000 1.200000 -9.040000 5.534010 0.297297 30.713650
3.080000 1.200000 -9.000000 -4.664083 4.208229 39.462868
3.080000 1.200000 -8.960000 -9.847120 -3.579838 109.781013
3.080000 1.200000 -8.920000 -1.594599 -11.323784 130.770828
3.080000 1.200000 -8.880000 13.259534 -5.527172 206.364868
3.080000 1.200000 -8.840000 18.872547 14.536393 567.479736
3.080000 1.200000 -8.800000 5.995158 35.384216 1287.984619
3.120000 0.800000 -9.200000 -17.168919 -12.091504 440.976227
3.120000 0.800000 -9.160000 -2.151518 -30.941345 961.995850
3.120000 0.800000 -9.120000 27.101423 -34.640060 1934.420898
3.120000 0.800000 -9.080000 53.570438 -14.218220 3071.949463
3.120000 0.800000 -9.040000 57.836937 20.834972 3779.207520
3.120000 0.800000 -9.000000 35.819622 47.777191 3565.705078
3.120000 0.800000 -8.960000 3.949013 49.639309 2479.655762
3.120000 0.800000 -8.920000 -14.888496 30.100582 1127.712402
3.120000 0.800000 -8.880000 -11.614728 9.156300 218.739716
3.120000 0.800000 -8.840000 2.450777 3.554139 18.638212
3.120000 0.800000 -8.800000 9.051374 11.671001 218.139648
3.120000 0.840000 -9.200000 0.594216 -16.206383 262.999939
3.120000 0.840000 -9.160000 13.472244 -21.195253 630.740112
3.120000 0.840000 -9.120000 32.373768 -16.281519 1313.148682
3.120000 0.840000 -9.080000 46.314186 3.152253 2154.940674
3.120000 0.840000 -9.040000 43.568481 29.142687 2747.508789
3.120000 0.840000 -9.000000 24.051952 46.035507 2697.764160
3.120000 0.840000 -8.960000 1.033398 44.521366 1983.219971
3.120000 0.840000 -8.920000 -10.681979 30.228569 1027.871094
3.120000 0.840000 -8.880000 -8.106043 17.531372 373.056946
3.120000 0.840000 -8.840000 -0.962225 15.069088 228.003281
3.120000 0.840000 -8.800000 0.397445 18.499596 342.393005
3.120000 0.880000 -9.200000 11.679276 -2.701426 143.703201
3.120000 0.880000 -9.160000 12.094724 -4.244525 164.298340
3.120000 0.880000 -9.120000 20.497183 -4.703062 442.253296
3.120000 0.880000 -9.080000 31.410725 4.663795 1008.384583
3.120000 0.880000 -9.040000 33.935345 22.934340 1677.591553
3.120000 0.880000 -9.000000 23.059948 39.854420 2120.135986
3.120000 0.880000 -8.960000 4.558897 45.606014 2100.691895
3.120000 0.880000 -8.920000 -10.898575 39.327610 1665.439819
3.120000 0.880000 -8.880000 -17.236343 28.123081 1087.999268
3.120000 0.880000 -8.840000 -16.156988 19.212908 630.184082
3.120000 0.880000 -8.800000 -12.329800 14.567181 364.226715
3.120000 0.920000 -9.200000 4.817572 12.766053 186.181107
3.120000 0.920000 -9.160000 -2.594337 0.926798 7.589539
3.120000 0.920000 -9.120000 7.753757 -10.971450 180.493469
3.120000 0.920000 -9.080000 27.835918 -6.719473 819.989685
3.120000 0.920000 -9.040000 39.373470 15.926855 1803.934814
3.120000 0.920000 -9.000000 29.977081 43.069717 2753.625977
3.120000 0.920000 -8.960000 3.543308 56.629929 3219.503662
3.120000 0.920000 -8.920000 -23.698763 48.993462 2961.990723
3.120000 0.920000 -8.880000 -36.659328 27.708294 2111.656006
3.120000 0.920000 -8.840000 -32.000061 7.827906 1085.280029
3.120000 0.920000 -8.800000 -18.079012 0.192099 326.887573
3.120000 0.960000 -9.200000 -11.464165 13.914215 325.032471
3.120000 0.960000 -9.160000 -12.285831 -10.290936 256.845001
3.120000 0.960000 -9.120000 11.015561 -24.832226 737.982056
3.120000 0.960000 -9.080000 40.813675 -11.985058 1809.397705
3.120000 0.960000 -9.040000 51.174751 24.069160 3198.179688
3.120000 0.960000 -9.000000 29.665522 59.133549 4376.819824
3.120000 0.960000 -8.960000 -11.653990 68.349052 4807.408203
3.120000 0.960000 -8.920000 -45.905621 46.275284 4248.727539
3.120000 0.960000 -8.880000 -53.069199 10.368204 2923.839600
3.120000 0.960000 -8.840000 -34.783638 -14.332014 1415.308105
3.120000 0.960000 -8.800000 -10.422318 -15.114740 337.080078
3.120000 1.000000 -9.200000 -19.789761 1.177589 393.021332
3.120000 1.000000 -9.160000 -5.383424 -23.451324 578.945862
3.120000 1.000000 -9.120000 27.842510 -26.352283 1469.648193
3.120000 1.000000 -9.080000 54.512573 2.133192 2976.171143
3.120000 1.000000 -9.040000 49.753899 46.206833 4610.521484
3.120000 1.000000 -9.000000 11.040905 74.676147 5698.428223
3.120000 1.000000 -8.960000 -37.480392 65.884369 5745.529785
3.120000 1.000000 -8.920000 -63.641037 25.984291 4725.365234
3.120000 1.000000 -8.880000 -53.184479 -16.138292 3089.033447
3.120000 1.000000 -8.840000 -20.179539 -33.028465 1498.093262
3.120000 1.000000 -8.800000 6.875351 -20.299276 459.331055
3.120000 1.040000 -9.200000 -13.529789 -10.501575 293.338287
3.120000 1.040000 -9.160000 9.769529 -22.195538 588.085571
3.120000 1.040000 -9.120000 38.474232 -9.206134 1565.019409
3.120000 1.040000 -9.080000 48.902710 26.614510 3099.807129
3.120000 1.040000 -9.040000 26.471954 62.775497 4641.527344
3.120000 1.040000 -9.000000 -19.010197 71.616013 5490.240723
3.120000 1.040000 -8.960000 -57.857883 43.527809 5242.205078
3.120000 1.040000 -8.920000 -63.641945 -3.141442 4060.165771
3.120000 1.040000 -8.880000 -35.146355 -36.222225 2547.315918
3.120000 1.040000 -8.840000 3.152522 -36.259590 1324.696289
3.120000 1.040000 -8.800000 22.889988 -11.426379 654.513672
3.120000 1.080000 -9.200000 -2.987341 -9.685104 102.725456
3.120000 1.080000 -9.160000 14.708736 -7.463486 272.050537
3.120000 1.080000 -9.120000 28.002777 10.846195 901.795471
3.120000 1.080000 -9.080000 22.713961 38.057362 1964.286865
3.120000 1.080000 -9.040000 -4.805387 55.305435 3081.782959
3.120000 1.080000 -9.000000 -39.843235 45.997135 3703.219727
3.120000 1.080000 -8.960000 -57.892616 11.948214 3494.314697
3.120000 1.080000 -8.920000 -44.747047 -24.806492 2617.660156
3.120000 1.080000 -8.880000 -9.833988 -38.998894 1617.620972
3.120000 1.080000 -8.840000 21.042475 -23.381042 989.458862
3.120000 1.080000 -8.800000 27.891300 5.854388 812.198486
3.120000 1.120000 -9.200000 -2.066242 -1.257690 5.851141
3.120000 1.120000 -9.160000 2.496197 3.142153 16.104122
3.120000 1.120000 -9.120000 4.145521 12.403344 171.028290
3.120000 1.120000 -9.080000 -3.076607 23.381552 556.162476
3.120000 1.120000 -9.040000 -19.831810 26.356619 1087.972046
3.120000 1.120000 -9.000000 -36.108109 13.654372 1490.237427
3.120000 1.120000 -8.960000 -37.458698 -10.036651 1503.888428
3.120000 1.120000 -8.920000 -18.811214 -28.182735 1148.128418
3.120000 1.120000 -8.880000 8.387375 -25.938528 743.155334
3.120000 1.120000 -8.840000 24.713228 -4.087709 627.453003
3.120000 1.120000 -8.800000 19.768782 21.139061 837.664612
3.120000 1.160000 -9.200000 -11.419230 0.177076 130.430176
3.120000 1.160000 -9.160000 -13.422376 -4.707094 202.316910
3.120000 1.160000 -9.120000 -9.625149 -7.863284 154.474731
3.120000 1.160000 -9.080000 -5.898808 -5.347178 63.388241
3.120000 1.160000 -9.040000 -7.735694 -1.602888 62.410213
3.120000 1.160000 -9.000000 -12.375856 -3.656719 166.533417
3.120000 1.160000 -8.960000 -11.302558 -11.319035 255.868362
3.120000 1.160000 -8.920000 -0.718164 -15.546068 242.195999
3.120000 1.160000 -8.880000 12.273262 -7.736847 210.491776
3.120000 1.160000 -8.840000 15.580496 10.174253 346.267273
3.120000 1.160000 -8.800000 4.135286 26.422316 715.239319
3.120000 1.200000 -9.200000 -17.367476 -11.808706 441.074768
3.120000 1.200000 -9.160000 -13.360874 -25.105413 808.794739
3.120000 1.200000 -9.120000 1.379793 -30.410303 926.690369
3.120000 1.200000 -9.080000 15.335875 -22.268608 731.079956
3.120000 1.200000 -9.040000 18.384705 -7.610374 395.915161
3.120000 1.200000 -9.000000 11.471474 2.218275 136.515457
3.120000 1.200000 -8.960000 4.007662 3.230933 26.500282
3.120000 1.200000 -8.920000 2.715111 1.551906 9.780237
3.120000 1.200000 -8.880000 4.643835 5.018547 46.751019
3.120000 1.200000 -8.840000 1.533763 13.757970 191.634171
3.120000 1.200000 -8.800000 -10.304818 20.068865 508.948608
3.160000 0.800000 -9.200000 -3.028824 -4.158118 26.463720
3.160000 0.800000 -9.160000 9.339480 -6.453728 128.876495
3.160000 0.800000 -9.120000 23.695593 1.224270 562.979980
3.160000 0.800000 -9.080000 30.884548 20.010431 1354.272705
3.160000 0.800000 -9.040000 22.445930 41.888000 2258.424316
3.160000 0.800000 -9.000000 -0.548920 53.259094 2836.832275
3.160000 0.800000 -8.960000 -25.676006 45.764629 2753.658691
3.160000 0.800000 -8.920000 -38.193634 24.284418 2048.486572
3.160000 0.800000 -8.880000 -33.301178 3.283611 1119.750610
3.160000 0.800000 -8.840000 -19.461399 -5.862969 413.120483
3.160000 0.800000 -8.800000 -9.183741 -4.137533 101.460274
3.160000 0.840000 -9.200000 3.509628 -1.532064 14.664708
3.160000 0.840000 -9.160000 9.882546 1.332906 99.441368
3.160000 0.840000 -9.120000 17.135788 10.077527 395.191772
3.160000 0.840000 -9.080000 17.935492 26.012798 998.347534
3.160000 0.840000 -9.040000 5.905538 41.655754 1770.077271
3.160000 0.840000 -9.000000 -15.784382 45.651657 2333.220459
3.160000 0.840000 -8.960000 -34.812714 33.565041 2338.537109
3.160000 0.840000 -8.920000 -39.989559 13.080757 1770.270996
3.160000 0.840000 -8.880000 -31.121435 -2.625543 975.437195
3.160000 0.840000 -8.840000 -18.037971 -6.713686 370.441986
3.160000 0.840000 -8.800000 -10.020055 -3.326025 111.463936
3.160000 0.880000 -9.200000 2.149014 5.633967 36.359848
3.160000 0.880000 -9.160000 1.648797 5.566788 33.707657
3.160000 0.880000 -9.120000 5.097942 9.126721 109.286057
3.160000 0.880000 -9.080000 5.198143 19.174065 394.665436
3.160000 0.880000 -9.040000 -4.311662 29.562765 892.547546
3.160000 0.880000 -9.000000 -20.837633 30.925037 1390.564819
3.160000 0.880000 -8.960000 -34.474232 20.264450 1599.120605
3.160000 0.880000 -8.920000 -37.132141 4.106774 1395.661499
3.160000 0.880000 -8.880000 -29.427643 -7.782761 926.557495
3.160000 0.880000 -8.840000 -18.587162 -10.904526 464.391296
3.160000 0.880000 -8.800000 -10.732344 -7.877942 177.245163
3.160000 0.920000 -9.200000 -5.933517 6.715560 80.305374
3.160000 0.920000 -9.160000 -6.404263 -0.494192 41.258816
3.160000 0.920000 -9.120000 0.132566 -1.664565 2.788351
3.160000 0.920000 -9.080000 4.315035 6.282278 58.086544
3.160000 0.920000 -9.040000 -1.231307 16.891272 286.831177
3.160000 0.920000 -9.000000 -14.999561 20.485680 644.649902
3.160000 0.920000 -8.960000 -28.238949 12.867500 963.010803
3.160000 0.920000 -8.920000 -32.636787 -1.567611 1067.617310
3.160000 0.920000 -8.880000 -26.554144 -14.126774 904.688293
3.160000 0.920000 -8.840000 -15.022250 -18.532003 569.103149
3.160000 0.920000 -8.800000 -5.112617 -14.223006 228.432739
3.160000 0.960000 -9.200000 -10.560007 -0.893783 112.312599
3.160000 0.960000 -9.160000 -4.204309 -10.706571 132.306870
3.160000 0.960000 -9.120000 7.610861 -10.060108 159.130981
3.160000 0.960000 -9.080000 13.998198 1.403409 197.919098
3.160000 0.960000 -9.040000 7.995476 15.136432 293.039185
3.160000 0.960000 -9.000000 -7.904350 20.223347 471.462524
3.160000 0.960000 -8.960000 -23.477955 11.763325 689.590149
3.160000 0.960000 -8.920000 -28.413935 -5.381322 836.310303
3.160000 0.960000 -8.880000 -19.920794 -20.163191 803.392273
3.160000 0.960000 -8.840000 -4.692554 -23.477676 573.221375
3.160000 0.960000 -8.800000 6.165154 -14.725322 254.844208
3.160000 1.000000 -9.200000 -5.501925 -8.649097 105.078064
3.160000 1.000000 -9.160000 6.414542 -12.703287 202.519852
3.160000 1.000000 -9.120000 18.005581 -5.549726 355.000427
3.160000 1.000000 -9.080000 20.379398 9.443787 504.505005
3.160000 1.000000 -9.040000 9.745275 22.664867 608.666626
3.160000 1.000000 -9.000000 -8.784678 24.107540 658.344055
3.160000 1.000000 -8.960000 -23.419399 10.968525 668.776794
3.160000 1.000000 -8.920000 -23.876312 -8.953584 650.244995
3.160000 1.000000 -8.880000 -9.854339 -22.168362 588.544250
3.160000 1.000000 -8.840000 7.816627 -20.004894 461.295441
3.160000 1.000000 -8.800000 15.588675 -6.103400 280.258301
3.160000 1.040000 -9.200000 3.625733 -7.346684 67.119720
3.160000 1.040000 -9.160000 12.646784 -2.930144 168.526886
3.160000 1.040000 -9.120000 16.906853 7.298047 339.103149
3.160000 1.040000 -9.080000 12.730078 19.252317 532.706604
3.160000 1.040000 -9.040000 -0.131198 25.987263 675.355042
3.160000 1.040000 -9.000000 -15.730975 21.245766 698.846130
3.160000 1.040000 -8.960000 -23.771038 5.497299 595.282532
3.160000 1.040000 -8.920000 -17.314255 -11.731020 437.400269
3.160000 1.040000 -8.880000 -0.121720 -18.055397 326.012177
3.160000 1.040000 -8.840000 14.818140 -9.043196 301.356659
3.160000 1.040000 -8.800000 16.179539 6.814839 308.219513
3.160000 1.080000 -9.200000 5.878300 1.426799 36.590164
3.160000 1.080000 -9.160000 5.314372 7.796286 89.024620
3.160000 1.080000 -9.120000 2.158636 12.377169 157.854019
3.160000 1.080000 -9.080000 -2.958584 15.401628 245.963379
3.160000 1.080000 -9.040000 -10.387064 15.245557 340.318115
3.160000 1.080000 -9.000000 -17.387005 9.036760 383.971008
3.160000 1.080000 -8.960000 -17.918510 -2.188247 325.861450
3.160000 1.080000 -8.920000 -8.695717 -11.080477 198.392456
3.160000 1.080000 -8.880000 5.130295 -9.519312 116.937225
3.160000 1.080000 -8.840000 12.791002 2.612247 170.433578
3.160000 1.080000 -8.800000 8.079632 15.683647 311.257233
3.160000 1.120000 -9.200000 -1.784812 6.637620 47.243561
3.160000 1.120000 -9.160000 -9.416669 5.581491 119.826691
3.160000 1.120000 -9.120000 -11.691299 -0.128171 136.702911
3.160000 1.120000 -9.080000 -8.845142 -3.649402 91.554672
3.160000 1.120000 -9.040000 -6.111283 -3.190498 47.527061
3.160000 1.120000 -9.000000 -5.947621 -2.450860 41.380913
3.160000 1.120000 -8.960000 -5.331884 -4.017342 44.568020
3.160000 1.120000 -8.920000 -1.056890 -4.949183 25.611429
3.160000 1.120000 -8.880000 4.465127 -0.537364 20.226122
3.160000 1.120000 -8.840000 4.918988 8.716183 100.168282
3.160000 1.120000 -8.800000 -2.324906 16.184235 267.334625
3.160000 1.160000 -9.200000 -10.151547 0.618185 103.436073
3.160000 1.160000 -9.160000 -15.291070 -10.413761 342.263245
3.160000 1.160000 -9.120000 -7.978882 -21.252632 515.336914
3.160000 1.160000 -9.080000 5.543551 -21.622738 498.273743
3.160000 1.160000 -9.040000 14.076015 -11.762627 336.493591
3.160000 1.160000 -9.000000 12.777657 -0.457946 163.478226
3.160000 1.160000 -8.960000 6.172304 5.022234 63.320179
3.160000 1.160000 -8.920000 1.170125 5.309433 29.559278
3.160000 1.160000 -8.880000 -0.661547 5.611383 31.925268
3.160000 1.160000 -8.840000 -3.049674 8.296988 78.140518
3.160000 1.160000 -8.800000 -8.863932 10.565516 190.199402
3.160000 1.200000 -9.200000 -7.708335 -11.308664 187.304321
3.160000 1.200000 -9.160000 -3.346307 -25.343927 653.512390
3.160000 1.200000 -9.120000 13.566703 -30.850220 1135.791504
3.160000 1.200000 -9.080000 30.543716 -20.282318 1344.291016
3.160000 1.200000 -9.040000 34.586559 0.043244 1196.231934
3.160000 1.200000 -9.000000 23.744865 16.489248 835.713867
3.160000 1.200000 -8.960000 7.273508 20.563440 475.759003
3.160000 1.200000 -8.920000 -4.255419 14.776114 236.442108
3.160000 1.200000 -8.880000 -7.859591 7.540079 118.625961
3.160000 1.200000 -8.840000 -8.046095 4.221989 82.564827
3.160000 1.200000 -8.800000 -10.090578 3.611051 114.859451
3.200000 0.800000 -9.200000 -4.571047 7.937028 83.890900
3.200000 0.800000 -9.160000 -3.858099 10.374323 122.511497
3.200000 0.800000 -9.120000 -2.345757 13.544304 188.950745
3.200000 0.800000 -9.080000 -2.335637 20.665951 432.536713
3.200000 0.800000 -9.040000 -9.641810 29.853220 984.179199
3.200000 0.800000 -9.000000 -25.825829 32.782791 1741.684814
3.200000 0.800000 -8.960000 -43.210506 22.145529 2357.572266
3.200000 0.800000 -8.920000 -49.846016 0.372947 2484.764404
3.200000 0.800000 -8.880000 -40.377670 -20.644367 2056.546143
3.200000 0.800000 -8.840000 -21.341040 -29.640944 1334.025513
3.200000 0.800000 -8.800000 -4.801727 -25.658398 681.409973
3.200000 0.840000 -9.200000 -6.494063 5.344311 70.734512
3.200000 0.840000 -9.160000 -7.850769 6.716283 106.743042
3.200000 0.840000 -9.120000 -7.615753 9.601502 150.188538
3.200000 0.840000 -9.080000 -10.383492 16.029829 364.772339
3.200000 0.840000 -9.040000 -20.672356 21.118229 873.325867
3.200000 0.840000 -9.000000 -35.632828 16.883850 1554.762695
3.200000 0.840000 -8.960000 -45.433052 1.157976 2065.502930
3.200000 0.840000 -8.920000 -41.964951 -18.435398 2100.920898
3.200000 0.840000 -8.880000 -26.813141 -30.548317 1652.144165
3.200000 0.840000 -8.840000 -9.720248 -30.117012 1001.517639
3.200000 0.840000 -8.800000 0.747384 -21.728268 472.676208
3.200000 0.880000 -9.200000 -8.054301 1.190487 66.289024
3.200000 0.880000 -9.160000 -9.526594 0.490905 90.996986
3.200000 0.880000 -9.120000 -10.209286 2.224556 109.178162
3.200000 0.880000 -9.080000 -14.568348 5.475579 242.218719
3.200000 0.880000 -9.040000 -23.501486 4.850327 575.845520
3.200000 0.880000 -9.000000 -31.824768 -3.589894 1025.703247
3.200000 0.880000 -8.960000 -32.653496 -17.276289 1364.720947
3.200000 0.880000 -8.920000 -24.057146 -28.676416 1401.083130
3.200000 0.880000 -8.880000 -10.873083 -31.882578 1134.722656
3.200000 0.880000 -8.840000 0.001120 -27.165028 737.938721
3.200000 0.880000 -8.800000 5.370977 -19.117899 394.341431
3.200000 0.920000 -9.200000 -6.012091 -4.594190 57.251820
3.200000 0.920000 -9.160000 -5.848964 -5.637033 65.986519
3.200000 0.920000 -9.120000 -6.891001 -4.963634 72.123550
3.200000 0.920000 -9.080000 -10.388272 -5.347058 136.507233
3.200000 0.920000 -9.040000 -14.203659 -9.232606 286.984924
3.200000 0.920000 -9.000000 -14.955914 -15.958450 478.351501
3.200000 0.920000 -8.960000 -11.256507 -22.358356 626.605042
3.200000 0.920000 -8.920000 -4.594335 -25.590647 675.989136
3.200000 0.920000 -8.880000 2.480133 -24.931427 627.727112
3.200000 0.920000 -8.840000 8.188548 -21.071650 511.066711
3.200000 0.920000 -8.800000 11.407057 -14.748032 347.625366
3.200000 0.960000 -9.200000 1.069278 -7.414626 56.120037
3.200000 0.960000 -9.160000 1.636808 -6.126969 40.218887
3.200000 0.960000 -9.120000 -0.210682 -6.287529 39.577408
3.200000 0.960000 -9.080000 -1.331301 -9.183163 86.102837
3.200000 0.960000 -9.040000 0.422240 -12.475763 155.822952
3.200000 0.960000 -9.000000 3.732919 -13.547827 197.478302
3.200000 0.960000 -8.960000 6.008611 -12.754261 198.774567
3.200000 0.960000 -8.920000 7.052462 -12.384148 203.104324
3.200000 0.960000 -8.880000 9.109399 -12.823986 247.435760
3.200000 0.960000 -8.840000 13.002151 -11.333473 297.503540
3.200000 0.960000 -8.800000 15.470118 -5.697700 271.788330
3.200000 1.000000 -9.200000 8.643059 -2.987376 83.626877
3.200000 1.000000 -9.160000 5.900078 0.653240 35.237640
3.200000 1.000000 -9.120000 2.483510 -1.547175 8.561574
3.200000 1.000000 -9.080000 4.135350 -6.079598 54.062637
3.200000 1.000000 -9.040000 9.688763 -6.641234 137.978119
3.200000 1.000000 -9.000000 13.042446 -2.119378 174.597168
3.200000 1.000000 -8.960000 11.078493 2.324400 128.135849
3.200000 1.000000 -8.920000 7.480071 2.108310 60.396423
3.200000 1.000000 -8.880000 7.707940 -0.772944 60.009777
3.200000 1.000000 -8.840000 11.506607 -0.350004 132.524506
3.200000 1.000000 -8.800000 12.627426 5.109599 185.559891
3.200000 1.040000 -9.200000 9.676139 6.410785 134.725830
3.200000 1.040000 -9.160000 1.245223 8.464670 73.201225
3.200000 1.040000 -9.120000 -2.677821 1.809051 10.443387
3.200000 1.040000 -9.080000 2.603019 -4.083183 23.448093
3.200000 1.040000 -9.040000 10.713185 -1.528515 117.108696
3.200000 1.040000 -9.000000 12.562767 6.881699 205.180908
3.200000 1.040000 -8.960000 6.978995 12.330696 200.752441
3.200000 1.040000 -8.920000 1.094686 10.646932 114.555496
3.200000 1.040000 -8.880000 0.875599 6.577272 44.027180
3.200000 1.040000 -8.840000 3.904324 6.794056 61.402939
3.200000 1.040000 -8.800000 3.311382 10.865531 129.025009
3.200000 1.080000 -9.200000 2.531809 12.744888 168.842224
3.200000 1.080000 -9.160000 -9.384327 8.249737 156.123749
3.200000 1.080000 -9.120000 -10.042365 -3.879766 115.901688
3.200000 1.080000 -9.080000 0.691270 -9.696002 94.490303
3.200000 1.080000 -9.040000 11.162757 -3.082459 134.108688
3.200000 1.080000 -9.000000 11.357320 8.907163 208.326263
3.200000 1.080000 -8.960000 2.857235 15.262829 241.117737
3.200000 1.080000 -8.920000 -5.015254 12.941376 192.631973
3.200000 1.080000 -8.880000 -6.620292 8.099002 109.422096
3.200000 1.080000 -8.840000 -5.033987 6.905431 73.026001
3.200000 1.080000 -8.800000 -5.842547 8.281453 102.717827
3.200000 1.120000 -9.200000 -6.167440 10.306012 144.251205
3.200000 1.120000 -9.160000 -15.724720 -2.130158 251.804382
3.200000 1.120000 -9.120000 -8.953470 -16.896730 365.664124
3.200000 1.120000 -9.080000 7.909958 -18.811037 416.422546
3.200000 1.120000 -9.040000 19.279400 -5.813960 405.497375
3.200000 1.120000 -9.000000 16.099613 10.505924 369.571991
3.200000 1.120000 -8.960000 3.177203 17.730991 324.482666
3.200000 1.120000 -8.920000 -8.085364 13.920021 259.140106
3.200000 1.120000 -8.880000 -11.566817 6.416768 174.966171
3.200000 1.120000 -8.840000 -9.989094 2.117801 104.267075
3.200000 1.120000 -8.800000 -8.627934 1.433070 76.494926
3.200000 1.160000 -9.200000 -7.900763 2.289334 67.663101
3.200000 1.160000 -9.160000 -10.214165 -14.233679 306.926758
3.200000 1.160000 -9.120000 4.667157 -25.794083 687.117065
3.200000 1.160000 -9.080000 24.588808 -19.538439 986.360107
3.200000 1.160000 -9.040000 32.493862 1.007971 1056.867065
3.200000 1.160000 -9.000000 22.346527 20.252935 909.548706
3.200000 1.160000 -8.960000 3.089942 25.499815 659.788269
3.200000 1.160000 -8.920000 -11.391588 16.987661 418.348907
3.200000 1.160000 -8.880000 -14.558775 4.657936 233.654297
3.200000 1.160000 -8.840000 -10.122606 -2.460554 108.521484
3.200000 1.160000 -8.800000 -5.594191 -2.769568 38.965477
3.200000 1.200000 -9.200000 -1.428713 -2.001679 6.047940
3.200000 1.200000 -9.160000 3.503401 -16.592892 287.597870
3.200000 1.200000 -9.120000 22.191181 -20.302898 904.656189
3.200000 1.200000 -9.080000 38.942402 -5.134362 1542.872314
3.200000 1.200000 -9.040000 38.320854 19.846443 1862.369263
3.200000 1.200000 -9.000000 19.219252 36.910114 1731.736206
3.200000 1.200000 -8.960000 -5.016989 35.387604 1277.452637
3.200000 1.200000 -8.920000 -19.090418 19.578669 747.768311
3.200000 1.200000 -8.880000 -18.080540 2.878557 335.192017
3.200000 1.200000 -8.840000 -8.992609 -4.422925 100.429291
3.200000 1.200000 -8.800000 -2.444963 -2.166312 10.670751
