#kx 	ky 	kz 	real 	imag 	intensity
4.800000 -5.200000 -5.200000 -42.640877 -1.119133 1819.496826
4.800000 -5.200000 -5.160000 -22.237411 -21.943794 976.032593
4.800000 -5.200000 -5.120000 3.350208 -10.738262 126.534164
4.800000 -5.200000 -5.080000 1.368158 19.349218 376.264099
4.800000 -5.200000 -5.040000 -31.164694 32.239159 2010.601562
4.800000 -5.200000 -5.000000 -62.686920 8.260068 3997.878662
4.800000 -5.200000 -4.960000 -60.327728 -33.456608 4758.779297
4.800000 -5.200000 -4.920000 -25.309982 -54.410408 3601.087646
4.800000 -5.200000 -4.880000 7.968922 -37.203423 1447.598267
4.800000 -5.200000 -4.840000 8.104199 -3.421253 77.383018
4.800000 -5.200000 -4.800000 -21.012701 9.863238 538.817078
4.800000 -5.160000 -5.200000 -31.005733 -30.040180 1863.767944
4.800000 -5.160000 -5.160000 -1.218590 -34.553509 1195.429932
4.800000 -5.160000 -5.120000 14.320673 -11.011551 326.335938
4.800000 -5.160000 -5.080000 -1.954225 12.437342 158.506470
4.800000 -5.160000 -5.040000 -32.849442 6.871589 1126.304565
4.800000 -5.160000 -5.000000 -44.387520 -25.819706 2636.909180
4.800000 -5.160000 -4.960000 -22.242647 -54.507034 3465.752197
4.800000 -5.160000 -4.920000 12.901218 -51.876488 2857.611328
4.800000 -5.160000 -4.880000 27.536516 -23.150372 1294.199463
4.800000 -5.160000 -4.840000 10.628358 0.338630 113.076660
4.800000 -5.160000 -4.800000 -16.030710 -5.168490 283.696960
4.800000 -5.120000 -5.200000 -1.643181 -39.876808 1592.859863
4.800000 -5.120000 -5.160000 22.924873 -26.734592 1240.288208
4.800000 -5.120000 -5.120000 23.470003 -1.395792 552.789307
4.800000 -5.120000 -5.080000 2.328699 8.957741 85.663956
4.800000 -5.120000 -5.040000 -15.591963 -6.201599 281.569122
4.800000 -5.120000 -5.000000 -9.772753 -29.866190 987.496033
4.800000 -5.120000 -4.960000 14.084476 -36.461040 1527.779907
4.800000 -5.120000 -4.920000 31.045008 -19.606300 1348.199463
4.800000 -5.120000 -4.880000 24.449543 1.677547 600.594299
4.800000 -5.120000 -4.840000 3.560704 4.401281 32.049889
4.800000 -5.120000 -4.800000 -7.521358 -13.523038 239.443390
4.800000 -5.080000 -5.200000 23.366892 -24.684851 1155.353516
4.800000 -5.080000 -5.160000 32.978592 -3.582023 1100.418457
4.800000 -5.080000 -5.120000 22.642452 14.008240 708.911438
4.800000 -5.080000 -5.080000 5.741585 14.077475 231.141083
4.800000 -5.080000 -5.040000 -0.021769 1.646257 2.710637
4.800000 -5.080000 -5.000000 8.440907 -6.262563 110.468597
4.800000 -5.080000 -4.960000 17.636211 -0.365482 311.169525
4.800000 -5.080000 -4.920000 14.138017 10.818592 316.925446
4.800000 -5.080000 -4.880000 0.526109 11.570015 134.142044
4.800000 -5.080000 -4.840000 -7.453462 -2.275885 60.733746
4.800000 -5.080000 -4.800000 1.020032 -17.985727 324.526855
4.800000 -5.040000 -5.200000 27.364202 1.386962 750.723206
4.800000 -5.040000 -5.160000 22.966499 18.418379 866.696777
4.800000 -5.040000 -5.120000 9.743299 25.467146 743.507385
4.800000 -5.040000 -5.080000 -0.597589 21.851215 477.832733
4.800000 -5.040000 -5.040000 -3.012938 16.528305 282.262665
4.800000 -5.040000 -5.000000 -3.294564 16.290300 276.228058
4.800000 -5.040000 -4.960000 -8.999296 17.461508 385.891602
4.800000 -5.040000 -4.920000 -18.328896 11.085430 458.835205
4.800000 -5.040000 -4.880000 -20.688047 -4.512893 448.361511
4.800000 -5.040000 -4.840000 -8.959760 -19.088715 444.656311
4.800000 -5.040000 -4.800000 10.702486 -20.189316 522.151672
4.800000 -5.000000 -5.200000 12.524879 18.378880 494.655823
4.800000 -5.000000 -5.160000 1.951135 25.600473 659.191162
4.800000 -5.000000 -5.120000 -8.837819 24.795025 692.900330
4.800000 -5.000000 -5.080000 -15.342319 20.543480 657.421326
4.800000 -5.000000 -5.040000 -19.971117 17.290823 697.818115
4.800000 -5.000000 -5.000000 -26.890518 13.022419 892.683350
4.800000 -5.000000 -4.960000 -34.062546 2.009843 1164.296509
4.800000 -5.000000 -4.920000 -32.964714 -15.979160 1342.005859
4.800000 -5.000000 -4.880000 -17.911474 -31.470242 1311.197021
4.800000 -5.000000 -4.840000 5.268501 -32.676743 1095.526611
4.800000 -5.000000 -4.800000 22.149715 -17.691523 803.599854
4.800000 -4.960000 -5.200000 -5.426710 18.328934 365.398987
4.800000 -4.960000 -5.160000 -15.535440 17.264894 539.426514
4.800000 -4.960000 -5.120000 -22.720646 11.468969 647.765015
4.800000 -4.960000 -5.080000 -26.542761 4.889512 728.425476
4.800000 -4.960000 -5.040000 -29.826366 -1.773607 892.757812
4.800000 -4.960000 -5.000000 -32.777390 -11.854423 1214.884644
4.800000 -4.960000 -4.960000 -30.117565 -26.825151 1626.656494
4.800000 -4.960000 -4.920000 -16.274303 -40.798073 1929.335693
4.800000 -4.960000 -4.880000 6.346052 -43.466537 1929.612183
4.800000 -4.960000 -4.840000 26.121185 -30.073494 1586.731445
4.800000 -4.960000 -4.800000 31.334944 -7.912150 1044.480835
4.800000 -4.920000 -5.200000 -13.996758 9.097463 278.673035
4.800000 -4.920000 -5.160000 -21.989666 2.922404 492.085846
4.800000 -4.920000 -5.120000 -24.979378 -7.504395 680.285217
4.800000 -4.920000 -5.080000 -22.369499 -17.357351 801.672119
4.800000 -4.920000 -5.040000 -17.171633 -24.563328 898.222046
4.800000 -4.920000 -5.000000 -10.928039 -30.727081 1063.575562
4.800000 -4.920000 -4.960000 -1.458560 -36.522789 1336.041504
4.800000 -4.920000 -4.920000 13.087325 -38.060745 1619.898438
4.800000 -4.920000 -4.880000 28.838146 -29.942762 1728.207764
4.800000 -4.920000 -4.840000 37.109413 -12.370178 1530.129883
4.800000 -4.920000 -4.800000 32.130329 6.293181 1071.962158
4.800000 -4.880000 -5.200000 -14.240191 2.468066 208.874374
4.800000 -4.880000 -5.160000 -20.339001 -8.666581 488.784576
4.800000 -4.880000 -5.120000 -15.941686 -23.303566 797.193542
4.800000 -4.880000 -5.080000 -2.358954 -31.434862 993.715210
4.800000 -4.880000 -5.040000 11.682211 -29.270863 993.257446
4.800000 -4.880000 -5.000000 19.461359 -21.781605 853.182800
4.800000 -4.880000 -4.960000 22.159704 -15.664615 736.432617
4.800000 -4.880000 -4.920000 25.038809 -11.692890 763.665649
4.800000 -4.880000 -4.880000 29.396837 -5.344416 892.736816
4.800000 -4.880000 -4.840000 30.369843 5.710924 954.942017
4.800000 -4.880000 -4.800000 23.097891 16.882034 818.515625
4.800000 -4.840000 -5.200000 -15.259140 0.925846 233.698547
4.800000 -4.840000 -5.160000 -16.750200 -16.542557 554.225403
4.800000 -4.840000 -5.120000 -1.018006 -30.925961 957.451355
4.800000 -4.840000 -5.080000 21.913563 -28.194983 1275.161255
4.800000 -4.840000 -5.040000 34.823925 -9.829468 1309.324219
4.800000 -4.840000 -5.000000 30.359940 9.167183 1005.763184
4.800000 -4.840000 -4.960000 17.070110 15.823455 541.770386
4.800000 -4.840000 -4.920000 8.868532 11.190702 203.882690
4.800000 -4.840000 -4.880000 10.404486 6.638767 152.326553
4.800000 -4.840000 -4.840000 14.077963 10.008555 298.360229
4.800000 -4.840000 -4.800000 10.512759 17.444763 414.837860
4.800000 -4.800000 -5.200000 -21.016972 -2.833906 449.744141
4.800000 -4.800000 -5.160000 -12.420458 -24.378330 748.570740
4.800000 -4.800000 -5.120000 14.181160 -30.291286 1118.667358
4.800000 -4.800000 -5.080000 36.840927 -11.067390 1479.741089
4.800000 -4.800000 -5.040000 35.772434 19.018124 1641.355957
4.800000 -4.800000 -5.000000 12.830289 35.806828 1446.745239
4.800000 -4.800000 -4.960000 -11.209248 28.653553 946.673340
4.800000 -4.800000 -4.920000 -17.787647 9.053645 398.368896
4.800000 -4.800000 -4.880000 -7.495936 -3.125965 65.960724
4.800000 -4.800000 -4.840000 3.824013 0.135412 14.641410
4.800000 -4.800000 -4.800000 3.443476 9.488290 101.885162
4.840000 -5.200000 -5.200000 -27.509590 -20.667919 1183.940430
4.840000 -5.200000 -5.160000 -4.890777 -18.823223 378.233429
4.840000 -5.200000 -5.120000 -0.012296 3.889428 15.127803
4.840000 -5.200000 -5.080000 -23.482359 18.406303 890.213196
4.840000 -5.200000 -5.040000 -52.589310 1.086597 2766.816162
4.840000 -5.200000 -5.000000 -54.054749 -38.098080 4373.379395
4.840000 -5.200000 -4.960000 -20.614700 -63.348900 4438.048828
4.840000 -5.200000 -4.920000 18.842663 -50.114761 2866.535156
4.840000 -5.200000 -4.880000 27.990753 -11.849112 923.883667
4.840000 -5.200000 -4.840000 0.622515 12.952706 168.160126
4.840000 -5.200000 -4.800000 -33.010891 0.150463 1089.741455
4.840000 -5.160000 -5.200000 -5.949432 -36.793049 1389.124146
4.840000 -5.160000 -5.160000 14.273629 -22.291187 700.633545
4.840000 -5.160000 -5.120000 9.913747 0.299707 98.372200
4.840000 -5.160000 -5.080000 -12.796021 4.168339 181.113205
4.840000 -5.160000 -5.040000 -26.455242 -17.318138 999.797729
4.840000 -5.160000 -5.000000 -12.309425 -42.143272 1927.577393
4.840000 -5.160000 -4.960000 18.331726 -42.873543 2174.192871
4.840000 -5.160000 -4.920000 35.216171 -16.742367 1520.485596
4.840000 -5.160000 -4.880000 21.348467 10.433764 564.620483
4.840000 -5.160000 -4.840000 -8.568159 11.159777 197.953979
4.840000 -5.160000 -4.800000 -23.453573 -14.901463 772.123657
4.840000 -5.120000 -5.200000 21.199619 -30.528755 1381.428711
4.840000 -5.120000 -5.160000 32.273609 -8.408621 1112.290771
4.840000 -5.120000 -5.120000 22.408350 10.695201 616.521484
4.840000 -5.120000 -5.080000 5.256739 11.833357 167.661636
4.840000 -5.120000 -5.040000 -0.530613 0.022217 0.282044
4.840000 -5.120000 -5.000000 8.307907 -6.686514 113.730789
4.840000 -5.120000 -4.960000 17.020529 1.587566 292.218750
4.840000 -5.120000 -4.920000 10.706367 15.081028 342.063721
4.840000 -5.120000 -4.880000 -7.628466 15.575171 300.779419
4.840000 -5.120000 -4.840000 -19.362316 -2.364638 380.490814
4.840000 -5.120000 -4.800000 -10.523629 -24.093369 691.237183
4.840000 -5.080000 -5.200000 33.680573 -6.487034 1176.462646
4.840000 -5.080000 -5.160000 34.719337 16.324486 1471.921143
4.840000 -5.080000 -5.120000 21.785889 32.916897 1558.146973
4.840000 -5.080000 -5.080000 4.712038 37.475174 1426.591919
4.840000 -5.080000 -5.040000 -8.456669 33.980892 1226.216309
4.840000 -5.080000 -5.000000 -17.715204 28.434805 1122.366577
4.840000 -5.080000 -4.960000 -26.585564 20.967655 1146.434814
4.840000 -5.080000 -4.920000 -33.697025 7.528812 1192.172485
4.840000 -5.080000 -4.880000 -31.895166 -11.397772 1147.210815
4.840000 -5.080000 -4.840000 -16.865059 -26.768211 1000.967285
4.840000 -5.080000 -4.800000 5.056200 -28.149094 817.936584
4.840000 -5.040000 -5.200000 24.315002 16.350658 858.563354
4.840000 -5.040000 -5.160000 18.270746 35.847786 1618.883911
4.840000 -5.040000 -5.120000 0.828434 50.606625 2561.716797
4.840000 -5.040000 -5.080000 -24.020649 54.443851 3541.124512
4.840000 -5.040000 -5.040000 -49.450993 44.056744 4386.397461
4.840000 -5.040000 -5.000000 -67.096954 20.055546 4904.226562
4.840000 -5.040000 -4.960000 -69.139343 -11.660496 4916.216309
4.840000 -5.040000 -4.920000 -52.427090 -39.992260 4347.980469
4.840000 -5.040000 -4.880000 -22.578749 -53.013039 3320.182129
4.840000 -5.040000 -4.840000 6.930891 -45.653122 2132.244873
4.840000 -5.040000 -4.800000 22.649166 -24.491653 1112.825806
4.840000 -5.000000 -5.200000 4.375242 22.606045 530.176025
4.840000 -5.000000 -5.160000 -6.228926 38.041161 1485.929443
4.840000 -5.000000 -5.120000 -30.031590 47.316978 3140.792969
4.840000 -5.000000 -5.080000 -61.454033 39.494427 5336.407715
4.840000 -5.000000 -5.040000 -86.290092 10.037704 7546.735352
4.840000 -5.000000 -5.000000 -89.117325 -33.130543 9039.530273
4.840000 -5.000000 -4.960000 -64.027885 -71.576385 9222.750000
4.840000 -5.000000 -4.920000 -20.647751 -86.892288 7976.599121
4.840000 -5.000000 -4.880000 20.444714 -73.048447 5754.062012
4.840000 -5.000000 -4.840000 40.925087 -40.874664 3345.601074
4.840000 -5.000000 -4.800000 36.850479 -10.303689 1464.123779
4.840000 -4.960000 -5.200000 -8.939996 13.619117 265.403870
4.840000 -4.960000 -5.160000 -23.557560 24.325378 1146.682617
4.840000 -4.960000 -5.120000 -50.505402 22.036158 3036.387939
4.840000 -4.960000 -5.080000 -76.042923 -2.933119 5791.129395
4.840000 -4.960000 -5.040000 -81.254738 -45.759850 8696.296875
4.840000 -4.960000 -5.000000 -56.048244 -87.106110 10728.879883
4.840000 -4.960000 -4.960000 -8.373378 -104.889961 11072.017578
4.840000 -4.960000 -4.920000 39.407677 -89.567307 9575.267578
4.840000 -4.960000 -4.880000 65.148148 -51.020031 6847.324707
4.840000 -4.960000 -4.840000 61.524517 -11.331559 3913.670410
4.840000 -4.960000 -4.800000 39.315228 10.917040 1664.868896
4.840000 -4.920000 -5.200000 -9.236145 3.043668 94.570290
4.840000 -4.920000 -5.160000 -26.812088 6.361551 759.357422
4.840000 -4.920000 -5.120000 -47.849087 -9.550118 2380.739990
4.840000 -4.920000 -5.080000 -53.909340 -43.463921 4795.329590
4.840000 -4.920000 -5.040000 -33.270882 -78.845505 7323.565430
4.840000 -4.920000 -5.000000 8.938333 -94.759903 9059.333008
4.840000 -4.920000 -4.960000 53.188251 -80.648148 9333.113281
4.840000 -4.920000 -4.920000 78.543793 -43.607815 8070.769043
4.840000 -4.920000 -4.880000 76.172829 -2.944611 5810.970703
4.840000 -4.920000 -4.840000 53.482933 23.097591 3393.922852
4.840000 -4.920000 -4.800000 26.917164 28.300243 1525.437500
4.840000 -4.880000 -5.200000 -4.613393 0.946481 22.179224
4.840000 -4.880000 -5.160000 -20.706161 -5.731448 461.594604
4.840000 -4.880000 -5.120000 -26.749508 -28.947643 1553.502197
4.840000 -4.880000 -5.080000 -11.300848 -54.576836 3106.340332
4.840000 -4.880000 -5.040000 21.275848 -64.506477 4613.747070
4.840000 -4.880000 -5.000000 54.310337 -50.630104 5513.020508
4.840000 -4.880000 -4.960000 71.426216 -19.861818 5496.196289
4.840000 -4.880000 -4.920000 67.059258 12.384205 4650.312500
4.840000 -4.880000 -4.880000 47.563370 33.075359 3356.253418
4.840000 -4.880000 -4.840000 24.540648 38.096630 2053.596680
4.840000 -4.880000 -4.800000 7.179720 31.485197 1042.865967
4.840000 -4.840000 -5.200000 -5.853703 4.007409 50.325165
4.840000 -4.840000 -5.160000 -13.568260 -11.091053 307.109131
4.840000 -4.840000 -5.120000 -2.881677 -29.640224 886.846985
4.840000 -4.840000 -5.080000 21.701443 -34.181061 1639.297607
4.840000 -4.840000 -5.040000 43.500103 -18.927656 2250.515137
4.840000 -4.840000 -5.000000 48.987312 6.362204 2440.234375
4.840000 -4.840000 -4.960000 38.081818 26.670324 2161.531006
4.840000 -4.840000 -4.920000 20.921595 34.340111 1616.956299
4.840000 -4.840000 -4.880000 7.016008 32.113186 1080.481079
4.840000 -4.840000 -4.840000 -1.302130 26.418007 699.606628
4.840000 -4.840000 -4.800000 -6.380404 20.288033 452.313843
4.840000 -4.800000 -5.200000 -13.203201 1.635205 176.998413
4.840000 -4.800000 -5.160000 -8.029629 -14.725923 281.327728
4.840000 -4.800000 -5.120000 11.726637 -18.907684 495.014526
4.840000 -4.800000 -5.080000 28.221962 -3.569678 809.221741
4.840000 -4.800000 -5.040000 26.282578 19.627682 1076.019775
4.840000 -4.800000 -5.000000 8.039323 32.258801 1105.260986
4.840000 -4.800000 -4.960000 -10.681616 27.053572 845.992676
4.840000 -4.800000 -4.920000 -16.882582 12.910825 451.710968
4.840000 -4.800000 -4.880000 -11.660755 3.484496 148.114914
4.840000 -4.800000 -4.840000 -5.635439 3.236320 42.231934
4.840000 -4.800000 -4.800000 -5.732864 5.608679 64.323013
4.880000 -5.200000 -5.200000 -6.470737 -23.805698 608.581726
4.880000 -5.200000 -5.160000 1.604897 -7.124413 53.332958
4.880000 -5.200000 -5.120000 -14.056845 7.697247 256.842468
4.880000 -5.200000 -5.080000 -39.383427 -2.757662 1558.659058
4.880000 -5.200000 -5.040000 -44.436089 -36.300552 3292.295898
4.880000 -5.200000 -5.000000 -15.949947 -63.049885 4229.688965
4.880000 -5.200000 -4.960000 25.020824 -54.935291 3643.927734
4.880000 -5.200000 -4.920000 41.739632 -16.440554 2012.488770
4.880000 -5.200000 -4.880000 19.034763 17.262974 660.332458
4.880000 -5.200000 -4.840000 -20.088404 14.752215 621.171814
4.880000 -5.200000 -4.800000 -36.874756 -20.036724 1761.218018
4.880000 -5.160000 -5.200000 14.459148 -26.250694 898.165894
4.880000 -5.160000 -5.160000 16.920267 -6.412134 327.410889
4.880000 -5.160000 -5.120000 1.544235 3.375069 13.775751
4.880000 -5.160000 -5.080000 -12.509640 -7.563166 213.692566
4.880000 -5.160000 -5.040000 -6.510242 -26.234030 730.607544
4.880000 -5.160000 -5.000000 15.991768 -29.061380 1100.300537
4.880000 -5.160000 -4.960000 31.115461 -8.226086 1035.840454
4.880000 -5.160000 -4.920000 19.881546 17.707409 708.828247
4.880000 -5.160000 -4.880000 -10.082758 21.895100 581.057373
4.880000 -5.160000 -4.840000 -30.582699 -2.440871 941.259277
4.880000 -5.160000 -4.800000 -21.204098 -33.816010 1593.136230
4.880000 -5.120000 -5.200000 31.603794 -10.600672 1111.174072
4.880000 -5.120000 -5.160000 29.574930 10.583694 986.691101
4.880000 -5.120000 -5.120000 15.686651 22.539921 754.119080
4.880000 -5.120000 -5.080000 2.292473 22.273434 501.361267
4.880000 -5.120000 -5.040000 -3.594902 18.184948 343.615631
4.880000 -5.120000 -5.000000 -6.784386 18.309814 381.277191
4.880000 -5.120000 -4.960000 -15.815562 19.776169 641.228882
4.880000 -5.120000 -4.920000 -29.917850 12.243279 1044.975586
4.880000 -5.120000 -4.880000 -36.955193 -8.228192 1433.389404
4.880000 -5.120000 -4.840000 -25.926483 -31.088884 1638.701294
4.880000 -5.120000 -4.800000 -0.546392 -39.537804 1563.536499
4.880000 -5.080000 -5.200000 31.341532 12.843318 1147.242432
4.880000 -5.080000 -5.160000 24.756926 36.076180 1914.395996
4.880000 -5.080000 -5.120000 4.383614 53.605789 2892.796631
4.880000 -5.080000 -5.080000 -24.386009 57.774338 3932.551514
4.880000 -5.080000 -5.040000 -52.725906 45.492996 4849.633789
4.880000 -5.080000 -5.000000 -71.374542 19.001099 5455.367188
4.880000 -5.080000 -4.960000 -73.305336 -14.442539 5582.259277
4.880000 -5.080000 -4.920000 -56.634384 -43.912560 5135.766113
4.880000 -5.080000 -4.880000 -27.024994 -58.628086 4167.602539
4.880000 -5.080000 -4.840000 3.339881 -53.769737 2902.339355
4.880000 -5.080000 -4.800000 21.909191 -34.448868 1666.737183
4.880000 -5.040000 -5.200000 14.995271 27.028402 955.392700
4.880000 -5.040000 -5.160000 0.806495 51.983482 2702.932861
4.880000 -5.040000 -5.120000 -34.465172 67.382828 5728.293457
4.880000 -5.040000 -5.080000 -80.668663 55.894829 9631.665039
4.880000 -5.040000 -5.040000 -114.670082 12.704487 13310.631836
4.880000 -5.040000 -5.000000 -114.950989 -46.884827 15411.916016
4.880000 -5.040000 -4.960000 -77.724915 -94.944458 15055.612305
4.880000 -5.040000 -4.920000 -21.183933 -109.145187 12361.430664
4.880000 -5.040000 -4.880000 26.525505 -87.674004 8390.333008
4.880000 -5.040000 -4.840000 46.365906 -48.952370 4546.131836
4.880000 -5.040000 -4.800000 39.486206 -16.818247 1842.013916
4.880000 -5.000000 -5.200000 -2.813346 24.288427 597.842590
4.880000 -5.000000 -5.160000 -27.738749 46.373627 2919.951416
4.880000 -5.000000 -5.120000 -75.540405 45.453560 7772.378906
4.880000 -5.000000 -5.080000 -120.690254 3.899923 14581.346680
4.880000 -5.000000 -5.040000 -128.922363 -67.803833 21218.335938
4.880000 -5.000000 -5.000000 -85.064156 -133.191666 24975.929688
4.880000 -5.000000 -4.960000 -8.106922 -155.211670 24156.384766
4.880000 -5.000000 -4.920000 61.097134 -124.159737 19148.500000
4.880000 -5.000000 -4.880000 89.858170 -63.998932 12170.353516
4.880000 -5.000000 -4.840000 75.801605 -12.124232 5892.880371
4.880000 -5.000000 -4.800000 43.373787 9.070208 1963.554077
4.880000 -4.960000 -5.200000 -8.974891 12.682468 241.393661
4.880000 -4.960000 -5.160000 -43.094711 24.350019 2450.077637
4.880000 -4.960000 -5.120000 -88.604965 -0.804411 7851.486816
4.880000 -4.960000 -5.080000 -107.762436 -65.070061 15846.855469
4.880000 -4.960000 -5.040000 -72.929871 -135.988525 23811.644531
4.880000 -4.960000 -5.000000 6.835757 -168.272156 28362.246094
4.880000 -4.960000 -4.960000 89.058060 -139.539383 27402.578125
4.880000 -4.960000 -4.920000 129.588425 -68.298386 21457.830078
4.880000 -4.960000 -4.880000 115.298180 1.630719 13296.329102
4.880000 -4.960000 -4.840000 69.804024 35.679790 6145.648926
4.880000 -4.960000 -4.800000 29.717989 31.513922 1876.286133
4.880000 -4.920000 -5.200000 -4.223768 6.179002 56.020279
4.880000 -4.920000 -5.160000 -39.848099 2.281675 1593.077026
4.880000 -4.920000 -5.120000 -66.194588 -40.334267 6008.576660
4.880000 -4.920000 -5.080000 -49.397339 -101.929764 12829.773438
4.880000 -4.920000 -5.040000 14.981199 -139.702164 19741.130859
4.880000 -4.920000 -5.000000 93.781273 -122.241341 23737.871094
4.880000 -4.920000 -4.960000 140.766907 -56.161259 22969.410156
4.880000 -4.920000 -4.920000 132.477951 19.080633 17914.478516
4.880000 -4.920000 -4.880000 83.940033 62.875584 10999.268555
4.880000 -4.920000 -4.840000 32.319580 62.950016 5007.259766
4.880000 -4.920000 -4.800000 5.671275 38.252129 1495.388672
4.880000 -4.880000 -5.200000 -0.235057 9.688993 93.931831
4.880000 -4.880000 -5.160000 -27.445299 -8.002771 817.288818
4.880000 -4.880000 -5.120000 -28.512756 -50.808128 3394.443115
4.880000 -4.880000 -5.080000 10.965153 -86.290131 7566.221191
4.880000 -4.880000 -5.040000 71.774490 -81.945068 11866.572266
4.880000 -4.880000 -5.000000 115.112526 -33.542625 14376.000977
4.880000 -4.880000 -4.960000 113.890312 30.841398 13922.194336
4.880000 -4.880000 -4.920000 73.129036 73.982452 10821.259766
4.880000 -4.880000 -4.880000 22.653244 78.064522 6607.238770
4.880000 -4.880000 -4.840000 -8.772333 54.025253 2995.681885
4.880000 -4.880000 -4.800000 -13.629507 26.807268 904.393066
4.880000 -4.840000 -5.200000 -5.467900 15.012871 255.284225
4.880000 -4.840000 -5.160000 -18.234108 -8.288143 401.176025
4.880000 -4.840000 -5.120000 -2.240957 -36.120998 1309.748413
4.880000 -4.840000 -5.080000 35.267014 -41.111797 2933.942139
4.880000 -4.840000 -5.040000 67.020157 -13.605732 4676.817383
4.880000 -4.840000 -5.000000 69.381134 29.879799 5706.543945
4.880000 -4.840000 -4.960000 41.584511 61.467922 5507.577148
4.880000 -4.840000 -4.920000 3.907818 64.883354 4225.120605
4.880000 -4.840000 -4.880000 -21.045975 45.652218 2527.058105
4.880000 -4.840000 -4.840000 -25.269138 21.965237 1121.000977
4.880000 -4.840000 -4.800000 -16.647837 7.885176 339.326447
4.880000 -4.800000 -5.200000 -15.590333 11.502479 375.365479
4.880000 -4.800000 -5.160000 -15.052327 -7.871353 288.530762
4.880000 -4.800000 -5.120000 3.283457 -17.083191 302.616516
4.880000 -4.800000 -5.080000 22.198174 -5.727703 525.565491
4.880000 -4.800000 -5.040000 24.265400 17.210632 885.015503
4.880000 -4.800000 -5.000000 7.828726 33.041546 1153.032715
4.880000 -4.800000 -4.960000 -13.316784 30.974968 1136.785400
4.880000 -4.800000 -4.920000 -24.190487 16.038986 842.428711
4.880000 -4.800000 -4.880000 -21.264437 1.461548 454.312378
4.880000 -4.800000 -4.840000 -12.083026 -4.397970 165.341660
4.880000 -4.800000 -4.800000 -5.207703 -3.106623 36.771271
4.920000 -5.200000 -5.200000 6.913616 -13.617164 233.225220
4.920000 -5.200000 -5.160000 -3.101718 0.653405 10.047592
4.920000 -5.200000 -5.120000 -24.434319 -3.504452 609.317139
4.920000 -5.200000 -5.080000 -33.014038 -29.533020 1962.125977
4.920000 -5.200000 -5.040000 -12.526520 -55.485237 3235.525391
4.920000 -5.200000 -5.000000 24.855255 -53.682117 3499.553467
4.920000 -5.200000 -4.960000 46.597099 -20.303131 2583.506592
4.920000 -5.200000 -4.920000 31.439774 17.125587 1281.745117
4.920000 -5.200000 -4.880000 -7.598773 24.839230 674.728638
4.920000 -5.200000 -4.840000 -34.157623 -3.739532 1180.727417
4.920000 -5.200000 -4.800000 -23.645554 -40.813847 2224.882324
4.920000 -5.160000 -5.200000 20.778700 -8.581434 505.395386
4.920000 -5.160000 -5.160000 10.649578 3.256893 124.020866
4.920000 -5.160000 -5.120000 -2.764637 0.057392 7.646512
4.920000 -5.160000 -5.080000 -3.801300 -12.588062 172.909180
4.920000 -5.160000 -5.040000 9.349201 -17.167263 382.122467
4.920000 -5.160000 -5.000000 20.548084 -3.792011 436.603119
4.920000 -5.160000 -4.960000 12.302931 16.579117 426.229248
4.920000 -5.160000 -4.920000 -13.749287 21.395725 646.819946
4.920000 -5.160000 -4.880000 -35.382328 0.158566 1251.934326
4.920000 -5.160000 -4.840000 -30.835857 -32.452301 2004.001953
4.920000 -5.160000 -4.800000 -1.284495 -49.096775 2412.143311
4.920000 -5.120000 -5.200000 27.698423 8.103683 832.872314
4.920000 -5.120000 -5.160000 18.246847 23.457441 883.198975
4.920000 -5.120000 -5.120000 2.666664 30.802303 955.892944
4.920000 -5.120000 -5.080000 -13.042225 30.241512 1084.648682
4.920000 -5.120000 -5.040000 -26.908417 24.670288 1332.686035
4.920000 -5.120000 -5.000000 -39.654716 14.244576 1775.404541
4.920000 -5.120000 -4.960000 -48.948601 -3.650063 2409.288574
4.920000 -5.120000 -4.920000 -47.684113 -28.126307 3064.863770
4.920000 -5.120000 -4.880000 -30.347061 -50.143890 3435.353760
4.920000 -5.120000 -4.840000 -1.426890 -57.054375 3257.237793
4.920000 -5.120000 -4.800000 24.515404 -43.735634 2513.810547
4.920000 -5.080000 -5.200000 19.906420 25.936131 1068.948364
4.920000 -5.080000 -5.160000 4.076159 48.192993 2339.179688
4.920000 -5.080000 -5.120000 -29.070148 59.806965 4421.946777
4.920000 -5.080000 -5.080000 -69.561493 47.677635 7111.958008
4.920000 -5.080000 -5.040000 -98.451752 9.424973 9781.577148
4.920000 -5.080000 -5.000000 -99.084129 -42.006821 11582.238281
4.920000 -5.080000 -4.960000 -68.601013 -84.480103 11842.986328
4.920000 -5.080000 -4.920000 -20.745338 -99.993103 10428.990234
4.920000 -5.080000 -4.880000 22.572330 -85.564713 7830.830078
4.920000 -5.080000 -4.840000 44.926750 -53.843811 4917.568848
4.920000 -5.080000 -4.800000 44.246315 -23.392557 2504.948242
4.920000 -5.040000 -5.200000 2.481961 32.369602 1053.951294
4.920000 -5.040000 -5.160000 -28.226442 55.646420 3893.255859
4.920000 -5.040000 -5.120000 -81.816528 51.731400 9370.082031
4.920000 -5.040000 -5.080000 -129.566162 3.885502 16802.488281
4.920000 -5.040000 -5.040000 -135.644409 -74.160995 23899.259766
4.920000 -5.040000 -5.000000 -86.421104 -142.532196 27784.035156
4.920000 -5.040000 -4.960000 -4.470623 -163.305939 26688.816406
4.920000 -5.040000 -4.920000 66.709297 -128.996429 21090.208984
4.920000 -5.040000 -4.880000 94.769600 -66.663879 13425.349609
4.920000 -5.040000 -4.840000 79.846367 -14.803843 6594.596191
4.920000 -5.040000 -4.800000 48.232231 5.738534 2359.278809
4.920000 -5.000000 -5.200000 -11.276089 25.263245 765.381714
4.920000 -5.000000 -5.160000 -57.283646 36.932766 4645.445312
4.920000 -5.000000 -5.120000 -114.575897 1.672281 13130.432617
4.920000 -5.000000 -5.080000 -136.124115 -81.062553 25100.914062
4.920000 -5.000000 -5.040000 -89.310936 -168.884476 36498.410156
4.920000 -5.000000 -5.000000 11.468975 -205.419373 42328.656250
4.920000 -5.000000 -4.960000 111.079285 -165.639145 39774.933594
4.920000 -5.000000 -4.920000 155.632233 -76.586639 30086.906250
4.920000 -5.000000 -4.880000 133.098267 5.544732 17745.892578
4.920000 -5.000000 -4.840000 77.077026 40.533257 7583.812988
4.920000 -5.000000 -4.800000 33.269585 30.822357 2056.882812
4.920000 -4.960000 -5.200000 -13.175499 14.661610 388.556580
4.920000 -4.960000 -5.160000 -64.001709 5.251310 4123.794922
4.920000 -4.960000 -5.120000 -100.379181 -57.633633 13397.615234
4.920000 -4.960000 -5.080000 -74.949524 -146.273865 27013.474609
4.920000 -4.960000 -5.040000 18.233225 -199.501373 40133.246094
4.920000 -4.960000 -5.000000 130.515335 -172.468811 46779.742188
4.920000 -4.960000 -4.960000 194.466660 -76.465012 43664.179688
4.920000 -4.960000 -4.920000 177.677094 29.011694 32410.828125
4.920000 -4.960000 -4.880000 105.834091 84.925873 18413.257812
4.920000 -4.960000 -4.840000 35.907051 77.361771 7274.160156
4.920000 -4.960000 -4.800000 7.009640 39.436302 1604.356934
4.920000 -4.920000 -5.200000 -7.937559 11.855640 203.561050
4.920000 -4.920000 -5.160000 -49.153923 -17.223135 2712.744629
4.920000 -4.920000 -5.120000 -51.629707 -86.222595 10099.962891
4.920000 -4.920000 -5.080000 11.017170 -146.310776 21528.222656
4.920000 -4.920000 -5.040000 111.520691 -142.808334 32831.085938
4.920000 -4.920000 -5.000000 185.868088 -64.586258 38718.328125
4.920000 -4.920000 -4.960000 185.418884 42.957657 36225.523438
4.920000 -4.920000 -4.920000 116.562042 114.616425 26723.634766
4.920000 -4.920000 -4.880000 32.015892 117.829521 14908.813477
4.920000 -4.920000 -4.840000 -15.899721 73.304474 5626.347168
4.920000 -4.920000 -4.800000 -15.355975 28.687235 1058.763428
4.920000 -4.880000 -5.200000 -7.141376 17.494337 357.051056
4.920000 -4.880000 -5.160000 -30.331549 -20.481216 1339.483154
4.920000 -4.880000 -5.120000 -6.309875 -73.199890 5398.038574
4.920000 -4.880000 -5.080000 62.592575 -91.327477 12258.539062
4.920000 -4.880000 -5.040000 131.102173 -46.929813 19390.187500
4.920000 -4.880000 -5.000000 147.900696 38.479973 23355.324219
4.920000 -4.880000 -4.960000 99.753555 110.197449 22094.250000
4.920000 -4.880000 -4.920000 21.714581 125.977753 16341.917969
4.920000 -4.880000 -4.880000 -34.746704 88.527054 9044.373047
4.920000 -4.880000 -4.840000 -44.166027 36.822716 3306.550293
4.920000 -4.880000 -4.800000 -21.518124 8.437893 534.227661
4.920000 -4.840000 -5.200000 -16.039528 21.600842 723.862793
4.920000 -4.840000 -5.160000 -22.721649 -13.605179 701.374207
4.920000 -4.840000 -5.120000 8.895481 -42.222809 1861.895264
4.920000 -4.840000 -5.080000 57.724777 -32.009380 4356.750488
4.920000 -4.840000 -5.040000 83.566597 17.251289 7280.982910
4.920000 -4.840000 -5.000000 63.005440 71.896683 9138.818359
4.920000 -4.840000 -4.960000 9.903870 93.715927 8880.761719
4.920000 -4.840000 -4.920000 -38.147018 72.130577 6658.015625
4.920000 -4.840000 -4.880000 -52.814621 29.746761 3674.254150
4.920000 -4.840000 -4.840000 -35.952446 -1.047600 1293.675781
4.920000 -4.840000 -4.800000 -11.482688 -5.731955 164.707428
4.920000 -4.800000 -5.200000 -27.737263 15.199874 1000.391968
4.920000 -4.800000 -5.160000 -25.046482 -11.612006 762.164978
4.920000 -4.800000 -5.120000 -0.213804 -23.517284 553.108398
4.920000 -4.800000 -5.080000 23.912254 -8.587376 645.538940
4.920000 -4.800000 -5.040000 25.319363 20.357487 1055.497437
4.920000 -4.800000 -5.000000 2.957565 38.560398 1495.651489
4.920000 -4.800000 -4.960000 -23.907364 32.293060 1614.403809
4.920000 -4.800000 -4.920000 -34.696590 9.549683 1295.049805
4.920000 -4.800000 -4.880000 -25.161278 -10.042721 733.946167
4.920000 -4.800000 -4.840000 -7.735057 -13.839151 251.353210
4.920000 -4.800000 -4.800000 2.740959 -4.867443 31.204859
4.960000 -5.200000 -5.200000 7.545911 -1.560815 59.376915
4.960000 -5.200000 -5.160000 -9.349384 -1.568554 89.871353
4.960000 -5.200000 -5.120000 -19.912945 -19.558075 779.043701
4.960000 -5.200000 -5.080000 -8.512920 -42.172028 1850.949707
4.960000 -5.200000 -5.040000 20.766869 -46.345047 2579.125977
4.960000 -5.200000 -5.000000 43.626724 -22.685661 2417.930176
4.960000 -5.200000 -4.960000 37.513382 11.676033 1543.583496
4.960000 -5.200000 -4.920000 5.203438 26.729221 741.527039
4.960000 -5.200000 -4.880000 -25.221954 8.319223 705.356445
4.960000 -5.200000 -4.840000 -26.222292 -26.860910 1409.117065
4.960000 -5.200000 -4.800000 2.593812 -46.369614 2156.868896
4.960000 -5.160000 -5.200000 14.996622 4.054725 241.339462
4.960000 -5.160000 -5.160000 4.160044 4.871428 41.036770
4.960000 -5.160000 -5.120000 -0.981331 -2.509750 7.261857
4.960000 -5.160000 -5.080000 3.743675 -7.884804 76.185234
4.960000 -5.160000 -5.040000 10.050362 -2.473377 107.127357
4.960000 -5.160000 -5.000000 5.082360 9.414261 114.458694
4.960000 -5.160000 -4.960000 -13.329744 12.375153 330.826477
4.960000 -5.160000 -4.920000 -30.881039 -4.284382 971.994507
4.960000 -5.160000 -4.880000 -28.940012 -32.892677 1919.452515
4.960000 -5.160000 -4.840000 -3.668007 -51.654251 2681.615967
4.960000 -5.160000 -4.800000 27.784151 -44.444340 2747.258301
4.960000 -5.120000 -5.200000 16.152742 17.772532 576.773926
4.960000 -5.120000 -5.160000 4.030416 27.930120 796.335876
4.960000 -5.120000 -5.120000 -14.369663 31.014893 1168.410767
4.960000 -5.120000 -5.080000 -34.430065 23.667007 1745.556641
4.960000 -5.120000 -5.040000 -50.123737 5.367981 2541.204346
4.960000 -5.120000 -5.000000 -55.207542 -21.067474 3491.711182
4.960000 -5.120000 -4.960000 -45.061203 -48.866264 4418.423828
4.960000 -5.120000 -4.920000 -19.906750 -68.083801 5031.682617
4.960000 -5.120000 -4.880000 12.612278 -69.823624 5034.407715
4.960000 -5.120000 -4.840000 39.352219 -52.470306 4301.730469
4.960000 -5.120000 -4.800000 49.027443 -24.714989 3014.520996
4.960000 -5.080000 -5.200000 5.421235 30.366604 951.520386
4.960000 -5.080000 -5.160000 -21.046959 46.472549 2602.672363
4.960000 -5.080000 -5.120000 -62.810234 40.379757 5575.650391
4.960000 -5.080000 -5.080000 -98.070114 1.723808 9620.718750
4.960000 -5.080000 -5.040000 -101.598228 -58.238312 13713.901367
4.960000 -5.080000 -5.000000 -64.365974 -110.782257 16415.687500
4.960000 -5.080000 -4.960000 -2.256393 -128.919525 16625.335938
4.960000 -5.080000 -4.920000 54.276474 -106.237480 14232.337891
4.960000 -5.080000 -4.880000 81.247299 -60.014027 10202.806641
4.960000 -5.080000 -4.840000 75.716118 -16.898651 6018.495117
4.960000 -5.080000 -4.800000 53.294189 5.989853 2876.148926
4.960000 -5.040000 -5.200000 -11.554848 31.800701 1144.799072
4.960000 -5.040000 -5.160000 -57.183189 38.604294 4760.208984
4.960000 -5.040000 -5.120000 -109.272484 1.153339 11941.805664
4.960000 -5.040000 -5.080000 -125.337997 -77.688065 21745.048828
4.960000 -5.040000 -5.040000 -78.397781 -157.695068 31013.945312
4.960000 -5.040000 -5.000000 15.830925 -188.669357 35846.742188
4.960000 -5.040000 -4.960000 106.700043 -150.234802 33955.394531
4.960000 -5.040000 -4.920000 146.686371 -68.344894 26187.914062
4.960000 -5.040000 -4.880000 126.385445 6.508314 16015.638672
4.960000 -5.040000 -4.840000 76.319550 39.179771 7359.728516
4.960000 -5.040000 -4.800000 36.721077 32.335846 2394.044434
4.960000 -5.000000 -5.200000 -22.926451 21.948318 1007.350830
4.960000 -5.000000 -5.160000 -77.133575 4.992996 5974.518555
4.960000 -5.000000 -5.120000 -111.102905 -66.500870 16766.220703
4.960000 -5.000000 -5.080000 -77.933357 -160.389740 31798.476562
4.960000 -5.000000 -5.040000 24.603306 -212.510727 45766.132812
4.960000 -5.000000 -5.000000 142.898972 -178.693497 52351.480469
4.960000 -5.000000 -4.960000 206.667969 -74.441216 48253.144531
4.960000 -5.000000 -4.920000 184.856415 35.907578 35461.250000
4.960000 -5.000000 -4.880000 107.598343 91.464447 19943.148438
4.960000 -5.000000 -4.840000 35.712204 80.645103 7778.994141
4.960000 -5.000000 -4.800000 8.512260 40.720856 1730.646729
4.960000 -4.960000 -5.200000 -22.787159 11.031395 640.946289
4.960000 -4.960000 -5.160000 -66.932358 -30.547777 5413.106934
4.960000 -4.960000 -5.120000 -62.306831 -114.417694 16973.550781
4.960000 -4.960000 -5.080000 18.432268 -182.526108 33655.531250
4.960000 -4.960000 -5.040000 140.109375 -172.228806 49293.398438
4.960000 -4.960000 -5.000000 226.018829 -73.704056 56516.800781
4.960000 -4.960000 -4.960000 220.123413 56.071999 51598.386719
4.960000 -4.960000 -4.920000 133.553574 138.609833 37049.242188
4.960000 -4.960000 -4.880000 32.311428 137.271545 19887.505859
4.960000 -4.960000 -4.840000 -20.842909 80.818054 6965.984863
4.960000 -4.960000 -4.800000 -14.960234 29.049849 1067.702271
4.960000 -4.920000 -5.200000 -17.270393 8.844312 376.488342
4.960000 -4.920000 -5.160000 -39.169136 -44.238564 3491.271729
4.960000 -4.920000 -5.120000 0.291912 -111.726730 12482.947266
4.960000 -4.920000 -5.080000 96.325699 -130.345230 26268.519531
4.960000 -4.920000 -5.040000 188.258392 -64.689278 39625.925781
4.960000 -4.920000 -5.000000 207.510117 54.757484 46058.832031
4.960000 -4.920000 -4.960000 137.389557 152.590424 42159.726562
4.960000 -4.920000 -4.920000 27.904757 170.998566 30019.185547
4.960000 -4.920000 -4.880000 -48.385178 115.602676 15705.103516
4.960000 -4.920000 -4.840000 -56.856400 43.393108 5115.612305
4.960000 -4.920000 -4.800000 -21.737167 8.124044 538.504578
4.960000 -4.880000 -5.200000 -17.690098 14.268934 516.542053
4.960000 -4.880000 -5.160000 -19.069252 -34.793640 1574.233765
4.960000 -4.880000 -5.120000 33.080944 -72.071198 6288.606445
4.960000 -4.880000 -5.080000 108.980965 -50.554848 14432.643555
4.960000 -4.880000 -5.040000 148.090942 31.100708 22898.181641
4.960000 -4.880000 -5.000000 112.779724 121.220261 27413.617188
4.960000 -4.880000 -4.960000 23.684937 157.894958 25491.794922
4.960000 -4.880000 -4.920000 -57.840332 121.956299 18218.843750
4.960000 -4.880000 -4.880000 -83.024384 50.189190 9412.002930
4.960000 -4.880000 -4.840000 -53.853668 -1.444656 2902.304443
4.960000 -4.880000 -4.800000 -12.515284 -6.747347 202.159012
4.960000 -4.840000 -5.200000 -27.975468 16.550232 1056.536987
4.960000 -4.840000 -5.160000 -18.868572 -21.760281 829.532837
4.960000 -4.840000 -5.120000 25.724043 -35.917580 1951.798828
4.960000 -4.840000 -5.080000 69.113144 -2.724602 4784.049805
4.960000 -4.840000 -5.040000 69.823975 58.333214 8278.151367
4.960000 -4.840000 -5.000000 21.003593 100.474915 10536.359375
4.960000 -4.840000 -4.960000 -42.341103 91.637848 10190.263672
4.960000 -4.840000 -4.920000 -75.135117 42.266445 7431.738281
4.960000 -4.840000 -4.880000 -61.484337 -6.915356 3828.145996
4.960000 -4.840000 -4.840000 -24.227932 -23.048813 1118.240479
4.960000 -4.840000 -4.800000 1.092552 -7.263960 53.958786
4.960000 -4.800000 -5.200000 -40.045811 7.088373 1653.911987
4.960000 -4.800000 -5.160000 -27.797571 -22.951597 1299.480713
4.960000 -4.800000 -5.120000 4.643327 -29.004444 862.818237
4.960000 -4.800000 -5.080000 27.551247 -4.890930 782.992371
4.960000 -4.800000 -5.040000 20.138550 27.445578 1158.820923
4.960000 -4.800000 -5.000000 -10.118248 39.351955 1650.955322
4.960000 -4.800000 -4.960000 -36.015987 22.304634 1794.648071
4.960000 -4.800000 -4.920000 -37.084137 -6.157143 1413.143555
4.960000 -4.800000 -4.880000 -17.138643 -21.334438 748.891357
4.960000 -4.800000 -4.840000 2.866785 -14.450045 217.022247
4.960000 -4.800000 -4.800000 6.600487 2.527826 49.956329
5.000000 -5.200000 -5.200000 1.097454 2.938756 9.840693
5.000000 -5.200000 -5.160000 -8.025729 -8.713846 140.343445
5.000000 -5.200000 -5.120000 -3.263218 -25.613213 666.685303
5.000000 -5.200000 -5.080000 15.902557 -32.680489 1320.905640
5.000000 -5.200000 -5.040000 35.201782 -19.920586 1635.995239
5.000000 -5.200000 -5.000000 36.536007 5.386497 1363.894165
5.000000 -5.200000 -4.960000 15.780426 22.335945 747.916260
5.000000 -5.200000 -4.920000 -10.726147 15.076365 342.346985
5.000000 -5.200000 -4.880000 -19.745117 -11.023843 511.394775
5.000000 -5.200000 -4.840000 -2.990253 -32.838043 1087.278687
5.000000 -5.200000 -4.800000 24.272972 -30.666565 1529.615479
5.000000 -5.160000 -5.200000 6.473200 6.887511 89.340134
5.000000 -5.160000 -5.160000 2.280195 3.724882 19.074038
5.000000 -5.160000 -5.120000 1.892456 0.144138 3.602166
5.000000 -5.160000 -5.080000 3.059570 0.243053 9.420046
5.000000 -5.160000 -5.040000 0.026294 3.336021 11.129730
5.000000 -5.160000 -5.000000 -9.438187 2.353279 94.617294
5.000000 -5.160000 -4.960000 -18.676418 -9.466095 438.415558
5.000000 -5.160000 -4.920000 -16.193104 -29.390409 1126.012695
5.000000 -5.160000 -4.880000 2.877628 -44.136017 1956.268799
5.000000 -5.160000 -4.840000 29.220867 -40.445187 2489.672119
5.000000 -5.160000 -4.800000 45.056358 -18.192799 2361.053467
5.000000 -5.120000 -5.200000 5.299917 18.448601 368.439972
5.000000 -5.120000 -5.160000 -8.520226 25.262066 710.766235
5.000000 -5.120000 -5.120000 -29.246271 20.961334 1294.721924
5.000000 -5.120000 -5.080000 -46.681396 1.272095 2180.770996
5.000000 -5.120000 -5.040000 -49.701141 -29.001122 3311.268555
5.000000 -5.120000 -5.000000 -33.342972 -57.982452 4473.718750
5.000000 -5.120000 -4.960000 -2.095314 -73.148514 5355.095215
5.000000 -5.120000 -4.920000 32.275002 -67.957718 5659.927246
5.000000 -5.120000 -4.880000 56.632217 -45.095020 5240.769043
5.000000 -5.120000 -4.840000 62.896740 -14.984388 4180.531738
5.000000 -5.120000 -4.800000 51.837910 9.632434 2779.952637
5.000000 -5.080000 -5.200000 -7.451753 27.395765 806.056580
5.000000 -5.080000 -5.160000 -40.595387 30.208921 2560.564209
5.000000 -5.080000 -5.120000 -76.083336 1.514381 5790.967285
5.000000 -5.080000 -5.080000 -84.988823 -54.471153 10190.207031
5.000000 -5.080000 -5.040000 -50.679619 -109.616135 14584.121094
5.000000 -5.080000 -5.000000 15.216202 -130.902710 17367.052734
5.000000 -5.080000 -4.960000 79.261093 -105.289764 17368.255859
5.000000 -5.080000 -4.920000 110.254929 -49.125732 14569.487305
5.000000 -5.080000 -4.880000 100.544861 5.446804 10138.936523
5.000000 -5.080000 -4.840000 67.469925 34.466724 5740.145996
5.000000 -5.080000 -4.800000 36.159279 36.154606 2614.648926
5.000000 -5.040000 -5.200000 -24.532413 23.838522 1170.114502
5.000000 -5.040000 -5.160000 -69.690674 4.789768 4879.731934
5.000000 -5.040000 -5.120000 -93.787132 -57.882736 12146.437500
5.000000 -5.040000 -5.080000 -61.186981 -134.755249 21902.824219
5.000000 -5.040000 -5.040000 26.127666 -173.939240 30937.513672
5.000000 -5.040000 -5.000000 122.987114 -142.443237 35415.906250
5.000000 -5.040000 -4.960000 173.641876 -55.204178 33199.003906
5.000000 -5.040000 -4.920000 154.919296 35.651764 25271.037109
5.000000 -5.040000 -4.880000 91.618286 82.177902 15147.117188
5.000000 -5.040000 -4.840000 31.825514 75.395546 6697.351562
5.000000 -5.040000 -4.800000 6.666082 44.167572 1995.211060
5.000000 -5.000000 -5.200000 -33.162006 9.481834 1189.623779
5.000000 -5.000000 -5.160000 -70.134819 -36.334602 6239.096680
5.000000 -5.000000 -5.120000 -57.650482 -116.128784 16809.472656
5.000000 -5.000000 -5.080000 24.144024 -174.894730 31171.099609
5.000000 -5.000000 -5.040000 138.617508 -157.955536 44164.765625
5.000000 -5.000000 -5.000000 214.846252 -60.958740 49874.882812
5.000000 -5.000000 -4.960000 204.207611 60.856857 45404.308594
5.000000 -5.000000 -4.920000 120.321167 135.658142 32880.312500
5.000000 -5.000000 -4.880000 25.379225 132.010880 18070.978516
5.000000 -5.000000 -4.840000 -23.509806 78.350044 6691.440430
5.000000 -5.000000 -4.800000 -17.729067 30.240976 1228.836426
5.000000 -4.960000 -5.200000 -28.579243 -3.326954 827.841736
5.000000 -4.960000 -5.160000 -41.086426 -62.825893 5635.187012
5.000000 -4.960000 -5.120000 10.102554 -128.848572 16704.017578
5.000000 -4.960000 -5.080000 114.170609 -138.658722 32261.167969
5.000000 -4.960000 -5.040000 206.620728 -61.332569 46453.808594
5.000000 -4.960000 -5.000000 219.175354 66.947166 52519.757812
5.000000 -4.960000 -4.960000 139.182770 167.022232 47268.269531
5.000000 -4.960000 -4.920000 21.955009 181.241882 33330.644531
5.000000 -4.960000 -4.880000 -56.546097 119.022812 17363.890625
5.000000 -4.960000 -4.840000 -62.271931 42.196037 5658.298828
5.000000 -4.960000 -4.800000 -23.398197 6.968143 596.030640
5.000000 -4.920000 -5.200000 -19.553532 -4.483045 402.438293
5.000000 -4.920000 -5.160000 -7.848129 -58.312527 3461.943848
5.000000 -4.920000 -5.120000 60.205666 -90.748589 11860.029297
5.000000 -4.920000 -5.080000 147.072510 -53.483395 24490.794922
5.000000 -4.920000 -5.040000 184.505096 49.287910 36471.425781
5.000000 -4.920000 -5.000000 133.507797 155.070389 41871.156250
5.000000 -4.920000 -4.960000 22.614170 192.993561 37757.917969
5.000000 -4.920000 -4.920000 -74.293091 144.188263 26309.718750
5.000000 -4.920000 -4.880000 -100.835281 55.492100 13247.126953
5.000000 -4.920000 -4.840000 -62.401524 -5.332392 3922.384521
5.000000 -4.920000 -4.800000 -12.217489 -8.388443 219.633026
5.000000 -4.880000 -5.200000 -19.253706 2.730786 378.162384
5.000000 -4.880000 -5.160000 3.546124 -35.787300 1293.305786
5.000000 -4.880000 -5.120000 62.956245 -39.132629 5494.851562
5.000000 -4.880000 -5.080000 112.022125 16.255772 12813.207031
5.000000 -4.880000 -5.040000 100.793686 101.123795 20385.388672
5.000000 -4.880000 -5.000000 25.125275 153.786774 24281.650391
5.000000 -4.880000 -4.960000 -65.223267 134.290085 22287.900391
5.000000 -4.880000 -4.920000 -109.133018 60.268120 15542.261719
5.000000 -4.880000 -4.880000 -86.849571 -10.327160 7649.498535
5.000000 -4.880000 -4.840000 -32.636517 -31.932224 2084.809082
5.000000 -4.880000 -4.800000 2.057631 -8.024214 68.621849
5.000000 -4.840000 -5.200000 -30.759993 4.661562 967.907288
5.000000 -4.840000 -5.160000 -8.213759 -22.765469 585.732361
5.000000 -4.840000 -5.120000 33.572342 -15.684971 1373.120483
5.000000 -4.840000 -5.080000 53.851559 29.775864 3786.592529
5.000000 -4.840000 -5.040000 26.465271 78.757904 6903.218262
5.000000 -4.840000 -5.000000 -32.578033 88.758057 8939.321289
5.000000 -4.840000 -4.960000 -78.256325 49.811398 8605.227539
5.000000 -4.840000 -4.920000 -77.899330 -6.392250 6109.166504
5.000000 -4.840000 -4.880000 -39.753586 -37.000118 2949.356445
5.000000 -4.840000 -4.840000 -1.612883 -26.889568 725.650269
5.000000 -4.840000 -4.800000 6.712025 1.919338 48.735138
5.000000 -4.800000 -5.200000 -42.837532 -8.239132 1902.937500
5.000000 -4.800000 -5.160000 -20.761507 -32.422840 1482.280762
5.000000 -4.800000 -5.120000 11.710144 -27.202660 877.112183
5.000000 -4.800000 -5.080000 24.650173 2.381405 613.302124
5.000000 -4.800000 -5.040000 7.125893 28.293104 851.278076
5.000000 -4.800000 -5.000000 -22.848154 27.323120 1268.591064
5.000000 -4.800000 -4.960000 -37.244556 2.980415 1396.039917
5.000000 -4.800000 -4.920000 -25.508179 -20.149963 1056.688232
5.000000 -4.800000 -4.880000 -2.633053 -22.058710 493.519653
5.000000 -4.800000 -4.840000 8.466122 -5.744053 104.669357
5.000000 -4.800000 -4.800000 0.091051 9.092695 82.685402
5.040000 -5.200000 -5.200000 -2.969419 -0.375196 8.958220
5.040000 -5.200000 -5.160000 0.572325 -11.093948 123.403244
5.040000 -5.200000 -5.120000 11.698477 -16.333462 403.636353
5.040000 -5.200000 -5.080000 24.034943 -10.927200 697.082153
5.040000 -5.200000 -5.040000 28.084181 3.181641 798.844055
5.040000 -5.200000 -5.000000 19.015663 16.036327 618.759277
5.040000 -5.200000 -4.960000 2.594940 16.794504 288.789062
5.040000 -5.200000 -4.920000 -7.974552 3.813852 78.138954
5.040000 -5.200000 -4.880000 -3.328926 -12.288523 162.089539
5.040000 -5.200000 -4.840000 12.719022 -17.170050 456.584106
5.040000 -5.200000 -4.800000 25.583347 -6.006962 690.591309
5.040000 -5.160000 -5.200000 2.750268 4.117918 24.521225
5.040000 -5.160000 -5.160000 2.848772 5.082521 33.947525
5.040000 -5.160000 -5.120000 0.145590 5.450188 29.725742
5.040000 -5.160000 -5.080000 -3.914610 3.139313 25.179455
5.040000 -5.160000 -5.040000 -7.233166 -2.610409 59.132919
5.040000 -5.160000 -5.000000 -7.282364 -11.531345 186.004745
5.040000 -5.160000 -4.960000 -1.224419 -21.403496 459.608826
5.040000 -5.160000 -4.920000 11.949192 -27.151823 880.004700
5.040000 -5.160000 -4.880000 28.309872 -23.003866 1330.626709
5.040000 -5.160000 -4.840000 39.154358 -7.788025 1593.717041
5.040000 -5.160000 -4.800000 36.738224 11.568897 1483.536499
5.040000 -5.120000 -5.200000 -0.916784 15.027799 226.675232
5.040000 -5.120000 -5.160000 -16.924528 17.998116 610.371826
5.040000 -5.120000 -5.120000 -34.954582 4.064480 1238.342896
5.040000 -5.120000 -5.080000 -39.410118 -24.123596 2135.105225
5.040000 -5.120000 -5.040000 -22.189945 -51.996101 3195.988281
5.040000 -5.120000 -5.000000 10.866158 -63.595612 4162.475098
5.040000 -5.120000 -4.960000 44.340378 -52.551216 4727.699219
5.040000 -5.120000 -4.920000 63.775459 -25.100235 4697.331055
5.040000 -5.120000 -4.880000 63.685314 5.505093 4086.125488
5.040000 -5.120000 -4.840000 48.423973 27.392859 3095.249756
5.040000 -5.120000 -4.800000 27.520458 35.300476 2003.499268
5.040000 -5.080000 -5.200000 -16.069487 19.412495 635.073364
5.040000 -5.080000 -5.160000 -46.007793 6.358757 2157.150879
5.040000 -5.080000 -5.120000 -60.277863 -35.376198 4884.895996
5.040000 -5.080000 -5.080000 -36.882858 -84.436607 8489.885742
5.040000 -5.080000 -5.040000 20.536430 -107.534424 11985.397461
5.040000 -5.080000 -5.000000 82.358818 -85.541634 14100.345703
5.040000 -5.080000 -4.960000 114.511429 -29.061363 13957.429688
5.040000 -5.080000 -4.920000 103.442543 30.003811 11600.587891
5.040000 -5.080000 -4.880000 63.619530 62.822582 7994.121094
5.040000 -5.080000 -4.840000 22.932003 62.736565 4461.753418
5.040000 -5.080000 -4.800000 0.747990 44.471252 1978.251709
5.040000 -5.040000 -5.200000 -31.242682 8.885021 1055.048828
5.040000 -5.040000 -5.160000 -57.118011 -29.153679 4112.404297
5.040000 -5.040000 -5.120000 -42.886448 -89.349655 9822.608398
5.040000 -5.040000 -5.080000 21.915321 -129.427032 17231.638672
5.040000 -5.040000 -5.040000 106.964211 -111.655579 23908.310547
5.040000 -5.040000 -5.000000 160.492661 -36.503342 27090.388672
5.040000 -5.040000 -4.960000 149.549042 54.236122 25306.472656
5.040000 -5.040000 -4.920000 85.816971 109.340363 19319.867188
5.040000 -5.040000 -4.880000 14.148540 107.161606 11683.791016
5.040000 -5.040000 -4.840000 -24.869875 67.808968 5216.566895
5.040000 -5.040000 -4.800000 -24.202682 30.245480 1500.558838
5.040000 -5.000000 -5.200000 -32.761196 -9.939169 1172.083130
5.040000 -5.000000 -5.160000 -35.932873 -62.958622 5254.959473
5.040000 -5.000000 -5.120000 14.360225 -114.239075 13256.782227
5.040000 -5.000000 -5.080000 103.300537 -114.224792 23718.304688
5.040000 -5.000000 -5.040000 176.226196 -43.031822 32907.410156
5.040000 -5.000000 -5.000000 180.100067 65.596970 36738.996094
5.040000 -5.000000 -4.960000 108.654175 146.680069 33320.773438
5.040000 -5.000000 -4.920000 9.138745 155.364441 24221.626953
5.040000 -5.000000 -4.880000 -56.689133 101.300308 13475.410156
5.040000 -5.000000 -4.840000 -61.838261 35.522949 5085.850586
5.040000 -5.000000 -4.800000 -29.486313 4.011799 885.537170
5.040000 -4.960000 -5.200000 -19.923525 -21.100517 842.178711
5.040000 -4.960000 -5.160000 2.486000 -68.399353 4684.651855
5.040000 -4.960000 -5.120000 71.416214 -87.988525 12842.255859
5.040000 -4.960000 -5.080000 148.522491 -42.432671 23859.460938
5.040000 -4.960000 -5.040000 173.969940 57.789207 33605.132812
5.040000 -4.960000 -5.000000 117.961929 153.611389 37511.476562
5.040000 -4.960000 -4.960000 10.929712 182.861084 33557.632812
5.040000 -4.960000 -4.920000 -78.803101 132.125732 23667.136719
5.040000 -4.960000 -4.880000 -101.233162 46.637413 12423.201172
5.040000 -4.960000 -4.840000 -63.200527 -10.992191 4115.134766
5.040000 -4.960000 -4.800000 -14.904162 -13.744558 411.046936
5.040000 -4.920000 -5.200000 -6.999194 -16.146954 309.712830
5.040000 -4.920000 -5.160000 27.075563 -44.496838 2713.054688
5.040000 -4.920000 -5.120000 87.590820 -32.564888 8732.624023
5.040000 -4.920000 -5.080000 127.580048 34.505116 17467.271484
5.040000 -4.920000 -5.040000 102.929329 122.214020 25530.712891
5.040000 -4.920000 -5.000000 16.288273 169.372711 28952.423828
5.040000 -4.920000 -4.960000 -78.719933 140.311035 25884.015625
5.040000 -4.920000 -4.920000 -120.921692 57.517570 17930.326172
5.040000 -4.920000 -4.880000 -93.184189 -17.791203 8999.820312
5.040000 -4.920000 -4.840000 -33.530281 -39.291679 2668.115723
5.040000 -4.920000 -4.800000 3.415918 -12.425365 166.058212
5.040000 -4.880000 -5.200000 -8.647415 -4.124697 91.790909
5.040000 -4.880000 -5.160000 21.260616 -17.268576 750.217529
5.040000 -4.880000 -5.120000 59.672745 6.889305 3608.298828
5.040000 -4.880000 -5.080000 66.090240 64.495956 8527.648438
5.040000 -4.880000 -5.040000 19.714729 114.738541 13553.603516
5.040000 -4.880000 -5.000000 -55.108200 114.075806 16050.203125
5.040000 -4.880000 -4.960000 -106.163254 57.654598 14594.689453
5.040000 -4.880000 -4.920000 -99.229568 -13.813576 10037.321289
5.040000 -4.880000 -4.880000 -48.217747 -50.079681 4832.925781
5.040000 -4.880000 -4.840000 -0.176264 -35.634342 1269.837524
5.040000 -4.880000 -4.800000 9.332996 0.545751 87.402664
5.040000 -4.840000 -5.200000 -23.571701 -3.048679 564.919495
5.040000 -4.840000 -5.160000 -0.910166 -13.417736 180.864044
5.040000 -4.840000 -5.120000 22.705471 5.294416 543.569214
5.040000 -4.840000 -5.080000 18.316154 41.220211 2034.587402
5.040000 -4.840000 -5.040000 -18.607674 60.935192 4059.343262
5.040000 -4.840000 -5.000000 -60.311001 42.050476 5405.659180
5.040000 -4.840000 -4.960000 -72.037888 -3.355942 5200.719238
5.040000 -4.840000 -4.920000 -45.419380 -39.270897 3605.123535
5.040000 -4.840000 -4.880000 -5.945007 -40.042267 1638.726318
5.040000 -4.840000 -4.840000 12.778406 -13.601782 348.296143
5.040000 -4.840000 -4.800000 1.105116 9.173389 85.372360
5.040000 -4.800000 -5.200000 -34.260994 -20.760763 1604.824951
5.040000 -4.800000 -5.160000 -10.010706 -33.496571 1222.234497
5.040000 -4.800000 -5.120000 13.367069 -20.824070 612.320435
5.040000 -4.800000 -5.080000 15.028030 3.916847 241.183380
5.040000 -4.800000 -5.040000 -3.798630 16.599968 289.988525
5.040000 -4.800000 -5.000000 -22.294992 6.888031 544.511658
5.040000 -4.800000 -4.960000 -22.325012 -12.548637 655.874451
5.040000 -4.800000 -4.920000 -6.452469 -20.975965 481.625488
5.040000 -4.800000 -4.880000 6.818153 -11.642893 182.044174
5.040000 -4.800000 -4.840000 4.003551 2.626879 22.928909
5.040000 -4.800000 -4.800000 -9.574080 4.965239 116.316597
5.080000 -5.200000 -5.200000 -0.408300 -4.549466 20.864351
5.080000 -5.200000 -5.160000 8.119888 -4.769089 88.676796
5.080000 -5.200000 -5.120000 13.615306 -0.340118 185.492233
5.080000 -5.200000 -5.080000 15.040685 5.629066 257.908600
5.080000 -5.200000 -5.040000 12.773954 10.966412 283.436096
5.080000 -5.200000 -5.000000 7.651680 13.804491 249.112183
5.080000 -5.200000 -4.960000 1.812725 12.491776 159.330414
5.080000 -5.200000 -4.920000 -1.197582 7.419218 56.479000
5.080000 -5.200000 -4.880000 0.939915 2.323151 6.280468
5.080000 -5.200000 -4.840000 6.129822 1.912367 41.231869
5.080000 -5.200000 -4.800000 8.549611 7.010487 122.242767
5.080000 -5.160000 -5.200000 3.989279 2.693997 23.171967
5.080000 -5.160000 -5.160000 1.108428 8.744967 77.703056
5.080000 -5.160000 -5.120000 -6.183996 7.332266 92.003937
5.080000 -5.160000 -5.080000 -9.151924 -1.375847 85.650665
5.080000 -5.160000 -5.040000 -3.760044 -10.462082 123.593086
5.080000 -5.160000 -5.000000 6.843307 -13.503256 229.168777
5.080000 -5.160000 -4.960000 16.723967 -9.432158 368.656677
5.080000 -5.160000 -4.920000 22.299631 -1.194099 498.699432
5.080000 -5.160000 -4.880000 23.089230 8.203983 600.417908
5.080000 -5.160000 -4.840000 19.263474 16.961542 658.775330
5.080000 -5.160000 -4.800000 10.834479 22.761793 635.485168
5.080000 -5.120000 -5.200000 -3.531664 11.716215 149.742355
5.080000 -5.120000 -5.160000 -20.134912 8.915031 484.892487
5.080000 -5.120000 -5.120000 -29.084553 -11.412491 976.156128
5.080000 -5.120000 -5.080000 -17.340233 -36.050064 1600.290894
5.080000 -5.120000 -5.040000 11.840202 -46.284664 2282.460449
5.080000 -5.120000 -5.000000 41.687370 -33.415005 2854.399414
5.080000 -5.120000 -4.960000 55.636894 -4.720337 3117.745605
5.080000 -5.120000 -4.920000 48.965141 23.897297 2968.665771
5.080000 -5.120000 -4.880000 29.309673 40.162697 2472.099121
5.080000 -5.120000 -4.840000 8.351162 41.760494 1813.680786
5.080000 -5.120000 -4.800000 -6.245235 33.765350 1179.101807
5.080000 -5.080000 -5.200000 -18.896273 9.194334 441.604919
5.080000 -5.080000 -5.160000 -36.147446 -13.524210 1489.542114
5.080000 -5.080000 -5.120000 -27.040354 -49.935520 3224.736816
5.080000 -5.080000 -5.080000 12.934607 -72.209869 5381.569336
5.080000 -5.080000 -5.040000 62.944221 -58.612179 7397.362305
5.080000 -5.080000 -5.000000 91.967247 -12.128380 8605.072266
5.080000 -5.080000 -4.960000 82.697716 41.321632 8546.389648
5.080000 -5.080000 -4.920000 43.668804 72.962982 7230.561035
5.080000 -5.080000 -4.880000 0.331873 71.735672 5146.117188
5.080000 -5.080000 -4.840000 -25.307495 48.663292 3008.585205
5.080000 -5.080000 -4.800000 -28.653017 24.118280 1402.686768
5.080000 -5.040000 -5.200000 -26.988167 -7.490356 784.466553
5.080000 -5.040000 -5.160000 -27.029434 -44.869530 2743.864990
5.080000 -5.040000 -5.120000 10.023578 -77.400009 6091.233398
5.080000 -5.040000 -5.080000 70.072784 -72.710114 10196.956055
5.080000 -5.040000 -5.040000 115.468246 -21.357113 13789.041992
5.080000 -5.040000 -5.000000 113.415581 51.579872 15523.577148
5.080000 -5.040000 -4.960000 62.677181 103.752739 14693.059570
5.080000 -5.040000 -4.920000 -5.070621 107.694870 11623.895508
5.080000 -5.040000 -4.880000 -50.471420 70.375412 7500.062988
5.080000 -5.040000 -4.840000 -56.077309 24.085245 3724.763672
5.080000 -5.040000 -4.800000 -35.293240 -1.545956 1248.002808
5.080000 -5.000000 -5.200000 -17.584860 -25.102480 939.361816
5.080000 -5.000000 -5.160000 5.598117 -58.716923 3479.015869
5.080000 -5.000000 -5.120000 59.531235 -66.374542 7949.547852
5.080000 -5.000000 -5.080000 113.057198 -25.875299 13451.460938
5.080000 -5.000000 -5.040000 124.917511 50.233654 18127.804688
5.080000 -5.000000 -5.000000 77.982140 118.305466 20077.398438
5.080000 -5.000000 -4.960000 -3.284103 135.782257 18447.607422
5.080000 -5.000000 -4.920000 -69.922165 95.122391 13937.378906
5.080000 -5.000000 -4.880000 -86.714661 29.204994 8372.364258
5.080000 -5.000000 -4.840000 -58.105270 -16.945158 3663.360840
5.080000 -5.000000 -4.800000 -19.600933 -22.468468 889.028564
5.080000 -4.960000 -5.200000 2.018913 -27.195997 743.698242
5.080000 -4.960000 -5.160000 36.818321 -41.825096 3104.927246
5.080000 -4.960000 -5.120000 83.987259 -21.067797 7497.711914
5.080000 -4.960000 -5.080000 107.324944 39.124428 13049.364258
5.080000 -4.960000 -5.040000 77.899315 108.179733 17771.158203
5.080000 -4.960000 -5.000000 2.889395 139.982544 19603.460938
5.080000 -4.960000 -4.960000 -74.277275 110.312744 17686.015625
5.080000 -4.960000 -4.920000 -106.667915 39.075211 12904.916016
5.080000 -4.960000 -4.880000 -81.786850 -24.937412 7310.963379
5.080000 -4.960000 -4.840000 -30.042791 -44.438118 2877.315674
5.080000 -4.960000 -4.800000 4.021812 -22.653378 529.350525
5.080000 -4.920000 -5.200000 12.767344 -12.236835 312.745239
5.080000 -4.920000 -5.160000 41.328251 -9.078920 1790.451050
5.080000 -4.920000 -5.120000 65.915466 23.812843 4911.900391
5.080000 -4.920000 -5.080000 57.706924 76.172012 9132.264648
5.080000 -4.920000 -5.040000 6.796833 113.226028 12866.331055
5.080000 -4.920000 -5.000000 -61.850639 102.642242 14360.931641
5.080000 -4.920000 -4.960000 -104.058411 45.095795 12861.783203
5.080000 -4.920000 -4.920000 -92.920296 -22.191631 9126.650391
5.080000 -4.920000 -4.880000 -42.593964 -55.456905 4889.713867
5.080000 -4.920000 -4.840000 4.383129 -41.386761 1732.075806
5.080000 -4.920000 -4.800000 15.160179 -6.263609 269.063812
5.080000 -4.880000 -5.200000 3.639180 2.813154 21.157469
5.080000 -4.880000 -5.160000 18.796993 9.558176 444.685699
5.080000 -4.880000 -5.120000 25.064184 34.727589 1834.218750
5.080000 -4.880000 -5.080000 4.803940 63.717468 4082.993652
5.080000 -4.880000 -5.040000 -38.436398 69.499878 6307.589844
5.080000 -4.880000 -5.000000 -76.781937 38.297340 7362.152344
5.080000 -4.880000 -4.960000 -80.538239 -13.354412 6664.748047
5.080000 -4.880000 -4.920000 -46.187538 -49.915817 4624.877441
5.080000 -4.880000 -4.880000 -1.418377 -48.095009 2315.141602
5.080000 -4.880000 -4.840000 19.652569 -17.879316 705.893433
5.080000 -4.880000 -4.800000 7.560966 7.958745 120.509834
5.080000 -4.840000 -5.200000 -15.114445 -0.863786 229.192566
5.080000 -4.840000 -5.160000 -4.920324 -1.506297 26.478521
5.080000 -4.840000 -5.120000 -0.476982 10.672646 114.132874
5.080000 -4.840000 -5.080000 -12.642467 23.042698 690.797913
5.080000 -4.840000 -5.040000 -34.367615 18.457596 1521.815796
5.080000 -4.840000 -5.000000 -45.393253 -5.391541 2089.615967
5.080000 -4.840000 -4.960000 -32.639172 -30.906452 2020.524414
5.080000 -4.840000 -4.920000 -4.928413 -36.890385 1385.189819
5.080000 -4.840000 -4.880000 14.567268 -19.997185 612.092712
5.080000 -4.840000 -4.840000 11.272039 1.529459 129.398117
5.080000 -4.840000 -4.800000 -6.320979 6.364879 80.466461
5.080000 -4.800000 -5.200000 -20.666870 -23.376194 973.565979
5.080000 -4.800000 -5.160000 -3.315735 -27.571188 771.164490
5.080000 -4.800000 -5.120000 9.024323 -17.367874 383.081482
5.080000 -4.800000 -5.080000 7.776310 -4.486702 80.601494
5.080000 -4.800000 -5.040000 -1.118183 -1.054276 2.361830
5.080000 -4.800000 -5.000000 -5.236532 -7.005527 76.498688
5.080000 -4.800000 -4.960000 -0.047878 -11.780471 138.781784
5.080000 -4.800000 -4.920000 6.705734 -7.694699 104.175270
5.080000 -4.800000 -4.880000 5.170448 0.764912 27.318626
5.080000 -4.800000 -4.840000 -4.057611 2.415808 22.300337
5.080000 -4.800000 -4.800000 -9.835684 -6.833070 143.431519
5.120000 -5.200000 -5.200000 5.056947 -3.454359 37.505302
5.120000 -5.200000 -5.160000 7.514381 4.920223 80.674515
5.120000 -5.200000 -5.120000 3.848438 8.984000 95.522736
5.120000 -5.200000 -5.080000 1.618406 7.897811 64.994652
5.120000 -5.200000 -5.040000 3.580738 7.541718 69.699203
5.120000 -5.200000 -5.000000 5.113686 11.873101 167.120316
5.120000 -5.200000 -4.960000 0.891823 17.543253 308.561066
5.120000 -5.200000 -4.920000 -7.843833 17.909763 382.285339
5.120000 -5.200000 -4.880000 -14.179867 11.187420 326.226990
5.120000 -5.200000 -4.840000 -13.362683 2.857344 186.725723
5.120000 -5.200000 -4.800000 -8.143208 -0.574232 66.641571
5.120000 -5.160000 -5.200000 5.150685 5.238583 53.972305
5.120000 -5.160000 -5.160000 -4.192729 10.441318 126.600082
5.120000 -5.160000 -5.120000 -11.632391 3.222993 145.700195
5.120000 -5.160000 -5.080000 -7.399708 -7.494871 110.928772
5.120000 -5.160000 -5.040000 5.316494 -9.488514 118.297005
5.120000 -5.160000 -5.000000 14.828812 0.136621 219.912323
5.120000 -5.160000 -4.960000 13.382757 13.187477 353.007751
5.120000 -5.160000 -4.920000 3.889611 19.877954 410.262177
5.120000 -5.160000 -4.880000 -5.101002 18.200848 357.291077
5.120000 -5.160000 -4.840000 -8.933552 13.476246 261.417542
5.120000 -5.160000 -4.800000 -9.903770 10.445786 207.199097
5.120000 -5.120000 -5.200000 -5.076132 9.358307 113.345032
5.120000 -5.120000 -5.160000 -18.433369 0.890079 340.581329
5.120000 -5.120000 -5.120000 -16.517088 -18.015249 597.363403
5.120000 -5.120000 -5.080000 3.368303 -28.924772 847.987915
5.120000 -5.120000 -5.040000 27.119568 -19.575178 1118.658569
5.120000 -5.120000 -5.000000 36.962578 5.336926 1394.714966
5.120000 -5.120000 -4.960000 26.703949 29.430439 1579.251709
5.120000 -5.120000 -4.920000 4.999479 39.244434 1565.120361
5.120000 -5.120000 -4.880000 -14.327011 33.665062 1338.599609
5.120000 -5.120000 -4.840000 -23.656101 21.000664 1000.639038
5.120000 -5.120000 -4.800000 -24.335114 9.543873 683.283264
5.120000 -5.080000 -5.200000 -15.757397 0.268918 248.367859
5.120000 -5.080000 -5.160000 -18.824741 -20.741926 784.598389
5.120000 -5.080000 -5.120000 1.040321 -39.065712 1527.212158
5.120000 -5.080000 -5.080000 33.451279 -34.953392 2340.727539
5.120000 -5.080000 -5.040000 55.355183 -5.085926 3090.062988
5.120000 -5.080000 -5.000000 49.796177 33.917725 3630.071289
5.120000 -5.080000 -4.960000 19.176453 58.691654 3812.446533
5.120000 -5.080000 -4.920000 -17.792383 56.835899 3546.888184
5.120000 -5.080000 -4.880000 -41.253975 34.220352 2872.922852
5.120000 -5.080000 -4.840000 -43.826199 7.653358 1979.309570
5.120000 -5.080000 -4.800000 -32.386677 -8.809855 1126.510376
5.120000 -5.040000 -5.200000 -13.176169 -16.531891 446.914856
5.120000 -5.040000 -5.160000 1.379988 -36.539413 1337.033203
5.120000 -5.040000 -5.120000 33.411892 -38.758133 2618.547363
5.120000 -5.040000 -5.080000 62.284164 -12.396338 4032.986328
5.120000 -5.040000 -5.040000 64.896225 32.260616 5252.267578
5.120000 -5.040000 -5.000000 34.079166 69.401672 5977.981934
5.120000 -5.040000 -4.960000 -14.587327 76.225502 6023.117188
5.120000 -5.040000 -4.920000 -53.656223 49.796318 5358.663574
5.120000 -5.040000 -4.880000 -63.717396 8.545744 4132.936035
5.120000 -5.040000 -4.840000 -46.351364 -22.407343 2650.538086
5.120000 -5.040000 -4.800000 -20.315041 -29.741381 1297.250610
5.120000 -5.000000 -5.200000 4.436681 -24.658859 627.743469
5.120000 -5.000000 -5.160000 29.057138 -29.508774 1715.085083
5.120000 -5.000000 -5.120000 56.213196 -11.087788 3282.862305
5.120000 -5.000000 -5.080000 64.866348 28.262226 5006.396484
5.120000 -5.000000 -5.040000 41.456055 68.626663 6428.223633
5.120000 -5.000000 -5.000000 -7.206877 84.225632 7145.895996
5.120000 -5.000000 -4.960000 -55.405373 62.428562 6967.081055
5.120000 -5.000000 -4.920000 -75.734573 14.996653 5960.625000
5.120000 -5.000000 -4.880000 -59.514076 -29.269188 4398.610840
5.120000 -5.000000 -4.840000 -23.295773 -46.049828 2663.279785
5.120000 -5.000000 -4.800000 4.974407 -33.682384 1159.247803
5.120000 -4.960000 -5.200000 22.231857 -13.739931 683.041199
5.120000 -4.960000 -5.160000 40.823486 -1.960475 1670.400513
5.120000 -4.960000 -5.120000 49.273792 25.603277 3083.434326
5.120000 -4.960000 -5.080000 34.980446 58.441986 4639.097656
5.120000 -4.960000 -5.040000 -3.054018 76.689621 5890.625000
5.120000 -4.960000 -5.000000 -48.348995 63.967377 6429.450195
5.120000 -4.960000 -4.960000 -74.848343 22.109871 6091.120605
5.120000 -4.960000 -4.920000 -65.856102 -26.096697 5018.063965
5.120000 -4.960000 -4.880000 -28.778179 -52.147881 3547.584961
5.120000 -4.960000 -4.840000 9.131876 -44.277641 2043.900635
5.120000 -4.960000 -4.800000 22.770014 -17.191963 814.037109
5.120000 -4.920000 -5.200000 22.556530 7.647966 567.288452
5.120000 -4.920000 -5.160000 25.526424 23.611248 1209.089355
5.120000 -4.920000 -5.120000 16.815668 42.805626 2115.088379
5.120000 -4.920000 -5.080000 -6.599537 55.572083 3131.810303
5.120000 -4.920000 -5.040000 -38.346340 49.830261 3953.496582
5.120000 -4.920000 -5.000000 -61.753178 21.262596 4265.552734
5.120000 -4.920000 -4.960000 -60.029724 -18.430916 3943.266602
5.120000 -4.920000 -4.920000 -31.389536 -46.271301 3126.336182
5.120000 -4.920000 -4.880000 5.860348 -45.500938 2104.679199
5.120000 -4.920000 -4.840000 26.489414 -21.029774 1143.940430
5.120000 -4.920000 -4.800000 20.026680 3.513262 413.410919
5.120000 -4.880000 -5.200000 4.192078 18.490770 359.482117
5.120000 -4.880000 -5.160000 -2.941942 24.825571 624.963989
5.120000 -4.880000 -5.120000 -14.213531 27.890928 979.928345
5.120000 -4.880000 -5.080000 -28.859726 23.875669 1402.931396
5.120000 -4.880000 -5.040000 -41.121376 8.886269 1769.933350
5.120000 -4.880000 -5.000000 -41.278130 -14.360844 1910.117920
5.120000 -4.880000 -4.960000 -24.277283 -33.883614 1737.485718
5.120000 -4.880000 -4.920000 2.180634 -36.290745 1321.773315
5.120000 -4.880000 -4.880000 20.907909 -19.741745 826.877197
5.120000 -4.880000 -4.840000 19.834030 1.739960 396.416229
5.120000 -4.880000 -4.800000 4.325562 9.703781 112.873856
5.120000 -4.840000 -5.200000 -13.944911 6.713588 239.532806
5.120000 -4.840000 -5.160000 -17.292915 1.934061 302.785522
5.120000 -4.840000 -5.120000 -18.222649 -3.169645 342.111572
5.120000 -4.840000 -5.080000 -17.866564 -8.799397 396.643494
5.120000 -4.840000 -5.040000 -14.726681 -15.755276 465.103821
5.120000 -4.840000 -5.000000 -6.267206 -21.416264 497.934204
5.120000 -4.840000 -4.960000 5.909313 -20.333862 448.385925
5.120000 -4.840000 -4.920000 14.510784 -10.479736 320.387726
5.120000 -4.840000 -4.880000 12.724154 1.956446 165.731796
5.120000 -4.840000 -4.840000 2.486163 6.560366 49.219406
5.120000 -4.840000 -4.800000 -5.157412 -0.764890 27.183950
5.120000 -4.800000 -5.200000 -10.757450 -16.452148 386.395935
5.120000 -4.800000 -5.160000 -3.330171 -20.838743 445.343231
5.120000 -4.800000 -5.120000 4.909994 -20.228199 433.288055
5.120000 -4.800000 -5.080000 11.273243 -16.145779 387.772156
5.120000 -4.800000 -5.040000 15.328169 -10.220627 339.413971
5.120000 -4.800000 -5.000000 16.738140 -2.814128 288.084656
5.120000 -4.800000 -4.960000 13.844879 5.007914 216.759872
5.120000 -4.800000 -4.920000 5.967710 9.462955 125.161064
5.120000 -4.800000 -4.880000 -3.102432 6.321859 49.590988
5.120000 -4.800000 -4.840000 -5.979079 -3.681399 49.302090
5.120000 -4.800000 -4.800000 1.769666 -12.691565 164.207520
5.160000 -5.200000 -5.200000 6.879828 2.325837 52.741547
5.160000 -5.200000 -5.160000 -0.030769 9.468442 89.652336
5.160000 -5.200000 -5.120000 -6.338470 6.371962 80.778091
5.160000 -5.200000 -5.080000 -3.746032 1.281051 15.673846
5.160000 -5.200000 -5.040000 3.081036 4.610344 30.748053
5.160000 -5.200000 -5.000000 2.327123 15.792875 254.830414
5.160000 -5.200000 -4.960000 -10.583428 23.013874 641.647400
5.160000 -5.200000 -4.920000 -26.553104 16.219555 968.141357
5.160000 -5.200000 -4.880000 -31.806290 -1.300391 1013.331116
5.160000 -5.200000 -4.840000 -22.309513 -15.806612 747.563354
5.160000 -5.200000 -4.800000 -7.733538 -17.247147 357.271698
5.160000 -5.160000 -5.200000 2.399255 8.601547 79.743042
5.160000 -5.160000 -5.160000 -9.543266 7.320668 144.666107
5.160000 -5.160000 -5.120000 -11.479662 -3.261385 142.419266
5.160000 -5.160000 -5.080000 -1.364221 -8.308689 70.895416
5.160000 -5.160000 -5.040000 8.548614 0.240640 73.136703
5.160000 -5.160000 -5.000000 5.671969 15.012468 257.545441
5.160000 -5.160000 -4.960000 -9.273686 21.526623 549.396729
5.160000 -5.160000 -4.920000 -23.521437 13.613445 738.583862
5.160000 -5.160000 -4.880000 -26.029400 -0.964742 678.460388
5.160000 -5.160000 -4.840000 -18.155756 -9.876225 427.171265
5.160000 -5.160000 -4.800000 -10.176669 -9.152813 187.338593
5.160000 -5.120000 -5.200000 -6.471601 6.747015 87.403839
5.160000 -5.120000 -5.160000 -13.745638 -3.842765 203.709412
5.160000 -5.120000 -5.120000 -5.906550 -14.957779 258.622498
5.160000 -5.120000 -5.080000 9.560058 -12.535145 248.524551
5.160000 -5.120000 -5.040000 16.847137 3.849083 298.641479
5.160000 -5.120000 -5.000000 7.590935 21.044094 500.476166
5.160000 -5.120000 -4.960000 -11.776114 25.454405 786.603577
5.160000 -5.120000 -4.920000 -27.354664 15.151228 977.837341
5.160000 -5.120000 -4.880000 -30.829515 -0.515244 950.724548
5.160000 -5.120000 -4.840000 -24.874336 -11.350596 747.568665
5.160000 -5.120000 -4.800000 -17.344589 -14.809751 520.163452
5.160000 -5.080000 -5.200000 -8.956976 -4.139878 97.366005
5.160000 -5.080000 -5.160000 -5.256857 -15.655674 272.734680
5.160000 -5.080000 -5.120000 9.170225 -18.044470 409.695923
5.160000 -5.080000 -5.080000 21.539301 -5.308264 492.119171
5.160000 -5.080000 -5.040000 19.472551 15.222439 610.902893
5.160000 -5.080000 -5.000000 1.581313 29.154644 852.493835
5.160000 -5.080000 -4.960000 -21.816084 26.753647 1191.699219
5.160000 -5.080000 -4.920000 -37.312607 9.735157 1487.003906
5.160000 -5.080000 -4.880000 -38.059750 -11.486998 1580.495605
5.160000 -5.080000 -4.840000 -26.927748 -26.173847 1410.173828
5.160000 -5.080000 -4.800000 -12.427551 -29.835064 1044.575073
5.160000 -5.040000 -5.200000 1.625571 -13.442606 183.346146
5.160000 -5.040000 -5.160000 12.252350 -15.392254 387.041565
5.160000 -5.040000 -5.120000 22.855680 -6.291127 561.960449
5.160000 -5.040000 -5.080000 23.925737 10.946721 692.271606
5.160000 -5.040000 -5.040000 11.019854 26.748602 836.924927
5.160000 -5.040000 -5.000000 -11.756216 30.653761 1077.861694
5.160000 -5.040000 -4.960000 -33.408195 17.961123 1438.709473
5.160000 -5.040000 -4.920000 -42.235752 -6.567425 1826.989868
5.160000 -5.040000 -4.880000 -33.277454 -30.696491 2049.663574
5.160000 -5.040000 -4.840000 -12.243494 -42.100552 1922.359619
5.160000 -5.040000 -4.800000 7.744224 -36.836796 1416.922607
5.160000 -5.000000 -5.200000 18.281984 -8.648718 409.031281
5.160000 -5.000000 -5.160000 24.126949 1.331318 583.882080
5.160000 -5.000000 -5.120000 22.040453 14.361223 692.026306
5.160000 -5.000000 -5.080000 11.488203 25.066740 760.320251
5.160000 -5.000000 -5.040000 -5.563259 28.549616 846.030396
5.160000 -5.000000 -5.000000 -24.270260 20.629616 1014.626587
5.160000 -5.000000 -4.960000 -36.194366 0.572024 1310.359375
5.160000 -5.000000 -4.920000 -32.721786 -24.921814 1691.812134
5.160000 -5.000000 -4.880000 -12.702864 -42.678959 1982.856323
5.160000 -5.000000 -4.840000 13.166785 -41.977310 1935.458862
5.160000 -5.000000 -4.800000 28.528856 -24.859665 1431.898560
5.160000 -4.960000 -5.200000 24.942253 10.338465 728.999817
5.160000 -4.960000 -5.160000 17.253771 23.330196 841.990601
5.160000 -4.960000 -5.120000 3.576597 28.032085 798.589844
5.160000 -4.960000 -5.080000 -9.494338 24.775196 703.952820
5.160000 -4.960000 -5.040000 -19.764072 16.287697 655.907593
5.160000 -4.960000 -5.000000 -26.396435 2.794107 704.578796
5.160000 -4.960000 -4.960000 -25.258162 -15.355998 873.781372
5.160000 -4.960000 -4.920000 -11.655048 -31.854004 1150.517700
5.160000 -4.960000 -4.880000 11.330961 -35.907539 1417.742188
5.160000 -4.960000 -4.840000 30.540005 -22.770800 1451.201172
5.160000 -4.960000 -4.800000 32.956741 -1.877002 1089.670044
5.160000 -4.920000 -5.200000 12.667227 28.267305 959.499146
5.160000 -4.920000 -5.160000 -5.863972 31.810757 1046.310425
5.160000 -4.920000 -5.120000 -20.243778 21.785397 884.414062
5.160000 -4.920000 -5.080000 -24.060015 7.287445 631.991211
5.160000 -4.920000 -5.040000 -20.605652 -4.204743 442.272766
5.160000 -4.920000 -5.000000 -14.649881 -12.537609 371.810669
5.160000 -4.920000 -4.960000 -5.806914 -19.538704 415.481201
5.160000 -4.920000 -4.920000 7.875720 -22.171730 553.612549
5.160000 -4.920000 -4.880000 22.251760 -14.990597 719.858826
5.160000 -4.920000 -4.840000 27.705936 0.579092 767.954224
5.160000 -4.920000 -4.800000 19.800453 13.341883 570.063782
5.160000 -4.880000 -5.200000 -9.160257 28.519798 897.289246
5.160000 -4.880000 -5.160000 -26.700718 18.108986 1040.863770
5.160000 -4.880000 -5.120000 -30.360918 -1.483644 923.986511
5.160000 -4.880000 -5.080000 -19.981503 -16.317232 665.512512
5.160000 -4.880000 -5.040000 -5.315984 -19.838703 421.833832
5.160000 -4.880000 -5.000000 5.324461 -15.600797 271.734741
5.160000 -4.880000 -4.960000 11.101812 -9.555414 214.556183
5.160000 -4.880000 -4.920000 14.508623 -3.285212 221.292755
5.160000 -4.880000 -4.880000 15.249706 4.119055 249.520157
5.160000 -4.880000 -4.840000 11.237375 10.474829 236.000641
5.160000 -4.880000 -4.800000 4.568502 10.908617 139.869141
5.160000 -4.840000 -5.200000 -20.183048 10.870913 525.532166
5.160000 -4.840000 -5.160000 -26.990274 -6.057310 765.165894
5.160000 -4.840000 -5.120000 -17.880241 -23.347158 864.792847
5.160000 -4.840000 -5.080000 1.129952 -28.568769 817.451355
5.160000 -4.840000 -5.040000 17.359589 -19.488426 681.154053
5.160000 -4.840000 -5.000000 22.399345 -3.937683 517.236023
5.160000 -4.840000 -4.960000 17.012936 8.326915 358.777466
5.160000 -4.840000 -4.920000 7.621369 12.612873 217.169830
5.160000 -4.840000 -4.880000 0.381139 9.954707 99.241455
5.160000 -4.840000 -4.840000 -1.473758 4.115129 19.106247
5.160000 -4.840000 -4.800000 2.614040 -0.480961 7.064530
5.160000 -4.800000 -5.200000 -9.431330 -6.074978 125.855339
5.160000 -4.800000 -5.160000 -7.062622 -17.888142 369.866272
5.160000 -4.800000 -5.120000 6.372184 -25.341070 682.774597
5.160000 -4.800000 -5.080000 23.588005 -20.016220 957.043091
5.160000 -4.800000 -5.040000 32.811340 -2.798032 1084.413086
5.160000 -4.800000 -5.000000 27.298431 16.118788 1005.019653
5.160000 -4.800000 -4.960000 10.868156 24.944092 740.324524
5.160000 -4.800000 -4.920000 -4.937290 19.215527 393.613281
5.160000 -4.800000 -4.880000 -9.477425 5.014120 114.962982
5.160000 -4.800000 -4.840000 -0.793324 -5.710438 33.238464
5.160000 -4.800000 -4.800000 13.078618 -4.027764 187.273132
5.200000 -5.200000 -5.200000 2.782633 6.938841 55.890564
5.200000 -5.200000 -5.160000 -6.840431 5.840058 80.897781
5.200000 -5.200000 -5.120000 -7.653399 -1.711750 61.504597
5.200000 -5.200000 -5.080000 0.033770 -2.597277 6.746988
5.200000 -5.200000 -5.040000 3.471929 7.871487 74.014595
5.200000 -5.200000 -5.000000 -7.453666 19.059032 418.803833
5.200000 -5.200000 -4.960000 -27.158775 15.917114 990.953613
5.200000 -5.200000 -4.920000 -38.481400 -4.006873 1496.873169
5.200000 -5.200000 -4.880000 -30.140564 -26.388498 1604.806396
5.200000 -5.200000 -4.840000 -8.745084 -33.912933 1226.563477
5.200000 -5.200000 -4.800000 7.769426 -23.386875 607.309937
5.200000 -5.160000 -5.200000 -2.970504 8.215059 76.311089
5.200000 -5.160000 -5.160000 -10.693890 1.182934 115.758606
5.200000 -5.160000 -5.120000 -6.548749 -6.481340 84.893890
5.200000 -5.160000 -5.080000 1.962749 -3.233168 14.305763
5.200000 -5.160000 -5.040000 1.129168 8.587562 75.021233
5.200000 -5.160000 -5.000000 -12.809054 15.023788 389.786072
5.200000 -5.160000 -4.960000 -28.598648 6.011857 854.025146
5.200000 -5.160000 -4.920000 -31.604576 -13.207411 1173.284912
5.200000 -5.160000 -4.880000 -19.166742 -27.278744 1111.493896
5.200000 -5.160000 -4.840000 -2.924685 -26.554144 713.676331
5.200000 -5.160000 -4.800000 3.886977 -16.140984 275.639923
5.200000 -5.120000 -5.200000 -6.783049 3.140893 55.874954
5.200000 -5.120000 -5.160000 -8.836014 -5.027328 103.349174
5.200000 -5.120000 -5.120000 -2.500536 -8.291450 75.000816
5.200000 -5.120000 -5.080000 2.216303 -2.028544 9.026991
5.200000 -5.120000 -5.040000 -3.099286 6.716591 54.718170
5.200000 -5.120000 -5.000000 -15.935433 7.131695 304.799103
5.200000 -5.120000 -4.960000 -25.539825 -3.815237 666.838684
5.200000 -5.120000 -4.920000 -24.010344 -18.533808 919.998657
5.200000 -5.120000 -4.880000 -13.592751 -26.931923 910.091370
5.200000 -5.120000 -4.840000 -3.081187 -26.018410 686.451355
5.200000 -5.120000 -4.800000 1.561625 -20.961189 441.810120
5.200000 -5.080000 -5.200000 -2.538140 -3.473362 18.506397
5.200000 -5.080000 -5.160000 -1.380539 -6.667151 46.356789
5.200000 -5.080000 -5.120000 1.232827 -5.603689 32.921196
5.200000 -5.080000 -5.080000 0.283288 -1.500886 2.332912
5.200000 -5.080000 -5.040000 -5.615025 0.761874 32.108952
5.200000 -5.080000 -5.000000 -13.153316 -2.626964 179.910675
5.200000 -5.080000 -4.960000 -17.403585 -11.351864 431.749603
5.200000 -5.080000 -4.920000 -15.487158 -21.693275 710.450256
5.200000 -5.080000 -4.880000 -7.919824 -29.306097 921.570984
5.200000 -5.080000 -4.840000 2.314535 -31.446035 994.210205
5.200000 -5.080000 -4.800000 11.341477 -27.777962 900.244263
5.200000 -5.040000 -5.200000 8.242759 -2.417158 73.785721
5.200000 -5.040000 -5.160000 5.402758 0.480043 29.420233
5.200000 -5.040000 -5.120000 0.695059 0.195563 0.521352
5.200000 -5.040000 -5.080000 -2.437850 -3.098068 15.541138
5.200000 -5.040000 -5.040000 -3.190768 -6.497665 52.400658
5.200000 -5.040000 -5.000000 -3.940838 -8.959994 95.811707
5.200000 -5.040000 -4.960000 -5.810684 -13.141916 206.473999
5.200000 -5.040000 -4.920000 -5.338804 -21.282984 481.468231
5.200000 -5.040000 -4.880000 2.299528 -30.081022 910.155762
5.200000 -5.040000 -4.840000 16.359819 -31.919617 1286.505615
5.200000 -5.040000 -4.800000 28.457031 -22.791231 1329.242920
5.200000 -5.000000 -5.200000 15.353682 10.143103 338.618073
5.200000 -5.000000 -5.160000 3.105534 13.083992 180.835175
5.200000 -5.000000 -5.120000 -6.138442 4.415748 57.179298
5.200000 -5.000000 -5.080000 -4.522474 -6.973562 69.083328
5.200000 -5.000000 -5.040000 3.365819 -10.970623 131.683304
5.200000 -5.000000 -5.000000 7.262521 -8.100903 118.368835
5.200000 -5.000000 -4.960000 4.634522 -7.788059 82.132660
5.200000 -5.000000 -4.920000 3.994143 -15.222465 247.676605
5.200000 -5.000000 -4.880000 13.698452 -23.264490 728.884094
5.200000 -5.000000 -4.840000 29.723988 -20.071976 1286.399658
5.200000 -5.000000 -4.800000 38.051216 -4.161615 1465.214111
5.200000 -4.960000 -5.200000 9.097454 26.505035 785.280579
5.200000 -4.960000 -5.160000 -10.582844 20.856655 546.996643
5.200000 -4.960000 -5.120000 -16.475271 1.426300 273.468903
5.200000 -4.960000 -5.080000 -4.669781 -13.072298 192.691833
5.200000 -4.960000 -5.040000 10.721391 -11.572363 248.867798
5.200000 -4.960000 -5.000000 15.072843 -1.612737 229.791504
5.200000 -4.960000 -4.960000 9.726771 1.826725 97.947006
5.200000 -4.960000 -4.920000 8.347523 -4.753648 92.278305
5.200000 -4.960000 -4.880000 18.461496 -9.607253 433.126160
5.200000 -4.960000 -4.840000 31.081245 -1.314181 967.770874
5.200000 -4.960000 -4.800000 31.366184 15.586189 1226.766846
5.200000 -4.920000 -5.200000 -8.838060 33.116848 1174.836914
5.200000 -4.920000 -5.160000 -27.494873 15.095910 983.854492
5.200000 -4.920000 -5.120000 -22.863186 -10.429177 631.493042
5.200000 -4.920000 -5.080000 -0.746570 -20.604235 425.091858
5.200000 -4.920000 -5.040000 17.409687 -10.113976 405.389709
5.200000 -4.920000 -5.000000 18.408192 5.888153 373.531860
5.200000 -4.920000 -4.960000 9.421535 11.051064 210.891327
5.200000 -4.920000 -4.920000 6.190320 5.692519 70.724823
5.200000 -4.920000 -4.880000 13.208227 3.230114 184.890900
5.200000 -4.920000 -4.840000 19.725777 11.536657 522.200745
5.200000 -4.920000 -4.800000 15.094963 22.795223 747.480103
5.200000 -4.880000 -5.200000 -25.077585 23.940071 1202.012207
5.200000 -4.880000 -5.160000 -34.607582 -2.059763 1201.927368
5.200000 -4.880000 -5.120000 -18.324293 -25.342434 978.018677
5.200000 -4.880000 -5.080000 9.154338 -26.165653 768.443298
5.200000 -4.880000 -5.040000 24.836519 -7.094047 667.178162
5.200000 -4.880000 -5.000000 20.342020 12.583252 572.135986
5.200000 -4.880000 -4.960000 6.924669 18.243427 380.773682
5.200000 -4.880000 -4.920000 -0.026703 12.730665 162.070557
5.200000 -4.880000 -4.880000 2.597632 8.563980 80.089455
5.200000 -4.880000 -4.840000 6.154401 11.734604 175.577576
5.200000 -4.880000 -4.800000 3.888748 16.789267 297.001862
5.200000 -4.840000 -5.200000 -26.923115 7.827839 786.129211
5.200000 -4.840000 -5.160000 -26.119282 -17.583813 991.407349
5.200000 -4.840000 -5.120000 -3.403380 -32.839336 1090.005005
5.200000 -4.840000 -5.080000 23.155231 -24.276859 1125.530640
5.200000 -4.840000 -5.040000 33.162655 0.408367 1099.928467
5.200000 -4.840000 -5.000000 22.358597 21.365833 956.405701
5.200000 -4.840000 -4.960000 3.675944 25.669348 672.427979
5.200000 -4.840000 -4.920000 -7.382158 16.698299 333.329468
5.200000 -4.840000 -4.880000 -6.262892 6.930387 87.254082
5.200000 -4.840000 -4.840000 0.469118 4.793830 23.200882
5.200000 -4.840000 -4.800000 4.650661 9.487628 111.643723
5.200000 -4.800000 -5.200000 -15.720646 0.914232 247.974518
5.200000 -4.800000 -5.160000 -10.392997 -18.759783 459.943817
5.200000 -4.800000 -5.120000 11.976077 -26.483124 844.782227
5.200000 -4.800000 -5.080000 34.013527 -12.266168 1307.378906
5.200000 -4.800000 -5.040000 37.659225 14.754623 1635.916260
5.200000 -4.800000 -5.000000 20.378937 34.750011 1622.864380
5.200000 -4.800000 -4.960000 -3.468354 34.819481 1224.425781
5.200000 -4.800000 -4.920000 -16.128101 19.147943 626.759399
5.200000 -4.800000 -4.880000 -11.363665 3.502078 141.397430
5.200000 -4.800000 -4.840000 2.149376 0.861042 5.361209
5.200000 -4.800000 -4.800000 10.067020 11.468392 232.868927
