#kx 	ky 	kz 	real 	imag 	intensity
2.800000 2.800000 8.800000 -12.601515 -8.355611 228.614410
2.800000 2.800000 8.840000 -11.523299 -6.653746 177.058762
2.800000 2.800000 8.880000 -13.396257 -9.506674 269.836548
2.800000 2.800000 8.920000 -10.980487 -17.109831 413.317383
2.800000 2.800000 8.960000 -0.791416 -22.527973 508.135925
2.800000 2.800000 9.000000 12.305084 -18.881693 507.933441
2.800000 2.800000 9.040000 19.427229 -6.902464 425.061249
2.800000 2.800000 9.080000 16.455061 5.396470 299.890930
2.800000 2.800000 9.120000 7.831113 10.620536 174.122116
2.800000 2.800000 9.160000 1.325790 8.890232 80.793945
2.800000 2.800000 9.200000 -0.212080 6.218412 38.713631
2.800000 2.840000 8.800000 -6.681759 -14.637709 258.908417
2.800000 2.840000 8.840000 -7.695503 -10.503364 169.541412
2.800000 2.840000 8.880000 -10.321390 -13.057431 277.027588
2.800000 2.840000 8.920000 -7.047210 -19.059250 412.918182
2.800000 2.840000 8.960000 2.162704 -20.432108 422.148315
2.800000 2.840000 9.000000 9.865421 -13.747726 286.326538
2.800000 2.840000 9.040000 9.642978 -4.315939 111.614357
2.800000 2.840000 9.080000 3.445702 -0.239414 11.930180
2.800000 2.840000 9.120000 -0.692251 -3.190506 10.658540
2.800000 2.840000 9.160000 1.904625 -6.594737 47.118156
2.800000 2.840000 9.200000 6.844910 -3.588507 59.730167
2.800000 2.880000 8.800000 3.172413 -18.067751 336.507843
2.800000 2.880000 8.840000 -0.271293 -13.383557 179.193207
2.800000 2.880000 8.880000 -3.363219 -15.705283 257.967163
2.800000 2.880000 8.920000 -0.922595 -19.811638 393.352173
2.800000 2.880000 8.960000 4.545863 -19.822491 413.596008
2.800000 2.880000 9.000000 7.357989 -16.185184 316.100220
2.800000 2.880000 9.040000 6.490808 -14.194109 243.603333
2.800000 2.880000 9.080000 7.036712 -16.202080 312.022705
2.800000 2.880000 9.120000 13.199957 -17.334894 474.737427
2.800000 2.880000 9.160000 21.243660 -10.729689 566.419312
2.800000 2.880000 9.200000 21.667587 3.058129 478.836487
2.800000 2.920000 8.800000 15.737009 -14.930993 470.588013
2.800000 2.920000 8.840000 10.357486 -10.498962 217.505722
2.800000 2.920000 8.880000 6.277411 -12.513723 195.999176
2.800000 2.920000 8.920000 6.513151 -16.352074 309.811462
2.800000 2.920000 8.960000 9.265093 -18.874207 442.077637
2.800000 2.920000 9.000000 12.896949 -20.664803 593.365356
2.800000 2.920000 9.040000 18.949755 -22.139513 849.251221
2.800000 2.920000 9.080000 28.760689 -19.724716 1216.241699
2.800000 2.920000 9.120000 38.090614 -8.564816 1524.250977
2.800000 2.920000 9.160000 37.883636 10.079732 1536.770874
2.800000 2.920000 9.200000 22.758137 25.756048 1181.306885
2.800000 2.960000 8.800000 25.518993 -2.876951 659.495850
2.800000 2.960000 8.840000 18.006311 1.098169 325.433228
2.800000 2.960000 8.880000 12.075476 -1.652561 148.548065
2.800000 2.960000 8.920000 10.852621 -7.743089 177.734802
2.800000 2.960000 8.960000 15.050135 -13.930593 420.567993
2.800000 2.960000 9.000000 24.604259 -17.009186 894.682007
2.800000 2.960000 9.040000 37.564144 -12.729042 1573.093506
2.800000 2.960000 9.080000 47.699169 1.981131 2279.135498
2.800000 2.960000 9.120000 46.031139 23.979145 2693.865234
2.800000 2.960000 9.160000 27.913294 42.086853 2550.455078
2.800000 2.960000 9.200000 -0.142623 43.323219 1876.921753
2.800000 3.000000 8.800000 25.678488 14.723710 876.172363
2.800000 3.000000 8.840000 15.257526 17.091639 524.916260
2.800000 3.000000 8.880000 7.890834 11.410087 192.455353
2.800000 3.000000 8.920000 8.248972 2.000630 72.048058
2.800000 3.000000 8.960000 17.462244 -4.609196 326.174652
2.800000 3.000000 9.000000 31.868975 -1.807310 1018.897888
2.800000 3.000000 9.040000 42.912476 13.382565 2020.573608
2.800000 3.000000 9.080000 40.724560 36.311787 2977.035645
2.800000 3.000000 9.120000 21.183620 54.725552 3443.631836
2.800000 3.000000 9.160000 -8.555148 55.544716 3158.406250
2.800000 3.000000 9.200000 -32.267757 34.919785 2260.599609
2.800000 3.040000 8.800000 14.084101 29.463974 1066.487671
2.800000 3.040000 8.840000 1.089209 27.723606 769.784729
2.800000 3.040000 8.880000 -5.040472 17.526390 332.580719
2.800000 3.040000 8.920000 0.149856 6.888432 47.472954
2.800000 3.040000 8.960000 13.686510 5.289578 215.300201
2.800000 3.040000 9.000000 25.601456 17.417145 958.791443
2.800000 3.040000 9.040000 24.537323 38.492874 2083.781738
2.800000 3.040000 9.080000 6.044558 55.491417 3115.833984
2.800000 3.040000 9.120000 -22.369854 55.201496 3547.615479
2.800000 3.040000 9.160000 -44.588215 34.210938 3158.497070
2.800000 3.040000 9.200000 -46.583851 2.915060 2178.552734
2.800000 3.080000 8.800000 -4.077741 34.034176 1174.953003
2.800000 3.080000 8.840000 -16.912577 25.951721 959.527100
2.800000 3.080000 8.880000 -18.086891 12.360731 479.923279
2.800000 3.080000 8.920000 -7.526631 4.957247 81.224472
2.800000 3.080000 8.960000 4.989515 11.470625 156.470505
2.800000 3.080000 9.000000 6.483313 28.667322 863.848694
2.800000 3.080000 9.040000 -8.845319 43.365803 1958.832520
2.800000 3.080000 9.080000 -33.761047 41.961704 2900.593018
2.800000 3.080000 9.120000 -52.238697 21.380474 3186.006104
2.800000 3.080000 9.160000 -51.235115 -7.535371 2681.818848
2.800000 3.080000 9.200000 -30.711840 -27.534676 1701.375488
2.800000 3.120000 8.800000 -20.387871 27.695827 1182.724121
2.800000 3.120000 8.840000 -28.795692 13.545704 1012.677979
2.800000 3.120000 8.880000 -23.015297 0.533589 529.988647
2.800000 3.120000 8.920000 -10.470087 0.067569 109.627289
2.800000 3.120000 8.960000 -5.366615 12.331567 180.868088
2.800000 3.120000 9.000000 -16.119593 24.975334 883.608643
2.800000 3.120000 9.040000 -36.874489 23.357531 1905.302124
2.800000 3.120000 9.080000 -51.463120 3.744859 2662.476562
2.800000 3.120000 9.120000 -46.913254 -22.476959 2706.066895
2.800000 3.120000 9.160000 -24.697086 -37.748455 2034.891846
2.800000 3.120000 9.200000 0.338725 -32.675484 1067.802002
2.800000 3.160000 8.800000 -29.804689 15.513092 1128.975586
2.800000 3.160000 8.840000 -30.537855 -1.363972 934.421021
2.800000 3.160000 8.880000 -19.367249 -9.370986 462.905670
2.800000 3.160000 8.920000 -10.167446 -3.017223 112.480598
2.800000 3.160000 8.960000 -15.019283 8.144903 291.918335
2.800000 3.160000 9.000000 -31.548326 8.165821 1061.977539
2.800000 3.160000 9.040000 -43.939587 -9.387272 2018.808105
2.800000 3.160000 9.080000 -37.568844 -33.838058 2556.432129
2.800000 3.160000 9.120000 -13.490398 -46.211006 2317.447754
2.800000 3.160000 9.160000 11.441436 -36.490868 1462.489868
2.800000 3.160000 9.200000 19.247076 -12.979358 538.913635
2.800000 3.200000 8.800000 -32.949009 2.585582 1092.322388
2.800000 3.200000 8.840000 -25.731865 -12.416711 816.303589
2.800000 3.200000 8.880000 -13.298899 -13.521692 359.696869
2.800000 3.200000 8.920000 -10.861221 -4.504391 138.255661
2.800000 3.200000 8.960000 -22.033203 -1.088410 486.646667
2.800000 3.200000 9.000000 -33.735405 -14.223809 1340.394287
2.800000 3.200000 9.040000 -28.908684 -37.029274 2206.879150
2.800000 3.200000 9.080000 -4.861157 -49.774006 2501.082520
2.800000 3.200000 9.120000 21.828154 -39.004948 1997.854248
2.800000 3.200000 9.160000 29.816761 -11.880249 1030.179565
2.800000 3.200000 9.200000 13.223564 9.074296 257.205505
2.840000 2.800000 8.800000 -11.945667 -10.590522 254.858109
2.840000 2.800000 8.840000 -8.636654 -8.129308 140.677429
2.840000 2.800000 8.880000 -9.011726 -8.566992 154.604553
2.840000 2.800000 8.920000 -7.174255 -13.274249 227.675629
2.840000 2.800000 8.960000 0.777035 -17.287968 299.477631
2.840000 2.800000 9.000000 12.074356 -14.335950 351.309509
2.840000 2.800000 9.040000 19.362843 -3.448476 386.811676
2.840000 2.800000 9.080000 17.519234 9.614762 399.367218
2.840000 2.800000 9.120000 8.192448 17.408463 370.170776
2.840000 2.800000 9.160000 -2.182437 17.027332 294.693085
2.840000 2.800000 9.200000 -8.297578 11.350528 197.684296
2.840000 2.840000 8.800000 -0.473264 -17.683540 312.931580
2.840000 2.840000 8.840000 2.446039 -10.728731 121.088783
2.840000 2.840000 8.880000 0.875814 -6.650805 45.000252
2.840000 2.840000 8.920000 -0.819300 -6.443942 42.195644
2.840000 2.840000 8.960000 -0.089158 -7.613424 57.972179
2.840000 2.840000 9.000000 2.368084 -7.489099 61.694420
2.840000 2.840000 9.040000 4.536277 -5.604340 51.986427
2.840000 2.840000 9.080000 5.534691 -3.069114 40.052265
2.840000 2.840000 9.120000 5.763953 -0.525537 33.499344
2.840000 2.840000 9.160000 5.234819 2.351786 32.934231
2.840000 2.840000 9.200000 2.897771 5.235647 35.809078
2.840000 2.880000 8.800000 15.668813 -15.245949 477.950623
2.840000 2.880000 8.840000 15.531355 -2.936230 249.844437
2.840000 2.880000 8.880000 7.791905 5.440430 90.312057
2.840000 2.880000 8.920000 -3.145731 5.704483 42.436749
2.840000 2.880000 8.960000 -10.752953 -2.467232 121.713226
2.840000 2.880000 9.000000 -9.576562 -14.532089 302.892151
2.840000 2.880000 9.040000 1.161433 -22.777367 520.157349
2.840000 2.880000 9.080000 16.025085 -20.779381 688.586060
2.840000 2.880000 9.120000 25.966198 -8.097834 739.818298
2.840000 2.880000 9.160000 24.173347 8.426441 655.355591
2.840000 2.880000 9.200000 11.306470 18.682014 476.853943
2.840000 2.920000 8.800000 27.650045 -0.375230 764.665833
2.840000 2.920000 8.840000 20.008469 15.500187 640.594604
2.840000 2.920000 8.880000 2.138149 22.158081 495.552246
2.840000 2.920000 8.920000 -16.585022 12.971682 443.327484
2.840000 2.920000 8.960000 -22.922459 -9.199538 610.070557
2.840000 2.920000 9.000000 -9.379074 -30.868935 1040.858154
2.840000 2.920000 9.040000 18.105890 -36.034775 1626.328247
2.840000 2.920000 9.080000 42.217041 -18.490715 2124.185059
2.840000 2.920000 9.120000 46.298893 11.949323 2286.373779
2.840000 2.920000 9.160000 27.210485 35.697617 2014.730347
2.840000 2.920000 9.200000 -1.872266 37.818085 1433.712891
2.840000 2.960000 8.800000 25.936256 20.943264 1111.309692
2.840000 2.960000 8.840000 8.170088 34.268532 1241.082642
2.840000 2.960000 8.880000 -16.955624 30.515358 1218.680176
2.840000 2.960000 8.920000 -33.115135 6.728349 1141.882812
2.840000 2.960000 8.960000 -25.292995 -24.542557 1242.072754
2.840000 2.960000 9.000000 6.268858 -41.040489 1723.620361
2.840000 2.960000 9.040000 42.341286 -27.554348 2552.026367
2.840000 2.960000 9.080000 57.310299 10.053053 3385.534424
2.840000 2.960000 9.120000 39.269440 47.079636 3758.581055
2.840000 2.960000 9.160000 0.328862 58.373226 3407.541748
2.840000 2.960000 9.200000 -32.440018 37.800262 2481.214600
2.840000 3.000000 8.800000 8.992797 36.165230 1388.794189
2.840000 3.000000 8.840000 -15.680067 39.433945 1800.900513
2.840000 3.000000 8.880000 -38.097061 21.415508 1910.010132
2.840000 3.000000 8.920000 -40.013184 -11.117086 1724.644409
2.840000 3.000000 8.960000 -14.221256 -36.640625 1544.779541
2.840000 3.000000 9.000000 25.324469 -33.676895 1775.462036
2.840000 3.000000 9.040000 50.675610 0.328434 2568.125244
2.840000 3.000000 9.080000 41.291962 43.570969 3603.455566
2.840000 3.000000 9.120000 1.917842 65.224838 4257.957520
2.840000 3.000000 9.160000 -39.752079 49.838013 4064.055176
2.840000 3.000000 9.200000 -54.705536 9.729043 3087.349854
2.840000 3.040000 8.800000 -13.845005 35.809509 1474.005127
2.840000 3.040000 8.840000 -36.808334 25.897335 2025.525391
2.840000 3.040000 8.880000 -46.354408 -0.768146 2149.321289
2.840000 3.040000 8.920000 -31.320904 -28.334980 1783.870117
2.840000 3.040000 8.960000 2.123037 -35.492325 1264.212402
2.840000 3.040000 9.000000 31.078648 -12.966111 1134.002319
2.840000 3.040000 9.040000 32.318226 25.783796 1709.271973
2.840000 3.040000 9.080000 2.101887 52.485870 2759.184570
2.840000 3.040000 9.120000 -38.618477 46.155891 3621.752930
2.840000 3.040000 9.160000 -59.898537 10.750802 3703.414551
2.840000 3.040000 9.200000 -46.731621 -27.594667 2945.310059
2.840000 3.080000 8.800000 -29.541260 21.453058 1332.919678
2.840000 3.080000 8.840000 -42.319214 2.701967 1798.216553
2.840000 3.080000 8.880000 -36.715961 -20.992432 1788.743896
2.840000 3.080000 8.920000 -14.000886 -32.845428 1274.846924
2.840000 3.080000 8.960000 10.506820 -22.353703 610.081299
2.840000 3.080000 9.000000 17.581533 4.413567 328.589905
2.840000 3.080000 9.040000 -0.144094 27.229536 741.468384
2.840000 3.080000 9.080000 -30.414440 27.037874 1656.084717
2.840000 3.080000 9.120000 -49.817245 2.082214 2486.093750
2.840000 3.080000 9.160000 -42.518173 -29.660509 2687.540771
2.840000 3.080000 9.200000 -13.340531 -44.625069 2169.366455
2.840000 3.120000 8.800000 -32.153709 3.668847 1047.321533
2.840000 3.120000 8.840000 -32.272102 -15.094180 1269.322876
2.840000 3.120000 8.880000 -18.671322 -27.042614 1079.921265
2.840000 3.120000 8.920000 -1.945849 -23.893082 574.665649
2.840000 3.120000 8.960000 4.478808 -9.171148 104.169685
2.840000 3.120000 9.000000 -4.720633 3.865280 37.224762
2.840000 3.120000 9.040000 -21.739950 2.736311 480.112823
2.840000 3.120000 9.080000 -31.467722 -13.601000 1175.204712
2.840000 3.120000 9.120000 -23.870157 -33.259125 1675.953857
2.840000 3.120000 9.160000 -2.616419 -40.796871 1671.230347
2.840000 3.120000 9.200000 17.636103 -29.824677 1200.543457
2.840000 3.160000 8.800000 -26.426979 -8.264231 766.682678
2.840000 3.160000 8.840000 -18.168242 -20.180977 737.356812
2.840000 3.160000 8.880000 -6.662088 -20.432680 461.877838
2.840000 3.160000 8.920000 -2.938553 -12.698743 169.893158
2.840000 3.160000 8.960000 -9.496450 -8.151031 156.621887
2.840000 3.160000 9.000000 -17.902666 -14.665472 535.581543
2.840000 3.160000 9.040000 -16.730968 -28.976875 1119.584595
2.840000 3.160000 9.080000 -2.500681 -39.182392 1541.513306
2.840000 3.160000 9.120000 16.507597 -35.385204 1524.613403
2.840000 3.160000 9.160000 27.098234 -18.683754 1083.396973
2.840000 3.160000 9.200000 22.303352 -0.444960 497.637512
2.840000 3.200000 8.800000 -20.728233 -14.190660 631.034546
2.840000 3.200000 8.840000 -10.361329 -18.215202 439.150757
2.840000 3.200000 8.880000 -5.891322 -13.454490 215.730972
2.840000 3.200000 8.920000 -11.270290 -11.356092 255.980286
2.840000 3.200000 8.960000 -17.443827 -20.754850 735.050903
2.840000 3.200000 9.000000 -11.376945 -37.124992 1507.699951
2.840000 3.200000 9.040000 9.564384 -45.387531 2151.505615
2.840000 3.200000 9.080000 32.737675 -34.395710 2254.820312
2.840000 3.200000 9.120000 40.614647 -8.935207 1729.387451
2.840000 3.200000 9.160000 26.921509 12.988533 893.469604
2.840000 3.200000 9.200000 2.989735 15.537042 250.338181
2.880000 2.800000 8.800000 -9.343632 -15.767212 335.908417
2.880000 2.800000 8.840000 -4.754993 -9.777768 118.214714
2.880000 2.800000 8.880000 -6.544164 -7.036276 92.335258
2.880000 2.800000 8.920000 -7.402786 -10.915868 173.957413
2.880000 2.800000 8.960000 -0.908007 -16.258860 265.174988
2.880000 2.800000 9.000000 11.221382 -14.450462 334.735291
2.880000 2.800000 9.040000 19.969719 -2.473085 404.905823
2.880000 2.800000 9.080000 17.472019 13.242779 480.642639
2.880000 2.800000 9.120000 4.677578 22.207394 515.048096
2.880000 2.800000 9.160000 -9.307215 19.143089 453.082092
2.880000 2.800000 9.200000 -15.285265 8.160728 300.236816
2.880000 2.840000 8.800000 9.359171 -17.801067 404.472076
2.880000 2.840000 8.840000 11.974144 -2.715689 150.755096
2.880000 2.840000 8.880000 3.023676 7.796640 69.930222
2.880000 2.840000 8.920000 -9.311089 6.548810 129.583282
2.880000 2.840000 8.960000 -14.357147 -4.061836 222.626190
2.880000 2.840000 9.000000 -7.950455 -14.105526 262.175598
2.880000 2.840000 9.040000 4.334770 -14.795884 237.708420
2.880000 2.840000 9.080000 12.618496 -5.758328 192.384781
2.880000 2.840000 9.120000 11.387854 5.620529 161.273560
2.880000 2.840000 9.160000 3.358614 11.366714 140.482483
2.880000 2.840000 9.200000 -4.254980 9.461210 107.619354
2.880000 2.880000 8.800000 26.457165 -3.146688 709.883179
2.880000 2.880000 8.840000 18.737240 20.844856 785.592163
2.880000 2.880000 8.880000 -6.568375 31.983423 1066.082886
2.880000 2.880000 8.920000 -33.272213 19.071255 1470.752930
2.880000 2.880000 8.960000 -41.018837 -11.242613 1808.941406
2.880000 2.880000 9.000000 -22.389181 -37.673840 1920.593628
2.880000 2.880000 9.040000 9.927502 -41.062756 1784.705200
2.880000 2.880000 9.080000 33.222855 -19.917416 1500.461426
2.880000 2.880000 9.120000 33.165657 9.211529 1184.813110
2.880000 2.880000 9.160000 14.059279 26.323330 890.581055
2.880000 2.880000 9.200000 -7.193582 23.725618 614.652588
2.880000 2.920000 8.800000 27.289900 22.681675 1259.197021
2.880000 2.920000 8.840000 1.807688 46.406528 2156.833740
2.880000 2.920000 8.880000 -39.146038 42.610054 3348.029053
2.880000 2.920000 8.920000 -66.701736 5.028818 4474.410645
2.880000 2.920000 8.960000 -56.033047 -44.663387 5134.520508
2.880000 2.920000 9.000000 -9.684742 -71.109474 5150.351562
2.880000 2.920000 9.040000 41.431984 -54.179230 4651.998047
2.880000 2.920000 9.080000 62.293415 -6.415705 3921.630859
2.880000 2.920000 9.120000 42.008545 37.447742 3167.051270
2.880000 2.920000 9.160000 0.754828 49.338253 2434.833008
2.880000 2.920000 9.200000 -29.580368 28.797413 1704.289185
2.880000 2.960000 8.800000 6.899744 42.496727 1853.578247
2.880000 2.960000 8.840000 -33.656071 51.492821 3784.241699
2.880000 2.960000 8.880000 -74.739487 21.947397 6067.678711
2.880000 2.960000 8.920000 -81.146133 -36.210991 7895.930664
2.880000 2.960000 8.960000 -38.380272 -84.514938 8615.820312
2.880000 2.960000 9.000000 29.600229 -85.370674 8164.325195
2.880000 2.960000 9.040000 76.183418 -35.070095 7033.824707
2.880000 2.960000 9.080000 69.781403 30.866905 5822.209961
2.880000 2.960000 9.120000 19.658598 66.457977 4803.123047
2.880000 2.960000 9.160000 -33.540848 52.446827 3875.658203
2.880000 2.960000 9.200000 -52.874634 8.736030 2872.044922
2.880000 3.000000 8.800000 -22.934303 40.841225 2193.987793
2.880000 3.000000 8.840000 -63.996277 26.702181 4808.529785
2.880000 3.000000 8.880000 -84.813385 -22.467125 7698.081543
2.880000 3.000000 8.920000 -58.918777 -78.874100 9692.545898
2.880000 3.000000 8.960000 6.274159 -99.941277 10027.624023
2.880000 3.000000 9.000000 68.894348 -64.305962 8881.687500
2.880000 3.000000 9.040000 84.415039 6.406066 7166.936523
2.880000 3.000000 9.080000 43.061398 62.584755 5771.135742
2.880000 3.000000 9.120000 -21.598692 66.896866 4941.693848
2.880000 3.000000 9.160000 -61.242172 23.874390 4320.590332
2.880000 3.000000 9.200000 -52.412125 -27.223389 3488.143555
2.880000 3.040000 8.800000 -42.015083 18.051954 2091.140137
2.880000 3.040000 8.840000 -66.723068 -13.182821 4625.754395
2.880000 3.040000 8.880000 -58.883839 -61.152779 7206.968750
2.880000 3.040000 8.920000 -12.116055 -92.224304 8652.121094
2.880000 3.040000 8.960000 47.753464 -77.906448 8349.807617
2.880000 3.040000 9.000000 79.059296 -21.804770 6725.819824
2.880000 3.040000 9.040000 58.231564 38.804428 4896.698730
2.880000 3.040000 9.080000 1.142517 61.601734 3796.079102
2.880000 3.040000 9.120000 -48.901833 33.888378 3539.811279
2.880000 3.040000 9.160000 -56.825134 -17.794519 3545.740967
2.880000 3.040000 9.200000 -23.328217 -51.546108 3201.207031
2.880000 3.080000 8.800000 -38.911591 -9.355736 1601.641724
2.880000 3.080000 8.840000 -41.099953 -40.911224 3362.934326
2.880000 3.080000 8.880000 -15.630341 -68.315948 4911.376465
2.880000 3.080000 8.920000 26.549496 -68.819695 5441.026367
2.880000 3.080000 8.960000 58.079681 -36.326599 4692.871094
2.880000 3.080000 9.000000 55.578213 9.971323 3188.364990
2.880000 3.080000 9.040000 19.926542 38.277420 1862.228027
2.880000 3.080000 9.080000 -22.430864 29.481976 1372.330566
2.880000 3.080000 9.120000 -40.198402 -6.787394 1661.980225
2.880000 3.080000 9.160000 -22.630291 -40.170731 2125.817627
2.880000 3.080000 9.200000 12.749226 -44.962872 2184.202637
2.880000 3.120000 8.800000 -20.429806 -23.495584 969.419434
2.880000 3.120000 8.840000 -8.651600 -41.004883 1756.250610
2.880000 3.120000 8.880000 13.805313 -44.976646 2213.485352
2.880000 3.120000 8.920000 33.151699 -31.167894 2070.472656
2.880000 3.120000 8.960000 36.657822 -7.656376 1402.416016
2.880000 3.120000 9.000000 22.299950 10.090523 599.106384
2.880000 3.120000 9.040000 1.042763 10.495125 111.235001
2.880000 3.120000 9.080000 -11.054657 -5.012482 147.330414
2.880000 3.120000 9.120000 -5.287473 -22.813700 548.422241
2.880000 3.120000 9.160000 12.751226 -27.839302 937.620483
2.880000 3.120000 9.200000 27.811447 -15.620376 1017.472717
2.880000 3.160000 8.800000 -3.745005 -20.821945 447.578461
2.880000 3.160000 8.840000 7.523022 -22.570421 566.019775
2.880000 3.160000 8.880000 14.234272 -16.347630 469.859497
2.880000 3.160000 8.920000 13.242688 -9.890518 273.191132
2.880000 3.160000 8.960000 9.036549 -9.112988 164.705750
2.880000 3.160000 9.000000 8.272678 -13.134587 240.954590
2.880000 3.160000 9.040000 13.308437 -16.168955 438.549591
2.880000 3.160000 9.080000 20.581558 -13.449478 604.489014
2.880000 3.160000 9.120000 24.388676 -5.284575 622.734253
2.880000 3.160000 9.160000 21.742044 3.803725 487.184814
2.880000 3.160000 9.200000 14.107858 8.989082 279.835266
2.880000 3.200000 8.800000 0.851501 -13.129984 173.121536
2.880000 3.200000 8.840000 3.845629 -7.941410 77.854858
2.880000 3.200000 8.880000 -1.746406 -6.376812 43.713661
2.880000 3.200000 8.920000 -6.384331 -15.434855 278.994415
2.880000 3.200000 8.960000 1.301491 -28.971504 841.041992
2.880000 3.200000 9.000000 21.319857 -32.625069 1518.931396
2.880000 3.200000 9.040000 40.147926 -18.225145 1944.011841
2.880000 3.200000 9.080000 42.545937 6.877657 1857.458862
2.880000 3.200000 9.120000 25.871380 25.329996 1310.937012
2.880000 3.200000 9.160000 2.834019 24.932652 629.668762
2.880000 3.200000 9.200000 -9.749605 8.845160 173.291656
2.920000 2.800000 8.800000 -1.205427 -19.323502 374.850769
2.920000 2.800000 8.840000 0.688693 -8.781199 77.583740
2.920000 2.800000 8.880000 -5.458097 -5.434828 59.328182
2.920000 2.800000 8.920000 -8.271790 -11.990227 212.188034
2.920000 2.800000 8.960000 0.049723 -19.392208 376.060211
2.920000 2.800000 9.000000 14.960814 -15.995327 479.676453
2.920000 2.800000 9.040000 23.397421 0.035673 547.440613
2.920000 2.800000 9.080000 16.701406 17.971416 601.908813
2.920000 2.800000 9.120000 -0.561049 24.472101 599.198486
2.920000 2.800000 9.160000 -14.782179 16.150724 479.358704
2.920000 2.800000 9.200000 -16.072994 2.225312 263.293182
2.920000 2.840000 8.800000 19.190285 -9.843265 465.156891
2.920000 2.840000 8.840000 12.512590 11.938874 299.101624
2.920000 2.840000 8.880000 -9.085190 19.499424 462.768219
2.920000 2.840000 8.920000 -27.594225 5.928917 796.593262
2.920000 2.840000 8.960000 -26.744154 -17.362926 1016.720947
2.920000 2.840000 9.000000 -6.934240 -30.393375 971.840942
2.920000 2.840000 9.040000 15.305851 -22.571228 743.729370
2.920000 2.840000 9.080000 22.744253 -1.481915 519.497070
2.920000 2.840000 9.120000 12.482595 15.499376 396.045837
2.920000 2.840000 9.160000 -3.555450 17.640993 323.845886
2.920000 2.840000 9.200000 -11.723727 8.984877 218.173798
2.920000 2.880000 8.800000 25.984756 16.304302 941.037842
2.920000 2.880000 8.840000 -0.957512 42.139828 1776.682007
2.920000 2.880000 8.880000 -43.495316 36.893707 3252.988281
2.920000 2.880000 8.920000 -68.951180 -2.978325 4763.135742
2.920000 2.880000 8.960000 -53.975983 -50.967484 5511.090820
2.920000 2.880000 9.000000 -6.831512 -71.278267 5127.260742
2.920000 2.880000 9.040000 38.370819 -49.555222 3928.039551
2.920000 2.880000 9.080000 50.825294 -4.593386 2604.309570
2.920000 2.880000 9.120000 28.076612 29.620161 1665.650146
2.920000 2.880000 9.160000 -5.720585 33.456535 1152.064819
2.920000 2.880000 9.200000 -24.253057 14.896939 810.129639
2.920000 2.920000 8.800000 7.822928 41.535816 1786.422241
2.920000 2.920000 8.840000 -41.520676 53.187000 4552.823242
2.920000 2.920000 8.880000 -90.859238 16.500935 8527.682617
2.920000 2.920000 8.920000 -96.323380 -53.677170 12159.431641
2.920000 2.920000 8.960000 -43.424526 -108.804138 13724.030273
2.920000 2.920000 9.000000 35.288841 -106.379097 12561.815430
2.920000 2.920000 9.040000 85.148819 -47.558380 9512.121094
2.920000 2.920000 9.080000 75.137413 23.438293 6194.984375
2.920000 2.920000 9.120000 21.996103 57.780857 3822.456055
2.920000 2.920000 9.160000 -28.519650 41.826164 2562.798340
2.920000 2.920000 9.200000 -43.035835 2.279253 1857.278076
2.920000 2.960000 8.800000 -26.431763 44.096870 2643.171875
2.920000 2.960000 8.840000 -82.697098 25.647057 7496.581543
2.920000 2.960000 8.880000 -110.820686 -42.430752 14081.593750
2.920000 2.960000 8.920000 -73.669579 -119.699425 19755.160156
2.920000 2.960000 8.960000 16.206253 -146.938995 21853.710938
2.920000 2.960000 9.000000 99.998161 -97.772095 19559.015625
2.920000 2.960000 9.040000 119.950790 -4.751837 14410.772461
2.920000 2.960000 9.080000 67.952049 66.666519 9061.906250
2.920000 2.960000 9.120000 -9.772752 72.932770 5414.695801
2.920000 2.960000 9.160000 -55.055679 25.308086 3671.627197
2.920000 2.960000 9.200000 -46.058563 -27.250145 2863.961670
2.920000 3.000000 8.800000 -52.039749 18.235268 3040.660400
2.920000 3.000000 8.840000 -90.445839 -28.212292 8976.382812
2.920000 3.000000 8.880000 -78.181854 -103.063599 16734.507812
2.920000 3.000000 8.920000 -3.783291 -151.811523 23061.050781
2.920000 3.000000 8.960000 91.262573 -128.860931 24933.996094
2.920000 3.000000 9.000000 141.402374 -40.969498 21673.130859
2.920000 3.000000 9.040000 111.773895 53.400421 15345.007812
2.920000 3.000000 9.080000 28.407455 91.388901 9158.915039
2.920000 3.000000 9.120000 -44.753441 57.130180 5266.728027
2.920000 3.000000 9.160000 -60.390320 -9.485260 3736.960938
2.920000 3.000000 9.200000 -23.326033 -52.176250 3266.464844
2.920000 3.040000 8.800000 -49.192078 -18.426964 2759.413574
2.920000 3.040000 8.840000 -54.997581 -71.321991 8111.560059
2.920000 3.040000 8.880000 -10.189291 -121.266945 14809.493164
2.920000 3.040000 8.920000 68.578613 -123.264923 19897.267578
2.920000 3.040000 8.960000 130.236511 -62.499886 20867.785156
2.920000 3.040000 9.000000 129.228180 26.866808 17421.748047
2.920000 3.040000 9.040000 65.257362 85.850517 11628.834961
2.920000 3.040000 9.080000 -14.635740 78.548706 6384.104492
2.920000 3.040000 9.120000 -55.069420 20.731812 3462.449219
2.920000 3.040000 9.160000 -37.113697 -36.542316 2712.767578
2.920000 3.040000 9.200000 11.102183 -51.731709 2799.428223
2.920000 3.080000 8.800000 -20.996296 -39.346382 1988.982300
2.920000 3.080000 8.840000 -1.750704 -73.977112 5475.678223
2.920000 3.080000 8.880000 46.170406 -85.980019 9524.269531
2.920000 3.080000 8.920000 95.394760 -56.118118 12249.403320
2.920000 3.080000 8.960000 110.593079 4.833805 12254.194336
2.920000 3.080000 9.000000 77.512001 60.032600 9612.023438
2.920000 3.080000 9.040000 17.072178 74.279007 5808.830566
2.920000 3.080000 9.080000 -29.847324 42.444851 2692.428223
2.920000 3.080000 9.120000 -34.954979 -6.785166 1267.889038
2.920000 3.080000 9.160000 -3.951534 -35.416271 1269.926880
2.920000 3.080000 9.200000 31.424026 -26.855003 1708.660645
2.920000 3.120000 8.800000 9.444355 -32.438751 1141.468384
2.920000 3.120000 8.840000 31.149721 -40.302464 2594.593750
2.920000 3.120000 8.880000 55.981331 -29.063450 3978.593506
2.920000 3.120000 8.920000 68.110809 -1.048450 4640.181641
2.920000 3.120000 8.960000 58.078018 29.617771 4250.268555
2.920000 3.120000 9.000000 30.255383 45.717747 3005.500488
2.920000 3.120000 9.040000 0.854458 38.933903 1516.578857
2.920000 3.120000 9.080000 -13.161900 16.160896 434.410156
2.920000 3.120000 9.120000 -6.290760 -5.420025 68.950333
2.920000 3.120000 9.160000 11.859789 -11.203441 266.171661
2.920000 3.120000 9.200000 24.617468 0.135761 606.038147
2.920000 3.160000 8.800000 20.614357 -9.784748 520.692993
2.920000 3.160000 8.840000 27.001564 -2.625648 735.978516
2.920000 3.160000 8.880000 26.074812 5.426807 709.346069
2.920000 3.160000 8.920000 21.917164 9.129082 563.702209
2.920000 3.160000 8.960000 19.607246 9.880242 482.063293
2.920000 3.160000 9.000000 19.185574 11.979618 511.597473
2.920000 3.160000 9.040000 16.757175 16.261040 545.224365
2.920000 3.160000 9.080000 10.444052 18.922012 467.120758
2.920000 3.160000 9.120000 3.472031 16.556969 286.188202
2.920000 3.160000 9.160000 0.603865 10.821718 117.474243
2.920000 3.160000 9.200000 2.404893 6.901924 53.420071
2.920000 3.200000 8.800000 11.684952 5.807833 170.269028
2.920000 3.200000 8.840000 2.889057 10.218933 112.773247
2.920000 3.200000 8.880000 -6.170914 1.307680 39.790203
2.920000 3.200000 8.920000 -1.127182 -14.350227 207.199570
2.920000 3.200000 8.960000 18.725609 -19.379688 726.220764
2.920000 3.200000 9.000000 37.155586 -3.857849 1395.420654
2.920000 3.200000 9.040000 36.119892 22.748390 1822.135864
2.920000 3.200000 9.080000 14.014059 39.219269 1734.544800
2.920000 3.200000 9.120000 -11.922413 32.588474 1204.152588
2.920000 3.200000 9.160000 -21.752781 10.191631 577.052795
2.920000 3.200000 9.200000 -11.104089 -8.133469 189.454102
2.960000 2.800000 8.800000 8.947376 -15.139645 309.264374
2.960000 2.800000 8.840000 4.141026 -3.469692 29.186855
2.960000 2.800000 8.880000 -5.752399 -4.257952 51.220253
2.960000 2.800000 8.920000 -6.513233 -14.865856 263.415894
2.960000 2.800000 8.960000 6.257472 -21.204514 488.787354
2.960000 2.800000 9.000000 21.951780 -12.370323 634.905518
2.960000 2.800000 9.040000 25.419270 7.673498 705.021851
2.960000 2.800000 9.080000 12.267288 23.630592 708.891235
2.960000 2.800000 9.120000 -6.786638 23.863239 615.512634
2.960000 2.800000 9.160000 -16.725822 11.312839 407.733459
2.960000 2.800000 9.200000 -12.590671 -0.464855 158.741074
2.960000 2.840000 8.800000 20.353163 4.995022 439.201477
2.960000 2.840000 8.840000 -0.188808 23.104359 533.847046
2.960000 2.840000 8.880000 -28.467356 16.283222 1075.533691
2.960000 2.840000 8.920000 -39.651108 -12.167191 1720.250854
2.960000 2.840000 8.960000 -22.474304 -38.903896 2018.607544
2.960000 2.840000 9.000000 9.735626 -41.414467 1809.940552
2.960000 2.840000 9.040000 31.302944 -18.275171 1313.856201
2.960000 2.840000 9.080000 27.467726 10.830868 871.783630
2.960000 2.840000 9.120000 5.982397 24.426508 632.443359
2.960000 2.840000 9.160000 -13.092267 18.016699 496.008911
2.960000 2.840000 9.200000 -17.363735 4.611835 322.768311
2.960000 2.880000 8.800000 9.118692 30.986485 1043.312744
2.960000 2.880000 8.840000 -34.696281 40.176437 2817.978027
2.960000 2.880000 8.880000 -75.251068 6.302372 5702.442871
2.960000 2.880000 8.920000 -74.970833 -52.984547 8427.988281
2.960000 2.880000 8.960000 -26.641518 -93.879257 9523.084961
2.960000 2.880000 9.000000 36.926025 -84.175201 8448.996094
2.960000 2.880000 9.040000 70.373795 -31.955015 5973.594238
2.960000 2.880000 9.080000 54.623421 22.411739 3486.004150
2.960000 2.880000 9.120000 10.350429 42.586254 1920.720337
2.960000 2.880000 9.160000 -24.752337 25.470400 1261.419434
2.960000 2.880000 9.200000 -30.438984 -2.823404 934.503357
2.960000 2.920000 8.800000 -22.889050 39.435013 2079.028809
2.960000 2.920000 8.840000 -79.949081 19.620041 6776.801270
2.960000 2.920000 8.880000 -105.841446 -50.325813 13735.099609
2.960000 2.920000 8.920000 -64.703140 -125.955078 20051.177734
2.960000 2.920000 8.960000 26.070312 -147.763779 22513.796875
2.960000 2.920000 9.000000 105.086197 -94.328667 19941.005859
2.960000 2.920000 9.040000 118.310501 -3.315395 14008.367188
2.960000 2.920000 9.080000 64.595596 60.833359 7873.288086
2.960000 2.920000 9.120000 -7.144102 61.817883 3872.488770
2.960000 2.920000 9.160000 -44.200500 17.321632 2253.723145
2.960000 2.920000 9.200000 -33.696571 -25.308298 1775.968750
2.960000 2.960000 8.800000 -52.793907 17.467781 3092.319824
2.960000 2.960000 8.840000 -96.812584 -36.909206 10734.966797
2.960000 2.960000 8.880000 -80.152588 -123.694458 21724.757812
2.960000 2.960000 8.920000 8.395069 -177.208801 31473.435547
2.960000 2.960000 8.960000 117.113777 -146.178101 35083.671875
2.960000 2.960000 9.000000 170.183868 -43.191357 30828.042969
2.960000 2.960000 9.040000 132.371582 61.826180 21344.712891
2.960000 2.960000 9.080000 38.734425 100.311096 11562.671875
2.960000 2.960000 9.120000 -38.428429 61.118008 5212.155273
2.960000 2.960000 9.160000 -52.511429 -7.375875 2811.853760
2.960000 2.960000 9.200000 -15.883622 -46.772438 2439.950439
2.960000 3.000000 8.800000 -55.030708 -22.379307 3529.212402
2.960000 3.000000 8.840000 -62.841858 -92.419334 12490.431641
2.960000 3.000000 8.880000 -1.504830 -158.464661 25113.312500
2.960000 3.000000 8.920000 104.871628 -158.240097 36037.984375
2.960000 3.000000 8.960000 185.313660 -73.645836 39764.859375
2.960000 3.000000 9.000000 179.985565 45.975456 34508.546875
2.960000 3.000000 9.040000 93.015549 121.491966 23412.191406
2.960000 3.000000 9.080000 -10.416292 109.729691 12149.104492
2.960000 3.000000 9.120000 -60.436478 36.565334 4989.591797
2.960000 3.000000 9.160000 -39.064407 -31.705853 2531.289062
2.960000 3.000000 9.200000 13.983553 -48.315121 2529.890625
2.960000 3.040000 8.800000 -25.039600 -50.513611 3178.606445
2.960000 3.040000 8.840000 3.074894 -104.945366 11022.985352
2.960000 3.040000 8.880000 79.541199 -124.343735 21788.166016
2.960000 3.040000 8.920000 158.815414 -74.682899 30799.871094
2.960000 3.040000 8.960000 181.204620 25.728548 33497.070312
2.960000 3.040000 9.000000 124.313896 114.588806 28584.539062
2.960000 3.040000 9.040000 25.183020 135.148010 18899.167969
2.960000 3.040000 9.080000 -49.372452 82.814720 9295.916992
2.960000 3.040000 9.120000 -57.684731 6.153427 3365.392822
2.960000 3.040000 9.160000 -13.407679 -37.257393 1567.879150
2.960000 3.040000 9.200000 34.167339 -27.757805 1937.902832
2.960000 3.080000 8.800000 15.066706 -45.856861 2329.857422
2.960000 3.080000 8.840000 54.625011 -65.800217 7313.560547
2.960000 3.080000 8.880000 108.201317 -46.063858 13829.404297
2.960000 3.080000 8.920000 136.974640 15.312157 18996.515625
2.960000 3.080000 8.960000 113.227737 85.987946 20214.447266
2.960000 3.080000 9.000000 45.732689 121.688644 16899.605469
2.960000 3.080000 9.040000 -24.384274 101.326233 10861.598633
2.960000 3.080000 9.080000 -55.529976 43.929710 5013.397461
2.960000 3.080000 9.120000 -37.643120 -7.877096 1479.053223
2.960000 3.080000 9.160000 3.431852 -22.726307 528.262634
2.960000 3.080000 9.200000 31.114120 -2.645298 975.086121
2.960000 3.120000 8.800000 35.722099 -14.581833 1488.698242
2.960000 3.120000 8.840000 58.739433 -7.665581 3509.082275
2.960000 3.120000 8.880000 73.879211 18.495026 5800.203613
2.960000 3.120000 8.920000 67.577202 53.254276 7402.696289
2.960000 3.120000 8.960000 38.313118 78.315842 7601.266113
2.960000 3.120000 9.000000 -1.040081 79.440170 6311.822266
2.960000 3.120000 9.040000 -30.848055 56.297211 4120.978516
2.960000 3.120000 9.080000 -37.564735 23.070097 1943.338745
2.960000 3.120000 9.120000 -22.578897 -1.183908 511.208252
2.960000 3.120000 9.160000 -0.397887 -5.483488 30.226955
2.960000 3.120000 9.200000 12.420027 6.473970 196.169357
2.960000 3.160000 8.800000 25.986120 16.437523 945.470581
2.960000 3.160000 8.840000 23.516212 25.944584 1226.133789
2.960000 3.160000 8.880000 16.145550 30.558540 1194.503174
2.960000 3.160000 8.920000 10.452110 30.743214 1054.391846
2.960000 3.160000 8.960000 7.274582 31.979717 1075.621826
2.960000 3.160000 9.000000 1.261410 35.760899 1280.433105
2.960000 3.160000 9.040000 -10.761822 36.122879 1420.679199
2.960000 3.160000 9.080000 -23.271301 26.551235 1246.521484
2.960000 3.160000 9.120000 -26.185776 9.336580 772.866577
2.960000 3.160000 9.160000 -15.971273 -4.248873 273.134491
2.960000 3.160000 9.200000 -1.097445 -4.575211 22.136936
2.960000 3.200000 8.800000 1.447140 24.943016 624.248291
2.960000 3.200000 8.840000 -13.344332 19.409149 554.786255
2.960000 3.200000 8.880000 -15.915184 1.213205 254.764938
2.960000 3.200000 8.920000 0.634678 -11.012210 121.671585
2.960000 3.200000 8.960000 21.585926 -1.244640 467.501343
2.960000 3.200000 9.000000 24.056318 24.832901 1195.379395
2.960000 3.200000 9.040000 1.195805 43.029648 1852.980469
2.960000 3.200000 9.080000 -28.836056 34.308174 2008.568848
2.960000 3.200000 9.120000 -39.736141 4.582384 1599.959229
2.960000 3.200000 9.160000 -22.933575 -20.509277 946.579346
2.960000 3.200000 9.200000 4.280832 -20.772715 449.831207
3.000000 2.800000 8.800000 12.656974 -3.511743 172.531326
3.000000 2.800000 8.840000 1.666359 2.948181 11.468525
3.000000 2.800000 8.880000 -6.967638 -4.488537 68.694946
3.000000 2.800000 8.920000 -1.874816 -15.965576 258.414551
3.000000 2.800000 8.960000 13.578018 -16.600391 459.935577
3.000000 2.800000 9.000000 24.546478 -2.061440 606.779114
3.000000 2.800000 9.040000 19.830700 16.903664 678.990479
3.000000 2.800000 9.080000 2.918156 25.441393 655.780090
3.000000 2.800000 9.120000 -12.289456 19.116655 516.477234
3.000000 2.800000 9.160000 -15.688478 6.981966 294.876221
3.000000 2.800000 9.200000 -9.955502 1.008302 100.128685
3.000000 2.840000 8.800000 8.348536 16.612442 345.671265
3.000000 2.840000 8.840000 -19.122637 19.784904 757.117676
3.000000 2.840000 8.880000 -39.539665 -3.159760 1573.369263
3.000000 2.840000 8.920000 -32.607452 -35.655865 2334.586670
3.000000 2.840000 8.960000 -1.132904 -50.701569 2571.932617
3.000000 2.840000 9.000000 30.696617 -35.444149 2198.570068
3.000000 2.840000 9.040000 39.119144 -2.389713 1536.018188
3.000000 2.840000 9.080000 21.227625 23.137756 985.967834
3.000000 2.840000 9.120000 -5.194427 25.938992 699.813354
3.000000 2.840000 9.160000 -20.296421 11.846674 552.288391
3.000000 2.840000 9.200000 -19.473251 -2.109858 383.659027
3.000000 2.880000 8.800000 -15.594330 27.080284 976.524902
3.000000 2.880000 8.840000 -57.303352 9.793770 3379.592041
3.000000 2.880000 8.880000 -72.227203 -42.903488 7057.478516
3.000000 2.880000 8.920000 -37.373291 -94.627266 10351.082031
3.000000 2.880000 8.960000 28.999535 -103.155121 11481.951172
3.000000 2.880000 9.000000 80.278046 -58.813271 9903.565430
3.000000 2.880000 9.040000 81.510406 6.041828 6680.450195
3.000000 2.880000 9.080000 38.523033 45.776390 3579.501953
3.000000 2.880000 9.120000 -10.791208 40.342941 1744.003052
3.000000 2.880000 9.160000 -32.352066 7.678303 1105.612427
3.000000 2.880000 9.200000 -23.136497 -18.993374 896.045776
3.000000 2.920000 8.800000 -43.135292 12.000134 2004.656616
3.000000 2.920000 8.840000 -79.332726 -36.863083 7652.567871
3.000000 2.920000 8.880000 -60.824234 -111.294678 16086.091797
3.000000 2.920000 8.920000 18.400085 -152.783035 23681.218750
3.000000 2.920000 8.960000 109.867966 -119.982834 26466.851562
3.000000 2.920000 9.000000 148.895462 -29.136337 23018.785156
3.000000 2.920000 9.040000 110.555939 57.185341 15492.778320
3.000000 2.920000 9.080000 30.041679 83.616753 7894.263672
3.000000 2.920000 9.120000 -31.108469 46.934326 3170.567871
3.000000 2.920000 9.160000 -38.817932 -8.649929 1581.653198
3.000000 2.920000 9.200000 -9.057804 -37.005447 1451.446899
3.000000 2.960000 8.800000 -49.448456 -23.360321 2990.854492
3.000000 2.960000 8.840000 -55.090794 -93.443390 11766.662109
3.000000 2.960000 8.880000 9.151997 -157.159027 24782.718750
3.000000 2.960000 8.920000 115.847382 -151.907150 36496.398438
3.000000 2.960000 8.960000 191.930176 -63.227844 40834.953125
3.000000 2.960000 9.000000 180.209076 55.333878 35537.148438
3.000000 2.960000 9.040000 90.423981 124.935562 23785.390625
3.000000 2.960000 9.080000 -9.529852 107.904022 11734.096680
3.000000 2.960000 9.120000 -53.520332 35.532990 4127.019531
3.000000 2.960000 9.160000 -30.562979 -26.587072 1640.968018
3.000000 2.960000 9.200000 16.625635 -38.625771 1768.361938
3.000000 3.000000 8.800000 -24.033834 -53.338997 3422.673828
3.000000 3.000000 8.840000 9.272068 -115.661728 13463.607422
3.000000 3.000000 8.880000 99.095963 -135.741943 28245.884766
3.000000 3.000000 8.920000 189.615952 -74.100815 41445.140625
3.000000 3.000000 8.960000 210.412888 44.366829 46241.996094
3.000000 3.000000 9.000000 139.024109 144.223587 40128.148438
3.000000 3.000000 9.040000 23.527689 161.633484 26678.935547
3.000000 3.000000 9.080000 -57.888275 97.383858 12834.668945
3.000000 3.000000 9.120000 -62.505795 11.565704 4040.739990
3.000000 3.000000 9.160000 -12.636713 -32.590927 1221.855103
3.000000 3.000000 9.200000 34.662647 -20.401386 1617.715698
3.000000 3.040000 8.800000 17.161150 -53.245018 3129.537109
3.000000 3.040000 8.840000 71.145859 -82.015625 11788.295898
3.000000 3.040000 8.880000 146.450287 -53.897072 24352.580078
3.000000 3.040000 8.920000 185.002762 34.256493 35399.531250
3.000000 3.040000 8.960000 146.771790 133.132263 39266.156250
3.000000 3.040000 9.000000 48.183945 177.860901 33956.191406
3.000000 3.040000 9.040000 -48.180809 142.038849 22496.425781
3.000000 3.040000 9.080000 -84.859558 58.945480 10675.713867
3.000000 3.040000 9.120000 -54.693466 -9.300287 3077.870605
3.000000 3.040000 9.160000 0.404427 -24.408615 595.944092
3.000000 3.040000 9.200000 31.964130 2.456797 1027.741455
3.000000 3.080000 8.800000 43.950123 -21.843641 2408.757812
3.000000 3.080000 8.840000 87.307236 -15.577818 7865.221680
3.000000 3.080000 8.880000 120.336853 32.083775 15510.326172
3.000000 3.080000 8.920000 108.923393 100.926796 22050.523438
3.000000 3.080000 8.960000 47.899029 148.122986 24234.734375
3.000000 3.080000 9.000000 -30.747219 141.580780 20990.507812
3.000000 3.080000 9.040000 -81.425423 86.357727 14087.756836
3.000000 3.080000 9.080000 -80.259506 20.287428 6853.167969
3.000000 3.080000 9.120000 -41.267860 -17.030254 1993.065796
3.000000 3.080000 9.160000 -0.547056 -13.784901 190.322754
3.000000 3.080000 9.200000 14.868444 10.891789 339.701721
3.000000 3.120000 8.800000 38.007133 17.020967 1734.255615
3.000000 3.120000 8.840000 51.803307 35.611145 3951.736328
3.000000 3.120000 8.880000 48.572124 65.895279 6701.439453
3.000000 3.120000 8.920000 22.659145 91.617867 8907.269531
3.000000 3.120000 8.960000 -17.501411 96.707497 9658.639648
3.000000 3.120000 9.000000 -53.904091 75.896133 8665.874023
3.000000 3.120000 9.040000 -69.975525 38.418762 6372.575684
3.000000 3.120000 9.080000 -60.690147 2.328682 3688.716797
3.000000 3.120000 9.120000 -35.022678 -16.702621 1505.565552
3.000000 3.120000 9.160000 -9.471802 -14.452787 298.598083
3.000000 3.120000 9.200000 2.650774 0.706345 7.525526
3.000000 3.160000 8.800000 8.089500 35.710045 1340.647339
3.000000 3.160000 8.840000 -1.016207 40.869892 1671.380737
3.000000 3.160000 8.880000 -10.460697 39.188629 1645.174805
3.000000 3.160000 8.920000 -15.676113 35.629395 1515.194214
3.000000 3.160000 8.960000 -20.456894 34.986431 1642.534912
3.000000 3.160000 9.000000 -30.712833 33.670521 2076.982178
3.000000 3.160000 9.040000 -44.053486 22.959579 2467.851807
3.000000 3.160000 9.080000 -48.879974 0.933817 2390.124023
3.000000 3.160000 9.120000 -36.090469 -21.209944 1752.383667
3.000000 3.160000 9.160000 -11.095686 -27.666885 888.570801
3.000000 3.160000 9.200000 8.285233 -14.006960 264.840027
3.000000 3.200000 8.800000 -19.822205 26.488403 1094.555298
3.000000 3.200000 8.840000 -30.207699 10.703520 1027.070435
3.000000 3.200000 8.880000 -21.474911 -8.136770 527.378784
3.000000 3.200000 8.920000 -0.112591 -9.486290 90.002380
3.000000 3.200000 8.960000 10.625620 10.344269 219.907700
3.000000 3.200000 9.000000 -4.530535 30.884964 974.406738
3.000000 3.200000 9.040000 -34.134483 27.191851 1904.559692
3.000000 3.200000 9.080000 -49.157131 -3.140348 2426.285400
3.000000 3.200000 9.120000 -32.244602 -35.083443 2270.562256
3.000000 3.200000 9.160000 3.414385 -40.237343 1630.701782
3.000000 3.200000 9.200000 26.336475 -15.550125 935.416321
3.040000 2.800000 8.800000 5.172201 7.097828 77.130829
3.040000 2.800000 8.840000 -5.821801 4.524916 54.368229
3.040000 2.800000 8.880000 -7.658197 -6.505013 100.963181
3.040000 2.800000 8.920000 2.506100 -13.244640 181.701035
3.040000 2.800000 8.960000 14.827240 -7.102797 270.296753
3.040000 2.800000 9.000000 17.168892 7.626350 352.932068
3.040000 2.800000 9.040000 7.258266 18.742151 403.950653
3.040000 2.800000 9.080000 -6.133680 18.677061 386.454651
3.040000 2.800000 9.120000 -13.190159 10.922546 293.282288
3.040000 2.800000 9.160000 -12.608945 4.388958 178.248444
3.040000 2.800000 9.200000 -10.740962 3.202109 125.621765
3.040000 2.840000 8.800000 -9.897530 14.007086 294.159546
3.040000 2.840000 8.840000 -29.678238 1.324173 882.551208
3.040000 2.840000 8.880000 -31.681261 -25.931469 1676.143433
3.040000 2.840000 8.920000 -9.623039 -46.512325 2255.999268
3.040000 2.840000 8.960000 21.851357 -42.740368 2304.220703
3.040000 2.840000 9.000000 39.719971 -16.541363 1851.292725
3.040000 2.840000 9.040000 32.541538 12.744720 1221.379517
3.040000 2.840000 9.080000 8.780930 25.845102 745.074036
3.040000 2.840000 9.120000 -13.016268 18.866837 525.380737
3.040000 2.840000 9.160000 -20.975172 2.974580 448.805969
3.040000 2.840000 9.200000 -17.346771 -8.697127 376.550476
3.040000 2.880000 8.800000 -29.401783 3.319571 875.484375
3.040000 2.880000 8.840000 -48.383080 -29.763508 3226.788818
3.040000 2.880000 8.880000 -31.550621 -74.668831 6570.875977
3.040000 2.880000 8.920000 20.255325 -94.729675 9383.989258
3.040000 2.880000 8.960000 74.077393 -68.350006 10159.183594
3.040000 2.880000 9.000000 91.788574 -10.364594 8532.567383
3.040000 2.880000 9.040000 62.960957 39.604813 5532.623047
3.040000 2.880000 9.080000 12.551085 50.892120 2747.537598
3.040000 2.880000 9.120000 -22.775953 25.644215 1176.369751
3.040000 2.880000 9.160000 -25.807194 -8.208899 733.397217
3.040000 2.880000 9.200000 -8.338627 -25.101086 699.597229
3.040000 2.920000 8.800000 -34.283932 -23.824062 1742.973877
3.040000 2.920000 8.840000 -33.931614 -75.207703 6807.553223
3.040000 2.920000 8.880000 17.270836 -118.248032 14280.878906
3.040000 2.920000 8.920000 95.812347 -108.244446 20896.867188
3.040000 2.920000 8.960000 147.124268 -38.636971 23138.367188
3.040000 2.920000 9.000000 132.286392 47.993591 19803.074219
3.040000 2.920000 9.040000 62.966965 94.499153 12894.928711
3.040000 2.920000 9.080000 -9.183336 77.323425 6063.245605
3.040000 2.920000 9.120000 -38.037582 22.938721 1973.042603
3.040000 2.920000 9.160000 -19.519802 -20.880478 817.017029
3.040000 2.920000 9.200000 13.576221 -28.417500 991.868042
3.040000 2.960000 8.800000 -13.743832 -48.545143 2545.523682
3.040000 2.960000 8.840000 17.742596 -99.066330 10128.937500
3.040000 2.960000 8.880000 95.669312 -111.264145 21532.328125
3.040000 2.960000 8.920000 170.246796 -53.365173 31831.812500
3.040000 2.960000 8.960000 181.922302 49.719440 35567.746094
3.040000 2.960000 9.000000 115.407364 131.743652 30675.250000
3.040000 2.960000 9.040000 15.803475 140.596832 20017.218750
3.040000 2.960000 9.080000 -49.926434 81.858635 9193.484375
3.040000 2.960000 9.120000 -49.442352 9.622186 2537.132568
3.040000 2.960000 9.160000 -6.296978 -24.322756 631.248352
3.040000 2.960000 9.200000 30.544559 -12.528845 1089.942017
3.040000 3.000000 8.800000 21.819977 -49.229515 2899.656494
3.040000 3.000000 8.840000 75.916069 -75.131668 11408.017578
3.040000 3.000000 8.880000 149.734528 -43.414711 24305.267578
3.040000 3.000000 8.920000 183.825287 47.249855 36024.281250
3.040000 3.000000 8.960000 139.653809 144.519608 40389.101562
3.040000 3.000000 9.000000 37.961349 183.166702 34991.101562
3.040000 3.000000 9.040000 -55.620548 140.877640 22940.156250
3.040000 3.000000 9.080000 -85.695358 56.209885 10503.245117
3.040000 3.000000 9.120000 -51.106403 -7.709005 2671.293213
3.040000 3.000000 9.160000 2.154329 -17.520077 311.594238
3.040000 3.000000 9.200000 28.032837 9.320486 872.711426
3.040000 3.040000 8.800000 47.212982 -21.560730 2693.930664
3.040000 3.040000 8.840000 98.758553 -14.224346 9955.583984
3.040000 3.040000 8.880000 137.695007 44.376854 20929.220703
3.040000 3.040000 8.920000 120.432983 127.952507 30875.947266
3.040000 3.040000 8.960000 42.448669 181.203552 34636.617188
3.040000 3.040000 9.000000 -52.514980 165.662750 30201.968750
3.040000 3.040000 9.040000 -106.858459 93.144051 20094.544922
3.040000 3.040000 9.080000 -96.078949 15.085293 9458.730469
3.040000 3.040000 9.120000 -44.977905 -21.688766 2493.414551
3.040000 3.040000 9.160000 -0.404884 -10.807751 116.971405
3.040000 3.040000 9.200000 10.619740 17.558109 421.066071
3.040000 3.080000 8.800000 43.657009 16.092083 2164.889648
3.040000 3.080000 8.840000 70.326004 42.267712 6732.306641
3.040000 3.080000 8.880000 69.046082 93.249420 13462.815430
3.040000 3.080000 8.920000 25.076683 137.333740 19489.396484
3.040000 3.080000 8.960000 -44.015003 141.082428 21841.572266
3.040000 3.080000 9.000000 -99.555984 97.285461 19375.855469
3.040000 3.080000 9.040000 -111.659210 31.610752 13467.018555
3.040000 3.080000 9.080000 -81.465324 -18.122898 6965.038574
3.040000 3.080000 9.120000 -36.769100 -30.967709 2310.965576
3.040000 3.080000 9.160000 -7.145213 -14.803776 270.205841
3.040000 3.080000 9.200000 -2.241234 6.597370 48.548416
3.040000 3.120000 8.800000 14.884384 37.979462 1663.984375
3.040000 3.120000 8.840000 14.609539 57.826210 3557.309326
3.040000 3.120000 8.880000 -3.938709 77.611496 6039.058105
3.040000 3.120000 8.920000 -36.616543 82.647400 8171.364258
3.040000 3.120000 8.960000 -69.474258 65.670326 9139.263672
3.040000 3.120000 9.000000 -87.349457 31.442867 8618.582031
3.040000 3.120000 9.040000 -82.637344 -6.272182 6868.270996
3.040000 3.120000 9.080000 -58.940151 -32.614204 4537.627930
3.040000 3.120000 9.120000 -28.350327 -39.316048 2349.492676
3.040000 3.120000 9.160000 -4.639856 -28.205004 817.050476
3.040000 3.120000 9.200000 3.786659 -9.319380 101.189629
3.040000 3.160000 8.800000 -17.143297 32.589005 1355.935791
3.040000 3.160000 8.840000 -27.110540 31.020311 1697.241089
3.040000 3.160000 8.880000 -33.722252 23.993046 1712.856567
3.040000 3.160000 8.920000 -36.090729 17.816925 1619.983398
3.040000 3.160000 8.960000 -40.033714 14.040070 1799.821777
3.040000 3.160000 9.000000 -48.224190 5.962727 2361.126709
3.040000 3.160000 9.040000 -53.031479 -12.575500 2970.480957
3.040000 3.160000 9.080000 -42.688515 -36.029072 3120.403320
3.040000 3.160000 9.120000 -15.709313 -48.268234 2576.604980
3.040000 3.160000 9.160000 12.950211 -37.638412 1584.358154
3.040000 3.160000 9.200000 23.320950 -10.857245 661.746460
3.040000 3.200000 8.800000 -32.189842 10.243225 1141.109619
3.040000 3.200000 8.840000 -32.565205 -8.001637 1124.518799
3.040000 3.200000 8.880000 -16.437075 -18.947643 629.190613
3.040000 3.200000 8.920000 0.328022 -10.047337 101.056572
3.040000 3.200000 8.960000 -2.149078 8.894882 83.737465
3.040000 3.200000 9.000000 -23.932072 13.604244 757.819519
3.040000 3.200000 9.040000 -41.523354 -8.168544 1790.913940
3.040000 3.200000 9.080000 -31.146893 -40.347393 2598.041016
3.040000 3.200000 9.120000 4.659769 -52.312954 2758.358643
3.040000 3.200000 9.160000 36.629227 -30.272793 2258.142090
3.040000 3.200000 9.200000 37.168274 6.832081 1428.157959
3.080000 2.800000 8.800000 -8.621778 7.245717 126.835464
3.080000 2.800000 8.840000 -12.216146 -1.421947 151.256149
3.080000 2.800000 8.880000 -6.569971 -9.201504 127.832191
3.080000 2.800000 8.920000 2.948898 -8.587507 82.441277
3.080000 2.800000 8.960000 7.514641 -0.671497 56.920734
3.080000 2.800000 9.000000 4.124458 6.864958 64.138802
3.080000 2.800000 9.040000 -2.430920 8.526215 78.605705
3.080000 2.800000 9.080000 -6.227368 6.019129 75.010025
3.080000 2.800000 9.120000 -6.956151 4.358410 67.383774
3.080000 2.800000 9.160000 -8.759115 4.676113 98.588135
3.080000 2.800000 9.200000 -13.348205 2.937706 186.804672
3.080000 2.840000 8.800000 -19.930498 -3.421285 408.929962
3.080000 2.840000 8.840000 -22.278286 -19.928684 893.474487
3.080000 2.840000 8.880000 -9.669052 -35.531967 1356.011230
3.080000 2.840000 8.920000 12.389748 -37.585705 1566.191040
3.080000 2.840000 8.960000 29.991325 -22.996517 1428.319336
3.080000 2.840000 9.000000 32.302589 -0.823914 1044.136108
3.080000 2.840000 9.040000 19.598991 15.514374 624.816284
3.080000 2.840000 9.080000 1.426386 18.424648 341.502228
3.080000 2.840000 9.120000 -11.838073 9.907097 238.290527
3.080000 2.840000 9.160000 -15.755825 -2.585385 254.930237
3.080000 2.840000 9.200000 -12.176572 -12.621284 307.565735
3.080000 2.880000 8.800000 -19.114237 -24.308252 956.245117
3.080000 2.880000 8.840000 -12.112255 -49.340664 2581.208008
3.080000 2.880000 8.880000 17.969717 -65.709557 4640.656250
3.080000 2.880000 8.920000 56.797977 -54.495785 6195.800781
3.080000 2.880000 8.960000 78.444252 -16.375992 6421.673828
3.080000 2.880000 9.000000 67.142632 26.441566 5207.289062
3.080000 2.880000 9.040000 30.962633 47.701977 3234.163086
3.080000 2.880000 9.080000 -5.200928 38.019844 1472.558228
3.080000 2.880000 9.120000 -20.328526 10.413897 521.698181
3.080000 2.880000 9.160000 -12.428417 -13.174462 328.032013
3.080000 2.880000 9.200000 4.313201 -20.433788 436.143402
3.080000 2.920000 8.800000 0.694428 -40.735947 1659.899536
3.080000 2.920000 8.840000 24.644823 -65.839760 4942.241211
3.080000 2.920000 8.880000 72.197235 -65.991455 9567.312500
3.080000 2.920000 8.920000 113.284454 -25.651058 13491.343750
3.080000 2.920000 8.960000 114.723793 37.807041 14590.920898
3.080000 2.920000 9.000000 70.599632 85.020363 12212.769531
3.080000 2.920000 9.040000 9.468126 87.150566 7684.866699
3.080000 2.920000 9.080000 -29.367376 49.669449 3329.497070
3.080000 2.920000 9.120000 -28.172760 5.316767 821.972412
3.080000 2.920000 9.160000 -1.723842 -15.816495 253.133148
3.080000 2.920000 9.200000 21.259434 -9.883247 549.642090
3.080000 2.960000 8.800000 30.037046 -36.639458 2244.674072
3.080000 2.960000 8.840000 68.634666 -47.867470 7002.011719
3.080000 2.960000 8.880000 117.046906 -19.432449 14077.598633
3.080000 2.960000 8.920000 134.751160 47.060749 20372.589844
3.080000 2.960000 8.960000 97.584145 113.763016 22464.687500
3.080000 2.960000 9.000000 23.058819 136.235245 19091.750000
3.080000 2.960000 9.040000 -41.773338 101.934753 12135.706055
3.080000 2.960000 9.080000 -59.739208 40.559273 5213.827637
3.080000 2.960000 9.120000 -32.958508 -3.356544 1097.529541
3.080000 2.960000 9.160000 4.620109 -8.552822 94.496170
3.080000 2.960000 9.200000 21.637215 10.337080 575.024292
3.080000 3.000000 8.800000 48.465923 -10.180010 2452.578369
3.080000 3.000000 8.840000 87.688606 0.517588 7689.559570
3.080000 3.000000 8.880000 114.401268 51.319843 15721.376953
3.080000 3.000000 8.920000 93.996819 119.173813 23037.800781
3.080000 3.000000 8.960000 25.444765 158.228287 25683.626953
3.080000 3.000000 9.000000 -52.629967 139.025879 22098.109375
3.080000 3.000000 9.040000 -92.854721 75.268341 14287.322266
3.080000 3.000000 9.080000 -78.543716 11.878143 6310.205566
3.080000 3.000000 9.120000 -34.434708 -14.044462 1382.996094
3.080000 3.000000 9.160000 -0.229099 -1.801054 3.296282
3.080000 3.000000 9.200000 5.237589 20.381302 442.829803
3.080000 3.040000 8.800000 41.641903 22.409851 2236.249512
3.080000 3.040000 8.840000 65.302917 48.890114 6654.714355
3.080000 3.040000 8.880000 60.670391 99.234390 13528.360352
3.080000 3.040000 8.920000 13.221300 140.314606 19862.992188
3.080000 3.040000 8.960000 -56.827824 138.158081 22317.058594
3.080000 3.040000 9.000000 -108.152313 88.506187 19530.267578
3.080000 3.040000 9.040000 -112.226547 21.898899 13074.359375
3.080000 3.040000 9.080000 -75.868652 -22.056156 6242.526367
3.080000 3.040000 9.120000 -31.965641 -26.676685 1733.447754
3.080000 3.040000 9.160000 -9.089266 -6.915817 130.443283
3.080000 3.040000 9.200000 -9.938038 10.524668 209.533234
3.080000 3.080000 8.800000 14.075377 39.745075 1777.787231
3.080000 3.080000 8.840000 16.642414 65.385361 4552.215332
3.080000 3.080000 8.880000 -7.350412 93.559128 8807.338867
3.080000 3.080000 8.920000 -53.140373 99.538620 12731.835938
3.080000 3.080000 8.960000 -96.519447 71.327927 14403.677734
3.080000 3.080000 9.000000 -112.246643 20.810177 13032.372070
3.080000 3.080000 9.040000 -93.652451 -25.282499 9409.986328
3.080000 3.080000 9.080000 -56.154282 -46.048515 5273.769043
3.080000 3.080000 9.120000 -22.947397 -40.225094 2144.641357
3.080000 3.080000 9.160000 -7.214073 -22.320568 550.250610
3.080000 3.080000 9.200000 -6.370514 -7.579947 98.039047
3.080000 3.120000 8.800000 -15.089030 33.051373 1320.072021
3.080000 3.120000 8.840000 -24.495642 43.664558 2506.630127
3.080000 3.120000 8.880000 -44.584068 46.082397 4111.326660
3.080000 3.120000 8.920000 -66.330254 33.766918 5539.907227
3.080000 3.120000 8.960000 -78.940155 8.673538 6306.778320
3.080000 3.120000 9.000000 -76.083710 -20.750622 6219.319336
3.080000 3.120000 9.040000 -58.237755 -44.470013 5369.217773
3.080000 3.120000 9.080000 -31.537455 -55.045872 4024.659180
3.080000 3.120000 9.120000 -5.185650 -49.989628 2525.853760
3.080000 3.120000 9.160000 11.677671 -32.831749 1214.291748
3.080000 3.120000 9.200000 13.944692 -12.442683 349.274780
3.080000 3.160000 8.800000 -29.025723 11.791366 981.528870
3.080000 3.160000 8.840000 -35.033310 5.841111 1261.451294
3.080000 3.160000 8.880000 -36.042263 -2.610638 1305.860107
3.080000 3.160000 8.920000 -34.310265 -8.309582 1246.243408
3.080000 3.160000 8.960000 -35.146362 -12.918854 1402.163574
3.080000 3.160000 9.000000 -37.303642 -23.211342 1930.328125
3.080000 3.160000 9.040000 -31.354691 -40.368217 2612.709717
3.080000 3.160000 9.080000 -10.333963 -53.733940 2994.127197
3.080000 3.160000 9.120000 18.665054 -48.988907 2748.297363
3.080000 3.160000 9.160000 36.889008 -24.069447 1940.137085
3.080000 3.160000 9.200000 30.853779 4.762322 974.635376
3.080000 3.200000 8.800000 -26.162785 -7.341680 738.391541
3.080000 3.200000 8.840000 -19.490395 -20.141979 785.574829
3.080000 3.200000 8.880000 -4.259901 -21.451712 478.322693
3.080000 3.200000 8.920000 3.092068 -9.236656 94.876701
3.080000 3.200000 8.960000 -6.667854 0.737507 45.004196
3.080000 3.200000 9.000000 -21.813456 -8.163970 542.477234
3.080000 3.200000 9.040000 -19.889097 -32.282700 1437.748901
3.080000 3.200000 9.080000 7.016445 -47.542431 2309.513184
3.080000 3.200000 9.120000 39.889870 -33.585213 2719.168213
3.080000 3.200000 9.160000 49.486832 2.656107 2456.001465
3.080000 3.200000 9.200000 26.595768 30.783808 1654.977783
3.120000 2.800000 8.800000 -17.633137 -4.430360 330.555603
3.120000 2.800000 8.840000 -11.691673 -11.099821 259.901245
3.120000 2.800000 8.880000 -4.084309 -10.995935 137.592178
3.120000 2.800000 8.920000 -0.885479 -6.717380 45.907261
3.120000 2.800000 8.960000 -2.133947 -4.406645 23.972250
3.120000 2.800000 9.000000 -2.450212 -5.965870 41.595142
3.120000 2.800000 9.040000 1.394826 -6.749594 47.502552
3.120000 2.800000 9.080000 5.440741 -1.984920 33.541565
3.120000 2.800000 9.120000 2.902012 5.814804 42.233612
3.120000 2.800000 9.160000 -6.707633 8.152303 111.452377
3.120000 2.800000 9.200000 -14.892286 0.157880 221.805130
3.120000 2.840000 8.800000 -12.433029 -23.459152 704.912048
3.120000 2.840000 8.840000 -1.682011 -28.659733 824.209473
3.120000 2.840000 8.880000 10.275545 -26.812832 824.514832
3.120000 2.840000 8.920000 18.795269 -19.179073 721.098999
3.120000 2.840000 8.960000 21.962807 -9.259729 568.107483
3.120000 2.840000 9.000000 20.262627 0.193611 410.611511
3.120000 2.840000 9.040000 14.444792 7.585054 266.185059
3.120000 2.840000 9.080000 5.230427 10.900199 146.171707
3.120000 2.840000 9.120000 -4.688274 7.675346 80.890862
3.120000 2.840000 9.160000 -10.071974 -1.995081 105.425003
3.120000 2.840000 9.200000 -6.615066 -13.061955 214.373779
3.120000 2.880000 8.800000 9.576514 -34.619102 1290.191895
3.120000 2.880000 8.840000 24.851015 -35.447605 1874.105713
3.120000 2.880000 8.880000 41.237064 -26.683498 2412.504639
3.120000 2.880000 8.920000 51.133629 -8.126865 2680.693848
3.120000 2.880000 8.960000 48.249870 14.036451 2525.072021
3.120000 2.880000 9.000000 32.549641 30.121838 1966.804199
3.120000 2.880000 9.040000 11.212420 32.876740 1206.598389
3.120000 2.880000 9.080000 -5.396372 22.256008 524.450745
3.120000 2.880000 9.120000 -10.085179 5.474522 131.681229
3.120000 2.880000 9.160000 -3.034505 -7.747887 69.237968
3.120000 2.880000 9.200000 9.076612 -11.406570 212.494751
3.120000 2.920000 8.800000 36.632542 -24.500259 1942.205811
3.120000 2.920000 8.840000 53.593239 -17.791332 3188.766846
3.120000 2.920000 8.880000 68.261536 2.367254 4665.241211
3.120000 2.920000 8.920000 68.289482 32.657772 5729.983398
3.120000 2.920000 8.960000 47.699436 59.077950 5765.440430
3.120000 2.920000 9.000000 14.356619 66.536697 4633.244629
3.120000 2.920000 9.040000 -14.154354 51.213654 2823.184082
3.120000 2.920000 9.080000 -23.598053 24.245136 1144.694824
3.120000 2.920000 9.120000 -13.636893 2.916816 194.472672
3.120000 2.920000 9.160000 3.544999 -2.793537 20.370869
3.120000 2.920000 9.200000 14.697594 3.770237 230.233948
3.120000 2.960000 8.800000 48.762527 4.957170 2402.357666
3.120000 2.960000 8.840000 61.954525 19.737020 4227.913086
3.120000 2.960000 8.880000 65.573830 48.598976 6661.788086
3.120000 2.960000 8.920000 47.062618 80.083328 8628.229492
3.120000 2.960000 8.960000 8.661776 94.379044 8982.430664
3.120000 2.960000 9.000000 -30.707731 80.146423 7366.414062
3.120000 2.960000 9.040000 -49.514091 45.706741 4540.751465
3.120000 2.960000 9.080000 -41.163174 13.001939 1863.457275
3.120000 2.960000 9.120000 -18.387209 -0.523261 338.363251
3.120000 2.960000 9.160000 -0.540012 5.008192 25.373600
3.120000 2.960000 9.200000 3.400528 15.740337 259.321808
3.120000 3.000000 8.800000 35.010933 35.169472 2462.657227
3.120000 3.000000 8.840000 39.464413 53.936646 4466.601562
3.120000 3.000000 8.880000 27.641628 81.117973 7344.185059
3.120000 3.000000 8.920000 -5.826106 98.877396 9810.682617
3.120000 3.000000 8.960000 -47.743942 90.382797 10448.534180
3.120000 3.000000 9.000000 -74.835297 56.193523 8758.034180
3.120000 3.000000 9.040000 -73.013718 15.757822 5579.312012
3.120000 3.000000 9.080000 -49.080704 -8.484059 2480.894775
3.120000 3.000000 9.120000 -23.482555 -9.273126 637.421265
3.120000 3.000000 9.160000 -11.642876 2.292436 140.811813
3.120000 3.000000 9.200000 -12.419552 10.448406 263.414459
3.120000 3.040000 8.800000 4.176325 45.749432 2110.452148
3.120000 3.040000 8.840000 -0.687186 61.551899 3789.108398
3.120000 3.040000 8.880000 -22.321201 76.267731 6315.002441
3.120000 3.040000 8.920000 -56.002617 73.655380 8561.408203
3.120000 3.040000 8.960000 -83.879242 47.491211 9291.142578
3.120000 3.040000 9.000000 -89.248795 8.956076 8045.558594
3.120000 3.040000 9.040000 -70.717041 -21.751678 5474.035645
3.120000 3.040000 9.080000 -42.664307 -31.831425 2833.482666
3.120000 3.040000 9.120000 -21.965223 -24.644560 1089.825317
3.120000 3.040000 9.160000 -14.460296 -13.325498 386.669067
3.120000 3.040000 9.200000 -13.833576 -7.059628 241.206177
3.120000 3.080000 8.800000 -22.395731 32.034058 1527.749634
3.120000 3.080000 8.840000 -31.909912 39.526703 2580.602783
3.120000 3.080000 8.880000 -51.296989 39.195919 4167.701172
3.120000 3.080000 8.920000 -70.977432 23.725908 5600.714844
3.120000 3.080000 8.960000 -78.588638 -3.512266 6188.509766
3.120000 3.080000 9.000000 -68.850357 -30.660156 5680.416992
3.120000 3.080000 9.040000 -47.058334 -46.486980 4375.526367
3.120000 3.080000 9.080000 -23.876841 -47.812721 2856.159912
3.120000 3.080000 9.120000 -7.240145 -39.306885 1597.450928
3.120000 3.080000 9.160000 1.199290 -27.626968 764.687683
3.120000 3.080000 9.200000 3.488869 -16.616356 288.275482
3.120000 3.120000 8.800000 -29.687830 8.014673 945.602234
3.120000 3.120000 8.840000 -37.091003 6.767507 1421.541748
3.120000 3.120000 8.880000 -44.967396 -1.321514 2023.813110
3.120000 3.120000 8.920000 -48.106098 -14.717724 2530.808105
3.120000 3.120000 8.960000 -44.433533 -29.441008 2841.111816
3.120000 3.120000 9.000000 -34.383514 -42.165115 2960.123047
3.120000 3.120000 9.040000 -18.907402 -50.356628 2893.279785
3.120000 3.120000 9.080000 0.144114 -50.893753 2590.194824
3.120000 3.120000 9.120000 17.911448 -41.164631 2015.346802
3.120000 3.120000 9.160000 27.055912 -22.929241 1257.772461
3.120000 3.120000 9.200000 22.916367 -4.260856 543.314758
3.120000 3.160000 8.800000 -20.923025 -8.181681 504.712891
3.120000 3.160000 8.840000 -21.571230 -14.266453 668.849609
3.120000 3.160000 8.880000 -17.649578 -19.484489 691.152954
3.120000 3.160000 8.920000 -13.580706 -21.011013 625.898254
3.120000 3.160000 8.960000 -12.867826 -22.996645 694.426636
3.120000 3.160000 9.000000 -11.227535 -30.612856 1063.204468
3.120000 3.160000 9.040000 -0.267090 -40.635277 1651.296997
3.120000 3.160000 9.080000 20.941286 -41.317818 2145.699707
3.120000 3.160000 9.120000 40.285255 -24.434200 2219.932129
3.120000 3.160000 9.160000 42.024052 2.983240 1774.920654
3.120000 3.160000 9.200000 23.317383 21.826248 1020.085449
3.120000 3.200000 8.800000 -11.068318 -11.208887 248.146820
3.120000 3.200000 8.840000 -4.115391 -17.112846 309.785950
3.120000 3.200000 8.880000 4.879938 -13.546258 207.314896
3.120000 3.200000 8.920000 4.821844 -4.812039 46.405899
3.120000 3.200000 8.960000 -3.919725 -4.105724 32.221218
3.120000 3.200000 9.000000 -7.143785 -16.574697 325.754272
3.120000 3.200000 9.040000 7.314780 -29.602064 929.788208
3.120000 3.200000 9.080000 32.655357 -24.134441 1648.843506
3.120000 3.200000 9.120000 46.213646 3.265219 2146.362793
3.120000 3.200000 9.160000 32.359772 32.640160 2112.534668
3.120000 3.200000 9.200000 1.300748 38.619099 1493.126709
3.160000 2.800000 8.800000 -14.334627 -19.580185 588.865173
3.160000 2.800000 8.840000 -4.205225 -17.676579 330.145355
3.160000 2.800000 8.880000 -1.647291 -11.753746 140.864105
3.160000 2.800000 8.920000 -4.605947 -10.962067 141.381653
3.160000 2.800000 8.960000 -3.679185 -16.804295 295.920715
3.160000 2.800000 9.000000 6.305971 -20.475578 459.014557
3.160000 2.800000 9.040000 18.572327 -12.779536 508.247864
3.160000 2.800000 9.080000 20.467430 3.948361 434.505249
3.160000 2.800000 9.120000 7.689727 16.080910 317.727570
3.160000 2.800000 9.160000 -9.153127 12.371311 236.829071
3.160000 2.800000 9.200000 -14.219312 -3.325195 213.245743
3.160000 2.840000 8.800000 7.821985 -31.217119 1035.692017
3.160000 2.840000 8.840000 17.038000 -20.240494 699.971069
3.160000 2.840000 8.880000 15.623334 -10.202774 348.185150
3.160000 2.840000 8.920000 11.015271 -8.285851 189.991516
3.160000 2.840000 8.960000 12.219639 -10.850657 267.056335
3.160000 2.840000 9.000000 19.061333 -8.374174 433.461212
3.160000 2.840000 9.040000 22.126108 2.499477 495.812042
3.160000 2.840000 9.080000 13.987823 13.663704 382.356018
3.160000 2.840000 9.120000 -0.825635 13.803495 191.218155
3.160000 2.840000 9.160000 -9.082968 1.532323 84.848320
3.160000 2.840000 9.200000 -2.660265 -11.527212 139.953629
3.160000 2.880000 8.800000 35.664047 -19.958878 1670.281128
3.160000 2.880000 8.840000 36.816673 -2.148466 1360.083374
3.160000 2.880000 8.880000 28.225864 8.711238 872.585083
3.160000 2.880000 8.920000 19.835665 10.096975 495.402496
3.160000 2.880000 8.960000 17.589714 8.672510 384.610474
3.160000 2.880000 9.000000 18.062498 11.435600 457.026794
3.160000 2.880000 9.040000 13.996569 17.308964 495.504150
3.160000 2.880000 9.080000 4.140800 18.678928 366.048584
3.160000 2.880000 9.120000 -4.136339 11.054022 139.300705
3.160000 2.880000 9.160000 -2.726572 -0.377231 7.576500
3.160000 2.880000 9.200000 7.651960 -5.222856 85.830719
3.160000 2.920000 8.800000 46.887848 12.300560 2349.773926
3.160000 2.920000 8.840000 36.436882 29.363697 2189.873047
3.160000 2.920000 8.880000 20.786505 35.340263 1681.012939
3.160000 2.920000 8.920000 9.012033 32.266830 1122.365112
3.160000 2.920000 8.960000 3.808887 27.316565 760.702332
3.160000 2.920000 9.000000 1.282732 24.918453 622.574707
3.160000 2.920000 9.040000 -2.690237 23.351265 552.518921
3.160000 2.920000 9.080000 -7.197339 18.752075 403.442017
3.160000 2.920000 9.120000 -7.818956 11.147745 185.408295
3.160000 2.920000 9.160000 -2.569852 5.335710 35.073944
3.160000 2.920000 9.200000 4.934841 5.804467 58.044498
3.160000 2.960000 8.800000 28.999699 44.417046 2813.856445
3.160000 2.960000 8.840000 10.442168 52.506989 2866.022705
3.160000 2.960000 8.880000 -7.334377 49.165665 2471.055664
3.160000 2.960000 8.920000 -18.074831 39.119373 1857.024902
3.160000 2.960000 8.960000 -21.390684 28.837357 1289.154541
3.160000 2.960000 9.000000 -20.885204 21.638500 904.416504
3.160000 2.960000 9.040000 -19.776823 16.857151 675.286255
3.160000 2.960000 9.080000 -18.535938 12.643332 503.434845
3.160000 2.960000 9.120000 -16.011747 8.672667 331.591217
3.160000 2.960000 9.160000 -11.790868 6.252997 178.124542
3.160000 2.960000 9.200000 -7.021683 6.598354 92.842308
3.160000 3.000000 8.800000 -7.449059 52.642761 2826.748779
3.160000 3.000000 8.840000 -25.488811 48.914032 3042.261963
3.160000 3.000000 8.880000 -38.212372 36.995461 2828.849365
3.160000 3.000000 8.920000 -42.450249 22.313145 2299.899902
3.160000 3.000000 8.960000 -39.585060 10.329639 1673.678345
3.160000 3.000000 9.000000 -33.769974 3.504262 1152.691040
3.160000 3.000000 9.040000 -28.770340 0.722147 828.253967
3.160000 3.000000 9.080000 -25.733410 -0.868742 662.963074
3.160000 3.000000 9.120000 -23.174349 -3.200115 547.291138
3.160000 3.000000 9.160000 -18.913620 -5.680114 389.988708
3.160000 3.000000 9.200000 -12.538781 -5.692309 189.623428
3.160000 3.040000 8.800000 -36.430649 31.857113 2342.067871
3.160000 3.040000 8.840000 -46.534424 20.824326 2599.105225
3.160000 3.040000 8.880000 -49.930969 6.278562 2532.522217
3.160000 3.040000 8.920000 -45.991211 -6.831259 2161.857422
3.160000 3.040000 8.960000 -37.848473 -14.664729 1647.561157
3.160000 3.040000 9.000000 -30.142979 -17.055054 1199.473999
3.160000 3.040000 9.040000 -25.489727 -17.224964 946.425598
3.160000 3.040000 9.080000 -22.619186 -18.587097 857.107788
3.160000 3.040000 9.120000 -18.102913 -21.342993 783.238770
3.160000 3.040000 9.160000 -10.301201 -22.109650 594.951355
3.160000 3.040000 9.200000 -1.898289 -17.236481 300.699768
3.160000 3.080000 8.800000 -39.324135 0.397170 1546.545288
3.160000 3.080000 8.840000 -40.482643 -10.286305 1744.652466
3.160000 3.080000 8.880000 -36.142384 -20.753056 1736.961182
3.160000 3.080000 8.920000 -27.848492 -27.084217 1509.093262
3.160000 3.080000 8.960000 -19.874092 -28.320267 1197.017090
3.160000 3.080000 9.000000 -15.159559 -27.547070 988.653320
3.160000 3.080000 9.040000 -12.239613 -28.583046 966.798645
3.160000 3.080000 9.080000 -6.920960 -31.426090 1035.498779
3.160000 3.080000 9.120000 2.588818 -31.612309 1006.040039
3.160000 3.080000 9.160000 12.484440 -24.793106 770.559326
3.160000 3.080000 9.200000 16.049345 -12.077618 403.450317
3.160000 3.120000 8.800000 -21.146048 -17.320126 747.142090
3.160000 3.120000 8.840000 -17.919880 -23.361111 866.863647
3.160000 3.120000 8.880000 -11.143340 -27.105574 858.886108
3.160000 3.120000 8.920000 -4.489047 -26.402039 717.219177
3.160000 3.120000 8.960000 -1.555739 -24.097931 583.130615
3.160000 3.120000 9.000000 -0.751645 -24.948589 622.997070
3.160000 3.120000 9.040000 3.685033 -29.118729 861.479797
3.160000 3.120000 9.080000 14.647131 -30.289913 1132.017334
3.160000 3.120000 9.120000 26.912498 -21.879553 1202.997437
3.160000 3.120000 9.160000 30.709579 -5.327977 971.465576
3.160000 3.120000 9.200000 21.584293 9.191743 550.369873
3.160000 3.160000 8.800000 -3.786348 -13.622696 199.914276
3.160000 3.160000 8.840000 -0.486700 -16.454586 270.990265
3.160000 3.160000 8.880000 4.697227 -15.441817 260.513672
3.160000 3.160000 8.920000 6.373301 -11.570952 174.505890
3.160000 3.160000 8.960000 4.115901 -10.983427 137.576309
3.160000 3.160000 9.000000 4.795754 -16.374245 291.115143
3.160000 3.160000 9.040000 14.616334 -21.097893 658.758301
3.160000 3.160000 9.080000 29.513119 -14.817568 1090.584473
3.160000 3.160000 9.120000 36.381897 4.035649 1339.928955
3.160000 3.160000 9.160000 26.158699 23.367336 1230.309937
3.160000 3.160000 9.200000 5.190329 27.731647 795.983765
3.160000 3.200000 8.800000 -3.068578 -2.922013 17.954330
3.160000 3.200000 8.840000 0.749870 -5.760168 33.741840
3.160000 3.200000 8.880000 4.123017 -2.742229 24.519094
3.160000 3.200000 8.920000 1.655370 0.503717 2.993980
3.160000 3.200000 8.960000 -2.057184 -3.243305 14.751034
3.160000 3.200000 9.000000 2.802858 -11.270969 134.890762
3.160000 3.200000 9.040000 17.585808 -11.238057 435.554565
3.160000 3.200000 9.080000 29.570980 4.700386 896.536499
3.160000 3.200000 9.120000 23.724726 27.665468 1328.240723
3.160000 3.200000 9.160000 0.556833 37.894405 1436.296021
3.160000 3.200000 9.200000 -20.754314 25.134224 1062.470703
3.200000 2.800000 8.800000 -1.096079 -27.647570 765.589539
3.200000 2.800000 8.840000 4.974574 -17.716574 338.623383
3.200000 2.800000 8.880000 0.502528 -12.930200 167.442596
3.200000 2.800000 8.920000 -2.107360 -19.335682 378.309570
3.200000 2.800000 8.960000 8.030529 -27.499590 820.716797
3.200000 2.800000 9.000000 26.429073 -22.407883 1200.609131
3.200000 2.800000 9.040000 36.067238 -1.091519 1302.037109
3.200000 2.800000 9.080000 25.191467 21.729023 1106.760498
3.200000 2.800000 9.120000 1.139627 27.380703 751.001648
3.200000 2.800000 9.160000 -15.596189 12.626319 402.665039
3.200000 2.800000 9.200000 -11.750877 -6.304164 177.825592
3.200000 2.840000 8.800000 26.240555 -22.298273 1185.779663
3.200000 2.840000 8.840000 22.397257 -4.187091 519.168823
3.200000 2.840000 8.880000 8.756825 -0.720612 77.201271
3.200000 2.840000 8.920000 3.827408 -11.370032 143.926682
3.200000 2.840000 8.960000 15.244282 -19.367088 607.472229
3.200000 2.840000 9.000000 31.073776 -10.354399 1072.793213
3.200000 2.840000 9.040000 32.622082 11.220232 1190.093750
3.200000 2.840000 9.080000 15.132887 26.103901 910.417908
3.200000 2.840000 9.120000 -6.299404 20.719730 468.989716
3.200000 2.840000 9.160000 -12.362917 1.939028 156.601547
3.200000 2.840000 9.200000 0.073033 -10.072609 101.462784
3.200000 2.880000 8.800000 41.244644 6.877647 1748.422729
3.200000 2.880000 8.840000 21.417328 22.836550 980.209961
3.200000 2.880000 8.880000 0.484697 15.795311 249.726776
3.200000 2.880000 8.920000 -2.045832 -3.056332 13.526590
3.200000 2.880000 8.960000 13.589462 -11.775839 323.343872
3.200000 2.880000 9.000000 28.542269 -0.403507 814.823975
3.200000 2.880000 9.040000 25.671135 19.428329 1036.467163
3.200000 2.880000 9.080000 7.248868 27.706446 820.193237
3.200000 2.880000 9.120000 -8.491574 17.395050 374.694611
3.200000 2.880000 9.160000 -7.404918 1.025947 55.885372
3.200000 2.880000 9.200000 5.974999 -3.789183 50.058525
3.200000 2.920000 8.800000 26.774837 40.897644 2389.509277
3.200000 2.920000 8.840000 -4.208416 41.646534 1752.144653
3.200000 2.920000 8.880000 -22.119038 18.863899 845.098511
3.200000 2.920000 8.920000 -14.017672 -6.006598 232.574341
3.200000 2.920000 8.960000 9.006742 -11.183956 206.202271
3.200000 2.920000 9.000000 23.628477 5.121859 584.538391
3.200000 2.920000 9.040000 17.166729 24.840252 911.734680
3.200000 2.920000 9.080000 -1.663485 29.308435 861.751587
3.200000 2.920000 9.120000 -13.865237 17.166275 486.925781
3.200000 2.920000 9.160000 -10.032179 3.170952 110.699554
3.200000 2.920000 9.200000 1.871239 1.213016 4.972942
3.200000 2.960000 8.800000 -10.976260 52.779408 2906.144043
3.200000 2.960000 8.840000 -38.578556 33.230980 2592.603027
3.200000 2.960000 8.880000 -41.199417 0.130118 1697.408936
3.200000 2.960000 8.920000 -18.330450 -20.903696 772.969910
3.200000 2.960000 8.960000 9.358699 -15.303388 321.778931
3.200000 2.960000 9.000000 19.142893 8.176350 433.303040
3.200000 2.960000 9.040000 6.214911 27.108757 773.509827
3.200000 2.960000 9.080000 -14.334974 26.599138 913.005615
3.200000 2.960000 9.120000 -23.733376 11.188107 688.446899
3.200000 2.960000 9.160000 -16.760311 -2.543159 287.375671
3.200000 2.960000 9.200000 -3.783941 -3.083189 23.824265
3.200000 3.000000 8.800000 -44.995125 31.632809 3025.195801
3.200000 3.000000 8.840000 -55.379490 0.153477 3066.911377
3.200000 3.000000 8.880000 -38.759369 -29.174709 2353.452393
3.200000 3.000000 8.920000 -6.980858 -35.499821 1308.969727
3.200000 3.000000 8.960000 15.941843 -16.364927 521.953247
3.200000 3.000000 9.000000 14.468727 10.433138 318.194427
3.200000 3.000000 9.040000 -5.914738 22.986687 563.371887
3.200000 3.000000 9.080000 -25.348026 13.986548 838.145996
3.200000 3.000000 9.120000 -28.064472 -5.030673 812.922302
3.200000 3.000000 9.160000 -15.022695 -16.253740 489.865417
3.200000 3.000000 9.200000 -0.256235 -11.680006 136.488205
3.200000 3.040000 8.800000 -50.481583 -6.094750 2585.536133
3.200000 3.040000 8.840000 -41.465485 -33.576077 2846.739258
3.200000 3.040000 8.880000 -14.202919 -46.819851 2393.821289
3.200000 3.040000 8.920000 13.457813 -35.920723 1471.411133
3.200000 3.040000 8.960000 22.427988 -9.743980 597.959778
3.200000 3.040000 9.000000 8.718977 11.009970 197.239990
3.200000 3.040000 9.040000 -13.425993 11.482154 312.097168
3.200000 3.040000 9.080000 -24.536949 -5.211604 629.222717
3.200000 3.040000 9.120000 -16.760639 -22.171522 772.495422
3.200000 3.040000 9.160000 0.744175 -24.536583 602.597656
3.200000 3.040000 9.200000 11.760526 -11.863852 279.060944
3.200000 3.080000 8.800000 -27.347729 -30.811289 1697.233765
3.200000 3.080000 8.840000 -9.505672 -43.514877 1983.902344
3.200000 3.080000 8.880000 13.928528 -39.745872 1773.738281
3.200000 3.080000 8.920000 27.302420 -20.169334 1152.224121
3.200000 3.080000 8.960000 21.578300 1.226965 467.128479
3.200000 3.080000 9.000000 3.193381 8.572918 83.692604
3.200000 3.080000 9.040000 -11.072007 -1.792117 125.801025
3.200000 3.080000 9.080000 -9.098576 -18.118746 411.073029
3.200000 3.080000 9.120000 5.925142 -24.353031 628.177429
3.200000 3.080000 9.160000 19.295450 -14.837153 592.455505
3.200000 3.080000 9.200000 18.996639 1.389543 362.803131
3.200000 3.120000 8.800000 0.216301 -26.988314 728.415894
3.200000 3.120000 8.840000 13.644098 -27.012983 915.862732
3.200000 3.120000 8.880000 24.676979 -16.197275 871.305054
3.200000 3.120000 8.920000 24.201738 -0.370544 585.861450
3.200000 3.120000 8.960000 12.351089 8.512630 225.014282
3.200000 3.120000 9.000000 0.033741 3.830169 14.671335
3.200000 3.120000 9.040000 -0.963485 -8.321426 70.174446
3.200000 3.120000 9.080000 10.155863 -14.389893 310.210571
3.200000 3.120000 9.120000 21.949789 -6.790090 527.898560
3.200000 3.120000 9.160000 22.093636 8.308519 557.160217
3.200000 3.120000 9.200000 9.844915 17.203480 392.882080
3.200000 3.160000 8.800000 7.525515 -6.830786 103.292999
3.200000 3.160000 8.840000 12.210131 -4.650967 170.718781
3.200000 3.160000 8.880000 13.771374 2.387184 195.349396
3.200000 3.160000 8.920000 8.442244 8.355976 141.093811
3.200000 3.160000 8.960000 0.776913 6.637116 44.654900
3.200000 3.160000 9.000000 -0.245034 -1.218679 1.545221
3.200000 3.160000 9.040000 8.210993 -5.389108 96.462891
3.200000 3.160000 9.080000 17.838589 1.840152 321.601410
3.200000 3.160000 9.120000 16.933792 16.311420 552.815796
3.200000 3.160000 9.160000 3.498462 24.756968 625.146729
3.200000 3.160000 9.200000 -11.059340 18.583176 467.643402
3.200000 3.200000 8.800000 -6.783973 3.355009 57.278374
3.200000 3.200000 8.840000 -4.497453 0.704342 20.723183
3.200000 3.200000 8.880000 -3.553219 1.723228 15.594881
3.200000 3.200000 8.920000 -5.511543 1.293263 32.049641
3.200000 3.200000 8.960000 -5.234140 -2.991428 36.344864
3.200000 3.200000 9.000000 1.557154 -5.634120 34.168037
3.200000 3.200000 9.040000 10.163456 0.830305 103.985245
3.200000 3.200000 9.080000 9.789938 14.959202 319.620605
3.200000 3.200000 9.120000 -3.884753 24.559141 618.242737
3.200000 3.200000 9.160000 -20.894382 18.630829 783.682983
3.200000 3.200000 9.200000 -25.112217 1.011840 631.647217
