#kx 	ky 	kz 	real 	imag 	intensity
1.800000 3.800000 5.983333 -101.175385 -60.288628 13871.176758
1.800000 3.800000 5.991667 12.397568 -47.368069 2397.433594
1.800000 3.800000 6.000000 -62.040665 -2.801933 3856.895020
1.800000 3.800000 6.008333 -33.779091 -116.252197 14655.600586
1.800000 3.800000 6.016667 74.619537 -20.881315 6004.104492
1.800000 3.900000 5.983333 -12.101372 -97.134331 9581.521484
1.800000 3.900000 5.991667 72.250320 14.111412 5419.240723
1.800000 3.900000 6.000000 -52.638302 -40.671249 4424.941406
1.800000 3.900000 6.008333 82.910835 -70.108063 11789.347656
1.800000 3.900000 6.016667 59.480728 8.288346 3606.653809
1.800000 4.000000 5.983333 55.049034 -45.661102 5115.332520
1.800000 4.000000 5.991667 45.178936 22.657618 2554.503906
1.800000 4.000000 6.000000 48.757141 -2.348763 2382.775391
1.800000 4.000000 6.008333 64.760727 17.831566 4511.916504
1.800000 4.000000 6.016667 91.448273 126.999962 24491.777344
1.800000 4.100000 5.983333 -0.734848 13.321960 178.014633
1.800000 4.100000 5.991667 68.556931 81.861824 11401.411133
1.800000 4.100000 6.000000 -106.345779 89.470001 19314.306641
1.800000 4.100000 6.008333 14.430408 -4.757694 230.872345
1.800000 4.100000 6.016667 -150.826843 119.102425 36934.125000
1.800000 4.200000 5.983333 21.043365 -57.017067 3693.769287
1.800000 4.200000 5.991667 -37.505566 107.757370 13018.318359
1.800000 4.200000 6.000000 -89.476753 -151.756226 31036.041016
1.800000 4.200000 6.008333 95.620789 3.964954 9159.055664
1.800000 4.200000 6.016667 -39.780746 -91.950462 10037.395508
1.900000 3.800000 5.983333 -68.413681 -43.620522 6583.181641
1.900000 3.800000 5.991667 -12.880220 -143.870178 20864.529297
1.900000 3.800000 6.000000 49.387306 -10.816963 2556.112549
1.900000 3.800000 6.008333 -10.914906 -103.561333 10844.083984
1.900000 3.800000 6.016667 118.146179 25.502556 14608.900391
1.900000 3.900000 5.983333 439.744904 -496.097656 439488.468750
1.900000 3.900000 5.991667 -267.637482 731.495728 606715.812500
1.900000 3.900000 6.000000 -797.306702 -585.385803 978374.500000
1.900000 3.900000 6.008333 35.794220 -569.507141 325619.593750
1.900000 3.900000 6.016667 222.877625 -610.158020 421967.250000
1.900000 4.000000 5.983333 840.176697 517.231689 973425.500000
1.900000 4.000000 5.991667 -1171.200684 -295.086639 1458787.125000
1.900000 4.000000 6.000000 702.793579 -1314.763794 2222522.750000
1.900000 4.000000 6.008333 828.663269 -185.528717 721103.750000
1.900000 4.000000 6.016667 1099.009033 230.099152 1260766.500000
1.900000 4.100000 5.983333 -166.041031 610.655212 400469.406250
1.900000 4.100000 5.991667 7.098465 -655.756104 430066.437500
1.900000 4.100000 6.000000 806.359009 247.564651 711503.125000
1.900000 4.100000 6.008333 243.316299 491.877350 301146.156250
1.900000 4.100000 6.016667 -90.809593 732.693237 545085.750000
1.900000 4.200000 5.983333 -28.124527 155.760010 25052.167969
1.900000 4.200000 5.991667 -191.845947 -84.963097 44023.593750
1.900000 4.200000 6.000000 98.709129 -100.910187 19926.359375
1.900000 4.200000 6.008333 -38.028950 61.674133 5249.899902
1.900000 4.200000 6.016667 -10.544618 -75.053909 5744.278320
2.000000 3.800000 5.983333 -67.470444 -143.371582 25107.671875
2.000000 3.800000 5.991667 192.614578 -106.379074 48416.882812
2.000000 3.800000 6.000000 -1.373711 53.567314 2871.343994
2.000000 3.800000 6.008333 95.773384 -136.909622 27916.785156
2.000000 3.800000 6.016667 116.202843 117.041725 27201.867188
2.000000 3.900000 5.983333 854.427979 464.335999 945655.125000
2.000000 3.900000 5.991667 -1114.535767 -245.433853 1302427.750000
2.000000 3.900000 6.000000 665.638245 -1397.415405 2395844.250000
2.000000 3.900000 6.008333 976.034241 -168.186768 980929.625000
2.000000 3.900000 6.016667 1067.738037 234.974060 1195277.250000
2.000000 4.000000 5.983333 -565.808105 1367.580811 2190416.000000
2.000000 4.000000 5.991667 212.245300 -1851.317871 3472425.750000
2.000000 4.000000 6.000000 2246.853271 723.661499 5572035.500000
2.000000 4.000000 6.008333 554.002808 1269.482910 1918506.000000
2.000000 4.000000 6.016667 11.539352 1800.011841 3240176.000000
2.000000 4.100000 5.983333 -971.802246 -136.913513 963144.937500
2.000000 4.100000 5.991667 1095.871948 -88.809814 1208822.500000
2.000000 4.100000 6.000000 -241.928284 1406.791992 2037593.000000
2.000000 4.100000 6.008333 -710.108887 471.338287 726414.375000
2.000000 4.100000 6.016667 -1185.196289 161.880463 1430895.500000
2.000000 4.200000 5.983333 -187.411011 -76.422211 40963.242188
2.000000 4.200000 5.991667 77.722275 -175.084686 36695.398438
2.000000 4.200000 6.000000 58.579590 -10.210945 3535.831787
2.000000 4.200000 6.008333 19.853809 -74.763168 5983.705078
2.000000 4.200000 6.016667 98.723938 -71.973312 14926.574219
2.100000 3.800000 5.983333 100.820839 -64.850563 14370.437500
2.100000 3.800000 5.991667 60.147182 93.011551 12268.832031
2.100000 3.800000 6.000000 -15.427383 8.939840 317.924927
2.100000 3.800000 6.008333 95.978722 6.759056 9257.599609
2.100000 3.800000 6.016667 10.435061 154.597763 24009.359375
2.100000 3.900000 5.983333 -213.909546 600.073181 405845.093750
2.100000 3.900000 5.991667 59.358337 -743.520996 556346.937500
2.100000 3.900000 6.000000 968.805237 282.682587 1018493.000000
2.100000 3.900000 6.008333 239.663528 632.622314 457649.593750
2.100000 3.900000 6.016667 -88.854805 741.777161 558128.562500
2.100000 4.000000 5.983333 -914.580933 -267.435791 907980.187500
2.100000 4.000000 5.991667 1179.894043 -30.560486 1393084.000000
2.100000 4.000000 6.000000 -220.331085 1493.306152 2278509.000000
2.100000 4.000000 6.008333 -789.509583 487.162323 860652.500000
2.100000 4.000000 6.016667 -1113.726318 164.139832 1267328.125000
2.100000 4.100000 5.983333 65.488670 -644.235413 419328.062500
2.100000 4.100000 5.991667 143.519852 677.345398 479394.718750
2.100000 4.100000 6.000000 -898.628906 -41.299984 809239.625000
2.100000 4.100000 6.008333 -333.217590 -445.223175 309257.625000
2.100000 4.100000 6.016667 -176.392212 -691.623352 509457.093750
2.100000 4.200000 5.983333 103.765915 -57.270119 14047.231445
2.100000 4.200000 5.991667 84.898804 43.820644 9128.055664
2.100000 4.200000 6.000000 83.205475 27.981525 7706.116699
2.100000 4.200000 6.008333 88.582916 72.530075 13107.544922
2.100000 4.200000 6.016667 52.005272 128.344666 19176.902344
2.200000 3.800000 5.983333 -46.233181 37.826347 3568.339600
2.200000 3.800000 5.991667 -2.681418 -96.578110 9334.521484
2.200000 3.800000 6.000000 18.244213 -7.392694 387.503235
2.200000 3.800000 6.008333 70.353264 -26.062199 5628.819824
2.200000 3.800000 6.016667 -40.226929 103.477448 12325.788086
2.200000 3.900000 5.983333 -36.574837 -73.282112 6707.986816
2.200000 3.900000 5.991667 105.653488 11.647056 11298.313477
2.200000 3.900000 6.000000 6.886067 59.462311 3583.184326
2.200000 3.900000 6.008333 -15.604262 55.502731 3324.046143
2.200000 3.900000 6.016667 -51.897743 -30.968880 3652.447266
2.200000 4.000000 5.983333 109.651711 -34.898602 13241.410156
2.200000 4.000000 5.991667 -13.500555 26.862747 903.872192
2.200000 4.000000 6.000000 -0.857021 -4.929008 25.029610
2.200000 4.000000 6.008333 -3.905426 -48.400932 2357.902588
2.200000 4.000000 6.016667 66.234650 20.751682 4817.661133
2.200000 4.100000 5.983333 74.623444 109.900864 17646.859375
2.200000 4.100000 5.991667 43.645226 -16.619904 2181.126953
2.200000 4.100000 6.000000 70.497131 61.859055 8796.388672
2.200000 4.100000 6.008333 73.055733 52.302147 8072.654785
2.200000 4.100000 6.016667 -17.102280 134.164368 18292.566406
2.200000 4.200000 5.983333 -65.567070 136.698151 22985.425781
2.200000 4.200000 5.991667 -23.313934 19.518623 924.516235
2.200000 4.200000 6.000000 -30.391533 98.937805 10712.334961
2.200000 4.200000 6.008333 -71.378235 73.064705 10433.303711
2.200000 4.200000 6.016667 -149.027893 24.940519 22831.341797
