#kx 	ky 	kz 	real 	imag 	intensity
1.800000 3.800000 5.800000 -7.847432 -5.865986 95.991982
1.800000 3.800000 5.840000 -9.142331 -3.657983 96.963058
1.800000 3.800000 5.880000 -13.385666 -6.660166 223.533859
1.800000 3.800000 5.920000 -13.334564 -15.879480 429.968506
1.800000 3.800000 5.960000 -3.809237 -24.766277 627.878784
1.800000 3.800000 6.000000 12.111317 -24.442833 744.136108
1.800000 3.800000 6.040000 24.564995 -12.256092 753.650757
1.800000 3.800000 6.080000 25.406862 4.992763 670.436340
1.800000 3.800000 6.120000 15.508193 16.869862 525.096252
1.800000 3.800000 6.160000 3.343946 18.580935 356.433105
1.800000 3.800000 6.200000 -3.611003 14.164763 213.679855
1.800000 3.840000 5.800000 -6.022757 -11.236472 162.531906
1.800000 3.840000 5.840000 -7.932149 -8.237619 130.777374
1.800000 3.840000 5.880000 -11.637974 -11.805754 274.818237
1.800000 3.840000 5.920000 -9.026217 -20.180550 488.727173
1.800000 3.840000 5.960000 2.236194 -24.591040 609.719788
1.800000 3.840000 6.000000 15.001188 -18.176786 555.431213
1.800000 3.840000 6.040000 19.108225 -3.801204 379.573425
1.800000 3.840000 6.080000 11.685687 8.052145 201.392319
1.800000 3.840000 6.120000 0.204132 9.637053 92.914452
1.800000 3.840000 6.160000 -5.392023 3.562482 41.765190
1.800000 3.840000 6.200000 -3.097666 -0.775380 10.196748
1.800000 3.880000 5.800000 0.803163 -17.055758 291.543945
1.800000 3.880000 5.840000 -1.573570 -13.680082 189.620773
1.800000 3.880000 5.880000 -4.106872 -16.928410 303.437439
1.800000 3.880000 5.920000 -0.200232 -22.600698 510.831665
1.800000 3.880000 5.960000 9.025307 -22.826971 602.526794
1.800000 3.880000 6.000000 15.754453 -15.210775 479.570465
1.800000 3.880000 6.040000 14.297876 -5.879056 238.992569
1.800000 3.880000 6.080000 7.739977 -2.668059 67.025780
1.800000 3.880000 6.120000 4.489509 -6.007149 56.241524
1.800000 3.880000 6.160000 8.244318 -8.210007 135.372986
1.800000 3.880000 6.200000 12.946795 -2.648815 174.635727
1.800000 3.920000 5.800000 13.278718 -17.221930 472.919189
1.800000 3.920000 5.840000 10.130899 -13.062811 273.272156
1.800000 3.920000 5.880000 7.719897 -14.939253 282.778076
1.800000 3.920000 5.920000 10.345993 -18.142147 436.177094
1.800000 3.920000 5.960000 15.735512 -17.584070 556.805847
1.800000 3.920000 6.000000 19.055138 -13.558084 546.919922
1.800000 3.920000 6.040000 19.400414 -10.221834 480.861938
1.800000 3.920000 6.080000 20.569878 -9.082378 505.609467
1.800000 3.920000 6.120000 24.932392 -6.043396 658.146851
1.800000 3.920000 6.160000 28.179976 3.416116 805.780884
1.800000 3.920000 6.200000 22.476053 16.552197 779.148193
1.800000 3.960000 5.800000 24.979622 -6.848711 670.886353
1.800000 3.960000 5.840000 19.651480 -2.093307 390.562592
1.800000 3.960000 5.880000 15.451103 -3.383076 250.181793
1.800000 3.960000 5.920000 15.581790 -6.780179 288.763000
1.800000 3.960000 5.960000 19.168020 -8.779428 444.491364
1.800000 3.960000 6.000000 24.452892 -8.350449 667.673950
1.800000 3.960000 6.040000 30.809078 -4.887335 973.085327
1.800000 3.960000 6.080000 36.785286 3.536077 1365.661011
1.800000 3.960000 6.120000 37.710320 17.739868 1736.771118
1.800000 3.960000 6.160000 27.949507 33.114960 1877.775513
1.800000 3.960000 6.200000 7.460517 39.841110 1642.973389
1.800000 4.000000 5.800000 26.764832 11.086252 839.261169
1.800000 4.000000 5.840000 18.043123 14.446552 534.257141
1.800000 4.000000 5.880000 11.678257 11.028933 258.019043
1.800000 4.000000 5.920000 11.230142 4.719981 148.394302
1.800000 4.000000 5.960000 17.124493 0.278302 293.325714
1.800000 4.000000 6.000000 27.017597 2.027922 734.063049
1.800000 4.000000 6.040000 35.716988 12.570712 1433.726074
1.800000 4.000000 6.080000 36.117485 30.294800 2222.247559
1.800000 4.000000 6.120000 23.112720 47.631397 2802.947754
1.800000 4.000000 6.160000 -1.077675 53.713661 2886.318848
1.800000 4.000000 6.200000 -25.392300 41.771008 2389.585938
1.800000 4.040000 5.800000 15.299402 26.547161 938.823486
1.800000 4.040000 5.840000 4.117500 25.529778 668.723328
1.800000 4.040000 5.880000 -1.909947 17.672953 315.981140
1.800000 4.040000 5.920000 0.862469 8.634844 75.304382
1.800000 4.040000 5.960000 11.260248 5.697516 159.254883
1.800000 4.040000 6.000000 22.543158 13.961326 703.112549
1.800000 4.040000 6.040000 24.950287 32.000389 1646.541748
1.800000 4.040000 6.080000 11.920966 50.414330 2683.714111
1.800000 4.040000 6.120000 -13.673777 56.420746 3370.272705
1.800000 4.040000 6.160000 -39.102455 42.870747 3366.902832
1.800000 4.040000 6.200000 -49.420673 14.925430 2665.171631
1.800000 4.080000 5.800000 -3.273566 30.630325 948.933105
1.800000 4.080000 5.840000 -13.606160 23.628902 743.452637
1.800000 4.080000 5.880000 -15.380308 11.958292 379.554626
1.800000 4.080000 5.920000 -7.096012 3.821676 64.958588
1.800000 4.080000 5.960000 5.472267 6.862829 77.044128
1.800000 4.080000 6.000000 11.323244 21.839767 605.191284
1.800000 4.080000 6.040000 1.702522 39.709450 1579.739014
1.800000 4.080000 6.080000 -21.859638 46.407650 2631.513672
1.800000 4.080000 6.120000 -46.380711 33.366627 3264.502197
1.800000 4.080000 6.160000 -55.905231 5.442101 3155.011475
1.800000 4.080000 6.200000 -43.713188 -21.341066 2366.283936
1.800000 4.120000 5.800000 -18.699743 22.924673 875.221069
1.800000 4.120000 5.840000 -24.504395 11.225364 726.474121
1.800000 4.120000 5.880000 -19.789644 -0.618709 392.012817
1.800000 4.120000 5.920000 -7.609704 -3.472630 69.966759
1.800000 4.120000 5.960000 1.623164 6.391975 43.492008
1.800000 4.120000 6.000000 -2.615710 22.169147 498.313049
1.800000 4.120000 6.040000 -21.352514 29.880447 1348.770996
1.800000 4.120000 6.080000 -43.016640 19.381844 2226.087158
1.800000 4.120000 6.120000 -51.393116 -6.044771 2677.791748
1.800000 4.120000 6.160000 -38.867332 -30.794966 2458.999512
1.800000 4.120000 6.200000 -13.337269 -38.983635 1697.606445
1.800000 4.160000 5.800000 -25.424938 10.482254 756.305115
1.800000 4.160000 5.840000 -25.018387 -2.629898 632.836060
1.800000 4.160000 5.880000 -14.989243 -10.567073 336.340424
1.800000 4.160000 5.920000 -3.463274 -6.589693 55.418316
1.800000 4.160000 5.960000 -1.895749 6.046922 40.159134
1.800000 4.160000 6.000000 -14.417616 14.772375 426.090698
1.800000 4.160000 6.040000 -32.174522 8.091624 1100.674316
1.800000 4.160000 6.080000 -39.485794 -13.138373 1731.744751
1.800000 4.160000 6.120000 -27.579044 -34.728619 1966.680664
1.800000 4.160000 6.160000 -3.254744 -40.706566 1667.617920
1.800000 4.160000 6.200000 16.240402 -27.310175 1009.596313
1.800000 4.200000 5.800000 -25.763575 0.035878 663.763062
1.800000 4.200000 5.840000 -19.872675 -11.529837 527.860352
1.800000 4.200000 5.880000 -7.902824 -13.807276 253.095505
1.800000 4.200000 5.920000 -0.972515 -5.409077 30.203896
1.800000 4.200000 5.960000 -6.642715 3.981388 59.977116
1.800000 4.200000 6.000000 -20.050325 1.889316 405.585052
1.800000 4.200000 6.040000 -26.899292 -14.151546 923.838135
1.800000 4.200000 6.080000 -16.815939 -32.438358 1335.022949
1.800000 4.200000 6.120000 5.595015 -36.975365 1398.481812
1.800000 4.200000 6.160000 23.678284 -22.657154 1074.007812
1.800000 4.200000 6.200000 23.594193 -0.871792 557.445923
1.840000 3.800000 5.800000 -9.934083 -3.507552 110.988930
1.840000 3.800000 5.840000 -9.879635 -5.370236 126.446617
1.840000 3.800000 5.880000 -9.381160 -9.229032 173.181183
1.840000 3.800000 5.920000 -5.618279 -14.552263 243.333435
1.840000 3.800000 5.960000 2.995960 -17.839371 327.218903
1.840000 3.800000 6.000000 14.204444 -14.791712 420.560974
1.840000 3.800000 6.040000 22.372065 -4.191067 518.074341
1.840000 3.800000 6.080000 22.359673 10.086159 601.685547
1.840000 3.800000 6.120000 13.632360 21.314333 640.142029
1.840000 3.800000 6.160000 0.756747 24.672363 609.298218
1.840000 3.800000 6.200000 -10.177778 20.225771 512.669006
1.840000 3.840000 5.800000 -4.300697 -12.104382 165.012054
1.840000 3.840000 5.840000 0.598726 -11.025572 121.921707
1.840000 3.840000 5.880000 3.969319 -7.930468 78.647804
1.840000 3.840000 5.920000 5.204703 -4.281390 45.419235
1.840000 3.840000 5.960000 4.902758 -1.327132 25.798313
1.840000 3.840000 6.000000 4.113818 0.692837 17.403522
1.840000 3.840000 6.040000 3.393615 2.297461 16.794947
1.840000 3.840000 6.080000 2.576206 4.015048 22.757450
1.840000 3.840000 6.120000 1.145811 5.911155 36.254631
1.840000 3.840000 6.160000 -1.377541 7.537273 58.708107
1.840000 3.840000 6.200000 -5.109994 7.960224 89.477203
1.840000 3.880000 5.800000 9.001750 -14.883431 302.548035
1.840000 3.880000 5.840000 15.811386 -5.774734 283.347473
1.840000 3.880000 5.880000 14.260822 6.713283 248.439209
1.840000 3.880000 5.920000 3.559254 14.674783 228.017532
1.840000 3.880000 5.960000 -9.893599 11.918764 239.940216
1.840000 3.880000 6.000000 -16.572723 -0.286993 274.737518
1.840000 3.880000 6.040000 -11.338889 -13.287531 305.128876
1.840000 3.880000 6.080000 2.111582 -17.447947 308.889618
1.840000 3.880000 6.120000 13.838779 -9.680277 285.219574
1.840000 3.880000 6.160000 15.312254 4.156693 251.743210
1.840000 3.880000 6.200000 5.830009 13.895147 227.064117
1.840000 3.920000 5.800000 22.646637 -5.170483 539.604065
1.840000 3.920000 5.840000 23.412882 12.805418 712.141724
1.840000 3.920000 5.880000 8.687528 28.184298 869.827759
1.840000 3.920000 5.920000 -15.446204 27.636677 1002.371094
1.840000 3.920000 5.960000 -32.594284 7.435965 1117.680908
1.840000 3.920000 6.000000 -28.411501 -20.577639 1230.652588
1.840000 3.920000 6.040000 -3.529408 -36.477642 1343.075073
1.840000 3.920000 6.080000 25.272827 -28.042902 1425.120117
1.840000 3.920000 6.120000 37.711353 -1.103954 1423.364868
1.840000 3.920000 6.160000 26.003267 24.905813 1296.469482
1.840000 3.920000 6.200000 0.398369 32.430435 1051.891846
1.840000 3.960000 5.800000 24.968163 14.206594 825.236450
1.840000 3.960000 5.840000 12.929460 33.916031 1317.468018
1.840000 3.960000 5.880000 -14.554699 39.688362 1787.005371
1.840000 3.960000 5.920000 -40.964714 20.601021 2102.509766
1.840000 3.960000 5.960000 -44.643196 -15.642700 2237.708984
1.840000 3.960000 6.000000 -17.793074 -44.541416 2300.531250
1.840000 3.960000 6.040000 23.657661 -43.300716 2434.636963
1.840000 3.960000 6.080000 50.520638 -10.608441 2664.873779
1.840000 3.960000 6.120000 43.574028 30.687395 2840.412109
1.840000 3.960000 6.160000 9.230641 51.548405 2742.442871
1.840000 3.960000 6.200000 -26.312765 39.799049 2276.325928
1.840000 4.000000 5.800000 11.000333 30.601852 1057.480713
1.840000 4.000000 5.840000 -12.221321 40.957565 1826.882935
1.840000 4.000000 5.880000 -41.091175 29.004564 2529.749512
1.840000 4.000000 5.920000 -53.556564 -5.344276 2896.866943
1.840000 4.000000 5.960000 -34.044014 -41.480171 2879.599609
1.840000 4.000000 6.000000 9.486238 -51.383633 2730.266357
1.840000 4.000000 6.040000 47.446167 -23.506741 2803.705566
1.840000 4.000000 6.080000 51.173363 24.606703 3224.202881
1.840000 4.000000 6.120000 17.220882 58.559341 3725.755371
1.840000 4.000000 6.160000 -28.996462 54.810707 3845.008301
1.840000 4.000000 6.200000 -54.181732 19.368032 3310.780762
1.840000 4.040000 5.800000 -11.328142 31.846592 1142.532227
1.840000 4.040000 5.840000 -35.375591 26.800285 1969.687744
1.840000 4.040000 5.880000 -51.489555 1.324338 2652.928223
1.840000 4.040000 5.920000 -42.444572 -32.669052 2868.808594
1.840000 4.040000 5.960000 -7.229961 -50.449989 2597.473633
1.840000 4.040000 6.000000 32.413586 -34.161774 2217.667236
1.840000 4.040000 6.040000 46.434174 8.946968 2236.180908
1.840000 4.040000 6.080000 21.723848 48.639023 2837.680176
1.840000 4.040000 6.120000 -24.807211 55.220844 3664.739258
1.840000 4.040000 6.160000 -58.903229 24.415722 4065.717773
1.840000 4.040000 6.200000 -57.066128 -19.182358 3624.505859
1.840000 4.080000 5.800000 -27.314117 17.373930 1047.914551
1.840000 4.080000 5.840000 -40.910900 1.262615 1675.296021
1.840000 4.080000 5.880000 -38.858677 -24.010580 2086.504883
1.840000 4.080000 5.920000 -16.090982 -42.176010 2037.735474
1.840000 4.080000 5.960000 15.714851 -36.618214 1587.850098
1.840000 4.080000 6.000000 33.318417 -6.469810 1151.975342
1.840000 4.080000 6.040000 20.448568 28.301750 1219.133057
1.840000 4.080000 6.080000 -16.197594 40.813610 1928.112793
1.840000 4.080000 6.120000 -49.855255 19.891344 2881.211914
1.840000 4.080000 6.160000 -55.108604 -19.282001 3408.753906
1.840000 4.080000 6.200000 -29.165279 -47.334320 3091.151367
1.840000 4.120000 5.800000 -28.502396 -1.465394 814.533936
1.840000 4.120000 5.840000 -28.255402 -17.728153 1112.655151
1.840000 4.120000 5.880000 -15.193837 -30.847664 1182.431030
1.840000 4.120000 5.920000 5.126323 -30.224697 939.811462
1.840000 4.120000 5.960000 18.765759 -13.143786 524.912842
1.840000 4.120000 6.000000 13.466833 9.661974 274.709320
1.840000 4.120000 6.040000 -9.496679 20.099413 494.173309
1.840000 4.120000 6.080000 -33.566544 7.512294 1183.147461
1.840000 4.120000 6.120000 -39.232132 -20.710041 1968.065918
1.840000 4.120000 6.160000 -20.707092 -43.761681 2343.868408
1.840000 4.120000 6.200000 8.446269 -44.495602 2051.197998
1.840000 4.160000 5.800000 -19.446558 -12.545815 535.566040
1.840000 4.160000 5.840000 -11.214212 -20.777952 557.481873
1.840000 4.160000 5.880000 0.541132 -20.538208 422.110809
1.840000 4.160000 5.920000 7.676953 -11.357635 187.931488
1.840000 4.160000 5.960000 3.996515 -0.071684 15.977269
1.840000 4.160000 6.000000 -8.705589 3.149511 85.706703
1.840000 4.160000 6.040000 -20.260456 -6.875443 457.757812
1.840000 4.160000 6.080000 -19.525068 -24.649014 988.802124
1.840000 4.160000 6.120000 -4.118300 -37.061558 1390.519531
1.840000 4.160000 6.160000 16.368118 -33.900623 1417.167603
1.840000 4.160000 6.200000 27.592094 -16.851990 1045.313232
1.840000 4.200000 5.800000 -11.383015 -14.091135 328.133118
1.840000 4.200000 5.840000 -3.308414 -14.451738 219.798340
1.840000 4.200000 5.880000 0.577437 -8.801762 77.804443
1.840000 4.200000 5.920000 -3.335490 -3.601318 24.094986
1.840000 4.200000 5.960000 -11.328938 -6.103056 165.592102
1.840000 4.200000 6.000000 -14.422543 -17.357914 509.306915
1.840000 4.200000 6.040000 -6.034410 -29.850594 927.472046
1.840000 4.200000 6.080000 11.313361 -32.939167 1212.980957
1.840000 4.200000 6.120000 26.774323 -22.056122 1203.336792
1.840000 4.200000 6.160000 29.672012 -3.489008 892.601501
1.840000 4.200000 6.200000 18.566362 10.088257 446.482727
1.880000 3.800000 5.800000 -13.398302 -6.980149 228.236984
1.880000 3.800000 5.840000 -8.047527 -10.106227 166.898529
1.880000 3.800000 5.880000 -3.195619 -10.120060 112.627586
1.880000 3.800000 5.920000 0.075428 -9.580140 91.784775
1.880000 3.800000 5.960000 3.986271 -9.879530 113.495468
1.880000 3.800000 6.000000 10.678698 -8.567921 187.443848
1.880000 3.800000 6.040000 18.055023 -1.619698 328.607269
1.880000 3.800000 6.080000 20.086964 11.233891 529.686401
1.880000 3.800000 6.120000 12.277601 24.065662 729.895630
1.880000 3.800000 6.160000 -3.009676 28.643562 829.511841
1.880000 3.800000 6.200000 -17.148521 21.475981 755.289551
1.880000 3.840000 5.800000 -0.131385 -14.265710 203.527740
1.880000 3.840000 5.840000 11.892583 -5.571848 172.479019
1.880000 3.840000 5.880000 12.269777 10.669701 264.389954
1.880000 3.840000 5.920000 -1.077950 21.024986 443.212036
1.880000 3.840000 5.960000 -17.255217 16.130730 557.942932
1.880000 3.840000 6.000000 -22.116829 0.380219 489.298676
1.880000 3.840000 6.040000 -11.867113 -11.765480 279.254883
1.880000 3.840000 6.080000 3.291027 -9.543781 101.914619
1.880000 3.840000 6.120000 9.161205 4.056814 100.385422
1.880000 3.840000 6.160000 1.055457 15.816671 251.281082
1.880000 3.840000 6.200000 -12.556560 15.336415 392.872803
1.880000 3.880000 5.800000 16.653057 -7.386137 331.879333
1.880000 3.880000 5.840000 22.783001 18.782438 871.845093
1.880000 3.880000 5.880000 2.035698 44.419228 1977.211792
1.880000 3.880000 5.920000 -36.073799 44.568478 3287.668213
1.880000 3.880000 5.960000 -62.986179 12.740692 4129.583984
1.880000 3.880000 6.000000 -55.870819 -29.951180 4018.621582
1.880000 3.880000 6.040000 -19.129797 -51.809616 3050.185547
1.880000 3.880000 6.080000 18.787479 -38.322960 1821.618652
1.880000 3.880000 6.120000 30.608749 -4.109760 953.785706
1.880000 3.880000 6.160000 13.186293 21.837337 650.747620
1.880000 3.880000 6.200000 -12.930895 22.319628 665.373779
1.880000 3.920000 5.800000 22.320669 12.903555 664.713989
1.880000 3.920000 5.840000 7.565893 48.055855 2366.607910
1.880000 3.920000 5.880000 -39.172474 61.435886 5308.850586
1.880000 3.920000 5.920000 -87.357880 29.458508 8499.202148
1.880000 3.920000 5.960000 -96.141441 -34.565365 10437.941406
1.880000 3.920000 6.000000 -51.942459 -86.450050 10171.630859
1.880000 3.920000 6.040000 16.109966 -87.943802 7993.643555
1.880000 3.920000 6.080000 59.625698 -40.329708 5181.708984
1.880000 3.920000 6.120000 52.113461 17.351101 3016.873535
1.880000 3.920000 6.160000 9.232436 43.296303 1959.807739
1.880000 3.920000 6.200000 -29.246403 27.486599 1610.865234
1.880000 3.960000 5.800000 8.170044 32.114563 1098.094849
1.880000 3.960000 5.840000 -30.171652 56.416954 4093.201416
1.880000 3.960000 5.880000 -86.210182 38.114807 8884.933594
1.880000 3.960000 5.920000 -114.141251 -27.181019 13767.032227
1.880000 3.960000 5.960000 -80.619293 -99.899033 16479.287109
1.880000 3.960000 6.000000 0.399828 -125.647507 15787.456055
1.880000 3.960000 6.040000 74.187218 -82.763992 12353.621094
1.880000 3.960000 6.080000 90.288666 -3.108625 8161.706543
1.880000 3.960000 6.120000 44.859272 54.873329 5023.436523
1.880000 3.960000 6.160000 -19.033840 55.765625 3472.092041
1.880000 3.960000 6.200000 -51.702011 13.331998 2850.840088
1.880000 4.000000 5.800000 -18.001909 33.291348 1432.382568
1.880000 4.000000 5.840000 -64.593369 31.114050 5140.387207
1.880000 4.000000 5.880000 -102.082733 -17.295254 10720.010742
1.880000 4.000000 5.920000 -88.808144 -90.379585 16055.355469
1.880000 4.000000 5.960000 -17.705612 -135.399094 18646.402344
1.880000 4.000000 6.000000 68.965240 -112.345047 17377.613281
1.880000 4.000000 6.040000 110.747902 -32.242573 13304.681641
1.880000 4.000000 6.080000 80.112015 48.531010 8773.193359
1.880000 4.000000 6.120000 5.934052 75.063866 5669.796875
1.880000 4.000000 6.160000 -52.849998 38.942223 4309.619141
1.880000 4.000000 6.200000 -58.085617 -19.508930 3754.537354
1.880000 4.040000 5.800000 -36.642677 13.067667 1513.449707
1.880000 4.040000 5.840000 -68.964401 -12.958782 4924.019043
1.880000 4.040000 5.880000 -71.628113 -67.715851 9716.023438
1.880000 4.040000 5.920000 -24.901363 -115.415527 13940.822266
1.880000 4.040000 5.960000 50.946827 -113.830414 15552.942383
1.880000 4.040000 6.000000 105.081963 -53.515656 13906.144531
1.880000 4.040000 6.040000 97.208588 27.993370 10233.138672
1.880000 4.040000 6.080000 33.643818 74.345009 6659.086914
1.880000 4.040000 6.120000 -36.615067 57.241917 4617.299805
1.880000 4.040000 6.160000 -63.469692 -1.022935 4029.448242
1.880000 4.040000 6.200000 -36.649879 -49.783653 3821.625732
1.880000 4.080000 5.800000 -33.639954 -13.932015 1325.747559
1.880000 4.080000 5.840000 -40.279259 -44.652092 3616.228027
1.880000 4.080000 5.880000 -16.974991 -78.943481 6520.223633
1.880000 4.080000 5.920000 32.738838 -87.626213 8750.184570
1.880000 4.080000 5.960000 79.078506 -53.876358 9156.072266
1.880000 4.080000 6.000000 87.042603 6.902645 7624.061035
1.880000 4.080000 6.040000 47.217052 54.577084 5208.107910
1.880000 4.080000 6.080000 -12.829756 56.189472 3321.859375
1.880000 4.080000 6.120000 -49.752316 14.242610 2678.145020
1.880000 4.080000 6.160000 -40.390411 -35.446442 2887.835449
1.880000 4.080000 6.200000 0.287823 -54.876419 3011.504150
1.880000 4.120000 5.800000 -13.322084 -28.072548 965.545898
1.880000 4.120000 5.840000 -2.322342 -44.259434 1964.290771
1.880000 4.120000 5.880000 21.954615 -49.883774 2970.395996
1.880000 4.120000 5.920000 47.562782 -34.856274 3477.178223
1.880000 4.120000 5.960000 56.243973 -2.696625 3170.656250
1.880000 4.120000 6.000000 38.176636 27.773491 2228.822266
1.880000 4.120000 6.040000 2.976856 35.271652 1252.951172
1.880000 4.120000 6.080000 -25.159090 14.057817 830.602051
1.880000 4.120000 6.120000 -26.408245 -19.530485 1078.835205
1.880000 4.120000 6.160000 -2.084797 -39.678204 1578.706299
1.880000 4.120000 6.200000 26.513464 -32.536156 1761.565186
1.880000 4.160000 5.800000 6.190180 -22.763172 556.480286
1.880000 4.160000 5.840000 16.753149 -20.506559 701.187012
1.880000 4.160000 5.880000 23.347698 -11.522190 677.875854
1.880000 4.160000 5.920000 22.262621 -0.344204 495.742767
1.880000 4.160000 5.960000 13.818130 7.008591 240.061081
1.880000 4.160000 6.000000 2.664940 6.090345 44.194214
1.880000 4.160000 6.040000 -4.214031 -2.964920 26.548809
1.880000 4.160000 6.080000 -1.700012 -14.516088 213.606873
1.880000 4.160000 6.120000 9.298349 -20.355965 500.824585
1.880000 4.160000 6.160000 21.442297 -15.589750 702.812378
1.880000 4.160000 6.200000 25.874044 -3.004168 678.491211
1.880000 4.200000 5.800000 10.919094 -9.474203 208.987137
1.880000 4.200000 5.840000 10.105973 0.025785 102.131355
1.880000 4.200000 5.880000 0.721265 3.844177 15.297922
1.880000 4.200000 5.920000 -8.351362 -3.279303 80.499077
1.880000 4.200000 5.960000 -7.613960 -16.639339 334.839996
1.880000 4.200000 6.000000 4.451351 -25.576731 673.983643
1.880000 4.200000 6.040000 20.083744 -22.675791 917.548218
1.880000 4.200000 6.080000 28.976322 -9.667528 933.088379
1.880000 4.200000 6.120000 26.471268 4.704026 722.855896
1.880000 4.200000 6.160000 16.209602 12.094028 409.016724
1.880000 4.200000 6.200000 6.012375 10.321012 142.671951
1.920000 3.800000 5.800000 -11.310907 -13.551947 311.591888
1.920000 3.800000 5.840000 -1.358174 -12.415279 155.983795
1.920000 3.800000 5.880000 2.884094 -6.151251 46.155888
1.920000 3.800000 5.920000 1.133347 -2.568741 7.882904
1.920000 3.800000 5.960000 0.446259 -4.961590 24.816521
1.920000 3.800000 6.000000 6.823507 -7.697426 105.810623
1.920000 3.800000 6.040000 17.181011 -2.080563 299.515869
1.920000 3.800000 6.080000 21.029591 13.261837 618.119995
1.920000 3.800000 6.120000 11.059509 28.856678 955.020630
1.920000 3.800000 6.160000 -8.229542 32.351681 1114.356567
1.920000 3.800000 6.200000 -23.301804 20.468880 961.949097
1.920000 3.840000 5.800000 6.795750 -12.113558 192.920502
1.920000 3.840000 5.840000 15.753139 9.904850 346.267456
1.920000 3.840000 5.880000 0.176029 32.545212 1059.221802
1.920000 3.840000 5.920000 -30.468540 32.699509 1997.589844
1.920000 3.840000 5.960000 -49.816582 6.101303 2518.917725
1.920000 3.840000 6.000000 -39.443398 -26.235806 2244.099121
1.920000 3.840000 6.040000 -7.408386 -36.892750 1415.959106
1.920000 3.840000 6.080000 18.845150 -17.964989 677.880493
1.920000 3.840000 6.120000 18.455502 11.998234 484.563141
1.920000 3.840000 6.160000 -4.031768 26.660084 727.015198
1.920000 3.840000 6.200000 -25.234734 16.847954 920.645386
1.920000 3.880000 5.800000 17.346586 5.965031 336.485657
1.920000 3.880000 5.840000 4.389385 45.118855 2054.977783
1.920000 3.880000 5.880000 -45.387627 60.795162 5756.088379
1.920000 3.880000 5.920000 -96.681244 26.243176 10035.966797
1.920000 3.880000 5.960000 -103.966988 -42.087193 12580.466797
1.920000 3.880000 6.000000 -54.810059 -94.397530 11915.036133
1.920000 3.880000 6.040000 15.787224 -91.262573 8578.093750
1.920000 3.880000 6.080000 55.761009 -39.165203 4643.203125
1.920000 3.880000 6.120000 42.027939 16.883900 2051.413818
1.920000 3.880000 6.160000 -2.338307 35.553165 1269.495239
1.920000 3.880000 6.200000 -34.311256 14.195800 1378.783081
1.920000 3.920000 5.800000 7.066114 27.671854 815.661499
1.920000 3.920000 5.840000 -39.088955 60.737625 5217.005371
1.920000 3.920000 5.880000 -109.964981 38.886253 13604.437500
1.920000 3.920000 5.920000 -144.932693 -43.590172 22905.589844
1.920000 3.920000 5.960000 -101.667007 -134.460754 28415.875000
1.920000 3.920000 6.000000 -0.378910 -164.833588 27170.255859
1.920000 3.920000 6.040000 88.780029 -110.813293 20161.480469
1.920000 3.920000 6.080000 105.927971 -15.720703 11467.875977
1.920000 3.920000 6.120000 52.058887 49.174408 5128.250000
1.920000 3.920000 6.160000 -17.460812 46.958397 2509.970947
1.920000 3.920000 6.200000 -47.059185 0.940170 2215.450928
1.920000 3.960000 5.800000 -19.976824 32.408382 1449.376709
1.920000 3.960000 5.840000 -85.971741 33.141205 8489.479492
1.920000 3.960000 5.880000 -141.009308 -35.071983 21113.669922
1.920000 3.960000 5.920000 -122.387527 -140.334717 34672.539062
1.920000 3.960000 5.960000 -20.381496 -205.058685 42464.468750
1.920000 3.960000 6.000000 102.829323 -172.806488 40435.953125
1.920000 3.960000 6.040000 162.156494 -61.898605 30126.166016
1.920000 3.960000 6.080000 122.700623 47.872093 17347.179688
1.920000 3.960000 6.120000 27.615471 84.176941 7848.371582
1.920000 3.960000 6.160000 -44.517529 41.291649 3686.810547
1.920000 3.960000 6.200000 -49.463871 -24.646738 3054.136230
1.920000 4.000000 5.800000 -42.468346 11.348698 1932.353394
1.920000 4.000000 5.840000 -97.067596 -26.075394 10102.043945
1.920000 4.000000 5.880000 -104.467659 -114.722046 24074.640625
1.920000 4.000000 5.920000 -29.476387 -194.200592 38582.726562
1.920000 4.000000 5.960000 94.574844 -193.766037 46489.679688
1.920000 4.000000 6.000000 184.604172 -98.373230 43755.992188
1.920000 4.000000 6.040000 177.073166 31.210907 32329.027344
1.920000 4.000000 6.080000 83.623535 107.388092 18525.097656
1.920000 4.000000 6.120000 -20.227854 89.413971 8404.024414
1.920000 4.000000 6.160000 -62.202381 12.971408 4037.393555
1.920000 4.000000 6.200000 -31.791134 -49.257896 3437.016602
1.920000 4.040000 5.800000 -39.880394 -21.881966 2069.266113
1.920000 4.040000 5.840000 -58.855301 -75.673325 9190.398438
1.920000 4.040000 5.880000 -19.868946 -142.697235 20757.275391
1.920000 4.040000 5.920000 73.706215 -163.765442 32251.724609
1.920000 4.040000 5.960000 165.078308 -103.596817 37983.148438
1.920000 4.040000 6.000000 186.919128 10.395634 35046.832031
1.920000 4.040000 6.040000 120.398865 104.405243 25396.341797
1.920000 4.040000 6.080000 14.103992 118.669624 14281.402344
1.920000 4.040000 6.120000 -56.810654 56.838566 6458.073242
1.920000 4.040000 6.160000 -53.589523 -21.434809 3331.287842
1.920000 4.040000 6.200000 -0.717638 -55.647423 3097.150635
1.920000 4.080000 5.800000 -12.022673 -41.693542 1882.896118
1.920000 4.080000 5.840000 1.848040 -80.124756 6423.391602
1.920000 4.080000 5.880000 53.733791 -101.757919 13241.994141
1.920000 4.080000 5.920000 118.299072 -74.534180 19550.015625
1.920000 4.080000 5.960000 148.887390 -0.236076 22167.511719
1.920000 4.080000 6.000000 116.300339 78.927711 19755.351562
1.920000 4.080000 6.040000 37.410957 111.300278 13787.332031
1.920000 4.080000 6.080000 -35.358658 78.673355 7439.731445
1.920000 4.080000 6.120000 -56.552704 11.565477 3331.968506
1.920000 4.080000 6.160000 -23.867960 -37.760216 1995.513428
1.920000 4.080000 6.200000 24.500053 -39.334652 2147.467529
1.920000 4.120000 5.800000 19.736229 -33.576195 1516.879639
1.920000 4.120000 5.840000 40.936230 -41.341286 3384.876953
1.920000 4.120000 5.880000 69.485863 -29.739590 5712.728516
1.920000 4.120000 5.920000 86.504845 4.580215 7504.066895
1.920000 4.120000 5.960000 74.918762 47.002792 7822.083008
1.920000 4.120000 6.000000 35.217026 72.216103 6455.404297
1.920000 4.120000 6.040000 -11.039619 63.244987 4121.801758
1.920000 4.120000 6.080000 -35.897785 26.426586 1987.015381
1.920000 4.120000 6.120000 -26.792101 -12.175953 866.070496
1.920000 4.120000 6.160000 3.642786 -27.227795 754.622681
1.920000 4.120000 6.200000 28.918453 -13.880136 1028.935059
1.920000 4.160000 5.800000 31.965551 -7.312307 1075.266235
1.920000 4.160000 5.840000 36.301350 4.458721 1337.668213
1.920000 4.160000 5.880000 32.192566 16.536980 1309.833008
1.920000 4.160000 5.920000 22.470903 23.675388 1065.465454
1.920000 4.160000 5.960000 11.553833 24.642830 740.760132
1.920000 4.160000 6.000000 2.388710 20.633116 431.431396
1.920000 4.160000 6.040000 -3.322151 13.088093 182.334854
1.920000 4.160000 6.080000 -3.922947 3.939407 30.908443
1.920000 4.160000 6.120000 1.231674 -3.238785 12.006748
1.920000 4.160000 6.160000 9.529697 -4.430168 110.441521
1.920000 4.160000 6.200000 15.262083 1.127138 234.201630
1.920000 4.200000 5.800000 20.654093 13.017574 596.048828
1.920000 4.200000 5.840000 5.244235 21.509733 490.170624
1.920000 4.200000 5.880000 -11.864494 12.394615 294.392700
1.920000 4.200000 5.920000 -14.023899 -8.081488 261.980164
1.920000 4.200000 5.960000 2.042164 -21.934010 485.271210
1.920000 4.200000 6.000000 22.608650 -16.876099 795.953735
1.920000 4.200000 6.040000 30.275639 2.002224 920.623230
1.920000 4.200000 6.080000 20.354839 17.895761 734.577759
1.920000 4.200000 6.120000 3.993713 18.776308 368.499481
1.920000 4.200000 6.160000 -4.045075 7.729313 76.104912
1.920000 4.200000 6.200000 0.502893 -2.357634 5.811338
1.960000 3.800000 5.800000 -3.661203 -15.534309 254.719177
1.960000 3.800000 5.840000 5.218910 -7.750029 87.299965
1.960000 3.800000 5.880000 3.714954 1.516838 16.101685
1.960000 3.800000 5.920000 -3.084515 2.398952 15.269203
1.960000 3.800000 5.960000 -3.782167 -4.752060 36.886864
1.960000 3.800000 6.000000 6.481804 -8.874557 120.771561
1.960000 3.800000 6.040000 19.369865 0.179451 375.223877
1.960000 3.800000 6.080000 20.765259 19.785185 822.649536
1.960000 3.800000 6.120000 5.311327 35.405991 1281.794434
1.960000 3.800000 6.160000 -17.016268 34.135464 1454.783203
1.960000 3.800000 6.200000 -29.585070 17.409090 1178.352783
1.960000 3.840000 5.800000 9.681086 -3.347570 104.929649
1.960000 3.840000 5.840000 3.697659 25.155746 646.484253
1.960000 3.840000 5.880000 -29.271103 37.268284 2245.722412
1.960000 3.840000 5.920000 -62.668819 13.968796 4122.508301
1.960000 3.840000 5.960000 -64.070618 -31.027138 5067.727051
1.960000 3.840000 6.000000 -27.439392 -61.085152 4484.315918
1.960000 3.840000 6.040000 18.924461 -50.539700 2912.396484
1.960000 3.840000 6.080000 37.963673 -9.169979 1525.328979
1.960000 3.840000 6.120000 18.050386 27.441284 1078.840454
1.960000 3.840000 6.160000 -18.149076 31.772980 1338.911133
1.960000 3.840000 6.200000 -37.750336 8.369191 1495.131226
1.960000 3.880000 5.800000 5.523355 17.151003 324.664337
1.960000 3.880000 5.840000 -34.093327 48.193417 3484.960449
1.960000 3.880000 5.880000 -96.619034 29.356812 10197.059570
1.960000 3.880000 5.920000 -125.989838 -43.668148 17780.345703
1.960000 3.880000 5.960000 -85.041168 -121.882927 22087.449219
1.960000 3.880000 6.000000 4.944847 -143.575409 20638.349609
1.960000 3.880000 6.040000 79.255859 -91.008064 14563.958984
1.960000 3.880000 6.080000 86.892708 -7.220451 7602.477539
1.960000 3.880000 6.120000 34.482441 43.872070 3113.797363
1.960000 3.880000 6.160000 -24.873558 34.451317 1805.587158
1.960000 3.880000 6.200000 -44.029110 -8.395034 2009.039062
1.960000 3.920000 5.800000 -17.612156 25.796499 975.647400
1.960000 3.920000 5.840000 -86.357750 28.325573 8259.999023
1.960000 3.920000 5.880000 -143.815491 -42.985214 22530.623047
1.960000 3.920000 5.920000 -122.666306 -152.775116 38387.257812
1.960000 3.920000 5.960000 -14.570084 -217.747482 47626.253906
1.960000 3.920000 6.000000 112.344070 -180.338181 45143.050781
1.960000 3.920000 6.040000 169.312836 -63.911358 32751.498047
1.960000 3.920000 6.080000 124.494644 46.083267 17622.583984
1.960000 3.920000 6.120000 27.637054 77.688065 6799.242188
1.960000 3.920000 6.160000 -40.104061 31.526524 2602.257324
1.960000 3.920000 6.200000 -39.363388 -30.907516 2504.750977
1.960000 3.960000 5.800000 -41.505363 8.945942 1802.725098
1.960000 3.960000 5.840000 -108.215080 -34.104313 12873.608398
1.960000 3.960000 5.880000 -117.462616 -140.862839 33639.804688
1.960000 3.960000 5.920000 -26.159042 -235.906799 56336.316406
1.960000 3.960000 5.960000 123.022827 -233.163330 69499.750000
1.960000 3.960000 6.000000 228.584015 -117.328918 66016.726562
1.960000 3.960000 6.040000 216.909912 35.608620 48317.882812
1.960000 3.960000 6.080000 106.732834 122.170128 26317.437500
1.960000 3.960000 6.120000 -10.619448 99.582123 10029.372070
1.960000 3.960000 6.160000 -54.439728 14.884903 3185.244385
1.960000 3.960000 6.200000 -19.902355 -48.239792 2723.181396
1.960000 4.000000 5.800000 -42.535713 -24.897823 2429.188477
1.960000 4.000000 5.840000 -72.314842 -98.051498 14843.533203
1.960000 4.000000 5.880000 -19.753113 -192.166855 37318.285156
1.960000 4.000000 5.920000 110.332008 -221.827850 61380.746094
1.960000 4.000000 5.960000 236.616882 -137.936295 75013.968750
1.960000 4.000000 6.000000 265.721008 18.927868 70965.921875
1.960000 4.000000 6.040000 174.956680 146.064178 51944.585938
1.960000 4.000000 6.080000 33.654957 165.018631 28363.804688
1.960000 4.000000 6.120000 -58.168976 85.727219 10732.786133
1.960000 4.000000 6.160000 -54.732033 -10.680832 3109.675537
1.960000 4.000000 6.200000 6.601145 -49.446281 2488.510010
1.960000 4.040000 5.800000 -14.090277 -49.492809 2648.073975
1.960000 4.040000 5.840000 2.127766 -114.773087 13177.388672
1.960000 4.040000 5.880000 85.856659 -155.237854 31470.156250
1.960000 4.040000 5.920000 194.009811 -113.350235 50488.085938
1.960000 4.040000 5.960000 246.404938 8.270737 60783.800781
1.960000 4.040000 6.000000 194.638367 138.113861 56959.531250
1.960000 4.040000 6.040000 68.447098 191.752594 41454.062500
1.960000 4.040000 6.080000 -46.799397 142.728683 22561.660156
1.960000 4.040000 6.120000 -81.906601 42.113125 8482.207031
1.960000 4.040000 6.160000 -37.901951 -30.217571 2349.659424
1.960000 4.040000 6.200000 25.636358 -34.243191 1829.818848
1.960000 4.080000 5.800000 24.995947 -43.571960 2523.312988
1.960000 4.080000 5.840000 62.820366 -71.635986 9078.113281
1.960000 4.080000 5.880000 127.759415 -58.222397 19712.314453
1.960000 4.080000 5.920000 173.446014 11.760986 30221.839844
1.960000 4.080000 5.960000 155.396957 106.143600 35414.679688
1.960000 4.080000 6.000000 72.437775 165.413132 32608.734375
1.960000 4.080000 6.040000 -26.921841 150.788254 23461.882812
1.960000 4.080000 6.080000 -82.093971 77.103378 12684.351562
1.960000 4.080000 6.120000 -68.937370 -0.341787 4752.477539
1.960000 4.080000 6.160000 -15.351341 -32.626312 1300.139893
1.960000 4.080000 6.200000 28.122692 -14.409662 998.524170
1.960000 4.120000 5.800000 45.941719 -10.726126 2225.691406
1.960000 4.120000 5.840000 69.716171 -3.976042 4876.153809
1.960000 4.120000 5.880000 88.279015 25.785347 8458.068359
1.960000 4.120000 5.920000 81.796043 69.688179 11547.035156
1.960000 4.120000 5.960000 43.516312 103.831055 12674.556641
1.960000 4.120000 6.000000 -11.312950 105.468216 11251.527344
1.960000 4.120000 6.040000 -53.816929 71.179031 7962.716309
1.960000 4.120000 6.080000 -62.149055 21.130077 4308.985352
1.960000 4.120000 6.120000 -37.614967 -15.391109 1651.771973
1.960000 4.120000 6.160000 -2.510807 -21.608078 473.213165
1.960000 4.120000 6.200000 18.298641 -3.942062 350.380127
1.960000 4.160000 5.800000 35.672417 23.402636 1820.204712
1.960000 4.160000 5.840000 29.041874 37.238155 2230.110596
1.960000 4.160000 5.880000 14.914099 44.009190 2159.239014
1.960000 4.160000 5.920000 1.085419 42.077114 1771.661621
1.960000 4.160000 5.960000 -8.323898 35.936680 1360.732178
1.960000 4.160000 6.000000 -14.901268 29.175545 1073.260254
1.960000 4.160000 6.040000 -20.629807 20.655388 852.234009
1.960000 4.160000 6.080000 -23.003908 8.277149 597.691040
1.960000 4.160000 6.120000 -17.361271 -5.057537 326.992401
1.960000 4.160000 6.160000 -3.910792 -11.760431 153.602036
1.960000 4.160000 6.200000 9.499252 -6.981371 138.975342
1.960000 4.200000 5.800000 7.919250 34.594109 1259.466797
1.960000 4.200000 5.840000 -16.318165 30.559265 1200.151245
1.960000 4.200000 5.880000 -28.065304 6.224855 826.410095
1.960000 4.200000 5.920000 -14.491180 -17.982914 533.379517
1.960000 4.200000 5.960000 12.631111 -19.988026 559.066162
1.960000 4.200000 6.000000 27.869665 1.111320 777.953308
1.960000 4.200000 6.040000 17.684242 23.776917 878.074158
1.960000 4.200000 6.080000 -6.162151 25.862755 706.854187
1.960000 4.200000 6.120000 -19.241381 6.692940 415.026184
1.960000 4.200000 6.160000 -9.456667 -13.445705 270.215546
1.960000 4.200000 6.200000 11.775949 -14.988645 363.332458
2.000000 3.800000 5.800000 2.030067 -9.573622 95.775406
2.000000 3.800000 5.840000 4.564335 0.886765 21.619505
2.000000 3.800000 5.880000 -2.507641 6.720345 51.451294
2.000000 3.800000 5.920000 -9.266512 1.832649 89.226845
2.000000 3.800000 5.960000 -5.311543 -7.336220 82.032608
2.000000 3.800000 6.000000 8.372726 -7.713726 129.604111
2.000000 3.800000 6.040000 18.900551 6.643333 401.364716
2.000000 3.800000 6.080000 13.707703 27.094391 922.007141
2.000000 3.800000 6.120000 -6.538833 37.584221 1455.329956
2.000000 3.800000 6.160000 -27.659346 29.724905 1648.609375
2.000000 3.800000 6.200000 -34.933044 10.726311 1335.371338
2.000000 3.840000 5.800000 2.320168 5.322784 33.715210
2.000000 3.840000 5.840000 -19.306721 24.995192 997.509033
2.000000 3.840000 5.880000 -54.948975 14.825783 3239.193848
2.000000 3.840000 5.920000 -70.094658 -26.995689 5642.028320
2.000000 3.840000 5.960000 -43.405426 -69.516182 6716.530273
2.000000 3.840000 6.000000 9.656952 -75.878372 5850.784180
2.000000 3.840000 6.040000 48.408718 -38.465908 3823.030273
2.000000 3.840000 6.080000 43.801262 12.883545 2084.536377
2.000000 3.840000 6.120000 4.420780 38.405006 1494.487793
2.000000 3.840000 6.160000 -33.650921 24.305643 1723.148804
2.000000 3.840000 6.200000 -41.825577 -7.982342 1813.096680
2.000000 3.880000 5.800000 -13.949303 14.199654 396.213196
2.000000 3.880000 5.840000 -65.341522 16.778889 4551.045898
2.000000 3.880000 5.880000 -107.843597 -37.391884 13028.394531
2.000000 3.880000 5.920000 -89.409622 -119.798080 22345.660156
2.000000 3.880000 5.960000 -5.463120 -165.444305 27401.664062
2.000000 3.880000 6.000000 89.234436 -131.700195 25307.726562
2.000000 3.880000 6.040000 126.525848 -40.170944 17622.494141
2.000000 3.880000 6.080000 85.470383 41.097977 8994.230469
2.000000 3.880000 6.120000 8.686720 58.456291 3492.596924
2.000000 3.880000 6.160000 -40.207554 17.159184 1911.084961
2.000000 3.880000 6.200000 -34.272942 -31.734779 2181.730713
2.000000 3.920000 5.800000 -34.405453 2.609680 1190.545654
2.000000 3.920000 5.840000 -93.870621 -35.655403 10083.000977
2.000000 3.920000 5.880000 -100.681519 -131.728485 27489.164062
2.000000 3.920000 5.920000 -16.185863 -215.481842 46694.406250
2.000000 3.920000 5.960000 118.472054 -208.868591 57661.718750
2.000000 3.920000 6.000000 209.893005 -100.967262 54249.460938
2.000000 3.920000 6.040000 193.659332 36.079708 38805.683594
2.000000 3.920000 6.080000 91.372986 108.788986 20184.066406
2.000000 3.920000 6.120000 -11.794212 82.926208 7015.859375
2.000000 3.920000 6.160000 -45.463337 5.885473 2101.553711
2.000000 3.920000 6.200000 -11.080433 -46.353371 2271.410889
2.000000 3.960000 5.800000 -37.656181 -26.367455 2113.230713
2.000000 3.960000 5.840000 -68.972504 -101.920845 15145.064453
2.000000 3.960000 5.880000 -13.202190 -199.585358 40008.613281
2.000000 3.960000 5.920000 123.376770 -228.213196 67303.085938
2.000000 3.960000 5.960000 253.288666 -137.609970 83091.656250
2.000000 3.960000 6.000000 279.245972 26.353836 78672.835938
2.000000 3.960000 6.040000 181.559601 154.906525 56959.917969
2.000000 3.960000 6.080000 36.393818 169.483658 30049.220703
2.000000 3.960000 6.120000 -53.114178 86.071091 10229.348633
2.000000 3.960000 6.160000 -45.322678 -8.776864 2131.178467
2.000000 3.960000 6.200000 15.566093 -41.823162 1991.480103
2.000000 4.000000 5.800000 -13.352875 -50.969719 2776.211670
2.000000 4.000000 5.840000 4.041676 -130.521072 17052.085938
2.000000 4.000000 5.880000 105.391708 -180.356750 43635.968750
2.000000 4.000000 5.920000 236.408325 -128.789108 72475.531250
2.000000 4.000000 5.960000 297.786987 19.161945 89044.265625
2.000000 4.000000 6.000000 232.599289 173.973419 84369.179688
2.000000 4.000000 6.040000 80.987328 234.295670 61453.406250
2.000000 4.000000 6.080000 -52.666931 173.231995 32783.128906
2.000000 4.000000 6.120000 -89.562492 56.488617 11212.404297
2.000000 4.000000 6.160000 -37.720200 -22.153584 1913.594727
2.000000 4.000000 6.200000 29.696594 -22.558641 1390.780029
2.000000 4.040000 5.800000 25.388943 -48.499580 2996.807617
2.000000 4.040000 5.840000 77.157059 -94.606003 14903.507812
2.000000 4.040000 5.880000 173.249023 -79.608185 36352.687500
2.000000 4.040000 5.920000 242.250610 21.067089 59129.179688
2.000000 4.040000 5.960000 216.597473 158.075684 71902.390625
2.000000 4.040000 6.000000 96.579796 242.044327 67913.117188
2.000000 4.040000 6.040000 -43.825043 218.513382 49668.730469
2.000000 4.040000 6.080000 -117.779770 113.964203 26859.914062
2.000000 4.040000 6.120000 -96.601746 9.768192 9427.315430
2.000000 4.040000 6.160000 -25.522812 -29.392017 1515.304688
2.000000 4.040000 6.200000 25.813557 -4.261705 684.501831
2.000000 4.080000 5.800000 51.004898 -16.457397 2872.345459
2.000000 4.080000 5.840000 99.355629 -18.301414 10206.482422
2.000000 4.080000 5.880000 146.925079 31.917038 22605.675781
2.000000 4.080000 5.920000 144.679626 119.566238 35228.277344
2.000000 4.080000 5.960000 73.692245 191.051880 41931.367188
2.000000 4.080000 6.000000 -32.539558 195.593475 39315.632812
2.000000 4.080000 6.040000 -111.579903 128.459518 28951.921875
2.000000 4.080000 6.080000 -121.804138 35.466743 16094.137695
2.000000 4.080000 6.120000 -73.478455 -25.511311 6049.910645
2.000000 4.080000 6.160000 -14.377384 -30.151590 1115.827637
2.000000 4.080000 6.200000 13.643223 0.115679 186.150909
2.000000 4.120000 5.800000 45.042389 23.675364 2589.339600
2.000000 4.120000 5.840000 60.817047 43.368065 5579.501953
2.000000 4.120000 5.880000 58.279587 79.799850 9764.526367
2.000000 4.120000 5.920000 26.217972 113.285843 13521.064453
2.000000 4.120000 5.960000 -26.715668 120.310806 15188.416992
2.000000 4.120000 6.000000 -75.476982 91.279488 14028.720703
2.000000 4.120000 6.040000 -95.446106 38.863518 10620.332031
2.000000 4.120000 6.080000 -79.532585 -10.328495 6432.109863
2.000000 4.120000 6.120000 -42.081814 -34.154881 2937.435059
2.000000 4.120000 6.160000 -7.140716 -28.837036 882.564453
2.000000 4.120000 6.200000 8.661308 -8.228210 142.721710
2.000000 4.160000 5.800000 14.296711 44.703350 2202.785400
2.000000 4.160000 5.840000 -0.689262 52.503750 2757.118896
2.000000 4.160000 5.880000 -18.032333 48.870876 2713.527588
2.000000 4.160000 5.920000 -28.832214 37.617516 2246.374023
2.000000 4.160000 5.960000 -32.708668 26.682304 1781.802246
2.000000 4.160000 6.000000 -35.399750 18.165337 1583.121826
2.000000 4.160000 6.040000 -38.992737 7.123108 1571.172119
2.000000 4.160000 6.080000 -37.484444 -9.596703 1497.180176
2.000000 4.160000 6.120000 -23.907734 -25.687487 1231.426758
2.000000 4.160000 6.160000 -1.039672 -29.394756 865.132629
2.000000 4.160000 6.200000 17.618050 -16.058384 568.267334
2.000000 4.200000 5.800000 -16.078217 37.132797 1637.353638
2.000000 4.200000 5.840000 -36.444492 18.399578 1666.745483
2.000000 4.200000 5.880000 -32.893261 -11.900574 1223.590332
2.000000 4.200000 5.920000 -5.757229 -26.556377 738.386902
2.000000 4.200000 5.960000 19.890247 -12.173447 543.814758
2.000000 4.200000 6.000000 19.508904 15.405922 617.939758
2.000000 4.200000 6.040000 -4.869427 26.603506 731.457825
2.000000 4.200000 6.080000 -26.146702 8.898808 762.838806
2.000000 4.200000 6.120000 -20.280926 -19.884106 806.693604
2.000000 4.200000 6.160000 8.647715 -30.126305 982.377197
2.000000 4.200000 6.200000 32.929024 -11.153322 1208.717163
2.040000 3.800000 5.800000 -1.129459 -1.367682 3.146231
2.040000 3.800000 5.840000 -4.103205 4.930885 41.149918
2.040000 3.800000 5.880000 -10.927862 4.142933 136.582062
2.040000 3.800000 5.920000 -12.382473 -3.567207 166.050598
2.040000 3.800000 5.960000 -4.004082 -9.282681 102.200829
2.040000 3.800000 6.000000 8.097466 -3.936907 81.068184
2.040000 3.800000 6.040000 12.017792 11.924583 286.623016
2.040000 3.800000 6.080000 1.291803 27.311775 747.601807
2.040000 3.800000 6.120000 -18.418543 30.216106 1252.255737
2.040000 3.800000 6.160000 -33.923443 18.387280 1488.891968
2.040000 3.800000 6.200000 -36.059624 1.077822 1301.458252
2.040000 3.840000 5.800000 -11.744909 3.394732 149.467102
2.040000 3.840000 5.840000 -35.712410 4.602886 1296.562744
2.040000 3.840000 5.880000 -54.960934 -21.998734 3504.648682
2.040000 3.840000 5.920000 -43.485252 -61.355396 5655.451660
2.040000 3.840000 5.960000 -0.267670 -80.313049 6450.257812
2.040000 3.840000 6.000000 45.444435 -58.401096 5475.884766
2.040000 3.840000 6.040000 58.821457 -8.938660 3539.863525
2.040000 3.840000 6.080000 31.011301 31.414879 1948.595459
2.040000 3.840000 6.120000 -13.302616 35.206863 1416.482788
2.040000 3.840000 6.160000 -39.446068 7.249792 1608.551758
2.040000 3.840000 6.200000 -33.696259 -23.311783 1678.877075
2.040000 3.880000 5.800000 -25.637270 -6.207415 695.801575
2.040000 3.880000 5.840000 -61.875816 -31.424147 4816.093750
2.040000 3.880000 5.880000 -63.456085 -93.268501 12725.688477
2.040000 3.880000 5.920000 -5.821564 -145.172363 21108.906250
2.040000 3.880000 5.960000 82.418777 -136.331207 25379.052734
2.040000 3.880000 6.000000 138.940048 -61.618149 23101.134766
2.040000 3.880000 6.040000 122.525902 29.041214 15855.988281
2.040000 3.880000 6.080000 50.349121 73.295815 7907.310547
2.040000 3.880000 6.120000 -18.813324 50.443989 2898.537109
2.040000 3.880000 6.160000 -38.316738 -5.001953 1493.191895
2.040000 3.880000 6.200000 -11.470940 -40.778778 1794.491211
2.040000 3.920000 5.800000 -26.713297 -29.002335 1554.735596
2.040000 3.920000 5.840000 -48.248116 -86.851662 9871.091797
2.040000 3.920000 5.880000 -2.140247 -160.603683 25798.123047
2.040000 3.920000 5.920000 105.458504 -178.806549 43093.277344
2.040000 3.920000 5.960000 204.708191 -103.697449 52658.605469
2.040000 3.920000 6.000000 219.955811 26.117096 49062.660156
2.040000 3.920000 6.040000 138.726898 123.994232 34619.722656
2.040000 3.920000 6.080000 23.944151 130.054535 17487.503906
2.040000 3.920000 6.120000 -42.992325 60.659447 5527.908203
2.040000 3.920000 6.160000 -32.339546 -13.630312 1231.631592
2.040000 3.920000 6.200000 17.371292 -36.343445 1622.607666
2.040000 3.960000 5.800000 -5.877510 -48.663860 2402.716553
2.040000 3.960000 5.840000 11.254169 -118.718529 14220.745117
2.040000 3.960000 5.880000 103.983582 -160.996826 36732.562500
2.040000 3.960000 5.920000 221.602661 -110.554581 61330.054688
2.040000 3.960000 5.960000 273.261627 25.830946 75339.148438
2.040000 3.960000 6.000000 209.378662 164.535187 70911.250000
2.040000 3.960000 6.040000 70.199333 214.180466 50801.218750
2.040000 3.960000 6.080000 -47.778980 154.394257 26120.417969
2.040000 3.960000 6.120000 -75.747284 48.815376 8120.591797
2.040000 3.960000 6.160000 -26.146751 -17.651072 995.212891
2.040000 3.960000 6.200000 31.965599 -13.346363 1199.924927
2.040000 4.000000 5.800000 27.652882 -46.281456 2906.655029
2.040000 4.000000 5.840000 81.589470 -94.558655 15598.180664
2.040000 4.000000 5.880000 182.890076 -77.791168 39500.246094
2.040000 4.000000 5.920000 254.192978 29.977448 65512.718750
2.040000 4.000000 5.960000 223.843842 174.142822 80431.789062
2.040000 4.000000 6.000000 95.145782 258.863708 76063.140625
2.040000 4.000000 6.040000 -50.494041 229.257080 55108.457031
2.040000 4.000000 6.080000 -122.281677 118.235863 28932.527344
2.040000 4.000000 6.120000 -95.405190 13.654320 9288.590820
2.040000 4.000000 6.160000 -22.584166 -20.391129 925.842651
2.040000 4.000000 6.200000 23.786049 8.297918 634.631592
2.040000 4.040000 5.800000 51.343170 -17.855547 2954.941650
2.040000 4.040000 5.840000 113.106949 -24.559717 13396.361328
2.040000 4.040000 5.880000 176.585327 37.528473 32590.763672
2.040000 4.040000 5.920000 175.340271 149.732819 53164.125000
2.040000 4.040000 5.960000 84.546806 240.227722 64857.523438
2.040000 4.040000 6.000000 -49.546715 242.909332 61459.820312
2.040000 4.040000 6.040000 -144.661407 155.461639 45095.242188
2.040000 4.040000 6.080000 -150.797852 41.077335 24427.339844
2.040000 4.040000 6.120000 -87.858635 -27.225086 8460.344727
2.040000 4.040000 6.160000 -19.825447 -25.813768 1059.398926
2.040000 4.040000 6.200000 5.314873 10.839762 145.748306
2.040000 4.080000 5.800000 47.721596 20.183815 2684.737061
2.040000 4.080000 5.840000 84.470062 44.113258 9081.170898
2.040000 4.080000 5.880000 93.202682 107.098633 20156.857422
2.040000 4.080000 5.920000 44.870014 171.980133 31590.484375
2.040000 4.080000 5.960000 -46.289963 189.040466 37879.058594
2.040000 4.080000 6.000000 -129.361588 138.493408 35914.843750
2.040000 4.080000 6.040000 -156.760742 48.732132 26948.750000
2.040000 4.080000 6.080000 -121.562546 -26.842276 15497.959961
2.040000 4.080000 6.120000 -58.917786 -52.558006 6233.649414
2.040000 4.080000 6.160000 -12.975279 -33.993572 1323.920898
2.040000 4.080000 6.200000 -1.988621 -4.187654 21.491062
2.040000 4.120000 5.800000 19.446421 43.824501 2298.750244
2.040000 4.120000 5.840000 20.940147 67.245880 4960.498047
2.040000 4.120000 5.880000 -1.048317 93.505943 8744.459961
2.040000 4.120000 5.920000 -43.597534 101.376022 12177.842773
2.040000 4.120000 5.960000 -87.409248 78.716362 13836.642578
2.040000 4.120000 6.000000 -109.951828 32.070091 13117.894531
2.040000 4.120000 6.040000 -100.736038 -17.781548 10463.932617
2.040000 4.120000 6.080000 -67.079910 -49.855888 6985.324219
2.040000 4.120000 6.120000 -27.416054 -55.304131 3810.187012
2.040000 4.120000 6.160000 1.100644 -39.989887 1600.402466
2.040000 4.120000 6.200000 11.362751 -17.734278 443.616699
2.040000 4.160000 5.800000 -13.310947 41.247551 1878.541748
2.040000 4.160000 5.840000 -29.473970 40.058300 2473.382324
2.040000 4.160000 5.880000 -42.016354 27.615812 2528.007080
2.040000 4.160000 5.920000 -44.601898 12.084984 2135.376221
2.040000 4.160000 5.960000 -41.449535 1.256577 1719.642944
2.040000 4.160000 6.000000 -39.799118 -6.488251 1626.067261
2.040000 4.160000 6.040000 -38.882881 -18.296322 1846.633789
2.040000 4.160000 6.080000 -29.736149 -34.806213 2095.710938
2.040000 4.160000 6.120000 -7.191221 -45.214096 2096.028076
2.040000 4.160000 6.160000 19.941469 -37.258343 1785.846313
2.040000 4.160000 6.200000 33.934113 -12.064111 1297.066772
2.040000 4.200000 5.800000 -30.665243 21.219166 1390.610107
2.040000 4.200000 5.840000 -38.327969 -3.767517 1483.227417
2.040000 4.200000 5.880000 -20.719601 -26.858273 1150.668701
2.040000 4.200000 5.920000 8.414845 -25.451820 718.604797
2.040000 4.200000 5.960000 21.317301 -1.328423 456.192017
2.040000 4.200000 6.000000 6.180538 19.145161 404.736206
2.040000 4.200000 6.040000 -18.601517 12.547436 503.454559
2.040000 4.200000 6.080000 -22.899040 -15.578840 767.066284
2.040000 4.200000 6.120000 2.782578 -35.189907 1246.072388
2.040000 4.200000 6.160000 35.970364 -23.039412 1824.681641
2.040000 4.200000 6.200000 44.844440 12.299070 2162.291016
2.080000 3.800000 5.800000 -11.308175 -0.326988 127.981743
2.080000 3.800000 5.840000 -13.238209 -0.936821 176.127808
2.080000 3.800000 5.880000 -14.088589 -4.790882 221.440872
2.080000 3.800000 5.920000 -10.321964 -9.279825 192.658112
2.080000 3.800000 5.960000 -2.553299 -9.226022 91.638809
2.080000 3.800000 6.000000 3.787552 -1.905815 17.977680
2.080000 3.800000 6.040000 2.572033 9.544807 97.718704
2.080000 3.800000 6.080000 -7.608150 17.713802 371.662720
2.080000 3.800000 6.120000 -21.598356 16.508703 739.026245
2.080000 3.800000 6.160000 -31.250263 6.031178 1012.954102
2.080000 3.800000 6.200000 -31.526165 -7.485664 1049.934326
2.080000 3.840000 5.800000 -20.013914 -11.880918 541.712952
2.080000 3.840000 5.840000 -30.511003 -23.131371 1465.981689
2.080000 3.840000 5.880000 -27.378803 -46.815445 2941.284668
2.080000 3.840000 5.920000 -1.753395 -64.837357 4206.957031
2.080000 3.840000 5.960000 34.368896 -57.586235 4497.395508
2.080000 3.840000 6.000000 55.646111 -23.791363 3662.518555
2.080000 3.840000 6.040000 45.364460 15.382492 2294.555420
2.080000 3.840000 6.080000 11.014883 33.360363 1234.241455
2.080000 3.840000 6.120000 -21.849773 20.719191 906.697449
2.080000 3.840000 6.160000 -31.788061 -7.998619 1074.458740
2.080000 3.840000 6.200000 -18.542477 -28.983788 1183.883301
2.080000 3.880000 5.800000 -16.269573 -31.625237 1264.854614
2.080000 3.880000 5.840000 -22.271509 -61.654869 4297.343262
2.080000 3.880000 5.880000 6.619225 -97.805161 9609.664062
2.080000 3.880000 5.920000 66.230537 -102.701897 14934.164062
2.080000 3.880000 5.960000 118.603989 -57.280128 17347.919922
2.080000 3.880000 6.000000 123.164322 16.228668 15432.820312
2.080000 3.880000 6.040000 74.231796 69.739502 10373.957031
2.080000 3.880000 6.080000 7.716560 70.342827 5007.658691
2.080000 3.880000 6.120000 -30.247746 27.832443 1689.571045
2.080000 3.880000 6.160000 -22.617207 -17.249474 809.082397
2.080000 3.880000 6.200000 8.639062 -31.880686 1091.011475
2.080000 3.920000 5.800000 5.032082 -45.477715 2093.544189
2.080000 3.920000 5.840000 20.776976 -86.741760 7955.815430
2.080000 3.920000 5.880000 82.983826 -108.404892 18637.935547
2.080000 3.920000 5.920000 158.182877 -69.709290 29881.207031
2.080000 3.920000 5.960000 187.562866 23.125969 35714.636719
2.080000 3.920000 6.000000 140.378937 114.133430 32732.687500
2.080000 3.920000 6.040000 45.303173 143.607681 22675.542969
2.080000 3.920000 6.080000 -32.734253 99.996078 11070.747070
2.080000 3.920000 6.120000 -48.725113 27.557011 3133.525635
2.080000 3.920000 6.160000 -12.807026 -16.437048 434.196472
2.080000 3.920000 6.200000 27.324575 -11.766647 885.086426
2.080000 3.960000 5.800000 34.176659 -39.157223 2701.332031
2.080000 3.960000 5.840000 76.472778 -70.426353 10807.957031
2.080000 3.960000 5.880000 152.148682 -52.179810 25871.953125
2.080000 3.960000 5.920000 202.234497 33.883965 42046.914062
2.080000 3.960000 5.960000 173.342468 144.392548 50896.820312
2.080000 3.960000 6.000000 70.697403 205.766876 47338.128906
2.080000 3.960000 6.040000 -41.075665 178.130203 33417.578125
2.080000 3.960000 6.080000 -92.661072 90.140228 16711.335938
2.080000 3.960000 6.120000 -68.102028 11.093754 4760.957520
2.080000 3.960000 6.160000 -11.271313 -11.282177 254.330002
2.080000 3.960000 6.200000 21.607834 13.281096 643.286011
2.080000 4.000000 5.800000 52.143757 -11.740103 2856.801514
2.080000 4.000000 5.840000 105.694336 -14.675543 11386.664062
2.080000 4.000000 5.880000 159.631393 43.125408 27341.982422
2.080000 4.000000 5.920000 154.418854 143.959991 44569.660156
2.080000 4.000000 5.960000 69.418083 222.278839 54226.753906
2.080000 4.000000 6.000000 -51.146935 219.756653 50908.996094
2.080000 4.000000 6.040000 -132.487885 137.877884 36563.351562
2.080000 4.000000 6.080000 -132.561951 36.635765 18914.849609
2.080000 4.000000 6.120000 -74.068237 -19.038086 5848.552734
2.080000 4.000000 6.160000 -16.740829 -12.721848 442.100800
2.080000 4.000000 6.200000 -0.646513 19.801601 392.521393
2.080000 4.040000 5.800000 45.925449 21.495943 2571.222656
2.080000 4.040000 5.840000 85.782112 46.049713 9479.146484
2.080000 4.040000 5.880000 95.859528 114.318130 22257.683594
2.080000 4.040000 5.920000 42.790314 184.709625 35948.656250
2.080000 4.040000 5.960000 -56.678829 201.174530 43683.679688
2.080000 4.040000 6.000000 -144.235748 143.290405 41336.093750
2.080000 4.040000 6.040000 -168.045593 46.095295 30364.097656
2.080000 4.040000 6.080000 -125.192787 -29.854616 16564.533203
2.080000 4.040000 6.120000 -59.222858 -49.092712 5917.441406
2.080000 4.040000 6.160000 -18.030987 -24.864208 943.345337
2.080000 4.040000 6.200000 -14.674852 2.838369 223.407623
2.080000 4.080000 5.800000 19.619219 40.812164 2050.546631
2.080000 4.080000 5.840000 31.125702 72.666885 6249.285156
2.080000 4.080000 5.880000 6.707253 116.487640 13614.357422
2.080000 4.080000 5.920000 -54.637798 135.128204 21244.919922
2.080000 4.080000 5.960000 -121.012497 104.194756 25500.570312
2.080000 4.080000 6.000000 -152.138702 34.746952 24353.537109
2.080000 4.080000 6.040000 -131.903702 -34.870972 18614.570312
2.080000 4.080000 6.080000 -79.285194 -69.968521 11181.736328
2.080000 4.080000 6.120000 -29.499336 -64.491821 5029.405762
2.080000 4.080000 6.160000 -5.115648 -39.072922 1552.863037
2.080000 4.080000 6.200000 -3.552704 -18.205730 344.070312
2.080000 4.120000 5.800000 -9.389155 37.793324 1516.491577
2.080000 4.120000 5.840000 -19.532717 54.032143 3300.999512
2.080000 4.120000 5.880000 -46.821770 60.482399 5850.398438
2.080000 4.120000 5.920000 -78.259567 45.000114 8149.570312
2.080000 4.120000 5.960000 -95.983055 9.966667 9312.081055
2.080000 4.120000 6.000000 -90.125931 -30.092213 9028.224609
2.080000 4.120000 6.040000 -64.002663 -59.182945 7598.961914
2.080000 4.120000 6.080000 -29.494905 -68.973877 5627.344727
2.080000 4.120000 6.120000 1.046526 -60.566475 3669.393066
2.080000 4.120000 6.160000 19.790476 -40.843414 2059.847412
2.080000 4.120000 6.200000 24.245121 -18.502947 930.184937
2.080000 4.160000 5.800000 -25.532501 20.555733 1074.446777
2.080000 4.160000 5.840000 -36.875610 13.330303 1537.507690
2.080000 4.160000 5.880000 -40.667480 -1.467468 1655.997437
2.080000 4.160000 5.920000 -35.117310 -14.113838 1432.425903
2.080000 4.160000 5.960000 -27.624046 -20.004738 1163.277466
2.080000 4.160000 6.000000 -23.780113 -24.478462 1164.688965
2.080000 4.160000 6.040000 -18.961044 -34.033318 1517.787964
2.080000 4.160000 6.080000 -3.934444 -44.850433 2027.041260
2.080000 4.160000 6.120000 21.287941 -43.854485 2376.392334
2.080000 4.160000 6.160000 42.358154 -23.248920 2334.725586
2.080000 4.160000 6.200000 42.679867 7.444849 1876.996826
2.080000 4.200000 5.800000 -26.900158 4.100442 740.432068
2.080000 4.200000 5.840000 -23.210121 -16.309454 804.708008
2.080000 4.200000 5.880000 -1.865784 -25.627251 660.237122
2.080000 4.200000 5.920000 17.652925 -12.728230 473.633606
2.080000 4.200000 5.960000 15.773098 8.994583 329.693146
2.080000 4.200000 6.000000 -3.916462 14.848291 235.810425
2.080000 4.200000 6.040000 -16.448071 -3.264160 281.193787
2.080000 4.200000 6.080000 -2.374708 -25.611425 661.584351
2.080000 4.200000 6.120000 29.197252 -24.344061 1445.112793
2.080000 4.200000 6.160000 47.876839 5.939845 2327.473389
2.080000 4.200000 6.200000 33.373394 40.261433 2734.766357
2.120000 3.800000 5.800000 -18.990295 -9.768741 456.059601
2.120000 3.800000 5.840000 -14.142696 -12.832441 364.687408
2.120000 3.800000 5.880000 -9.387985 -13.009789 257.388885
2.120000 3.800000 5.920000 -5.788254 -11.575300 167.491455
2.120000 3.800000 5.960000 -2.960732 -9.318478 95.599953
2.120000 3.800000 6.000000 -0.778236 -5.643879 32.459023
2.120000 3.800000 6.040000 -0.867999 -0.076248 0.759236
2.120000 3.800000 6.080000 -5.490089 5.397682 59.276054
2.120000 3.800000 6.120000 -14.281625 6.478188 245.931732
2.120000 3.800000 6.160000 -22.603771 0.171168 510.959778
2.120000 3.800000 6.200000 -24.306396 -11.362253 719.901733
2.120000 3.840000 5.800000 -12.566565 -30.447985 1084.998291
2.120000 3.840000 5.840000 -6.083635 -37.681770 1456.926392
2.120000 3.840000 5.880000 6.904186 -43.133598 1908.175171
2.120000 3.840000 5.920000 24.975857 -39.643730 2195.418701
2.120000 3.840000 5.960000 39.420944 -23.258434 2094.965576
2.120000 3.840000 6.000000 39.967545 0.689724 1597.880371
2.120000 3.840000 6.040000 23.929138 19.360260 947.423340
2.120000 3.840000 6.080000 0.104092 21.718470 471.702759
2.120000 3.840000 6.120000 -17.001120 7.517431 345.549835
2.120000 3.840000 6.160000 -18.180164 -12.291032 481.587830
2.120000 3.840000 6.200000 -6.162879 -24.421623 634.396790
2.120000 3.880000 5.800000 11.257912 -42.256031 1912.312744
2.120000 3.880000 5.840000 25.075615 -52.198952 3353.516846
2.120000 3.880000 5.880000 52.201469 -52.552101 5486.716797
2.120000 3.880000 5.920000 80.464661 -30.331165 7394.541016
2.120000 3.880000 5.960000 88.662247 11.096706 7984.130859
2.120000 3.880000 6.000000 65.616768 49.981339 6803.694336
2.120000 3.880000 6.040000 22.728371 62.494648 4422.160156
2.120000 3.880000 6.080000 -13.409473 43.012718 2029.907837
2.120000 3.880000 6.120000 -22.558605 9.022655 590.298950
2.120000 3.880000 6.160000 -6.632791 -14.333949 249.456009
2.120000 3.880000 6.200000 14.743785 -15.309429 451.757812
2.120000 3.920000 5.800000 40.089775 -32.092808 2637.138428
2.120000 3.920000 5.840000 63.803898 -37.256054 5458.951172
2.120000 3.920000 5.880000 98.299545 -19.063225 10026.207031
2.120000 3.920000 5.920000 116.831985 28.966450 14488.768555
2.120000 3.920000 5.960000 95.752861 85.097336 16410.167969
2.120000 3.920000 6.000000 39.369877 113.917542 14527.193359
2.120000 3.920000 6.040000 -19.535664 96.823181 9756.371094
2.120000 3.920000 6.080000 -46.185257 49.101120 4543.998047
2.120000 3.920000 6.120000 -32.629982 6.484731 1106.767456
2.120000 3.920000 6.160000 -1.588919 -5.981812 38.306744
2.120000 3.920000 6.200000 17.210701 7.195565 347.984375
2.120000 3.960000 5.800000 54.176483 -2.229379 2940.061523
2.120000 3.960000 5.840000 82.267105 5.452551 6797.606934
2.120000 3.960000 5.880000 106.581558 45.158730 13398.939453
2.120000 3.960000 5.920000 95.117821 105.244827 20123.873047
2.120000 3.960000 5.960000 38.644493 147.914505 23372.097656
2.120000 3.960000 6.000000 -35.108379 141.066315 21132.302734
2.120000 3.960000 6.040000 -82.153976 88.215591 14531.266602
2.120000 3.960000 6.080000 -79.447662 26.576853 7018.260254
2.120000 3.960000 6.120000 -42.802734 -5.512236 1862.458862
2.120000 3.960000 6.160000 -9.002596 -0.094213 81.055603
2.120000 3.960000 6.200000 -1.219659 19.499834 381.731110
2.120000 4.000000 5.800000 42.897903 29.286720 2697.942139
2.120000 4.000000 5.840000 64.142860 50.628395 6677.541016
2.120000 4.000000 5.880000 63.689728 98.418053 13742.494141
2.120000 4.000000 5.920000 20.667135 143.773682 21098.001953
2.120000 4.000000 5.960000 -51.096130 149.219925 24877.400391
2.120000 4.000000 6.000000 -110.247009 103.492538 22865.109375
2.120000 4.000000 6.040000 -122.440033 33.895882 16140.492188
2.120000 4.000000 6.080000 -89.267014 -16.780819 8250.195312
2.120000 4.000000 6.120000 -43.880222 -26.469334 2626.099609
2.120000 4.000000 6.160000 -19.091454 -8.392941 434.925079
2.120000 4.000000 6.200000 -20.188011 7.787124 468.195068
2.120000 4.040000 5.800000 14.383004 43.018593 2057.470215
2.120000 4.040000 5.840000 20.353720 69.217377 5205.319336
2.120000 4.040000 5.880000 -3.345449 104.235878 10876.310547
2.120000 4.040000 5.920000 -57.025665 116.443481 16811.009766
2.120000 4.040000 5.960000 -112.208420 85.978844 19983.089844
2.120000 4.040000 6.000000 -134.415466 24.842239 18684.654297
2.120000 4.040000 6.040000 -112.582008 -32.041985 13701.397461
2.120000 4.040000 6.080000 -67.015823 -56.232403 7653.203613
2.120000 4.040000 6.120000 -29.339811 -47.263367 3094.650391
2.120000 4.040000 6.160000 -15.385368 -27.102913 971.277466
2.120000 4.040000 6.200000 -16.938854 -16.118698 546.737183
2.120000 4.080000 5.800000 -11.677271 34.317780 1314.068604
2.120000 4.080000 5.840000 -19.699211 52.905281 3187.027588
2.120000 4.080000 5.880000 -49.392944 63.265266 6442.156738
2.120000 4.080000 5.920000 -86.675453 47.394360 9758.859375
2.120000 4.080000 5.960000 -107.360077 6.386002 11566.967773
2.120000 4.080000 6.000000 -97.490433 -39.534058 11067.326172
2.120000 4.080000 6.040000 -64.014488 -67.700844 8681.258789
2.120000 4.080000 6.080000 -26.949963 -70.054962 5633.998047
2.120000 4.080000 6.120000 -2.347527 -55.499035 3085.653809
2.120000 4.080000 6.160000 7.408697 -38.187412 1513.167236
2.120000 4.080000 6.200000 9.213992 -25.391624 729.632263
2.120000 4.120000 5.800000 -21.579794 15.630261 709.992554
2.120000 4.120000 5.840000 -33.568405 19.568649 1509.769775
2.120000 4.120000 5.880000 -50.113262 11.040396 2633.229492
2.120000 4.120000 5.920000 -59.282772 -9.802177 3610.529785
2.120000 4.120000 5.960000 -54.375519 -33.945194 4108.973145
2.120000 4.120000 6.000000 -37.573677 -51.787548 4093.731445
2.120000 4.120000 6.040000 -15.488823 -59.178696 3742.021484
2.120000 4.120000 6.080000 6.458309 -56.521950 3236.440430
2.120000 4.120000 6.120000 24.766275 -45.037483 2641.743164
2.120000 4.120000 6.160000 35.434761 -26.372303 1951.120605
2.120000 4.120000 6.200000 34.323307 -5.495585 1208.290771
2.120000 4.160000 5.800000 -18.283024 2.926627 342.834106
2.120000 4.160000 5.840000 -23.168320 -5.180550 563.609131
2.120000 4.160000 5.880000 -19.901903 -15.713305 642.993713
2.120000 4.160000 5.920000 -11.368919 -20.702448 557.843689
2.120000 4.160000 5.960000 -5.304897 -20.383633 443.634430
2.120000 4.160000 6.000000 -3.134960 -22.040415 495.607849
2.120000 4.160000 6.040000 2.795044 -28.747789 834.247681
2.120000 4.160000 6.080000 18.908108 -32.379639 1405.957520
2.120000 4.160000 6.120000 39.022312 -21.246140 1974.139282
2.120000 4.160000 6.160000 46.954048 4.846880 2228.174805
2.120000 4.160000 6.200000 32.821831 29.962700 1975.035889
2.120000 4.200000 5.800000 -15.114908 0.241674 228.518860
2.120000 4.200000 5.840000 -7.977740 -11.212212 189.358032
2.120000 4.200000 5.880000 7.109184 -10.332827 157.307800
2.120000 4.200000 5.920000 13.577198 3.490332 196.522720
2.120000 4.200000 5.960000 3.950447 14.328382 220.908585
2.120000 4.200000 6.000000 -9.304230 8.029255 151.037628
2.120000 4.200000 6.040000 -6.634659 -9.382484 132.049713
2.120000 4.200000 6.080000 15.181658 -15.750069 478.547394
2.120000 4.200000 6.120000 36.087658 3.000343 1311.321167
2.120000 4.200000 6.160000 32.373894 34.886604 2265.144043
2.120000 4.200000 6.200000 2.914062 51.602970 2671.358154
2.160000 3.800000 5.800000 -16.256241 -23.158209 800.567993
2.160000 3.800000 5.840000 -5.722862 -21.411358 491.197418
2.160000 3.800000 5.880000 -1.478739 -15.094040 230.016724
2.160000 3.800000 5.920000 -2.803303 -11.406012 137.955612
2.160000 3.800000 5.960000 -3.424242 -12.515446 168.361816
2.160000 3.800000 6.000000 0.716519 -13.473599 182.051285
2.160000 3.800000 6.040000 6.107211 -8.509931 109.716949
2.160000 3.800000 6.080000 5.181269 1.131003 28.124714
2.160000 3.800000 6.120000 -4.576327 6.980685 69.672737
2.160000 3.800000 6.160000 -16.153435 1.898617 264.538177
2.160000 3.800000 6.200000 -18.847380 -11.520188 487.938477
2.160000 3.840000 5.800000 7.328835 -37.729958 1477.261475
2.160000 3.840000 5.840000 19.044312 -29.618164 1239.921387
2.160000 3.840000 5.880000 23.326471 -19.132336 910.170532
2.160000 3.840000 5.920000 22.980530 -11.036095 649.900146
2.160000 3.840000 5.960000 21.851154 -4.991062 502.383636
2.160000 3.840000 6.000000 19.917326 1.691160 399.559875
2.160000 3.840000 6.040000 14.004515 8.622202 270.468811
2.160000 3.840000 6.080000 3.305410 11.063518 133.327164
2.160000 3.840000 6.120000 -7.096221 4.928448 74.645950
2.160000 3.840000 6.160000 -9.626462 -7.315140 146.180054
2.160000 3.840000 6.200000 -1.719697 -17.049059 293.627777
2.160000 3.880000 5.800000 37.988102 -28.704344 2267.035156
2.160000 3.880000 5.840000 46.376408 -14.040173 2347.897705
2.160000 3.880000 5.880000 47.353889 1.540716 2244.764648
2.160000 3.880000 5.920000 42.459610 15.394122 2039.797485
2.160000 3.880000 5.960000 32.691769 26.187244 1754.523438
2.160000 3.880000 6.000000 18.821356 31.798079 1365.361206
2.160000 3.880000 6.040000 3.729473 29.521093 885.403931
2.160000 3.880000 6.080000 -7.026650 19.162376 416.570465
2.160000 3.880000 6.120000 -8.545092 5.419084 102.385056
2.160000 3.880000 6.160000 -1.088498 -4.162527 18.511456
2.160000 3.880000 6.200000 9.184820 -4.797886 107.380630
2.160000 3.920000 5.800000 53.306198 2.685601 2848.763184
2.160000 3.920000 5.840000 54.465660 20.712786 3395.527588
2.160000 3.920000 5.880000 47.934574 38.846855 3806.801514
2.160000 3.920000 5.920000 33.086918 53.430191 3949.529541
2.160000 3.920000 5.960000 11.865618 59.357273 3664.078857
2.160000 3.920000 6.000000 -9.504367 53.085629 2908.416992
2.160000 3.920000 6.040000 -22.797398 36.672276 1864.577148
2.160000 3.920000 6.080000 -23.391674 18.116016 875.360474
2.160000 3.920000 6.120000 -14.181713 6.363853 241.619614
2.160000 3.920000 6.160000 -3.498859 4.795443 35.238281
2.160000 3.920000 6.200000 1.662056 9.305969 89.363495
2.160000 3.960000 5.800000 40.201061 36.254456 2930.510742
2.160000 3.960000 5.840000 33.404366 52.337708 3855.087402
2.160000 3.960000 5.880000 18.148964 67.015121 4820.411133
2.160000 3.960000 5.920000 -5.640659 73.539909 5439.935059
2.160000 3.960000 5.960000 -31.258089 65.776878 5303.666016
2.160000 3.960000 6.000000 -47.911774 44.854401 4307.455078
2.160000 3.960000 6.040000 -48.820946 20.467243 2802.392822
2.160000 3.960000 6.080000 -37.101929 4.197637 1394.173218
2.160000 3.960000 6.120000 -23.200596 0.540427 538.559692
2.160000 3.960000 6.160000 -15.830455 4.302118 269.111511
2.160000 3.960000 6.200000 -15.173901 6.872934 277.484467
2.160000 4.000000 5.800000 7.683863 48.906876 2450.924316
2.160000 4.000000 5.840000 -3.921063 58.709393 3462.167480
2.160000 4.000000 5.880000 -23.797960 64.259094 4695.573730
2.160000 4.000000 5.920000 -48.057114 57.559410 5622.571777
2.160000 4.000000 5.960000 -65.935928 36.612228 5688.001953
2.160000 4.000000 6.000000 -68.220123 9.543887 4745.071289
2.160000 4.000000 6.040000 -55.613743 -10.923006 3212.200439
2.160000 4.000000 6.080000 -38.232162 -17.851385 1780.370117
2.160000 4.000000 6.120000 -26.468899 -14.984848 925.148254
2.160000 4.000000 6.160000 -22.328379 -11.440380 629.438782
2.160000 4.000000 6.200000 -19.863668 -11.969698 537.838989
2.160000 4.040000 5.800000 -20.296228 34.832024 1625.206787
2.160000 4.040000 5.840000 -31.834393 37.493134 2419.163574
2.160000 4.040000 5.880000 -48.983776 33.022503 3489.895996
2.160000 4.040000 5.920000 -63.855766 16.656292 4354.990723
2.160000 4.040000 5.960000 -66.953316 -7.223606 4534.927246
2.160000 4.040000 6.000000 -56.102402 -27.822300 3921.559814
2.160000 4.040000 6.040000 -38.452705 -37.164230 2859.790527
2.160000 4.040000 6.080000 -23.560076 -36.241554 1868.527344
2.160000 4.040000 6.120000 -15.030390 -32.082298 1255.186401
2.160000 4.040000 6.160000 -9.331737 -29.487537 956.596130
2.160000 4.040000 6.200000 -2.258492 -26.730717 719.631958
2.160000 4.080000 5.800000 -26.381401 10.109468 798.179688
2.160000 4.080000 5.840000 -34.434013 7.905918 1248.204834
2.160000 4.080000 5.880000 -43.253372 -1.922379 1874.549805
2.160000 4.080000 5.920000 -45.278698 -18.080078 2377.049561
2.160000 4.080000 5.960000 -37.495975 -33.357098 2518.644043
2.160000 4.080000 6.000000 -23.919409 -41.579689 2301.008545
2.160000 4.080000 6.040000 -10.765311 -42.617859 1932.173828
2.160000 4.080000 6.080000 -0.436535 -40.275570 1622.312134
2.160000 4.080000 6.120000 8.789896 -36.539253 1412.379395
2.160000 4.080000 6.160000 17.805737 -29.505331 1187.608887
2.160000 4.080000 6.200000 23.294226 -17.466171 847.688110
2.160000 4.120000 5.800000 -14.907562 -3.579881 235.050964
2.160000 4.120000 5.840000 -18.764074 -7.896458 414.444519
2.160000 4.120000 5.880000 -18.770021 -16.430761 622.283569
2.160000 4.120000 5.920000 -13.109962 -23.954433 745.685974
2.160000 4.120000 5.960000 -5.320387 -27.169376 766.481506
2.160000 4.120000 6.000000 1.209023 -27.923105 781.161560
2.160000 4.120000 6.040000 7.837122 -29.087723 907.516113
2.160000 4.120000 6.080000 17.983534 -28.828869 1154.511230
2.160000 4.120000 6.120000 30.300194 -21.484604 1379.689941
2.160000 4.120000 6.160000 36.922695 -5.186443 1390.184570
2.160000 4.120000 6.200000 30.676935 12.876712 1106.884033
2.160000 4.160000 5.800000 -5.407365 -0.114468 29.252699
2.160000 4.160000 5.840000 -5.415622 -5.312650 57.553211
2.160000 4.160000 5.880000 -0.244284 -8.319668 69.276550
2.160000 4.160000 5.920000 4.370419 -6.062216 55.851021
2.160000 4.160000 5.960000 3.965452 -3.406561 27.329468
2.160000 4.160000 6.000000 2.573229 -6.426565 47.922245
2.160000 4.160000 6.040000 8.556139 -12.640834 232.998199
2.160000 4.160000 6.080000 22.922668 -11.322680 653.651794
2.160000 4.160000 6.120000 34.497078 4.393395 1209.350220
2.160000 4.160000 6.160000 29.850391 26.946997 1617.186523
2.160000 4.160000 6.200000 8.598730 38.979916 1593.371948
2.160000 4.200000 5.800000 -11.098582 6.437667 164.622086
2.160000 4.200000 5.840000 -6.496225 0.943040 43.090267
2.160000 4.200000 5.880000 -0.269767 3.985627 15.957994
2.160000 4.200000 5.920000 -1.968052 10.912836 122.963219
2.160000 4.200000 5.960000 -10.065473 10.525499 212.099869
2.160000 4.200000 6.000000 -12.220634 0.254658 149.408752
2.160000 4.200000 6.040000 -0.396762 -7.866093 62.032837
2.160000 4.200000 6.080000 16.651770 0.389564 277.433197
2.160000 4.200000 6.120000 19.945492 23.464813 948.420105
2.160000 4.200000 6.160000 0.912371 41.929535 1758.918335
2.160000 4.200000 6.200000 -26.627871 37.290695 2099.639404
2.200000 3.800000 5.800000 -4.480030 -30.520813 951.590698
2.200000 3.800000 5.840000 4.871558 -21.392685 481.379059
2.200000 3.800000 5.880000 3.386377 -12.748367 173.988419
2.200000 3.800000 5.920000 -1.455115 -12.766006 165.088272
2.200000 3.800000 5.960000 0.571999 -18.174059 330.623596
2.200000 3.800000 6.000000 10.524000 -18.131212 439.495422
2.200000 3.800000 6.040000 18.321344 -6.901162 383.297699
2.200000 3.800000 6.080000 13.505997 8.429913 253.475372
2.200000 3.800000 6.120000 -2.546041 14.208673 208.368698
2.200000 3.800000 6.160000 -16.478594 4.432435 291.190552
2.200000 3.800000 6.200000 -15.767336 -12.158523 396.438538
2.200000 3.840000 5.800000 25.415714 -28.537556 1460.350586
2.200000 3.840000 5.840000 27.439669 -9.160522 836.850586
2.200000 3.840000 5.880000 16.173607 1.372870 263.470337
2.200000 3.840000 5.920000 5.818629 -2.067872 38.132538
2.200000 3.840000 5.960000 6.899997 -10.024236 148.095245
2.200000 3.840000 6.000000 15.768776 -9.599425 340.803253
2.200000 3.840000 6.040000 19.544096 1.259071 383.556946
2.200000 3.840000 6.080000 10.929234 11.688709 256.074066
2.200000 3.840000 6.120000 -3.322136 10.112314 113.295486
2.200000 3.840000 6.160000 -9.421479 -2.709718 96.106850
2.200000 3.840000 6.200000 -1.383946 -13.980329 197.364899
2.200000 3.880000 5.800000 45.132450 -1.568510 2039.398315
2.200000 3.880000 5.840000 32.307632 19.859552 1438.184937
2.200000 3.880000 5.880000 10.952544 23.105808 653.836548
2.200000 3.880000 5.920000 -1.006288 10.763466 116.864807
2.200000 3.880000 5.960000 3.067046 -1.593481 11.945954
2.200000 3.880000 6.000000 13.717353 -1.533830 190.518402
2.200000 3.880000 6.040000 16.759172 8.623270 355.230652
2.200000 3.880000 6.080000 8.205931 16.106255 326.748718
2.200000 3.880000 6.120000 -2.701200 12.252331 157.416092
2.200000 3.880000 6.160000 -4.587241 1.423961 23.070446
2.200000 3.880000 6.200000 3.647480 -4.582087 34.299633
2.200000 3.920000 5.800000 36.892662 33.156982 2460.454102
2.200000 3.920000 5.840000 10.821398 44.265152 2076.506348
2.200000 3.920000 5.880000 -12.675876 33.112961 1257.145996
2.200000 3.920000 5.920000 -17.920656 11.497849 453.350464
2.200000 3.920000 5.960000 -5.931500 -1.962137 39.032681
2.200000 3.920000 6.000000 8.259338 1.297295 69.899643
2.200000 3.920000 6.040000 10.798639 13.693797 304.130676
2.200000 3.920000 6.080000 1.271017 20.959156 440.901703
2.200000 3.920000 6.120000 -9.276464 16.480637 357.664185
2.200000 3.920000 6.160000 -10.845728 6.185100 155.885269
2.200000 3.920000 6.200000 -3.915046 0.576632 15.660089
2.200000 3.960000 5.800000 4.671725 49.767418 2498.620850
2.200000 3.960000 5.840000 -23.392532 43.330112 2424.709229
2.200000 3.960000 5.880000 -37.352196 19.446674 1773.359619
2.200000 3.960000 5.920000 -29.463800 -4.162924 885.445496
2.200000 3.960000 5.960000 -9.385765 -11.261901 214.923004
2.200000 3.960000 6.000000 4.907487 -0.510346 24.343880
2.200000 3.960000 6.040000 2.945265 14.922588 231.358231
2.200000 3.960000 6.080000 -10.456356 20.296638 521.288879
2.200000 3.960000 6.120000 -21.603716 12.047396 611.860291
2.200000 3.960000 6.160000 -21.125536 -1.038714 447.367188
2.200000 3.960000 6.200000 -11.241590 -7.581693 183.855423
2.200000 4.000000 5.800000 -27.398510 36.468021 2080.594971
2.200000 4.000000 5.840000 -44.464943 16.607807 2252.950439
2.200000 4.000000 5.880000 -42.351437 -9.487106 1883.649414
2.200000 4.000000 5.920000 -23.020138 -24.589977 1134.593750
2.200000 4.000000 5.960000 -1.689306 -19.876560 397.931396
2.200000 4.000000 6.000000 5.731740 -2.359682 38.420940
2.200000 4.000000 6.040000 -4.142347 11.445269 148.153214
2.200000 4.000000 6.080000 -20.162622 9.902955 504.599854
2.200000 4.000000 6.120000 -27.268721 -4.404194 762.980042
2.200000 4.000000 6.160000 -19.607553 -18.312756 719.813171
2.200000 4.000000 6.200000 -4.398270 -20.392363 435.193237
2.200000 4.040000 5.800000 -36.131664 6.717595 1350.623291
2.200000 4.040000 5.840000 -37.433228 -14.317698 1606.243042
2.200000 4.040000 5.880000 -23.169228 -30.971579 1496.051758
2.200000 4.040000 5.920000 -1.899256 -32.006721 1028.037354
2.200000 4.040000 5.960000 11.387472 -17.624149 440.285156
2.200000 4.040000 6.000000 7.798019 -0.456675 61.017654
2.200000 4.040000 6.040000 -7.388178 4.832994 77.942993
2.200000 4.040000 6.080000 -19.183485 -5.626922 399.668335
2.200000 4.040000 6.120000 -16.234652 -21.666771 733.012878
2.200000 4.040000 6.160000 -0.734059 -28.544559 815.330688
2.200000 4.040000 6.200000 14.189236 -20.164209 607.929749
2.200000 4.080000 5.800000 -20.484213 -13.373794 598.461304
2.200000 4.080000 5.840000 -12.274362 -25.391983 795.412781
2.200000 4.080000 5.880000 3.317792 -28.698139 834.590942
2.200000 4.080000 5.920000 16.492235 -19.441654 649.971741
2.200000 4.080000 5.960000 17.469128 -4.195739 322.774628
2.200000 4.080000 6.000000 6.229370 4.321047 57.476501
2.200000 4.080000 6.040000 -6.058953 -1.230470 38.224972
2.200000 4.080000 6.080000 -6.790717 -15.210678 277.478577
2.200000 4.080000 6.120000 6.005410 -23.640285 594.928040
2.200000 4.080000 6.160000 21.387699 -17.333946 757.899414
2.200000 4.080000 6.200000 25.766808 -0.656592 664.359436
2.200000 4.120000 5.800000 -1.547069 -10.140860 105.230453
2.200000 4.120000 5.840000 5.941851 -12.699527 196.583572
2.200000 4.120000 5.880000 14.458609 -8.274336 277.515991
2.200000 4.120000 5.920000 16.600000 1.909481 279.206116
2.200000 4.120000 5.960000 9.334124 9.493958 177.261108
2.200000 4.120000 6.000000 -0.799798 6.772340 46.504265
2.200000 4.120000 6.040000 -2.791668 -4.221135 25.611391
2.200000 4.120000 6.080000 7.413734 -11.991347 198.755859
2.200000 4.120000 6.120000 21.336567 -6.591859 498.701691
2.200000 4.120000 6.160000 25.382845 9.585615 736.172852
2.200000 4.120000 6.200000 14.472045 23.195713 747.481140
2.200000 4.160000 5.800000 -0.633709 4.893260 24.345579
2.200000 4.160000 5.840000 1.824304 4.584303 24.343916
2.200000 4.160000 5.880000 3.441940 8.398756 82.386055
2.200000 4.160000 5.920000 -0.413370 12.729029 162.199036
2.200000 4.160000 5.960000 -7.541502 10.812163 173.777130
2.200000 4.160000 6.000000 -9.373534 1.856211 91.308662
2.200000 4.160000 6.040000 -0.635524 -5.386778 29.421267
2.200000 4.160000 6.080000 12.525639 -0.767590 157.480804
2.200000 4.160000 6.120000 16.681093 15.205621 509.469788
2.200000 4.160000 6.160000 4.956803 29.422064 890.227722
2.200000 4.160000 6.200000 -14.212719 28.429605 1010.243896
2.200000 4.200000 5.800000 -17.228848 7.903307 359.295441
2.200000 4.200000 5.840000 -15.330234 4.311419 253.604401
2.200000 4.200000 5.880000 -14.560760 4.723846 234.330475
2.200000 4.200000 5.920000 -17.590685 3.711228 323.205414
2.200000 4.200000 5.960000 -19.026272 -2.884122 370.317169
2.200000 4.200000 6.000000 -12.030455 -10.141978 247.591568
2.200000 4.200000 6.040000 0.973892 -7.821116 62.118328
2.200000 4.200000 6.080000 7.539258 6.956966 105.239784
2.200000 4.200000 6.120000 -2.236792 23.012371 534.572449
2.200000 4.200000 6.160000 -22.917137 24.412888 1121.184326
2.200000 4.200000 6.200000 -36.447021 7.595507 1386.077148
