#kx 	ky 	kz 	real 	imag 	intensity
2.800000 -5.200000 6.800000 -39.362671 -4.244767 1567.437866
2.800000 -5.200000 6.840000 -33.827068 -16.841745 1427.914917
2.800000 -5.200000 6.880000 -22.184694 -25.904415 1163.199341
2.800000 -5.200000 6.920000 -7.530847 -27.671787 822.441406
2.800000 -5.200000 6.960000 4.790765 -21.956823 505.053497
2.800000 -5.200000 7.000000 11.283245 -12.624641 286.693207
2.800000 -5.200000 7.040000 12.775376 -4.127268 180.244568
2.800000 -5.200000 7.080000 12.513990 2.314656 161.957596
2.800000 -5.200000 7.120000 12.001695 8.683233 219.439209
2.800000 -5.200000 7.160000 9.304773 16.420166 356.200653
2.800000 -5.200000 7.200000 1.876593 23.352047 548.839722
2.800000 -5.160000 6.800000 -30.319921 -21.074879 1363.448242
2.800000 -5.160000 6.840000 -20.209940 -24.757580 1021.379395
2.800000 -5.160000 6.880000 -9.645421 -24.428795 689.800171
2.800000 -5.160000 6.920000 -0.465273 -19.234764 370.192627
2.800000 -5.160000 6.960000 4.077397 -10.329120 123.315880
2.800000 -5.160000 7.000000 2.396295 -1.860546 9.203859
2.800000 -5.160000 7.040000 -2.911390 1.944750 12.258245
2.800000 -5.160000 7.080000 -6.765315 0.829939 46.458286
2.800000 -5.160000 7.120000 -6.376057 -1.090900 41.844162
2.800000 -5.160000 7.160000 -4.001263 0.445574 16.208639
2.800000 -5.160000 7.200000 -4.424444 5.294511 47.607552
2.800000 -5.120000 6.800000 -14.947457 -26.492941 925.302368
2.800000 -5.120000 6.840000 -7.818955 -21.984537 544.455933
2.800000 -5.120000 6.880000 -3.873401 -16.223755 278.213470
2.800000 -5.120000 6.920000 -3.353861 -9.638200 104.143280
2.800000 -5.120000 6.960000 -7.437236 -4.263010 73.485741
2.800000 -5.120000 7.000000 -14.769833 -4.062185 234.649292
2.800000 -5.120000 7.040000 -19.886408 -10.839556 512.965210
2.800000 -5.120000 7.080000 -17.095417 -20.460438 710.882812
2.800000 -5.120000 7.120000 -6.544653 -24.886688 662.179688
2.800000 -5.120000 7.160000 4.481987 -19.272436 391.514984
2.800000 -5.120000 7.200000 7.480535 -7.012390 105.132019
2.800000 -5.080000 6.800000 -3.948727 -21.438408 475.197784
2.800000 -5.080000 6.840000 -3.258718 -14.663429 225.635406
2.800000 -5.080000 6.880000 -6.295549 -9.796131 135.598129
2.800000 -5.080000 6.920000 -12.261908 -7.875699 212.381012
2.800000 -5.080000 6.960000 -19.850464 -11.289052 521.483643
2.800000 -5.080000 7.000000 -24.417810 -21.798981 1071.425049
2.800000 -5.080000 7.040000 -19.595829 -36.012245 1680.878418
2.800000 -5.080000 7.080000 -3.628577 -44.815590 2021.603760
2.800000 -5.080000 7.120000 16.274446 -39.861244 1853.776367
2.800000 -5.080000 7.160000 27.789228 -21.740625 1244.895996
2.800000 -5.080000 7.200000 23.393147 -1.182696 548.638062
2.800000 -5.040000 6.800000 -1.905768 -14.686968 219.338989
2.800000 -5.040000 6.840000 -4.880682 -10.853067 141.610123
2.800000 -5.040000 6.880000 -10.572618 -10.374478 219.410065
2.800000 -5.040000 6.920000 -17.266457 -15.067179 525.150391
2.800000 -5.040000 6.960000 -20.924219 -26.420856 1135.884521
2.800000 -5.040000 7.000000 -15.409035 -41.891212 1992.312012
2.800000 -5.040000 7.040000 2.344378 -52.916622 2805.665039
2.800000 -5.040000 7.080000 26.687706 -49.556786 3168.108643
2.800000 -5.040000 7.120000 44.406826 -29.391144 2835.805664
2.800000 -5.040000 7.160000 44.058380 -1.999672 1945.139526
2.800000 -5.040000 7.200000 25.827389 16.863466 951.430542
2.800000 -5.000000 6.800000 -3.885994 -13.659071 201.671173
2.800000 -5.000000 6.840000 -5.520215 -12.561234 188.257385
2.800000 -5.000000 6.880000 -9.485035 -14.862933 310.872681
2.800000 -5.000000 6.920000 -12.465334 -22.986544 683.765747
2.800000 -5.000000 6.960000 -8.572762 -35.984299 1368.361938
2.800000 -5.000000 7.000000 6.562188 -47.006866 2252.707764
2.800000 -5.000000 7.040000 29.927261 -46.091892 3020.103516
2.800000 -5.000000 7.080000 49.984905 -28.227119 3295.260986
2.800000 -5.000000 7.120000 53.796005 0.190601 2894.046631
2.800000 -5.000000 7.160000 37.621628 23.842033 1983.829346
2.800000 -5.000000 7.200000 11.273409 29.513517 998.137451
2.800000 -4.960000 6.800000 -1.815331 -17.067013 294.578339
2.800000 -4.960000 6.840000 -0.788374 -14.354408 206.670578
2.800000 -4.960000 6.880000 -2.730309 -15.521211 248.362564
2.800000 -4.960000 6.920000 -2.297689 -22.344227 504.543854
2.800000 -4.960000 6.960000 6.206542 -30.873672 991.704834
2.800000 -4.960000 7.000000 23.174370 -32.612331 1600.615601
2.800000 -4.960000 7.040000 40.861717 -20.874893 2105.441162
2.800000 -4.960000 7.080000 47.564487 2.209118 2267.260498
2.800000 -4.960000 7.120000 36.831631 25.017124 1982.425537
2.800000 -4.960000 7.160000 13.890247 34.247452 1365.826904
2.800000 -4.960000 7.200000 -7.204229 25.376921 695.889038
2.800000 -4.920000 6.800000 6.089716 -17.091608 329.207733
2.800000 -4.920000 6.840000 5.882183 -10.060625 135.816254
2.800000 -4.920000 6.880000 2.633741 -8.688887 82.433342
2.800000 -4.920000 6.920000 2.744705 -12.557339 165.220154
2.800000 -4.920000 6.960000 9.742973 -15.896189 347.614349
2.800000 -4.920000 7.000000 20.664619 -11.954763 569.942871
2.800000 -4.920000 7.040000 27.511036 0.960505 757.779663
2.800000 -4.920000 7.080000 23.512075 16.885313 837.931519
2.800000 -4.920000 7.120000 9.302813 26.055243 765.417969
2.800000 -4.920000 7.160000 -6.564283 22.653797 556.284363
2.800000 -4.920000 7.200000 -13.972717 9.947144 294.182495
2.800000 -4.880000 6.800000 12.942142 -8.783703 244.652496
2.800000 -4.880000 6.840000 6.904377 -0.366499 47.804752
2.800000 -4.880000 6.880000 -0.155928 0.695005 0.507346
2.800000 -4.880000 6.920000 -3.024820 -2.676622 16.313847
2.800000 -4.880000 6.960000 -0.880137 -5.222928 28.053617
2.800000 -4.880000 7.000000 2.873435 -3.544754 20.821913
2.800000 -4.880000 7.040000 3.832139 1.512686 16.973507
2.800000 -4.880000 7.080000 0.363789 5.943298 35.455139
2.800000 -4.880000 7.120000 -5.067532 6.216913 64.329887
2.800000 -4.880000 7.160000 -8.079649 2.495233 71.506920
2.800000 -4.880000 7.200000 -6.363704 -1.321388 42.242794
2.800000 -4.840000 6.800000 10.528727 3.465977 122.867081
2.800000 -4.840000 6.840000 -0.843917 6.957688 49.121616
2.800000 -4.840000 6.880000 -9.866756 3.829505 112.017990
2.800000 -4.840000 6.920000 -14.466555 -2.213719 214.181763
2.800000 -4.840000 6.960000 -15.199240 -8.446760 302.364655
2.800000 -4.840000 7.000000 -13.044604 -13.716970 358.316956
2.800000 -4.840000 7.040000 -8.490253 -17.204821 368.090271
2.800000 -4.840000 7.080000 -2.323389 -17.652199 316.998260
2.800000 -4.840000 7.120000 3.486574 -14.089214 210.662170
2.800000 -4.840000 7.160000 6.249964 -7.124590 89.821823
2.800000 -4.840000 7.200000 4.064246 0.709565 17.021576
2.800000 -4.800000 6.800000 -1.369741 9.476954 91.688835
2.800000 -4.800000 6.840000 -11.742165 4.761873 160.553864
2.800000 -4.800000 6.880000 -17.832781 -2.717054 325.390472
2.800000 -4.800000 6.920000 -20.781330 -11.381046 561.391907
2.800000 -4.800000 6.960000 -20.163528 -21.587938 872.606934
2.800000 -4.800000 7.000000 -13.516312 -31.828987 1195.775146
2.800000 -4.800000 7.040000 -0.189653 -37.053001 1372.960938
2.800000 -4.800000 7.080000 15.101980 -32.085144 1257.526245
2.800000 -4.800000 7.120000 23.839275 -17.139338 862.067932
2.800000 -4.800000 7.160000 19.872313 0.416478 395.082275
2.800000 -4.800000 7.200000 4.699207 10.463168 131.560440
2.840000 -5.200000 6.800000 -47.934917 -20.062244 2700.250000
2.840000 -5.200000 6.840000 -33.473267 -32.844009 2199.188477
2.840000 -5.200000 6.880000 -14.849287 -36.039536 1519.349487
2.840000 -5.200000 6.920000 1.027264 -29.269846 857.779175
2.840000 -5.200000 6.960000 9.236022 -17.219307 381.808624
2.840000 -5.200000 7.000000 9.973778 -5.935435 134.705627
2.840000 -5.200000 7.040000 7.080355 1.641392 52.825592
2.840000 -5.200000 7.080000 3.722347 6.566071 56.969147
2.840000 -5.200000 7.120000 -0.065395 10.757405 115.726051
2.840000 -5.200000 7.160000 -5.671051 13.877078 224.734100
2.840000 -5.200000 7.200000 -12.631899 13.811310 350.317139
2.840000 -5.160000 6.800000 -25.787975 -42.754120 2492.934570
2.840000 -5.160000 6.840000 -7.058507 -40.694122 1705.834106
2.840000 -5.160000 6.880000 7.122320 -29.432276 916.986267
2.840000 -5.160000 6.920000 11.584497 -13.295646 310.974792
2.840000 -5.160000 6.960000 5.434715 0.024164 29.536715
2.840000 -5.160000 7.000000 -5.954911 4.203766 53.132614
2.840000 -5.160000 7.040000 -14.164249 -0.747869 201.185272
2.840000 -5.160000 7.080000 -14.167747 -8.370804 270.795410
2.840000 -5.160000 7.120000 -8.110613 -11.249245 192.327545
2.840000 -5.160000 7.160000 -2.773686 -7.149501 58.808701
2.840000 -5.160000 7.200000 -3.264650 -0.087249 10.665554
2.840000 -5.120000 6.800000 3.695759 -43.931110 1943.601196
2.840000 -5.120000 6.840000 16.826647 -28.223957 1079.727783
2.840000 -5.120000 6.880000 17.841537 -7.619398 376.375702
2.840000 -5.120000 6.920000 4.761620 8.445014 93.991280
2.840000 -5.120000 6.960000 -15.970243 10.129475 357.654907
2.840000 -5.120000 7.000000 -31.007830 -4.598930 982.635620
2.840000 -5.120000 7.040000 -29.262939 -25.991932 1531.900146
2.840000 -5.120000 7.080000 -11.426271 -38.518845 1614.261108
2.840000 -5.120000 7.120000 9.590778 -33.000153 1180.993164
2.840000 -5.120000 7.160000 18.815895 -14.075919 552.169434
2.840000 -5.120000 7.200000 11.143159 4.120904 141.151840
2.840000 -5.080000 6.800000 22.660276 -26.925743 1238.483765
2.840000 -5.080000 6.840000 24.141542 -4.321573 601.490112
2.840000 -5.080000 6.880000 8.590790 15.397907 310.897217
2.840000 -5.080000 6.920000 -19.121664 18.532007 709.073364
2.840000 -5.080000 6.960000 -42.572723 -1.521446 1814.751587
2.840000 -5.080000 7.000000 -43.750378 -35.174911 3151.370117
2.840000 -5.080000 7.040000 -18.273199 -60.333923 3974.092285
2.840000 -5.080000 7.080000 18.435528 -58.680008 3783.211914
2.840000 -5.080000 7.120000 41.768806 -30.996952 2705.444336
2.840000 -5.080000 7.160000 37.291401 2.940577 1399.295532
2.840000 -5.080000 7.200000 11.594169 20.515249 555.300171
2.840000 -5.040000 6.800000 23.678068 -6.836092 607.383118
2.840000 -5.040000 6.840000 13.229180 14.769025 393.135315
2.840000 -5.040000 6.880000 -14.411034 23.534996 761.573975
2.840000 -5.040000 6.920000 -44.315964 6.419939 2005.120239
2.840000 -5.040000 6.960000 -53.290226 -32.394493 3889.251465
2.840000 -5.040000 7.000000 -28.666904 -69.287750 5622.583984
2.840000 -5.040000 7.040000 17.864929 -77.355835 6303.081055
2.840000 -5.040000 7.080000 56.319828 -48.734180 5546.943359
2.840000 -5.040000 7.120000 61.480755 -2.607998 3786.685059
2.840000 -5.040000 7.160000 33.048431 29.655411 1971.642212
2.840000 -5.040000 7.200000 -5.309667 29.539101 900.751038
2.840000 -5.000000 6.800000 13.861017 3.315998 203.123642
2.840000 -5.000000 6.840000 -4.692509 18.569487 366.845459
2.840000 -5.000000 6.880000 -34.465450 12.206786 1336.872925
2.840000 -5.000000 6.920000 -52.329926 -20.758045 3169.317627
2.840000 -5.000000 6.960000 -37.717140 -62.396801 5315.943359
2.840000 -5.000000 7.000000 7.290905 -82.359268 6836.206055
2.840000 -5.000000 7.040000 55.334370 -62.527973 6971.639648
2.840000 -5.000000 7.080000 73.959320 -14.016418 5666.440918
2.840000 -5.000000 7.120000 52.047245 30.235413 3623.095947
2.840000 -5.000000 7.160000 8.665246 41.889816 1829.843262
2.840000 -5.000000 7.200000 -23.657461 19.143885 926.163818
2.840000 -4.960000 6.800000 5.629323 2.657907 38.753750
2.840000 -4.960000 6.840000 -16.032324 9.713886 351.394989
2.840000 -4.960000 6.880000 -38.532688 -8.086291 1550.156128
2.840000 -4.960000 6.920000 -38.393280 -43.633476 3377.924316
2.840000 -4.960000 6.960000 -6.815411 -71.083008 5099.243652
2.840000 -4.960000 7.000000 39.221581 -66.126961 5911.107422
2.840000 -4.960000 7.040000 68.353058 -27.805126 5445.265625
2.840000 -4.960000 7.080000 60.375328 18.668411 3993.689697
2.840000 -4.960000 7.120000 23.273899 41.934841 2300.205322
2.840000 -4.960000 7.160000 -13.815056 29.892174 1084.397827
2.840000 -4.960000 7.200000 -25.200058 -2.069988 639.327759
2.840000 -4.920000 6.800000 4.423991 -0.362380 19.703016
2.840000 -4.920000 6.840000 -16.078957 -0.797716 259.169189
2.840000 -4.920000 6.880000 -27.702724 -21.789137 1242.207397
2.840000 -4.920000 6.920000 -15.379483 -47.756264 2517.189209
2.840000 -4.920000 6.960000 16.648619 -56.069466 3420.961426
2.840000 -4.920000 7.000000 46.582687 -36.485455 3501.135254
2.840000 -4.920000 7.040000 52.737614 -0.878548 2782.027588
2.840000 -4.920000 7.080000 31.816641 26.131262 1695.141479
2.840000 -4.920000 7.120000 1.400585 27.605240 764.010864
2.840000 -4.920000 7.160000 -15.374372 7.638247 294.714111
2.840000 -4.920000 7.200000 -8.932930 -13.773135 269.496490
2.840000 -4.880000 6.800000 5.703898 0.880558 33.309841
2.840000 -4.880000 6.840000 -10.560093 -4.868336 135.216263
2.840000 -4.880000 6.880000 -14.169561 -22.015093 685.440796
2.840000 -4.880000 6.920000 -1.211929 -35.706440 1276.418579
2.840000 -4.880000 6.960000 18.833157 -34.211304 1525.101074
2.840000 -4.880000 7.000000 31.336096 -18.220596 1313.941040
2.840000 -4.880000 7.040000 28.576313 0.563156 816.922791
2.840000 -4.880000 7.080000 15.255297 9.773172 328.238983
2.840000 -4.880000 7.120000 3.309790 6.354957 51.340183
2.840000 -4.880000 7.160000 1.281351 -2.158762 6.302113
2.840000 -4.880000 7.200000 7.677225 -5.315565 87.195015
2.840000 -4.840000 6.800000 2.937087 4.267868 26.841175
2.840000 -4.840000 6.840000 -7.370798 -3.572119 67.088699
2.840000 -4.840000 6.880000 -8.559322 -14.674179 288.593536
2.840000 -4.840000 6.920000 -2.549391 -22.472698 511.521545
2.840000 -4.840000 6.960000 6.083129 -24.621477 643.221619
2.840000 -4.840000 7.000000 13.977666 -22.041725 681.212769
2.840000 -4.840000 7.040000 19.753105 -16.230362 653.609802
2.840000 -4.840000 7.080000 22.592159 -8.139788 576.661804
2.840000 -4.840000 7.120000 21.428776 0.973021 460.139221
2.840000 -4.840000 7.160000 15.805159 8.870633 328.491180
2.840000 -4.840000 7.200000 6.882764 13.141530 220.072250
2.840000 -4.800000 6.800000 -3.486562 3.034065 21.361666
2.840000 -4.800000 6.840000 -8.050859 -3.127938 74.600334
2.840000 -4.800000 6.880000 -10.772680 -10.060335 217.260986
2.840000 -4.800000 6.920000 -10.900126 -19.786076 510.301544
2.840000 -4.800000 6.960000 -3.874065 -31.146345 985.103149
2.840000 -4.800000 7.000000 12.411831 -36.897007 1515.442749
2.840000 -4.800000 7.040000 31.661461 -29.064701 1847.204956
2.840000 -4.800000 7.080000 41.579807 -7.854819 1790.578613
2.840000 -4.800000 7.120000 33.790520 15.740942 1389.576416
2.840000 -4.800000 7.160000 11.818613 27.533257 897.759827
2.840000 -4.800000 7.200000 -11.081365 21.302460 576.591431
2.880000 -5.200000 6.800000 -45.498569 -45.361343 4127.771484
2.880000 -5.200000 6.840000 -21.910013 -51.182789 3099.726562
2.880000 -5.200000 6.880000 -1.022276 -43.270695 1873.398071
2.880000 -5.200000 6.920000 9.513107 -27.535599 848.708435
2.880000 -5.200000 6.960000 9.077133 -12.898437 248.764008
2.880000 -5.200000 7.000000 3.116766 -4.660318 31.432796
2.880000 -5.200000 7.040000 -2.569640 -2.075905 10.912430
2.880000 -5.200000 7.080000 -6.134700 -1.654802 40.372910
2.880000 -5.200000 7.120000 -8.799225 -1.653558 80.160614
2.880000 -5.200000 7.160000 -11.145831 -2.684940 131.438461
2.880000 -5.200000 7.200000 -11.823461 -4.781904 162.660828
2.880000 -5.160000 6.800000 -5.042823 -61.160789 3766.072266
2.880000 -5.160000 6.840000 16.874680 -46.315922 2429.919434
2.880000 -5.160000 6.880000 24.783749 -22.073511 1101.474121
2.880000 -5.160000 6.920000 15.482903 -0.641723 240.132080
2.880000 -5.160000 6.960000 -3.671101 6.725685 58.711823
2.880000 -5.160000 7.000000 -19.160011 -1.757851 370.196045
2.880000 -5.160000 7.040000 -21.294071 -17.024294 743.264038
2.880000 -5.160000 7.080000 -11.086273 -26.629890 832.056519
2.880000 -5.160000 7.120000 1.907108 -24.343300 596.233337
2.880000 -5.160000 7.160000 8.130484 -13.514008 248.733170
2.880000 -5.160000 7.200000 4.804148 -2.353206 28.617413
2.880000 -5.120000 6.800000 33.845291 -44.725449 3145.869629
2.880000 -5.120000 6.840000 41.743042 -13.180996 1916.220215
2.880000 -5.120000 6.880000 25.738691 17.366522 964.076294
2.880000 -5.120000 6.920000 -8.198816 27.933735 847.514099
2.880000 -5.120000 6.960000 -39.263023 9.836185 1638.335449
2.880000 -5.120000 7.000000 -45.965187 -25.467152 2761.374023
2.880000 -5.120000 7.040000 -23.672585 -53.103367 3380.358887
2.880000 -5.120000 7.080000 10.817965 -53.981438 3031.023926
2.880000 -5.120000 7.120000 32.762913 -29.661781 1953.229736
2.880000 -5.120000 7.160000 29.080433 0.367147 845.806396
2.880000 -5.120000 7.200000 6.713020 15.733065 292.593964
2.880000 -5.080000 6.800000 48.593578 -8.737365 2437.677490
2.880000 -5.080000 6.840000 34.416607 28.468187 1994.940430
2.880000 -5.080000 6.880000 -7.345819 47.548485 2314.819580
2.880000 -5.080000 6.920000 -54.723763 28.592129 3812.199951
2.880000 -5.080000 6.960000 -74.260361 -22.676044 6028.804199
2.880000 -5.080000 7.000000 -48.389446 -73.542969 7750.106934
2.880000 -5.080000 7.040000 7.010460 -88.280975 7842.677246
2.880000 -5.080000 7.080000 53.236069 -57.541767 6145.133789
2.880000 -5.080000 7.120000 59.825863 -6.116023 3616.539551
2.880000 -5.080000 7.160000 28.187708 28.440071 1603.384521
2.880000 -5.080000 7.200000 -12.930111 26.381386 863.165283
2.880000 -5.040000 6.800000 35.243057 22.440847 1745.664795
2.880000 -5.040000 6.840000 -0.689104 50.882576 2589.511475
2.880000 -5.040000 6.880000 -55.774723 42.404430 4908.955566
2.880000 -5.040000 6.920000 -91.755508 -11.035624 8540.858398
2.880000 -5.040000 6.960000 -75.387939 -80.088219 12097.463867
2.880000 -5.040000 7.000000 -10.401754 -116.575920 13698.141602
2.880000 -5.040000 7.040000 60.442047 -93.072311 12315.696289
2.880000 -5.040000 7.080000 88.681625 -27.513899 8621.445312
2.880000 -5.040000 7.120000 59.842949 31.254856 4558.044434
2.880000 -5.040000 7.160000 3.286984 44.299000 1973.205688
2.880000 -5.040000 7.200000 -35.664070 12.403802 1425.780273
2.880000 -5.000000 6.800000 9.096113 32.252655 1122.973022
2.880000 -5.000000 6.840000 -38.837284 40.450920 3144.611572
2.880000 -5.000000 6.880000 -85.463402 1.641592 7306.687988
2.880000 -5.000000 6.920000 -88.017479 -69.677444 12602.023438
2.880000 -5.000000 6.960000 -31.641203 -125.330200 16708.824219
2.880000 -5.000000 7.000000 51.315231 -121.622665 17425.324219
2.880000 -5.000000 7.040000 104.164200 -58.492020 14271.497070
2.880000 -5.000000 7.080000 92.710541 18.091383 8922.541992
2.880000 -5.000000 7.120000 33.383694 54.390785 4072.828369
2.880000 -5.000000 7.160000 -23.151655 32.969383 1622.979370
2.880000 -5.000000 7.200000 -36.423325 -17.243946 1624.012207
2.880000 -4.960000 6.800000 -10.244029 22.587620 615.140686
2.880000 -4.960000 6.840000 -54.982113 8.192235 3090.145508
2.880000 -4.960000 6.880000 -75.644119 -46.782169 7910.604004
2.880000 -4.960000 6.920000 -42.730309 -107.706543 13426.578125
2.880000 -4.960000 6.960000 31.606810 -126.329597 16958.158203
2.880000 -4.960000 7.000000 98.346771 -83.011658 16563.023438
2.880000 -4.960000 7.040000 111.354980 -6.511456 12442.331055
2.880000 -4.960000 7.080000 66.584305 48.986240 6833.121582
2.880000 -4.960000 7.120000 4.343573 49.380836 2457.333740
2.880000 -4.960000 7.160000 -26.916868 7.003563 773.567688
2.880000 -4.960000 7.200000 -10.931100 -34.854828 1334.347900
2.880000 -4.920000 6.800000 -14.465494 7.547300 266.212250
2.880000 -4.920000 6.840000 -43.337250 -20.979198 2318.243896
2.880000 -4.920000 6.880000 -36.611702 -70.167999 6263.964844
2.880000 -4.920000 6.920000 12.029348 -101.378281 10422.260742
2.880000 -4.920000 6.960000 72.997452 -85.293976 12603.690430
2.880000 -4.920000 7.000000 103.712631 -28.934004 11593.486328
2.880000 -4.920000 7.040000 84.614861 28.864271 7992.820801
2.880000 -4.920000 7.080000 35.256359 50.222248 3765.285156
2.880000 -4.920000 7.120000 -4.071749 29.280605 873.932983
2.880000 -4.920000 7.160000 -7.353070 -6.234045 92.930954
2.880000 -4.920000 7.200000 17.754593 -22.311464 813.026978
2.880000 -4.880000 6.800000 -9.042767 -1.260548 83.360611
2.880000 -4.880000 6.840000 -19.006601 -29.656961 1240.786255
2.880000 -4.880000 6.880000 0.672119 -58.525124 3425.641846
2.880000 -4.880000 6.920000 39.635185 -62.926445 5530.685547
2.880000 -4.880000 6.960000 71.295029 -36.376511 6406.231445
2.880000 -4.880000 7.000000 74.876282 3.816944 5621.026367
2.880000 -4.880000 7.040000 51.876678 31.708641 3696.627686
2.880000 -4.880000 7.080000 22.739252 34.139000 1682.544922
2.880000 -4.880000 7.120000 8.006926 19.415489 441.072083
2.880000 -4.880000 7.160000 11.791574 6.961958 187.510086
2.880000 -4.880000 7.200000 21.476753 9.145838 544.897278
2.880000 -4.840000 6.800000 -3.306382 -2.904010 19.365438
2.880000 -4.840000 6.840000 -1.824543 -19.989227 402.898163
2.880000 -4.840000 6.880000 12.668509 -30.037424 1062.737915
2.880000 -4.840000 6.920000 30.328880 -26.970570 1647.252686
2.880000 -4.840000 6.960000 41.801155 -13.851891 1939.211426
2.880000 -4.840000 7.000000 43.954948 2.109043 1936.485596
2.880000 -4.840000 7.040000 38.993576 15.641615 1765.159180
2.880000 -4.840000 7.080000 30.160736 25.210438 1545.236084
2.880000 -4.840000 7.120000 19.192591 30.891323 1322.629395
2.880000 -4.840000 7.160000 7.064285 32.318932 1094.417480
2.880000 -4.840000 7.200000 -4.524005 28.972960 859.898987
2.880000 -4.800000 6.800000 -0.405828 -2.836553 8.210727
2.880000 -4.800000 6.840000 0.740948 -6.765535 46.321472
2.880000 -4.800000 6.880000 1.486380 -10.849148 119.913338
2.880000 -4.800000 6.920000 5.468750 -17.773003 345.786835
2.880000 -4.800000 6.960000 17.935379 -22.768711 840.092041
2.880000 -4.800000 7.000000 36.097130 -15.955364 1557.576416
2.880000 -4.800000 7.040000 47.116997 6.489460 2262.124512
2.880000 -4.800000 7.080000 38.396969 34.560028 2668.722656
2.880000 -4.800000 7.120000 10.628986 50.180115 2631.019287
2.880000 -4.800000 7.160000 -20.425911 42.415493 2216.291992
2.880000 -4.800000 7.200000 -36.435242 17.257689 1625.354736
2.920000 -5.200000 6.800000 -23.510075 -69.418213 5371.611816
2.920000 -5.200000 6.840000 3.479725 -61.808285 3832.372559
2.920000 -5.200000 6.880000 18.231979 -42.027374 2098.705322
2.920000 -5.200000 6.920000 17.476444 -22.299578 802.697266
2.920000 -5.200000 6.960000 7.867079 -11.884125 203.123352
2.920000 -5.200000 7.000000 -1.064350 -11.215733 126.925499
2.920000 -5.200000 7.040000 -4.649102 -14.642735 236.023819
2.920000 -5.200000 7.080000 -4.178301 -17.335033 317.961578
2.920000 -5.200000 7.120000 -2.242039 -18.435265 344.885712
2.920000 -5.200000 7.160000 0.786082 -18.354778 337.515808
2.920000 -5.200000 7.200000 4.915764 -15.557308 266.194580
2.920000 -5.160000 6.800000 27.669437 -63.395580 4784.597168
2.920000 -5.160000 6.840000 42.487179 -34.614014 3003.290283
2.920000 -5.160000 6.880000 34.686352 -4.210797 1220.873779
2.920000 -5.160000 6.920000 9.734249 10.499794 205.001282
2.920000 -5.160000 6.960000 -14.955791 2.435162 229.605713
2.920000 -5.160000 7.000000 -23.069515 -19.433064 909.846436
2.920000 -5.160000 7.040000 -11.570192 -37.595055 1547.257568
2.920000 -5.160000 7.080000 8.615547 -39.815117 1659.471191
2.920000 -5.160000 7.120000 22.867331 -26.896372 1246.329590
2.920000 -5.160000 7.160000 23.743921 -9.000815 644.788452
2.920000 -5.160000 7.200000 13.517894 3.788811 197.088547
2.920000 -5.120000 6.800000 59.777531 -23.070660 4105.608398
2.920000 -5.120000 6.840000 49.804317 17.734982 2794.999512
2.920000 -5.120000 6.880000 11.024872 41.873260 1874.917847
2.920000 -5.120000 6.920000 -35.175171 29.718918 2120.506592
2.920000 -5.120000 6.960000 -57.289192 -13.540726 3465.402832
2.920000 -5.120000 7.000000 -39.193558 -58.377289 4944.042969
2.920000 -5.120000 7.040000 5.452286 -73.448761 5424.448242
2.920000 -5.120000 7.080000 44.029392 -50.580162 4496.940430
2.920000 -5.120000 7.120000 51.421600 -9.707022 2738.407227
2.920000 -5.120000 7.160000 28.176125 19.533825 1175.464355
2.920000 -5.120000 7.200000 -4.382624 21.465572 479.978180
2.920000 -5.080000 6.800000 53.995918 25.918756 3587.341064
2.920000 -5.080000 6.840000 13.557448 61.295410 3940.931641
2.920000 -5.080000 6.880000 -49.247498 55.925129 5552.936035
2.920000 -5.080000 6.920000 -92.628479 0.726540 8580.563477
2.920000 -5.080000 6.960000 -80.542274 -73.012924 11817.945312
2.920000 -5.080000 7.000000 -16.482704 -114.313263 13339.202148
2.920000 -5.080000 7.040000 55.386101 -94.321976 11964.254883
2.920000 -5.080000 7.080000 85.528580 -30.970573 8274.314453
2.920000 -5.080000 7.120000 59.181740 26.935951 4228.023926
2.920000 -5.080000 7.160000 5.017137 41.038692 1709.345947
2.920000 -5.080000 7.200000 -33.348824 11.927191 1254.401855
2.920000 -5.040000 6.800000 18.092072 53.444843 3183.674316
2.920000 -5.040000 6.840000 -45.037960 63.685200 6084.222656
2.920000 -5.040000 6.880000 -106.390320 15.183331 11549.433594
2.920000 -5.040000 6.920000 -113.287125 -74.245865 18346.421875
2.920000 -5.040000 6.960000 -47.362213 -145.517776 23418.603516
2.920000 -5.040000 7.000000 52.133469 -145.250687 23815.660156
2.920000 -5.040000 7.040000 116.730820 -73.189041 18982.718750
2.920000 -5.040000 7.080000 105.529922 15.763233 11385.043945
2.920000 -5.040000 7.120000 38.104000 58.154076 4833.811523
2.920000 -5.040000 7.160000 -26.252317 34.048630 1848.493408
2.920000 -5.040000 7.200000 -41.318237 -22.640343 2219.781982
2.920000 -5.000000 6.800000 -21.225925 47.303860 2688.194824
2.920000 -5.000000 6.840000 -85.952919 21.963676 7870.307617
2.920000 -5.000000 6.880000 -115.226814 -59.516041 16819.378906
2.920000 -5.000000 6.920000 -68.287704 -148.385498 26681.466797
2.920000 -5.000000 6.960000 37.196346 -176.876404 32668.830078
2.920000 -5.000000 7.000000 131.876678 -117.789902 31265.919922
2.920000 -5.000000 7.040000 151.083252 -12.143771 22973.619141
2.920000 -5.000000 7.080000 89.874100 63.991127 12172.218750
2.920000 -5.000000 7.120000 5.102097 63.789764 4095.165527
2.920000 -5.000000 7.160000 -36.454769 5.549507 1359.747192
2.920000 -5.000000 7.200000 -13.946735 -50.754326 2770.513184
2.920000 -4.960000 6.800000 -40.134495 19.526495 1992.061768
2.920000 -4.960000 6.840000 -82.618637 -33.738560 7964.129883
2.920000 -4.960000 6.880000 -65.851189 -117.171227 18065.476562
2.920000 -4.960000 6.920000 19.137442 -167.811371 28526.898438
2.920000 -4.960000 6.960000 122.158600 -138.129074 34002.363281
2.920000 -4.960000 7.000000 171.787903 -41.621964 31243.472656
2.920000 -4.960000 7.040000 136.391296 54.841049 21610.126953
2.920000 -4.960000 7.080000 51.137089 87.333084 10242.069336
2.920000 -4.960000 7.120000 -14.529865 47.814125 2497.307617
2.920000 -4.960000 7.160000 -17.491192 -14.693750 521.848083
2.920000 -4.960000 7.200000 27.024796 -42.512810 2537.678711
2.920000 -4.920000 6.800000 -34.022797 -7.009813 1206.688110
2.920000 -4.920000 6.840000 -42.927856 -65.418915 6122.435059
2.920000 -4.920000 6.880000 5.939306 -119.733574 14371.404297
2.920000 -4.920000 6.920000 90.230972 -120.042694 22551.876953
2.920000 -4.920000 6.960000 152.825333 -54.835861 26362.554688
2.920000 -4.920000 7.000000 149.462265 35.106457 23571.431641
2.920000 -4.920000 7.040000 87.066574 89.996017 15679.871094
2.920000 -4.920000 7.080000 16.607464 81.380020 6898.515625
2.920000 -4.920000 7.120000 -12.331627 33.108131 1248.217285
2.920000 -4.920000 7.160000 7.772266 -4.754761 83.015869
2.920000 -4.920000 7.200000 42.730598 -1.765474 1829.020996
2.920000 -4.880000 6.800000 -15.711305 -17.595394 556.442993
2.920000 -4.880000 6.840000 0.168571 -58.007065 3364.847900
2.920000 -4.880000 6.880000 49.999527 -74.086502 7988.762207
2.920000 -4.880000 6.920000 101.705177 -45.248127 12391.335938
2.920000 -4.880000 6.960000 118.699059 14.429985 14297.691406
2.920000 -4.880000 7.000000 90.495560 67.315315 12720.797852
2.920000 -4.880000 7.040000 40.210045 83.688858 8620.672852
2.920000 -4.880000 7.080000 2.897268 64.661316 4189.479980
2.920000 -4.880000 7.120000 -4.080426 36.733810 1366.022705
2.920000 -4.880000 7.160000 8.239780 25.581795 722.322205
2.920000 -4.880000 7.200000 15.724046 34.773880 1456.468384
2.920000 -4.840000 6.800000 -0.628751 -13.405392 180.099854
2.920000 -4.840000 6.840000 18.415842 -27.773724 1110.522949
2.920000 -4.840000 6.880000 44.914780 -22.349728 2516.847656
2.920000 -4.840000 6.920000 61.627426 1.317520 3799.675537
2.920000 -4.840000 6.960000 59.739990 30.087425 4474.119629
2.920000 -4.840000 7.000000 43.092075 50.797218 4437.284180
2.920000 -4.840000 7.040000 21.754761 58.872902 3939.288086
2.920000 -4.840000 7.080000 3.081688 57.642090 3332.107422
2.920000 -4.840000 7.120000 -11.436472 51.883835 2822.725342
2.920000 -4.840000 7.160000 -22.955130 43.451115 2414.937500
2.920000 -4.840000 7.200000 -31.347818 32.181698 2018.347412
2.920000 -4.800000 6.800000 5.332972 -4.229149 46.326286
2.920000 -4.800000 6.840000 9.657278 -2.889872 101.614372
2.920000 -4.800000 6.880000 11.543283 -1.610085 135.839767
2.920000 -4.800000 6.920000 16.037479 -1.964714 261.060852
2.920000 -4.800000 6.960000 25.998055 2.699675 683.187134
2.920000 -4.800000 7.000000 33.963131 19.694168 1541.354492
2.920000 -4.800000 7.040000 26.506332 45.101685 2736.747559
2.920000 -4.800000 7.080000 -1.414877 62.381199 3893.416016
2.920000 -4.800000 7.120000 -37.545738 55.750614 4517.813477
2.920000 -4.800000 7.160000 -60.171928 25.879356 4290.401855
2.920000 -4.800000 7.200000 -56.633286 -8.846018 3285.581055
2.960000 -5.200000 6.800000 14.406990 -75.111229 5849.258301
2.960000 -5.200000 6.840000 34.833431 -53.271774 4051.249756
2.960000 -5.200000 6.880000 35.954067 -27.677412 2058.734131
2.960000 -5.200000 6.920000 23.126278 -12.561831 692.624268
2.960000 -5.200000 6.960000 9.328449 -11.820946 226.754730
2.960000 -5.200000 7.000000 3.623516 -18.698311 362.756714
2.960000 -5.200000 7.040000 5.858244 -24.490820 634.119263
2.960000 -5.200000 7.080000 11.106743 -25.855690 791.876465
2.960000 -5.200000 7.120000 16.392319 -23.873499 838.652100
2.960000 -5.200000 7.160000 21.413082 -18.834520 813.259277
2.960000 -5.200000 7.200000 24.119486 -9.225496 666.859375
2.960000 -5.160000 6.800000 57.560776 -42.479820 5117.778320
2.960000 -5.160000 6.840000 56.433395 -7.098588 3235.117920
2.960000 -5.160000 6.880000 31.434889 16.821476 1271.114258
2.960000 -5.160000 6.920000 -0.766165 14.744640 217.991425
2.960000 -5.160000 6.960000 -18.127287 -9.078163 411.011597
2.960000 -5.160000 7.000000 -10.703972 -35.168289 1351.383545
2.960000 -5.160000 7.040000 12.851463 -44.899742 2181.146973
2.960000 -5.160000 7.080000 34.430321 -33.951416 2338.145508
2.960000 -5.160000 7.120000 41.140335 -12.198092 1841.320679
2.960000 -5.160000 7.160000 32.225990 6.835238 1085.234863
2.960000 -5.160000 7.200000 14.991140 15.345932 460.231934
2.960000 -5.120000 6.800000 65.090248 12.235321 4386.443359
2.960000 -5.120000 6.840000 33.712170 46.925671 3338.528809
2.960000 -5.120000 6.880000 -17.973608 48.396820 2665.302734
2.960000 -5.120000 6.920000 -55.888962 9.105339 3206.483398
2.960000 -5.120000 6.960000 -51.432854 -46.424274 4800.551758
2.960000 -5.120000 7.000000 -6.964279 -79.170486 6316.466797
2.960000 -5.120000 7.040000 44.993767 -67.358383 6561.590820
2.960000 -5.120000 7.080000 68.537949 -23.275589 5239.203125
2.960000 -5.120000 7.120000 52.426949 19.267254 3119.812012
2.960000 -5.120000 7.160000 14.876556 33.524033 1345.172607
2.960000 -5.120000 7.200000 -15.789082 17.913847 570.200989
2.960000 -5.080000 6.800000 31.960527 55.071335 4054.327148
2.960000 -5.080000 6.840000 -27.546265 68.016220 5385.002930
2.960000 -5.080000 6.880000 -86.899338 26.639042 8261.133789
2.960000 -5.080000 6.920000 -97.818779 -53.487278 12429.402344
2.960000 -5.080000 6.960000 -42.951767 -119.342484 16087.482422
2.960000 -5.080000 7.000000 43.500458 -122.863312 16987.683594
2.960000 -5.080000 7.040000 101.362083 -62.802330 14218.404297
2.960000 -5.080000 7.080000 94.256393 13.864552 9076.493164
2.960000 -5.080000 7.120000 37.738972 52.474030 4177.753906
2.960000 -5.080000 7.160000 -18.652763 34.860348 1563.169434
2.960000 -5.080000 7.200000 -35.669868 -12.189863 1420.932251
2.960000 -5.040000 6.800000 -18.858618 60.611183 4029.363037
2.960000 -5.040000 6.840000 -87.735939 34.433601 8883.267578
2.960000 -5.040000 6.880000 -120.640305 -50.174202 17071.533203
2.960000 -5.040000 6.920000 -74.989914 -143.661377 26262.078125
2.960000 -5.040000 6.960000 31.985666 -176.165726 32057.445312
2.960000 -5.040000 7.000000 129.604889 -118.885666 30931.230469
2.960000 -5.040000 7.040000 151.323318 -12.788568 23062.292969
2.960000 -5.040000 7.080000 91.065094 64.953400 12511.795898
2.960000 -5.040000 7.120000 5.563393 66.261032 4421.475586
2.960000 -5.040000 7.160000 -37.964523 8.489660 1513.379395
2.960000 -5.040000 7.200000 -17.846004 -49.087982 2728.109863
2.960000 -5.000000 6.800000 -54.307343 30.500021 3879.538574
2.960000 -5.000000 6.840000 -103.394142 -34.179134 11858.561523
2.960000 -5.000000 6.880000 -83.239273 -133.757233 24819.773438
2.960000 -5.000000 6.920000 17.278000 -194.800629 38245.812500
2.960000 -5.000000 6.960000 139.479034 -160.928391 45352.347656
2.960000 -5.000000 7.000000 198.782166 -47.574959 41777.722656
2.960000 -5.000000 7.040000 157.209961 66.156700 29091.681641
2.960000 -5.000000 7.080000 56.160286 104.126320 13996.267578
2.960000 -5.000000 7.120000 -21.915417 56.430172 3664.649658
2.960000 -5.000000 7.160000 -25.641972 -18.974806 1017.553955
2.960000 -5.000000 7.200000 27.182764 -53.816483 3635.116455
2.960000 -4.960000 6.800000 -56.169865 -10.266708 3260.458984
2.960000 -4.960000 6.840000 -63.994118 -90.403259 12267.996094
2.960000 -4.960000 6.880000 5.694012 -163.588165 26793.509766
2.960000 -4.960000 6.920000 122.815552 -161.884186 41290.148438
2.960000 -4.960000 6.960000 208.340881 -69.401855 48222.539062
2.960000 -4.960000 7.000000 200.371094 56.408867 43330.535156
2.960000 -4.960000 7.040000 109.263054 130.687805 29017.718750
2.960000 -4.960000 7.080000 8.492064 113.210045 12888.629883
2.960000 -4.960000 7.120000 -30.476082 39.157043 2462.065674
2.960000 -4.960000 7.160000 2.668427 -18.390152 345.318207
2.960000 -4.960000 7.200000 57.536171 -15.268044 3543.523926
2.960000 -4.920000 6.800000 -31.867825 -34.757034 2223.609619
2.960000 -4.920000 6.840000 -0.801964 -98.147308 9633.538086
2.960000 -4.920000 6.880000 84.486053 -120.147202 21573.242188
2.960000 -4.920000 6.920000 170.168060 -65.625679 33263.898438
2.960000 -4.920000 6.960000 192.269623 40.408417 38600.449219
2.960000 -4.920000 7.000000 132.903397 129.329346 34389.390625
2.960000 -4.920000 7.040000 36.942669 146.458405 22814.824219
2.960000 -4.920000 7.080000 -27.519144 96.234467 10018.375977
2.960000 -4.920000 7.120000 -27.445341 33.307190 1862.615723
2.960000 -4.920000 7.160000 12.464066 10.467649 264.924622
2.960000 -4.920000 7.200000 40.352066 34.406853 2812.120605
2.960000 -4.880000 6.800000 -3.841167 -33.642563 1146.576538
2.960000 -4.880000 6.840000 40.991486 -61.175613 5422.757324
2.960000 -4.880000 6.880000 102.631210 -41.672394 12269.753906
2.960000 -4.880000 6.920000 135.409302 24.150543 18918.927734
2.960000 -4.880000 6.960000 111.869125 97.559074 22032.474609
2.960000 -4.880000 7.000000 46.759174 133.299438 19955.160156
2.960000 -4.880000 7.040000 -16.315865 116.769257 13901.266602
2.960000 -4.880000 7.080000 -42.520126 72.819382 7110.623047
2.960000 -4.880000 7.120000 -32.298080 39.905132 2635.585449
2.960000 -4.880000 7.160000 -14.025517 36.080360 1498.507446
2.960000 -4.880000 7.200000 -13.661325 48.345402 2523.909668
2.960000 -4.840000 6.800000 10.379219 -17.083576 399.576752
2.960000 -4.840000 6.840000 40.199478 -15.254498 1848.697754
2.960000 -4.840000 6.880000 62.619667 12.115189 4068.000488
2.960000 -4.840000 6.920000 60.410824 50.852951 6235.490234
2.960000 -4.840000 6.960000 33.967110 79.696114 7505.235352
2.960000 -4.840000 7.000000 -1.544617 86.801979 7536.969238
2.960000 -4.840000 7.040000 -30.225708 75.727776 6648.289062
2.960000 -4.840000 7.080000 -46.384605 57.817410 5494.384766
2.960000 -4.840000 7.120000 -53.813133 40.970718 4574.453125
2.960000 -4.840000 7.160000 -57.454441 25.809624 3967.149414
2.960000 -4.840000 7.200000 -57.837372 10.299479 3451.240967
2.960000 -4.800000 6.800000 9.004488 -1.019127 82.119423
2.960000 -4.800000 6.840000 12.333971 6.330238 192.198761
2.960000 -4.800000 6.880000 10.884731 12.878494 284.333008
2.960000 -4.800000 6.920000 9.736267 17.725624 408.992645
2.960000 -4.800000 6.960000 9.541939 26.468513 791.630798
2.960000 -4.800000 7.000000 2.332806 41.585430 1734.790039
2.960000 -4.800000 7.040000 -19.997993 54.127335 3329.687988
2.960000 -4.800000 7.080000 -52.982697 48.825287 5191.074707
2.960000 -4.800000 7.120000 -78.305321 19.648029 6517.768066
2.960000 -4.800000 7.160000 -78.349861 -20.608631 6563.416504
2.960000 -4.800000 7.200000 -53.070141 -48.862495 5203.983398
3.000000 -5.200000 6.800000 49.692520 -52.789848 5256.114746
3.000000 -5.200000 6.840000 55.144791 -23.844803 3609.522705
3.000000 -5.200000 6.880000 41.550953 -2.822388 1734.447510
3.000000 -5.200000 6.920000 22.555559 0.780048 509.361725
3.000000 -5.200000 6.960000 12.032571 -8.136677 210.988266
3.000000 -5.200000 7.000000 13.270184 -17.820889 493.681854
3.000000 -5.200000 7.040000 20.294487 -21.123871 858.084106
3.000000 -5.200000 7.080000 26.905827 -18.682247 1072.949951
3.000000 -5.200000 7.120000 31.688591 -13.162547 1177.419434
3.000000 -5.200000 7.160000 34.463158 -4.309154 1206.278076
3.000000 -5.200000 7.200000 31.532223 8.149864 1060.701416
3.000000 -5.160000 6.800000 67.256508 -5.567201 4554.431641
3.000000 -5.160000 6.840000 49.339622 24.318621 3025.793701
3.000000 -5.160000 6.880000 15.761789 31.768173 1257.650879
3.000000 -5.160000 6.920000 -10.361841 12.579651 265.615356
3.000000 -5.160000 6.960000 -11.893696 -17.294575 440.562317
3.000000 -5.160000 7.000000 8.876297 -35.553013 1342.805420
3.000000 -5.160000 7.040000 34.362610 -31.355734 2163.970947
3.000000 -5.160000 7.080000 47.388367 -11.009611 2366.868652
3.000000 -5.160000 7.120000 42.840881 10.876516 1953.639648
3.000000 -5.160000 7.160000 26.704506 23.445780 1262.835205
3.000000 -5.160000 7.200000 7.845902 23.862209 630.963196
3.000000 -5.120000 6.800000 45.431011 41.762863 3808.113525
3.000000 -5.120000 6.840000 2.466956 57.116653 3268.397949
3.000000 -5.120000 6.880000 -42.651543 33.047596 2911.297607
3.000000 -5.120000 6.920000 -55.415615 -19.839836 3464.509521
3.000000 -5.120000 6.960000 -23.404621 -65.235374 4803.430664
3.000000 -5.120000 7.000000 31.056320 -70.809456 5978.474121
3.000000 -5.120000 7.040000 69.137085 -35.082546 6010.721680
3.000000 -5.120000 7.080000 67.350189 13.124947 4708.312012
3.000000 -5.120000 7.120000 33.850906 40.367630 2775.429443
3.000000 -5.120000 7.160000 -3.133329 34.339546 1189.022217
3.000000 -5.120000 7.200000 -20.408762 7.895134 478.850708
3.000000 -5.080000 6.800000 -3.402782 59.095211 3503.822754
3.000000 -5.080000 6.840000 -60.295082 42.167641 5413.606445
3.000000 -5.080000 6.880000 -90.846680 -22.460613 8757.598633
3.000000 -5.080000 6.920000 -60.202713 -96.741493 12983.283203
3.000000 -5.080000 6.960000 19.779335 -125.792297 16214.923828
3.000000 -5.080000 7.000000 95.226227 -85.897324 16446.384766
3.000000 -5.080000 7.040000 114.546806 -6.846458 13167.844727
3.000000 -5.080000 7.080000 71.404961 53.363396 7946.320312
3.000000 -5.080000 7.120000 6.746311 57.497028 3351.420898
3.000000 -5.080000 7.160000 -29.597660 16.174288 1137.629028
3.000000 -5.080000 7.200000 -19.741529 -28.738234 1215.614014
3.000000 -5.040000 6.800000 -47.732117 36.751015 3628.992188
3.000000 -5.040000 6.840000 -93.360069 -19.245262 9086.482422
3.000000 -5.040000 6.880000 -78.898277 -108.154129 17922.253906
3.000000 -5.040000 6.920000 7.674667 -165.256668 27368.666016
3.000000 -5.040000 6.960000 115.885567 -139.100983 32778.546875
3.000000 -5.040000 7.000000 170.567108 -41.293221 30798.269531
3.000000 -5.040000 7.040000 136.373230 59.225285 22105.292969
3.000000 -5.040000 7.080000 47.983143 94.458305 11224.752930
3.000000 -5.040000 7.120000 -22.476751 53.697918 3388.670654
3.000000 -5.040000 7.160000 -28.563232 -13.783539 1005.844238
3.000000 -5.040000 7.200000 16.324314 -48.181122 2587.903564
3.000000 -5.000000 6.800000 -60.672024 -7.258829 3733.785156
3.000000 -5.000000 6.840000 -68.888893 -87.117180 12335.082031
3.000000 -5.000000 6.880000 0.116245 -161.656937 26132.978516
3.000000 -5.000000 6.920000 118.184288 -161.832657 40157.335938
3.000000 -5.000000 6.960000 205.815521 -69.609451 47205.503906
3.000000 -5.000000 7.000000 198.780640 57.933018 42869.976562
3.000000 -5.000000 7.040000 105.982376 133.825653 29141.568359
3.000000 -5.000000 7.080000 2.084719 115.367714 13314.054688
3.000000 -5.000000 7.120000 -38.594109 37.417572 2889.580078
3.000000 -5.000000 7.160000 -3.881338 -24.769896 628.612488
3.000000 -5.000000 7.200000 55.205822 -24.402025 3643.141602
3.000000 -4.960000 6.800000 -39.597363 -42.284409 3355.922363
3.000000 -4.960000 6.840000 -2.995537 -113.910347 12984.541016
3.000000 -4.960000 6.880000 96.028870 -138.786575 28483.257812
3.000000 -4.960000 6.920000 195.994858 -74.446709 43956.296875
3.000000 -4.960000 6.960000 220.763596 51.002991 51337.871094
3.000000 -4.960000 7.000000 147.758804 155.588623 46040.484375
3.000000 -4.960000 7.040000 30.846043 172.347351 30655.087891
3.000000 -4.960000 7.080000 -46.129288 106.114372 13388.170898
3.000000 -4.960000 7.120000 -41.524670 24.694202 2334.101807
3.000000 -4.960000 7.160000 14.138149 -5.103436 225.932327
3.000000 -4.960000 7.200000 55.064281 26.112213 3713.922852
3.000000 -4.920000 6.800000 -5.191809 -49.006866 2428.627686
3.000000 -4.920000 6.840000 56.756279 -84.642502 10385.627930
3.000000 -4.920000 6.880000 142.230072 -55.399406 23298.486328
3.000000 -4.920000 6.920000 186.016861 39.792397 36185.707031
3.000000 -4.920000 6.960000 146.588882 144.591171 42394.906250
3.000000 -4.920000 7.000000 45.943993 189.980103 38203.289062
3.000000 -4.920000 7.040000 -47.313766 153.292740 25737.255859
3.000000 -4.920000 7.080000 -77.000526 75.575760 11640.776367
3.000000 -4.920000 7.120000 -44.770367 21.706995 2475.579346
3.000000 -4.920000 7.160000 -0.621929 22.904957 525.023804
3.000000 -4.920000 7.200000 8.178076 55.991516 3201.930664
3.000000 -4.880000 6.800000 17.747757 -31.561365 1311.102661
3.000000 -4.880000 6.840000 72.029938 -27.916676 5967.652832
3.000000 -4.880000 6.880000 113.744812 25.782326 13602.610352
3.000000 -4.880000 6.920000 103.489510 103.150993 21350.205078
3.000000 -4.880000 6.960000 39.222324 154.506866 25410.761719
3.000000 -4.880000 7.000000 -40.039829 148.339478 23607.789062
3.000000 -4.880000 7.040000 -87.265846 96.854141 16996.052734
3.000000 -4.880000 7.080000 -85.983658 42.167839 9171.316406
3.000000 -4.880000 7.120000 -58.815617 17.899645 3779.674072
3.000000 -4.880000 7.160000 -40.987679 23.356127 2225.498535
3.000000 -4.880000 7.200000 -47.228947 32.198021 3267.286133
3.000000 -4.840000 6.800000 19.413996 -9.063965 459.058685
3.000000 -4.840000 6.840000 44.105278 11.991600 2089.073975
3.000000 -4.840000 6.880000 46.159462 51.409798 4773.663086
3.000000 -4.840000 6.920000 18.151047 85.404251 7623.346680
3.000000 -4.840000 6.960000 -26.018608 93.957893 9505.053711
3.000000 -4.840000 7.000000 -63.785969 75.595566 9783.339844
3.000000 -4.840000 7.040000 -81.878922 44.836254 8714.447266
3.000000 -4.840000 7.080000 -82.882965 17.273699 7167.966797
3.000000 -4.840000 7.120000 -76.974602 -1.927095 5928.803223
3.000000 -4.840000 7.160000 -70.149216 -16.548138 5194.753418
3.000000 -4.840000 7.200000 -61.125374 -30.091164 4641.789551
3.000000 -4.800000 6.800000 7.876129 2.906271 70.479820
3.000000 -4.800000 6.840000 6.388307 13.880806 233.487244
3.000000 -4.800000 6.880000 -1.761898 21.492144 465.016510
3.000000 -4.800000 6.920000 -11.056625 24.731459 733.893982
3.000000 -4.800000 6.960000 -20.681282 27.493092 1183.585449
3.000000 -4.800000 7.000000 -35.683891 29.640320 2151.888672
3.000000 -4.800000 7.040000 -57.936359 22.837795 3878.186768
3.000000 -4.800000 7.080000 -77.981415 -1.323181 6082.852051
3.000000 -4.800000 7.120000 -79.796890 -38.716431 7866.505371
3.000000 -4.800000 7.160000 -56.233154 -71.007675 8204.257812
3.000000 -4.800000 7.200000 -18.956432 -79.883423 6740.707520
3.040000 -5.200000 6.800000 60.611069 -11.856834 3814.286133
3.040000 -5.200000 6.840000 50.298466 12.675180 2690.595703
3.040000 -5.200000 6.880000 28.893652 20.919304 1272.460449
3.040000 -5.200000 6.920000 12.730062 12.561939 319.856812
3.040000 -5.200000 6.960000 10.098871 -0.743275 102.539658
3.040000 -5.200000 7.000000 16.845396 -8.078423 349.028259
3.040000 -5.200000 7.040000 24.478970 -7.642733 657.631348
3.040000 -5.200000 7.080000 29.290998 -3.436932 869.775085
3.040000 -5.200000 7.120000 32.220463 2.600239 1044.919434
3.040000 -5.200000 7.160000 32.341873 11.806181 1185.382568
3.040000 -5.200000 7.200000 24.974583 22.476652 1128.929688
3.040000 -5.160000 6.800000 50.031746 27.796919 3275.844238
3.040000 -5.160000 6.840000 23.588938 43.300903 2431.406250
3.040000 -5.160000 6.880000 -5.653441 33.977673 1186.443604
3.040000 -5.160000 6.920000 -17.108345 7.108124 343.220886
3.040000 -5.160000 6.960000 -4.823719 -16.868122 307.801819
3.040000 -5.160000 7.000000 19.081711 -22.137646 854.187012
3.040000 -5.160000 7.040000 36.749634 -8.846506 1428.796265
3.040000 -5.160000 7.080000 38.896034 10.898170 1631.671631
3.040000 -5.160000 7.120000 28.260559 25.106844 1429.012817
3.040000 -5.160000 7.160000 12.765924 29.145599 1012.434753
3.040000 -5.160000 7.200000 -1.351109 23.893406 572.720337
3.040000 -5.120000 6.800000 13.198712 49.164017 2591.306641
3.040000 -5.120000 6.840000 -25.170065 44.221493 2589.072510
3.040000 -5.120000 6.880000 -49.492363 7.511761 2505.920410
3.040000 -5.120000 6.920000 -37.036812 -37.994812 2815.331055
3.040000 -5.120000 6.960000 6.189117 -59.037571 3523.739990
3.040000 -5.120000 7.000000 49.408180 -40.876389 4112.047363
3.040000 -5.120000 7.040000 63.257767 0.815491 4002.210205
3.040000 -5.120000 7.080000 43.082581 34.998005 3080.969238
3.040000 -5.120000 7.120000 8.977596 41.323380 1788.218994
3.040000 -5.120000 7.160000 -14.148638 23.134171 735.373779
3.040000 -5.120000 7.200000 -15.798588 -1.134146 250.881668
3.040000 -5.080000 6.800000 -27.624296 37.778473 2190.314697
3.040000 -5.080000 6.840000 -62.948315 3.446798 3974.370605
3.040000 -5.080000 6.880000 -59.265259 -56.918991 6752.142578
3.040000 -5.080000 6.920000 -5.438171 -99.535721 9936.932617
3.040000 -5.080000 6.960000 66.454178 -87.722466 12111.388672
3.040000 -5.080000 7.000000 105.943085 -26.611404 11932.104492
3.040000 -5.080000 7.040000 87.544098 39.591629 9231.466797
3.040000 -5.080000 7.080000 31.609095 65.603119 5302.903809
3.040000 -5.080000 7.120000 -15.990713 42.127983 2030.469849
3.040000 -5.080000 7.160000 -24.102894 -1.464151 583.093201
3.040000 -5.080000 7.200000 1.545194 -27.563564 762.137695
3.040000 -5.040000 6.800000 -46.595818 1.898683 2174.775146
3.040000 -5.040000 6.840000 -57.068882 -56.761097 6478.679199
3.040000 -5.040000 6.880000 -9.207237 -115.701973 13471.719727
3.040000 -5.040000 6.920000 79.113503 -120.861282 20866.394531
3.040000 -5.040000 6.960000 148.163620 -54.979839 24975.242188
3.040000 -5.040000 7.000000 146.844833 41.035187 23247.291016
3.040000 -5.040000 7.040000 78.785042 100.727646 16353.141602
3.040000 -5.040000 7.080000 -0.744648 89.086441 7936.948730
3.040000 -5.040000 7.120000 -34.160954 30.009401 2067.534912
3.040000 -5.040000 7.160000 -9.543472 -19.972170 489.965454
3.040000 -5.040000 7.200000 36.447845 -23.621405 1886.416260
3.040000 -5.000000 6.800000 -34.061142 -33.388607 2274.960449
3.040000 -5.000000 6.840000 -6.239407 -93.747498 8827.524414
3.040000 -5.000000 6.880000 76.347687 -117.732452 19689.900391
3.040000 -5.000000 6.920000 163.219330 -65.662628 30952.128906
3.040000 -5.000000 6.960000 187.262466 41.559837 36794.449219
3.040000 -5.000000 7.000000 125.618134 133.349945 33562.121094
3.040000 -5.000000 7.040000 23.252708 149.026123 22749.472656
3.040000 -5.000000 7.080000 -45.530819 90.132866 10196.989258
3.040000 -5.000000 7.120000 -41.478222 15.683186 1966.405151
3.040000 -5.000000 7.160000 10.324959 -13.491579 288.627472
3.040000 -5.000000 7.200000 51.096222 13.449404 2791.710449
3.040000 -4.960000 6.800000 -3.251188 -45.940861 2121.133057
3.040000 -4.960000 6.840000 54.506863 -80.386475 9432.983398
3.040000 -4.960000 6.880000 137.519501 -53.292332 21751.685547
3.040000 -4.960000 6.920000 181.464798 39.975739 34527.531250
3.040000 -4.960000 6.960000 142.147934 144.667130 41134.613281
3.040000 -4.960000 7.000000 39.508152 189.550613 37490.328125
3.040000 -4.960000 7.040000 -56.010502 149.017029 25343.250000
3.040000 -4.960000 7.080000 -84.115654 64.783173 11272.302734
3.040000 -4.960000 7.120000 -44.833298 6.327007 2050.055664
3.040000 -4.960000 7.160000 8.427441 9.095882 153.756836
3.040000 -4.960000 7.200000 22.744257 49.330620 2950.811279
3.040000 -4.920000 6.800000 22.027357 -33.078728 1579.406738
3.040000 -4.920000 6.840000 82.644791 -29.273510 7687.100098
3.040000 -4.920000 6.880000 130.777969 32.798561 18178.623047
3.040000 -4.920000 6.920000 117.398666 124.297028 29232.199219
3.040000 -4.920000 6.960000 37.394005 183.951202 35236.355469
3.040000 -4.920000 7.000000 -60.672707 170.162628 32636.498047
3.040000 -4.920000 7.040000 -114.580017 97.913368 22715.607422
3.040000 -4.920000 7.080000 -101.270363 24.449913 10853.484375
3.040000 -4.920000 7.120000 -52.485348 -2.249916 2759.773682
3.040000 -4.920000 7.160000 -20.399326 17.567204 724.739136
3.040000 -4.920000 7.200000 -29.108997 44.131927 2794.960938
3.040000 -4.880000 6.800000 27.201559 -10.612166 852.542847
3.040000 -4.880000 6.840000 64.381371 19.030615 4507.125000
3.040000 -4.880000 6.880000 67.962593 79.746452 10978.410156
3.040000 -4.880000 6.920000 20.765694 132.708160 18042.669922
3.040000 -4.880000 6.960000 -54.639225 139.057861 22322.533203
3.040000 -4.880000 7.000000 -112.908646 93.768478 21540.890625
3.040000 -4.880000 7.040000 -123.898193 29.395506 16214.858398
3.040000 -4.880000 7.080000 -95.719666 -13.522419 9345.109375
3.040000 -4.880000 7.120000 -62.329468 -20.348518 4299.024902
3.040000 -4.880000 7.160000 -50.221039 -9.007166 2603.281982
3.040000 -4.880000 7.200000 -57.406174 -6.597383 3338.994141
3.040000 -4.840000 6.800000 16.276087 3.283512 275.692474
3.040000 -4.840000 6.840000 23.611345 32.486732 1612.883423
3.040000 -4.840000 6.880000 3.405750 64.134811 4124.873047
3.040000 -4.840000 6.920000 -37.886864 75.060028 7069.422363
3.040000 -4.840000 6.960000 -78.046478 56.353153 9266.930664
3.040000 -4.840000 7.000000 -97.575111 19.323704 9894.307617
3.040000 -4.840000 7.040000 -93.680801 -16.345078 9043.253906
3.040000 -4.840000 7.080000 -77.669418 -39.087307 7560.356445
3.040000 -4.840000 7.120000 -61.250996 -50.704220 6322.602539
3.040000 -4.840000 7.160000 -47.129818 -58.192993 5607.644531
3.040000 -4.840000 7.200000 -31.847260 -63.757225 5079.231445
3.040000 -4.800000 6.800000 3.725143 3.133371 23.694710
3.040000 -4.800000 6.840000 -3.712925 13.166014 187.129730
3.040000 -4.800000 6.880000 -17.253216 15.859673 549.202698
3.040000 -4.800000 6.920000 -29.920223 11.042027 1017.146118
3.040000 -4.800000 6.960000 -39.766151 2.907349 1589.799438
3.040000 -4.800000 7.000000 -49.413235 -7.930412 2504.559082
3.040000 -4.800000 7.040000 -58.070309 -26.129658 4054.919678
3.040000 -4.800000 7.080000 -57.218353 -53.509151 6137.168945
3.040000 -4.800000 7.120000 -37.867161 -80.967209 7989.610840
3.040000 -4.800000 7.160000 -2.828302 -92.417343 8548.963867
3.040000 -4.800000 7.200000 30.927761 -79.506821 7277.860840
3.080000 -5.200000 6.800000 40.401123 22.997177 2161.120850
3.080000 -5.200000 6.840000 22.198448 34.722893 1698.450439
3.080000 -5.200000 6.880000 3.411698 29.701624 893.826172
3.080000 -5.200000 6.920000 -3.974759 15.306151 250.076981
3.080000 -5.200000 6.960000 0.353516 3.588825 13.004640
3.080000 -5.200000 7.000000 8.485962 -0.174884 72.042137
3.080000 -5.200000 7.040000 14.500235 1.067646 211.396667
3.080000 -5.200000 7.080000 18.694195 3.697090 363.141418
3.080000 -5.200000 7.120000 22.426012 8.605907 576.987671
3.080000 -5.200000 7.160000 22.527378 17.376953 809.441284
3.080000 -5.200000 7.200000 14.322987 25.678188 864.517334
3.080000 -5.160000 6.800000 16.992825 38.763569 1791.370361
3.080000 -5.160000 6.840000 -6.459694 40.058449 1646.406982
3.080000 -5.160000 6.880000 -23.271278 22.757900 1059.474365
3.080000 -5.160000 6.920000 -21.576077 -0.442119 465.722534
3.080000 -5.160000 6.960000 -4.820961 -13.497044 205.411850
3.080000 -5.160000 7.000000 13.438152 -10.498633 290.805237
3.080000 -5.160000 7.040000 22.263416 2.240780 500.680786
3.080000 -5.160000 7.080000 20.319935 14.769264 631.030884
3.080000 -5.160000 7.120000 12.499603 21.714525 627.760681
3.080000 -5.160000 7.160000 3.320744 22.720064 527.228638
3.080000 -5.160000 7.200000 -4.768304 18.388836 360.886017
3.080000 -5.120000 6.800000 -11.187001 33.604145 1254.387573
3.080000 -5.120000 6.840000 -34.840698 19.507189 1594.404663
3.080000 -5.120000 6.880000 -39.513817 -12.223206 1710.748413
3.080000 -5.120000 6.920000 -16.874100 -38.518131 1768.381714
3.080000 -5.120000 6.960000 18.288460 -39.115311 1864.475342
3.080000 -5.120000 7.000000 41.157433 -14.501705 1904.233643
3.080000 -5.120000 7.040000 38.295547 15.783709 1715.674438
3.080000 -5.120000 7.080000 16.993771 31.120415 1257.268433
3.080000 -5.120000 7.120000 -4.139376 25.929209 689.458313
3.080000 -5.120000 7.160000 -11.843686 10.189531 244.099457
3.080000 -5.120000 7.200000 -6.232546 -2.516326 45.176525
3.080000 -5.080000 6.800000 -26.677940 10.555400 823.128967
3.080000 -5.080000 6.840000 -39.253693 -20.001888 1940.927979
3.080000 -5.080000 6.880000 -18.820105 -56.646263 3562.995361
3.080000 -5.080000 6.920000 28.680971 -66.664215 5266.715820
3.080000 -5.080000 6.960000 70.636505 -36.166077 6297.500977
3.080000 -5.080000 7.000000 76.178543 15.164799 6033.141602
3.080000 -5.080000 7.040000 43.739262 50.781563 4491.890137
3.080000 -5.080000 7.080000 1.362848 49.117599 2414.395996
3.080000 -5.080000 7.120000 -19.344402 20.173927 781.193237
3.080000 -5.080000 7.160000 -9.638967 -7.184752 144.530334
3.080000 -5.080000 7.200000 13.467261 -12.332203 333.450348
3.080000 -5.040000 6.800000 -20.654142 -14.542933 638.090454
3.080000 -5.040000 6.840000 -10.417896 -51.872452 2799.283691
3.080000 -5.040000 6.880000 36.886612 -72.381638 6599.723633
3.080000 -5.040000 6.920000 92.889694 -46.387192 10780.266602
3.080000 -5.040000 6.960000 113.606728 18.006725 13230.730469
3.080000 -5.040000 7.000000 79.971985 77.720009 12435.917969
3.080000 -5.040000 7.040000 16.903393 91.774055 8708.202148
3.080000 -5.040000 7.080000 -28.473415 57.254272 4088.787109
3.080000 -5.040000 7.120000 -28.406828 9.665815 900.375854
3.080000 -5.040000 7.160000 4.002183 -11.237162 142.291275
3.080000 -5.040000 7.200000 31.949041 4.069802 1037.304565
3.080000 -5.000000 6.800000 -0.124231 -25.108446 630.449524
3.080000 -5.000000 6.840000 33.984215 -50.975803 3753.459473
3.080000 -5.000000 6.880000 90.643814 -37.488678 9621.702148
3.080000 -5.000000 6.920000 124.970177 24.465458 16216.103516
3.080000 -5.000000 6.960000 101.329178 99.266464 20121.433594
3.080000 -5.000000 7.000000 29.449451 134.308533 18906.050781
3.080000 -5.000000 7.040000 -40.807915 106.901543 13093.225586
3.080000 -5.000000 7.080000 -62.827583 44.682632 5943.842773
3.080000 -5.000000 7.120000 -33.261871 -0.529299 1106.632202
3.080000 -5.000000 7.160000 9.285762 0.529860 86.506126
3.080000 -5.000000 7.200000 23.355804 32.314060 1589.692139
3.080000 -4.960000 6.800000 18.075653 -16.991249 615.431763
3.080000 -4.960000 6.840000 61.787418 -17.121750 4110.839355
3.080000 -4.960000 6.880000 100.445404 28.445967 10898.452148
3.080000 -4.960000 6.920000 92.094406 100.967331 18675.781250
3.080000 -4.960000 6.960000 27.980698 150.570724 23454.462891
3.080000 -4.960000 7.000000 -53.806976 139.364136 22317.554688
3.080000 -4.960000 7.040000 -99.205154 76.788651 15738.160156
3.080000 -4.960000 7.080000 -85.254929 11.785584 7407.302734
3.080000 -4.960000 7.120000 -38.081306 -11.261412 1577.005249
3.080000 -4.960000 7.160000 -5.368408 9.985523 128.530472
3.080000 -4.960000 7.200000 -11.815809 39.812973 1724.686279
3.080000 -4.920000 6.800000 21.653992 -0.796322 469.529480
3.080000 -4.920000 6.840000 54.182106 23.263880 3476.908691
3.080000 -4.920000 6.880000 58.320480 78.082382 9498.136719
3.080000 -4.920000 6.920000 13.735060 128.045563 16584.318359
3.080000 -4.920000 6.960000 -60.200081 132.687988 21230.152344
3.080000 -4.920000 7.000000 -117.029289 83.919540 20738.343750
3.080000 -4.920000 7.040000 -122.778030 15.057732 15301.179688
3.080000 -4.920000 7.080000 -84.734566 -28.305273 7981.135254
3.080000 -4.920000 7.120000 -41.917885 -27.633121 2520.698486
3.080000 -4.920000 7.160000 -27.792587 -3.435358 784.229614
3.080000 -4.920000 7.200000 -42.205017 9.296915 1867.696045
3.080000 -4.880000 6.800000 12.470725 8.779232 232.593903
3.080000 -4.880000 6.840000 22.022989 40.511971 2126.231689
3.080000 -4.880000 6.880000 -1.293163 78.178848 6113.604492
3.080000 -4.880000 6.920000 -53.232159 90.432480 11011.695312
3.080000 -4.880000 6.960000 -103.855110 61.433205 14559.921875
3.080000 -4.880000 7.000000 -121.935989 6.302891 14908.112305
3.080000 -4.880000 7.040000 -101.243385 -41.593323 11980.227539
3.080000 -4.880000 7.080000 -63.596741 -59.258682 7556.136719
3.080000 -4.880000 7.120000 -36.960617 -51.009159 3968.021484
3.080000 -4.880000 7.160000 -31.173548 -39.058678 2497.370361
3.080000 -4.880000 7.200000 -34.132175 -39.812481 2750.039062
3.080000 -4.840000 6.800000 2.574887 6.320059 46.573185
3.080000 -4.840000 6.840000 -5.739582 27.696741 800.052307
3.080000 -4.840000 6.880000 -33.363121 38.370312 2585.378906
3.080000 -4.840000 6.920000 -65.536186 25.452368 4942.814453
3.080000 -4.840000 6.960000 -82.971130 -6.932281 6932.265137
3.080000 -4.840000 7.000000 -77.613525 -41.915588 7780.775879
3.080000 -4.840000 7.040000 -56.882706 -64.732155 7425.894043
3.080000 -4.840000 7.080000 -33.929272 -72.927460 6469.609863
3.080000 -4.840000 7.120000 -15.655629 -73.196915 5602.886719
3.080000 -4.840000 7.160000 -0.542011 -71.119110 5058.221680
3.080000 -4.840000 7.200000 14.174560 -66.122444 4573.095703
3.080000 -4.800000 6.800000 1.237492 -1.219099 3.017588
3.080000 -4.800000 6.840000 -9.614265 3.764210 106.603371
3.080000 -4.800000 6.880000 -22.543022 -1.368694 510.061157
3.080000 -4.800000 6.920000 -30.002728 -13.838085 1091.656250
3.080000 -4.800000 6.960000 -30.885227 -27.613411 1716.397705
3.080000 -4.800000 7.000000 -28.293617 -40.887878 2472.347412
3.080000 -4.800000 7.040000 -22.078228 -56.044746 3628.461914
3.080000 -4.800000 7.080000 -6.975946 -72.106628 5248.029785
3.080000 -4.800000 7.120000 19.676146 -80.271614 6830.683105
3.080000 -4.800000 7.160000 49.792366 -70.672691 7473.909180
3.080000 -4.800000 7.200000 67.800522 -44.435982 6571.467285
3.120000 -5.200000 6.800000 4.940186 30.441448 951.087219
3.120000 -5.200000 6.840000 -10.220194 29.742365 989.060669
3.120000 -5.200000 6.880000 -19.712872 18.409855 727.520020
3.120000 -5.200000 6.920000 -18.858566 5.265742 383.373535
3.120000 -5.200000 6.960000 -11.739494 -2.639657 144.783508
3.120000 -5.200000 7.000000 -4.203209 -5.308269 45.844681
3.120000 -5.200000 7.040000 2.512255 -5.855742 40.601131
3.120000 -5.200000 7.080000 10.091730 -4.234759 119.776207
3.120000 -5.200000 7.120000 17.086515 2.432404 297.865601
3.120000 -5.200000 7.160000 17.975277 13.538786 506.409302
3.120000 -5.200000 7.200000 9.864323 22.013506 581.899292
3.120000 -5.160000 6.800000 -9.770967 23.818874 662.810608
3.120000 -5.160000 6.840000 -23.603941 18.918201 915.044434
3.120000 -5.160000 6.880000 -29.363377 3.987262 878.106140
3.120000 -5.160000 6.920000 -22.784897 -10.649918 632.572266
3.120000 -5.160000 6.960000 -9.261215 -16.656563 363.211182
3.120000 -5.160000 7.000000 2.987337 -13.576856 193.255188
3.120000 -5.160000 7.040000 9.916183 -6.071732 135.196594
3.120000 -5.160000 7.080000 12.070943 1.981219 149.632889
3.120000 -5.160000 7.120000 10.641481 9.294475 199.628387
3.120000 -5.160000 7.160000 5.728340 14.611252 246.302551
3.120000 -5.160000 7.200000 -1.280676 15.402325 238.871735
3.120000 -5.120000 6.800000 -14.777832 9.946128 317.309784
3.120000 -5.120000 6.840000 -26.215820 -0.308854 687.364624
3.120000 -5.120000 6.880000 -24.095490 -18.742725 931.882324
3.120000 -5.120000 6.920000 -7.082425 -30.263378 966.032837
3.120000 -5.120000 6.960000 13.192182 -25.775381 838.403931
3.120000 -5.120000 7.000000 23.455185 -9.564745 641.630005
3.120000 -5.120000 7.040000 20.016100 6.249083 439.695282
3.120000 -5.120000 7.080000 9.648615 12.969967 261.315826
3.120000 -5.120000 7.120000 1.458845 11.084028 124.983910
3.120000 -5.120000 7.160000 -0.840724 6.699133 45.585205
3.120000 -5.120000 7.200000 0.472074 4.579816 21.197567
3.120000 -5.080000 6.800000 -8.301151 -1.139290 70.207092
3.120000 -5.080000 6.840000 -13.094818 -16.465614 442.590698
3.120000 -5.080000 6.880000 1.138429 -32.186523 1037.268311
3.120000 -5.080000 6.920000 26.548895 -30.299297 1622.891235
3.120000 -5.080000 6.960000 43.105251 -8.127644 1924.121338
3.120000 -5.080000 7.000000 37.719376 18.731565 1773.622925
3.120000 -5.080000 7.040000 16.204468 31.167658 1234.007690
3.120000 -5.080000 7.080000 -3.199814 23.855980 579.346619
3.120000 -5.080000 7.120000 -7.216647 8.287067 120.755478
3.120000 -5.080000 7.160000 1.692455 0.093831 2.873209
3.120000 -5.080000 7.200000 10.504215 4.473600 130.351639
3.120000 -5.040000 6.800000 2.700359 -1.832284 10.649202
3.120000 -5.040000 6.840000 8.434407 -16.944206 358.245361
3.120000 -5.040000 6.880000 31.673552 -19.946899 1401.092651
3.120000 -5.040000 6.920000 52.913673 1.446700 2801.949951
3.120000 -5.040000 6.960000 50.271515 35.903709 3816.301270
3.120000 -5.040000 7.000000 21.734798 57.683102 3799.741699
3.120000 -5.040000 7.040000 -11.746063 50.882900 2727.039551
3.120000 -5.040000 7.080000 -25.686863 24.316113 1251.088257
3.120000 -5.040000 7.120000 -14.508014 2.358595 216.045441
3.120000 -5.040000 7.160000 5.150074 1.563654 28.968275
3.120000 -5.040000 7.200000 12.284325 16.571175 425.508453
3.120000 -5.000000 6.800000 7.948133 6.673264 107.705276
3.120000 -5.000000 6.840000 22.262056 -0.181049 495.631927
3.120000 -5.000000 6.880000 42.703617 14.287656 2027.735962
3.120000 -5.000000 6.920000 44.766182 47.971916 4305.315430
3.120000 -5.000000 6.960000 16.760218 76.473938 6129.167969
3.120000 -5.000000 7.000000 -25.825302 75.256577 6330.498535
3.120000 -5.000000 7.040000 -52.855305 43.878265 4718.985352
3.120000 -5.000000 7.080000 -47.289993 7.372078 2290.690918
3.120000 -5.000000 7.120000 -20.485363 -7.040365 469.216827
3.120000 -5.000000 7.160000 -0.037325 5.327279 28.381294
3.120000 -5.000000 7.200000 -2.982846 24.715309 619.743896
3.120000 -4.960000 6.800000 2.644935 15.179804 237.422119
3.120000 -4.960000 6.840000 17.211672 20.702618 724.840027
3.120000 -4.960000 6.880000 22.497055 45.861084 2609.356445
3.120000 -4.960000 6.920000 1.212608 74.005203 5478.240234
3.120000 -4.960000 6.960000 -40.791000 78.920700 7892.382812
3.120000 -4.960000 7.000000 -76.229980 50.469803 8358.210938
3.120000 -4.960000 7.040000 -80.448898 6.383495 6512.774414
3.120000 -4.960000 7.080000 -54.310719 -22.817635 3470.298584
3.120000 -4.960000 7.120000 -22.933735 -21.395851 983.738647
3.120000 -4.960000 7.160000 -11.596605 -1.259047 136.066452
3.120000 -4.960000 7.200000 -23.054352 11.899390 673.098633
3.120000 -4.920000 6.800000 -8.034802 14.624922 278.446381
3.120000 -4.920000 6.840000 -1.966918 28.616089 822.749329
3.120000 -4.920000 6.880000 -14.429246 50.167152 2724.946289
3.120000 -4.920000 6.920000 -47.439369 57.954956 5609.270508
3.120000 -4.920000 6.960000 -82.111565 37.166641 8123.668457
3.120000 -4.920000 7.000000 -93.814789 -4.355389 8820.184570
3.120000 -4.920000 7.040000 -74.624290 -41.152107 7262.280762
3.120000 -4.920000 7.080000 -40.639622 -52.373257 4394.537109
3.120000 -4.920000 7.120000 -16.831978 -39.437317 1838.617432
3.120000 -4.920000 7.160000 -14.643116 -22.241386 709.100098
3.120000 -4.920000 7.200000 -24.159523 -18.825760 938.091797
3.120000 -4.880000 6.800000 -13.528874 4.659162 204.738235
3.120000 -4.880000 6.840000 -18.359898 18.194269 668.117310
3.120000 -4.880000 6.880000 -39.282753 25.554560 2196.170166
3.120000 -4.880000 6.920000 -65.761177 12.979786 4493.006836
3.120000 -4.880000 6.960000 -78.875816 -18.536564 6564.998535
3.120000 -4.880000 7.000000 -67.956467 -52.401516 7364.000488
3.120000 -4.880000 7.040000 -39.979668 -70.373360 6550.783203
3.120000 -4.880000 7.080000 -12.616865 -67.619843 4731.627930
3.120000 -4.880000 7.120000 1.527009 -54.465927 2968.868896
3.120000 -4.880000 7.160000 3.845045 -44.602661 2004.181763
3.120000 -4.880000 7.200000 4.499996 -42.678379 1841.694092
3.120000 -4.840000 6.800000 -8.003913 -5.711010 96.678253
3.120000 -4.840000 6.840000 -18.759235 0.637719 352.315582
3.120000 -4.840000 6.880000 -35.264648 -5.360599 1272.331421
3.120000 -4.840000 6.920000 -45.080841 -24.917774 2653.177734
3.120000 -4.840000 6.960000 -39.878075 -48.556881 3948.031738
3.120000 -4.840000 7.000000 -22.084122 -64.646278 4666.849609
3.120000 -4.840000 7.040000 -0.989292 -68.744873 4726.835938
3.120000 -4.840000 7.080000 16.337887 -64.514351 4429.028320
3.120000 -4.840000 7.120000 29.205872 -57.036068 4106.095703
3.120000 -4.840000 7.160000 39.479851 -47.500168 3814.924316
3.120000 -4.840000 7.200000 46.411896 -34.951950 3375.702637
3.120000 -4.800000 6.800000 3.684967 -6.710305 58.607178
3.120000 -4.800000 6.840000 -5.834886 -7.734587 93.869720
3.120000 -4.800000 6.880000 -11.857094 -17.616177 450.920349
3.120000 -4.800000 6.920000 -9.415951 -30.102463 994.818359
3.120000 -4.800000 6.960000 -0.896610 -38.974281 1519.798584
3.120000 -4.800000 7.000000 9.014423 -43.930870 2011.181152
3.120000 -4.800000 7.040000 20.136250 -47.822765 2692.485352
3.120000 -4.800000 7.080000 35.953968 -49.363335 3729.426758
3.120000 -4.800000 7.120000 55.783546 -41.902653 4867.636230
3.120000 -4.800000 7.160000 70.562347 -21.593784 5445.336426
3.120000 -4.800000 7.200000 69.921875 4.494906 4909.272461
3.160000 -5.200000 6.800000 -19.084045 10.230809 468.870239
3.160000 -5.200000 6.840000 -25.205612 5.092435 661.255798
3.160000 -5.200000 6.880000 -26.484116 -4.150301 718.633362
3.160000 -5.200000 6.920000 -22.317135 -12.740940 660.386047
3.160000 -5.200000 6.960000 -15.179228 -18.537512 574.048279
3.160000 -5.200000 7.000000 -6.353411 -21.942366 521.833252
3.160000 -5.200000 7.040000 4.684031 -22.240488 516.579468
3.160000 -5.200000 7.080000 16.656918 -16.536568 550.911011
3.160000 -5.200000 7.120000 24.391752 -3.704447 608.680481
3.160000 -5.200000 7.160000 22.581192 11.603115 644.542542
3.160000 -5.200000 7.200000 12.024752 21.152241 592.011963
3.160000 -5.160000 6.800000 -13.856747 -2.082758 196.347305
3.160000 -5.160000 6.840000 -20.000746 -4.376292 419.181793
3.160000 -5.160000 6.880000 -22.203041 -12.651439 653.033936
3.160000 -5.160000 6.920000 -17.599102 -21.828407 786.207764
3.160000 -5.160000 6.960000 -7.650511 -27.351017 806.608459
3.160000 -5.160000 7.000000 4.503047 -27.129305 756.276611
3.160000 -5.160000 7.040000 15.740303 -20.766287 678.995850
3.160000 -5.160000 7.080000 22.768734 -9.058196 600.466125
3.160000 -5.160000 7.120000 22.505655 4.990231 531.406921
3.160000 -5.160000 7.160000 14.461893 16.066628 467.282837
3.160000 -5.160000 7.200000 2.629025 19.559263 389.476562
3.160000 -5.120000 6.800000 -1.105356 -3.674286 14.722189
3.160000 -5.120000 6.840000 -10.594123 -5.740446 145.188171
3.160000 -5.120000 6.880000 -13.258955 -15.918682 429.204315
3.160000 -5.120000 6.920000 -5.822749 -25.427639 680.469238
3.160000 -5.120000 6.960000 7.239141 -27.140844 789.030579
3.160000 -5.120000 7.000000 18.636015 -20.129253 752.487915
3.160000 -5.120000 7.040000 23.702015 -8.414110 632.582764
3.160000 -5.120000 7.080000 22.019697 3.127504 494.648346
3.160000 -5.120000 7.120000 15.665785 11.414310 375.703308
3.160000 -5.120000 7.160000 7.177379 15.263330 284.484009
3.160000 -5.120000 7.200000 -1.098105 14.632582 215.318283
3.160000 -5.080000 6.800000 6.929639 7.510192 104.422874
3.160000 -5.080000 6.840000 -5.108280 1.460790 28.228434
3.160000 -5.080000 6.880000 -5.333190 -11.088581 151.399536
3.160000 -5.080000 6.920000 5.511760 -17.840237 348.653534
3.160000 -5.080000 6.960000 17.718382 -13.157319 487.056122
3.160000 -5.080000 7.000000 22.330633 -1.477451 500.840027
3.160000 -5.080000 7.040000 18.301525 8.680765 410.301514
3.160000 -5.080000 7.080000 11.038381 12.841376 286.746796
3.160000 -5.080000 7.120000 5.579504 12.848122 196.205109
3.160000 -5.080000 7.160000 2.192294 12.472288 160.364120
3.160000 -5.080000 7.200000 -1.696777 12.368386 155.856033
3.160000 -5.040000 6.800000 1.022091 22.359066 500.972504
3.160000 -5.040000 6.840000 -9.393547 10.722279 203.205978
3.160000 -5.040000 6.880000 -5.376615 -1.566113 31.360695
3.160000 -5.040000 6.920000 5.836761 -3.125113 43.834106
3.160000 -5.040000 6.960000 11.940239 5.657654 174.578354
3.160000 -5.040000 7.000000 7.769688 14.945361 283.731873
3.160000 -5.040000 7.040000 -1.107175 16.520996 274.169128
3.160000 -5.040000 7.080000 -5.968463 11.530602 168.577332
3.160000 -5.040000 7.120000 -4.535929 7.420295 75.635429
3.160000 -5.040000 7.160000 -2.287517 8.599023 79.175926
3.160000 -5.040000 7.200000 -4.910126 11.573235 158.049088
3.160000 -5.000000 6.800000 -16.824707 27.457142 1036.965454
3.160000 -5.000000 6.840000 -21.754667 12.748200 635.782166
3.160000 -5.000000 6.880000 -14.869067 3.787570 235.434845
3.160000 -5.000000 6.920000 -7.472795 6.015860 92.033226
3.160000 -5.000000 6.960000 -8.767580 12.634004 236.488495
3.160000 -5.000000 7.000000 -16.833710 13.272465 459.532104
3.160000 -5.000000 7.040000 -22.048504 5.474346 516.104980
3.160000 -5.000000 7.080000 -18.393923 -3.319414 349.354919
3.160000 -5.000000 7.120000 -10.013609 -4.708009 122.437706
3.160000 -5.000000 7.160000 -6.128294 1.082039 38.726803
3.160000 -5.000000 7.200000 -10.382694 5.655792 139.788330
3.160000 -4.960000 6.800000 -34.113487 16.120028 1423.585205
3.160000 -4.960000 6.840000 -33.075943 2.933285 1102.622070
3.160000 -4.960000 6.880000 -26.600616 -2.073199 711.890930
3.160000 -4.960000 6.920000 -24.297295 -0.513893 590.622620
3.160000 -4.960000 6.960000 -28.458061 -1.020546 810.902771
3.160000 -4.960000 7.000000 -32.271664 -8.821435 1119.278076
3.160000 -4.960000 7.040000 -28.149483 -19.681980 1179.773682
3.160000 -4.960000 7.080000 -16.663395 -24.605846 883.116455
3.160000 -4.960000 7.120000 -6.301558 -19.839865 433.329865
3.160000 -4.960000 7.160000 -4.478649 -11.098261 143.229691
3.160000 -4.960000 7.200000 -9.705299 -7.524460 150.810333
3.160000 -4.920000 6.800000 -37.492588 -5.448722 1435.382812
3.160000 -4.920000 6.840000 -33.546627 -13.858086 1317.422729
3.160000 -4.920000 6.880000 -29.774073 -17.011133 1175.874023
3.160000 -4.920000 6.920000 -29.667250 -19.680994 1267.487183
3.160000 -4.920000 6.960000 -30.029554 -26.546389 1606.484863
3.160000 -4.920000 7.000000 -25.031521 -36.222683 1938.659790
3.160000 -4.920000 7.040000 -13.244658 -42.274673 1962.569092
3.160000 -4.920000 7.080000 0.087170 -39.892616 1591.428345
3.160000 -4.920000 7.120000 7.887245 -30.986118 1022.348145
3.160000 -4.920000 7.160000 7.931499 -22.389450 564.196167
3.160000 -4.920000 7.200000 4.517928 -19.319508 393.655060
3.160000 -4.880000 6.800000 -23.731033 -22.464815 1067.829834
3.160000 -4.880000 6.840000 -21.109180 -26.216663 1132.910889
3.160000 -4.880000 6.880000 -19.783503 -30.276327 1308.042969
3.160000 -4.880000 6.920000 -17.537458 -36.822369 1663.449219
3.160000 -4.880000 6.960000 -11.028066 -44.406460 2093.552002
3.160000 -4.880000 7.000000 0.223960 -48.907257 2391.969727
3.160000 -4.880000 7.040000 12.970842 -47.359211 2411.137451
3.160000 -4.880000 7.080000 22.998363 -40.401070 2161.171143
3.160000 -4.880000 7.120000 28.230282 -31.183348 1769.349976
3.160000 -4.880000 7.160000 29.287739 -22.675879 1371.967163
3.160000 -4.880000 7.200000 27.916704 -16.257610 1043.652222
3.160000 -4.840000 6.800000 -2.802601 -23.264441 549.088745
3.160000 -4.840000 6.840000 -4.019485 -25.420586 662.362427
3.160000 -4.840000 6.880000 -3.123609 -31.646759 1011.274292
3.160000 -4.840000 6.920000 3.208108 -38.584274 1499.038208
3.160000 -4.840000 6.960000 13.857308 -41.614532 1923.794312
3.160000 -4.840000 7.000000 24.763781 -39.346138 2161.363281
3.160000 -4.840000 7.040000 33.370262 -33.876175 2261.169434
3.160000 -4.840000 7.080000 40.237438 -27.064579 2351.542969
3.160000 -4.840000 7.120000 46.024837 -18.116972 2446.510254
3.160000 -4.840000 7.160000 48.517159 -6.055223 2390.580322
3.160000 -4.840000 7.200000 44.513237 6.346594 2021.707520
3.160000 -4.800000 6.800000 10.032743 -8.820892 178.464066
3.160000 -4.800000 6.840000 5.674330 -13.050469 202.512772
3.160000 -4.800000 6.880000 8.052483 -20.717655 494.063690
3.160000 -4.800000 6.920000 16.773293 -24.870422 899.881226
3.160000 -4.800000 6.960000 26.199051 -22.898790 1210.744873
3.160000 -4.800000 7.000000 32.561424 -18.185789 1390.969238
3.160000 -4.800000 7.040000 37.893967 -14.134974 1635.750244
3.160000 -4.800000 7.080000 45.538280 -8.534954 2146.580566
3.160000 -4.800000 7.120000 53.028259 3.688588 2825.602051
3.160000 -4.800000 7.160000 52.462563 21.993145 3236.019043
3.160000 -4.800000 7.200000 39.637302 37.127373 2949.557617
3.200000 -5.200000 6.800000 -16.098961 -16.754568 539.892090
3.200000 -5.200000 6.840000 -15.799175 -17.842598 567.972229
3.200000 -5.200000 6.880000 -15.164161 -21.591133 696.128784
3.200000 -5.200000 6.920000 -11.832603 -27.353436 888.220947
3.200000 -5.200000 6.960000 -4.023692 -33.025822 1106.895020
3.200000 -5.200000 7.000000 8.537209 -35.107079 1305.390869
3.200000 -5.200000 7.040000 23.238464 -29.855276 1431.363770
3.200000 -5.200000 7.080000 34.465004 -16.018250 1444.420898
3.200000 -5.200000 7.120000 36.456718 2.759779 1336.708618
3.200000 -5.200000 7.160000 27.727486 19.073132 1132.597900
3.200000 -5.200000 7.200000 12.923414 26.646454 877.048157
3.200000 -5.160000 6.800000 2.946332 -17.516571 315.511139
3.200000 -5.160000 6.840000 -2.552715 -14.263146 209.953705
3.200000 -5.160000 6.880000 -7.364534 -18.941410 413.013367
3.200000 -5.160000 6.920000 -5.245039 -28.251867 825.678467
3.200000 -5.160000 6.960000 5.683471 -35.307110 1278.893921
3.200000 -5.160000 7.000000 21.754076 -33.753609 1612.546021
3.200000 -5.160000 7.040000 35.647926 -21.481575 1732.232666
3.200000 -5.160000 7.080000 40.323410 -2.112829 1630.441406
3.200000 -5.160000 7.120000 33.047012 16.692074 1370.730347
3.200000 -5.160000 7.160000 17.121750 27.456053 1046.989136
3.200000 -5.160000 7.200000 -0.084585 27.209991 740.390747
3.200000 -5.120000 6.800000 14.659706 0.151330 214.929886
3.200000 -5.120000 6.840000 -0.241810 0.707024 0.558354
3.200000 -5.120000 6.880000 -8.723259 -11.290902 203.579712
3.200000 -5.120000 6.920000 -3.428611 -26.296021 703.236084
3.200000 -5.120000 6.960000 13.190252 -32.778099 1248.386597
3.200000 -5.120000 7.000000 31.196388 -25.146687 1605.570557
3.200000 -5.120000 7.040000 40.280937 -6.766434 1668.338623
3.200000 -5.120000 7.080000 36.006851 13.243903 1471.894287
3.200000 -5.120000 7.120000 21.348978 26.081236 1136.009766
3.200000 -5.120000 7.160000 3.656091 27.812435 786.898560
3.200000 -5.120000 7.200000 -9.959394 20.156239 505.463470
3.200000 -5.080000 6.800000 5.503717 22.895885 554.512451
3.200000 -5.080000 6.840000 -15.066406 12.368896 379.986206
3.200000 -5.080000 6.880000 -19.894306 -9.990719 495.597870
3.200000 -5.080000 6.920000 -5.839370 -27.993855 817.754150
3.200000 -5.080000 6.960000 16.896994 -29.420536 1151.076294
3.200000 -5.080000 7.000000 33.353394 -14.324153 1317.630249
3.200000 -5.080000 7.040000 34.730629 6.847468 1253.104370
3.200000 -5.080000 7.080000 22.866369 22.174305 1014.570679
3.200000 -5.080000 7.120000 6.277561 26.008648 715.857544
3.200000 -5.080000 7.160000 -6.957967 20.109543 452.807007
3.200000 -5.080000 7.200000 -13.215337 9.667890 268.113220
3.200000 -5.040000 6.800000 -21.457729 30.879257 1413.962646
3.200000 -5.040000 6.840000 -37.774277 6.329233 1466.955200
3.200000 -5.040000 6.880000 -30.814714 -22.213114 1442.968994
3.200000 -5.040000 6.920000 -6.078601 -36.055088 1336.918701
3.200000 -5.040000 6.960000 19.132677 -28.134724 1157.622070
3.200000 -5.040000 7.000000 29.692348 -6.883653 929.020264
3.200000 -5.040000 7.040000 23.028164 12.449023 685.274536
3.200000 -5.040000 7.080000 7.945463 19.972488 462.030701
3.200000 -5.040000 7.120000 -4.787096 16.223206 286.108704
3.200000 -5.040000 7.160000 -10.305032 7.805621 167.121399
3.200000 -5.040000 7.200000 -9.912141 0.217248 98.297729
3.200000 -5.000000 6.800000 -47.692390 14.337166 2480.118652
3.200000 -5.000000 6.840000 -50.220146 -18.257647 2855.404541
3.200000 -5.000000 6.880000 -28.997711 -43.215080 2708.410400
3.200000 -5.000000 6.920000 1.900235 -45.899647 2110.388428
3.200000 -5.000000 6.960000 23.139809 -28.170803 1329.044922
3.200000 -5.000000 7.000000 25.080694 -5.077971 654.826965
3.200000 -5.000000 7.040000 13.052917 8.508617 242.775238
3.200000 -5.000000 7.080000 -0.165056 8.655605 74.946747
3.200000 -5.000000 7.120000 -5.998938 1.884975 39.540382
3.200000 -5.000000 7.160000 -4.927632 -3.647764 37.587746
3.200000 -5.000000 7.200000 -2.015682 -5.263923 31.771854
3.200000 -4.960000 6.800000 -53.701080 -17.621380 3194.318848
3.200000 -4.960000 6.840000 -40.478508 -46.670670 3816.661133
3.200000 -4.960000 6.880000 -10.898987 -59.271732 3631.926025
3.200000 -4.960000 6.920000 17.483479 -49.332306 2739.348633
3.200000 -4.960000 6.960000 29.637890 -26.369505 1573.755371
3.200000 -4.960000 7.000000 23.943411 -6.673123 617.817505
3.200000 -4.960000 7.040000 11.042191 -0.036506 121.931305
3.200000 -4.960000 7.080000 2.946695 -3.908784 23.961605
3.200000 -4.960000 7.120000 3.269530 -8.915234 90.171219
3.200000 -4.960000 7.160000 6.994261 -8.832009 126.924072
3.200000 -4.960000 7.200000 7.975767 -5.058509 89.201370
3.200000 -4.920000 6.800000 -34.751831 -43.809807 3126.989014
3.200000 -4.920000 6.840000 -13.207967 -60.168262 3794.670166
3.200000 -4.920000 6.880000 14.265439 -59.017899 3686.614990
3.200000 -4.920000 6.920000 33.285954 -41.878513 2861.764648
3.200000 -4.920000 6.960000 36.194477 -20.451555 1728.306274
3.200000 -4.920000 7.000000 27.127956 -7.074458 785.973999
3.200000 -4.920000 7.040000 17.160341 -5.373979 323.356964
3.200000 -4.920000 7.080000 14.329372 -9.168139 289.385681
3.200000 -4.920000 7.120000 17.659708 -9.834011 408.573059
3.200000 -4.920000 7.160000 20.137644 -4.640910 427.062744
3.200000 -4.920000 7.200000 16.837589 1.726061 286.483704
3.200000 -4.880000 6.800000 -4.478935 -47.677444 2293.199463
3.200000 -4.880000 6.840000 14.044260 -51.104420 2808.902832
3.200000 -4.880000 6.880000 31.953344 -42.894535 2860.957520
3.200000 -4.880000 6.920000 41.237980 -26.698303 2413.370361
3.200000 -4.880000 6.960000 39.437691 -11.037971 1677.168213
3.200000 -4.880000 7.000000 31.507666 -2.965145 1001.525024
3.200000 -4.880000 7.040000 25.554970 -2.636977 660.010132
3.200000 -4.880000 7.080000 25.762032 -3.809741 678.196350
3.200000 -4.880000 7.120000 28.896774 -0.242082 835.082153
3.200000 -4.880000 7.160000 28.078827 7.904875 850.907593
3.200000 -4.880000 7.200000 20.384298 14.118106 614.840515
3.200000 -4.840000 6.800000 16.373611 -29.781580 1155.037598
3.200000 -4.840000 6.840000 25.144188 -28.355991 1436.292480
3.200000 -4.840000 6.880000 33.973598 -22.135538 1644.187500
3.200000 -4.840000 6.920000 38.872406 -11.635419 1646.446899
3.200000 -4.840000 6.960000 37.562862 -1.033056 1412.035889
3.200000 -4.840000 7.000000 32.494057 5.082829 1081.698975
3.200000 -4.840000 7.040000 29.045048 6.538160 886.362366
3.200000 -4.840000 7.080000 29.779343 8.199089 954.034302
3.200000 -4.840000 7.120000 30.985365 14.553738 1171.904053
3.200000 -4.840000 7.160000 26.425388 23.657732 1257.989502
3.200000 -4.840000 7.200000 15.141541 27.973434 1011.779297
3.200000 -4.800000 6.800000 16.221138 -5.971010 298.778259
3.200000 -4.800000 6.840000 17.495628 -8.890821 385.143738
3.200000 -4.800000 6.880000 23.834396 -8.945396 648.098572
3.200000 -4.800000 6.920000 30.104334 -2.856157 914.428589
3.200000 -4.800000 6.960000 31.173098 6.281106 1011.214294
3.200000 -4.800000 7.000000 27.715591 12.852454 933.339600
3.200000 -4.800000 7.040000 24.833897 15.664986 862.114197
3.200000 -4.800000 7.080000 24.883503 19.219120 988.563293
3.200000 -4.800000 7.120000 23.613422 27.136726 1293.995605
3.200000 -4.800000 7.160000 15.280567 35.778492 1513.596191
3.200000 -4.800000 7.200000 1.273720 36.856743 1360.041748
