#kx 	ky 	kz 	real 	imag 	intensity
0.800000 6.800000 2.983333 -113.237289 -100.005142 22823.710938
0.800000 6.800000 2.991667 92.885468 -70.943474 13660.686523
0.800000 6.800000 3.000000 -70.492355 72.817917 10271.621094
0.800000 6.800000 3.008333 -89.235962 -171.646011 37425.410156
0.800000 6.800000 3.016667 128.154297 -91.083153 24719.664062
0.800000 6.900000 2.983333 12.262669 -100.681915 10287.220703
0.800000 6.900000 2.991667 68.015503 8.173428 4692.913086
0.800000 6.900000 3.000000 -47.068726 -60.657982 5894.855469
0.800000 6.900000 3.008333 100.028061 -119.574860 24303.761719
0.800000 6.900000 3.016667 141.972031 2.536613 20162.490234
0.800000 7.000000 2.983333 15.350510 -51.465618 2884.348145
0.800000 7.000000 2.991667 136.824173 -38.271843 20185.587891
0.800000 7.000000 3.000000 69.911530 88.879471 12787.182617
0.800000 7.000000 3.008333 78.469490 -17.547958 6465.391602
0.800000 7.000000 3.016667 127.248192 188.685913 51794.476562
0.800000 7.100000 2.983333 12.452034 -43.708668 2065.500732
0.800000 7.100000 2.991667 150.303375 151.485123 45538.847656
0.800000 7.100000 3.000000 -179.610535 107.230537 43758.332031
0.800000 7.100000 3.008333 46.023346 -1.434912 2120.207520
0.800000 7.100000 3.016667 -192.893127 102.871269 47790.257812
0.800000 7.200000 2.983333 30.618122 -40.924767 2612.305908
0.800000 7.200000 2.991667 -31.869194 150.436127 23646.671875
0.800000 7.200000 3.000000 -108.856956 -125.908546 27702.798828
0.800000 7.200000 3.008333 46.997696 -3.513752 2221.129883
0.800000 7.200000 3.016667 17.424829 -139.754669 19834.992188
0.900000 6.800000 2.983333 0.176978 -53.180511 2828.197998
0.900000 6.800000 2.991667 41.909847 -83.513802 8730.990234
0.900000 6.800000 3.000000 12.022070 35.466965 1402.435791
0.900000 6.800000 3.008333 12.839798 -148.665298 22266.232422
0.900000 6.800000 3.016667 199.008484 69.293617 44405.980469
0.900000 6.900000 2.983333 386.882233 -628.489014 544676.312500
0.900000 6.900000 2.991667 -13.902283 513.763367 264146.093750
0.900000 6.900000 3.000000 -496.479706 -328.749786 354568.500000
0.900000 6.900000 3.008333 -98.011551 -366.926819 144241.562500
0.900000 6.900000 3.016667 155.916382 -639.541443 433323.156250
0.900000 7.000000 2.983333 1048.673340 350.003845 1222218.500000
0.900000 7.000000 2.991667 -687.985291 55.735924 476430.250000
0.900000 7.000000 3.000000 380.078369 -734.475098 683913.250000
0.900000 7.000000 3.008333 490.853210 -361.168518 371379.562500
0.900000 7.000000 3.016667 1187.364258 112.576538 1422507.375000
0.900000 7.100000 2.983333 -12.826279 669.731262 448704.468750
0.900000 7.100000 2.991667 -102.810974 -280.727234 89377.875000
0.900000 7.100000 3.000000 381.916321 155.781860 170128.062500
0.900000 7.100000 3.008333 276.278198 237.143494 132566.671875
0.900000 7.100000 3.016667 34.792286 750.505005 564468.250000
0.900000 7.200000 2.983333 55.120514 143.251251 23559.193359
0.900000 7.200000 2.991667 -198.004730 34.239765 40378.238281
0.900000 7.200000 3.000000 -10.470205 -126.489426 16109.200195
0.900000 7.200000 3.008333 6.414162 -27.639544 805.085876
0.900000 7.200000 3.016667 52.383892 -19.505995 3124.556152
1.000000 6.800000 2.983333 -53.804199 -75.380722 8577.145508
1.000000 6.800000 2.991667 153.606796 -76.428978 29436.437500
1.000000 6.800000 3.000000 -25.967026 76.020859 6453.457520
1.000000 6.800000 3.008333 72.910805 -135.338058 23632.375000
1.000000 6.800000 3.016667 123.537155 141.678802 35334.312500
1.000000 6.900000 2.983333 1129.854248 359.518616 1405824.250000
1.000000 6.900000 2.991667 -705.669373 87.778519 505674.312500
1.000000 6.900000 3.000000 384.359985 -855.167603 879044.250000
1.000000 6.900000 3.008333 615.340698 -365.805389 512457.750000
1.000000 6.900000 3.016667 1206.388794 106.033989 1466617.125000
1.000000 7.000000 2.983333 -312.905792 1737.787598 3117815.750000
1.000000 7.000000 2.991667 -171.709351 -1110.421265 1262519.500000
1.000000 7.000000 3.000000 1329.130859 492.223877 2008873.250000
1.000000 7.000000 3.008333 707.798401 669.765259 949564.062500
1.000000 7.000000 3.016667 271.695862 1976.248657 3979377.500000
1.000000 7.100000 2.983333 -1078.406616 45.424835 1165024.250000
1.000000 7.100000 2.991667 613.811035 -165.545380 404169.281250
1.000000 7.100000 3.000000 -265.927582 807.706909 723107.937500
1.000000 7.100000 3.008333 -297.790527 445.380493 287042.968750
1.000000 7.100000 3.016667 -1239.249756 361.500854 1666422.875000
1.000000 7.200000 2.983333 -125.135803 54.969902 18680.660156
1.000000 7.200000 2.991667 -56.756042 -93.496956 11962.928711
1.000000 7.200000 3.000000 41.951817 -111.505302 14193.387695
1.000000 7.200000 3.008333 91.725006 -24.712902 9024.204102
1.000000 7.200000 3.016667 66.278534 -35.102600 5625.036621
1.100000 6.800000 2.983333 65.767998 -82.276695 11094.884766
1.100000 6.800000 2.991667 97.798317 36.448044 10892.970703
1.100000 6.800000 3.000000 -26.138748 62.801323 4627.240234
1.100000 6.800000 3.008333 71.803528 -60.925945 8867.716797
1.100000 6.800000 3.016667 67.188606 182.002060 37639.058594
1.100000 6.900000 2.983333 -119.932930 872.262573 775225.937500
1.100000 6.900000 2.991667 -124.423927 -427.962463 198633.187500
1.100000 6.900000 3.000000 548.915771 214.907562 347493.781250
1.100000 6.900000 3.008333 325.343231 343.835052 224070.765625
1.100000 6.900000 3.016667 12.756743 894.115845 799605.875000
1.100000 7.000000 2.983333 -1260.522949 -79.795242 1595285.375000
1.100000 7.000000 2.991667 694.031372 -261.207825 549909.062500
1.100000 7.000000 3.000000 -222.467224 903.291504 865427.250000
1.100000 7.000000 3.008333 -373.624146 471.042725 361476.250000
1.100000 7.000000 3.016667 -1229.803467 366.342896 1646623.750000
1.100000 7.100000 2.983333 -45.520058 -751.854675 567357.500000
1.100000 7.100000 2.991667 206.278931 409.559601 210290.062500
1.100000 7.100000 3.000000 -563.848755 -100.460434 328017.718750
1.100000 7.100000 3.008333 -266.076721 -185.626648 105254.078125
1.100000 7.100000 3.016667 -317.917023 -709.694580 604737.625000
1.100000 7.200000 2.983333 -0.415752 16.955231 287.652710
1.100000 7.200000 2.991667 -15.383324 -4.418303 256.168060
1.100000 7.200000 3.000000 66.523445 7.794747 4486.126953
1.100000 7.200000 3.008333 30.953569 57.378983 4250.471191
1.100000 7.200000 3.016667 41.265491 90.909874 9967.446289
1.200000 6.800000 2.983333 27.788509 33.637897 1903.709473
1.200000 6.800000 2.991667 65.158760 -14.544659 4457.210938
1.200000 6.800000 3.000000 -70.226219 36.785919 6284.925781
1.200000 6.800000 3.008333 106.033791 -77.637985 17270.822266
1.200000 6.800000 3.016667 -38.622841 176.155273 32522.404297
1.200000 6.900000 2.983333 -191.069260 -31.468550 37497.730469
1.200000 6.900000 2.991667 49.937737 -31.482733 3484.939941
1.200000 6.900000 3.000000 -66.681725 -24.748350 5058.933105
1.200000 6.900000 3.008333 60.937271 22.824024 4234.287109
1.200000 6.900000 3.016667 -131.683136 -10.119549 17442.853516
1.200000 7.000000 2.983333 75.961258 -219.968506 54156.257812
1.200000 7.000000 2.991667 109.198616 -1.034073 11925.407227
1.200000 7.000000 3.000000 25.908325 -42.765625 2500.140137
1.200000 7.000000 3.008333 76.587608 -9.173981 5949.823730
1.200000 7.000000 3.016667 51.987003 12.200939 2851.511230
1.200000 7.100000 2.983333 125.294189 113.106613 28491.738281
1.200000 7.100000 2.991667 30.654518 70.834198 5957.182617
1.200000 7.100000 3.000000 13.500912 59.039440 3667.930176
1.200000 7.100000 3.008333 50.997700 56.767544 5823.319336
1.200000 7.100000 3.016667 -47.138634 124.144951 17634.019531
1.200000 7.200000 2.983333 -114.531830 67.111511 17621.496094
1.200000 7.200000 2.991667 -29.035095 -21.766119 1316.800659
1.200000 7.200000 3.000000 -67.119698 -7.366223 4559.314941
1.200000 7.200000 3.008333 20.998260 -7.743635 500.890839
1.200000 7.200000 3.016667 -95.406052 16.658241 9379.811523
