#kx 	ky 	kz 	real 	imag 	intensity
0.800000 6.800000 2.800000 11.083297 -19.747330 512.796509
0.800000 6.800000 2.840000 9.193447 -6.624237 128.399994
0.800000 6.800000 2.880000 -2.078395 -3.210159 14.624846
0.800000 6.800000 2.920000 -9.537735 -12.844808 255.957489
0.800000 6.800000 2.960000 -3.300465 -25.916199 682.542419
0.800000 6.800000 3.000000 13.698781 -28.794743 1016.793823
0.800000 6.800000 3.040000 28.408274 -16.551193 1080.972046
0.800000 6.800000 3.080000 29.753462 2.829495 893.274536
0.800000 6.800000 3.120000 18.155111 16.439018 599.849365
0.800000 6.800000 3.160000 3.555413 18.117498 340.884705
0.800000 6.800000 3.200000 -5.030220 12.230503 174.888306
0.800000 6.840000 2.800000 11.677829 -13.260562 312.214172
0.800000 6.840000 2.840000 5.914715 -4.356303 53.961227
0.800000 6.840000 2.880000 -4.314004 -6.928263 66.611465
0.800000 6.840000 2.920000 -5.869915 -19.452456 412.853943
0.800000 6.840000 2.960000 6.809575 -29.074127 891.675171
0.800000 6.840000 3.000000 25.107418 -23.800030 1196.823853
0.800000 6.840000 3.040000 33.696926 -4.649661 1157.102173
0.800000 6.840000 3.080000 25.065979 14.719032 844.953186
0.800000 6.840000 3.120000 6.482140 20.814869 475.276886
0.800000 6.840000 3.160000 -7.575420 12.575547 215.531387
0.800000 6.840000 3.200000 -9.420680 0.755136 89.319443
0.800000 6.880000 2.800000 11.424875 -12.790253 294.118347
0.800000 6.880000 2.840000 6.208010 -8.140732 104.810898
0.800000 6.880000 2.880000 0.721447 -13.407682 180.286438
0.800000 6.880000 2.920000 5.267139 -23.470856 578.623779
0.800000 6.880000 2.960000 20.123474 -25.891808 1075.339844
0.800000 6.880000 3.000000 33.735405 -13.843123 1329.709595
0.800000 6.880000 3.040000 33.630501 5.816992 1164.848022
0.800000 6.880000 3.080000 19.128223 18.435707 705.764221
0.800000 6.880000 3.120000 2.324176 15.780851 254.437057
0.800000 6.880000 3.160000 -3.993464 3.751989 30.025175
0.800000 6.880000 3.200000 1.301868 -4.539235 22.299511
0.800000 6.920000 2.800000 17.202003 -13.196983 470.069305
0.800000 6.920000 2.840000 14.134814 -9.386290 287.895386
0.800000 6.920000 2.880000 12.372111 -12.850651 318.208374
0.800000 6.920000 2.920000 18.677797 -17.489845 654.754761
0.800000 6.920000 2.960000 30.235905 -14.029003 1111.022949
0.800000 6.920000 3.000000 36.807774 -0.609159 1355.183350
0.800000 6.920000 3.040000 31.442181 14.270071 1192.245605
0.800000 6.920000 3.080000 18.120564 20.107265 732.656982
0.800000 6.920000 3.120000 7.783493 15.158960 290.376831
0.800000 6.920000 3.160000 6.888179 7.786002 108.068832
0.800000 6.920000 3.200000 11.112740 6.892317 170.997009
0.800000 6.960000 2.800000 26.314449 -5.790090 725.975403
0.800000 6.960000 2.840000 22.854387 -0.490601 522.563660
0.800000 6.960000 2.880000 20.610672 -1.223774 426.297424
0.800000 6.960000 2.920000 24.164846 -2.595760 590.677795
0.800000 6.960000 2.960000 30.632519 1.728456 941.338745
0.800000 6.960000 3.000000 33.044216 11.991024 1235.704834
0.800000 6.960000 3.040000 27.931030 22.210907 1273.466797
0.800000 6.960000 3.080000 18.670069 26.744423 1063.835693
0.800000 6.960000 3.120000 11.165444 25.876036 794.236328
0.800000 6.960000 3.160000 7.248879 24.271048 641.630005
0.800000 6.960000 3.200000 3.571742 24.512024 613.596619
0.800000 7.000000 2.800000 28.585098 10.649214 930.513611
0.800000 7.000000 2.840000 21.528805 15.541671 705.032959
0.800000 7.000000 2.880000 16.343298 14.046125 464.397034
0.800000 7.000000 2.920000 17.002640 11.161507 413.668976
0.800000 7.000000 2.960000 21.593325 12.612439 625.345276
0.800000 7.000000 3.000000 24.604572 19.957846 1003.700562
0.800000 7.000000 3.040000 21.762684 29.900326 1367.643921
0.800000 7.000000 3.080000 12.909406 37.516846 1574.166382
0.800000 7.000000 3.120000 1.016363 39.759121 1581.820679
0.800000 7.000000 3.160000 -10.448594 36.258160 1423.827271
0.800000 7.000000 3.200000 -18.891457 28.132963 1148.350830
0.800000 7.040000 2.800000 17.328833 26.821785 1019.696594
0.800000 7.040000 2.840000 7.153674 26.941338 777.010742
0.800000 7.040000 2.880000 1.357815 20.744343 432.171417
0.800000 7.040000 2.920000 3.367179 14.149181 211.537231
0.800000 7.040000 2.960000 10.629879 13.906988 306.398621
0.800000 7.040000 3.000000 15.841368 22.451965 755.039673
0.800000 7.040000 3.040000 12.038477 35.445320 1401.295654
0.800000 7.040000 3.080000 -2.060453 44.278751 1964.853271
0.800000 7.040000 3.120000 -20.567757 42.029736 2189.531250
0.800000 7.040000 3.160000 -34.200775 28.435127 1978.249512
0.800000 7.040000 3.200000 -36.498161 10.128389 1434.699951
0.800000 7.080000 2.800000 -2.767438 31.378723 992.282959
0.800000 7.080000 2.840000 -11.515413 24.612194 738.364807
0.800000 7.080000 2.880000 -12.915878 13.887087 359.671082
0.800000 7.080000 2.920000 -5.478436 6.496681 72.220131
0.800000 7.080000 2.960000 5.334604 9.266562 114.327164
0.800000 7.080000 3.000000 9.470892 22.201456 582.602478
0.800000 7.080000 3.040000 -0.076293 36.394474 1324.563599
0.800000 7.080000 3.080000 -20.355850 39.723732 1992.335449
0.800000 7.080000 3.120000 -39.178928 26.635880 2244.458496
0.800000 7.080000 3.160000 -44.104458 3.518970 1957.586426
0.800000 7.080000 3.200000 -32.368816 -15.741508 1295.535278
0.800000 7.120000 2.800000 -19.454739 22.000252 862.497925
0.800000 7.120000 2.840000 -22.231318 11.006941 615.384216
0.800000 7.120000 2.880000 -16.530144 0.304607 273.338440
0.800000 7.120000 2.920000 -4.171315 -2.596760 24.143028
0.800000 7.120000 2.960000 6.171777 6.383060 78.834297
0.800000 7.120000 3.000000 4.376502 22.042791 505.038422
0.800000 7.120000 3.040000 -11.773160 31.522541 1132.277832
0.800000 7.120000 3.080000 -32.293324 24.326044 1634.615234
0.800000 7.120000 3.120000 -41.675236 2.362407 1742.406250
0.800000 7.120000 3.160000 -31.853203 -20.122173 1419.528320
0.800000 7.120000 3.200000 -9.607733 -27.873428 869.236511
0.800000 7.160000 2.800000 -24.447010 7.341475 651.553589
0.800000 7.160000 2.840000 -20.783066 -2.888945 440.281830
0.800000 7.160000 2.880000 -10.168865 -8.807163 180.971954
0.800000 7.160000 2.920000 2.287862 -4.731197 27.618542
0.800000 7.160000 2.960000 7.003377 8.561792 122.351585
0.800000 7.160000 3.000000 -2.038724 21.320169 458.706024
0.800000 7.160000 3.040000 -19.819441 21.456968 853.211731
0.800000 7.160000 3.080000 -32.232613 5.721685 1071.678955
0.800000 7.160000 3.120000 -27.650597 -15.517427 1005.346069
0.800000 7.160000 3.160000 -7.911983 -26.028469 740.080688
0.800000 7.160000 3.200000 12.320776 -17.755621 467.063599
0.800000 7.200000 2.800000 -20.546568 -1.990798 426.124725
0.800000 7.200000 2.840000 -13.764061 -8.773008 266.415039
0.800000 7.200000 2.880000 -2.907743 -9.108664 91.422714
0.800000 7.200000 2.920000 5.049591 -0.582662 25.837864
0.800000 7.200000 2.960000 2.817781 11.511740 140.460052
0.800000 7.200000 3.000000 -9.333063 16.706783 366.222656
0.800000 7.200000 3.040000 -21.508728 8.669296 537.782043
0.800000 7.200000 3.080000 -21.943577 -7.500223 537.773926
0.800000 7.200000 3.120000 -8.151195 -18.320724 402.090942
0.800000 7.200000 3.160000 9.614451 -13.732016 281.005920
0.800000 7.200000 3.200000 16.862555 3.382195 295.784973
0.840000 6.800000 2.800000 20.340378 -2.366632 419.331909
0.840000 6.800000 2.840000 9.974189 4.066743 116.022842
0.840000 6.800000 2.880000 0.188478 -0.744702 0.590106
0.840000 6.800000 2.920000 -0.206409 -11.299086 127.711937
0.840000 6.800000 2.960000 9.325617 -17.556448 395.195984
0.840000 6.800000 3.000000 21.325020 -13.498985 636.979065
0.840000 6.800000 3.040000 27.162582 -1.360179 739.656006
0.840000 6.800000 3.080000 23.686920 11.529396 693.997192
0.840000 6.800000 3.120000 14.045753 19.176670 565.027832
0.840000 6.800000 3.160000 3.378957 20.417494 428.291412
0.840000 6.800000 3.200000 -5.361897 17.217434 325.189972
0.840000 6.840000 2.800000 13.207629 3.405252 186.037216
0.840000 6.840000 2.840000 7.415627 2.973311 63.832111
0.840000 6.840000 2.880000 6.108909 -1.389398 39.249199
0.840000 6.840000 2.920000 10.324314 -3.852424 121.432632
0.840000 6.840000 2.960000 15.794601 -0.498590 249.718033
0.840000 6.840000 3.000000 17.044277 7.297905 343.766815
0.840000 6.840000 3.040000 12.204629 14.463238 358.138214
0.840000 6.840000 3.080000 4.114480 16.879625 301.850708
0.840000 6.840000 3.120000 -2.848830 14.471407 217.537445
0.840000 6.840000 3.160000 -6.627806 10.121489 146.372345
0.840000 6.840000 3.200000 -8.258580 6.117751 105.631020
0.840000 6.880000 2.800000 9.461404 0.796221 90.152138
0.840000 6.880000 2.840000 11.780916 1.727459 141.774109
0.840000 6.880000 2.880000 13.959115 6.019302 231.088898
0.840000 6.880000 2.920000 12.304455 12.538246 308.607239
0.840000 6.880000 2.960000 5.751974 17.022362 322.846008
0.840000 6.880000 3.000000 -2.465704 15.920837 259.552765
0.840000 6.880000 3.040000 -7.358589 9.877979 151.723312
0.840000 6.880000 3.080000 -6.553984 3.384632 54.410435
0.840000 6.880000 3.120000 -2.362477 0.833822 6.276558
0.840000 6.880000 3.160000 0.490124 2.672909 7.384663
0.840000 6.880000 3.200000 -0.713625 5.259158 28.168005
0.840000 6.920000 2.800000 13.851489 -0.484187 192.098190
0.840000 6.920000 2.840000 18.212530 9.104576 414.589569
0.840000 6.920000 2.880000 13.224535 21.459316 635.390564
0.840000 6.920000 2.920000 -1.032643 27.131966 737.209900
0.840000 6.920000 2.960000 -15.870625 20.128399 657.029175
0.840000 6.920000 3.000000 -20.597221 4.269791 442.476624
0.840000 6.920000 3.040000 -11.868719 -9.113269 223.918152
0.840000 6.920000 3.080000 3.060447 -10.543530 120.532364
0.840000 6.920000 3.120000 12.452911 -0.329250 155.183395
0.840000 6.920000 3.160000 9.975107 12.173918 247.707031
0.840000 6.920000 3.200000 -0.590646 16.976435 288.548218
0.840000 6.960000 2.800000 19.036726 7.544336 419.313965
0.840000 6.960000 2.840000 15.451580 23.769903 803.759644
0.840000 6.960000 2.880000 -2.049880 33.695663 1139.599731
0.840000 6.960000 2.920000 -23.529110 26.383175 1249.690918
0.840000 6.960000 2.960000 -32.582623 3.898628 1076.826660
0.840000 6.960000 3.000000 -20.709721 -18.019026 753.577820
0.840000 6.960000 3.040000 3.893995 -22.473469 520.219971
0.840000 6.960000 3.080000 22.368336 -6.136320 537.996887
0.840000 6.960000 3.120000 21.058659 17.710085 757.114197
0.840000 6.960000 3.160000 2.718499 30.802410 956.178711
0.840000 6.960000 3.200000 -17.011848 25.253721 927.153442
0.840000 7.000000 2.800000 14.170705 21.058739 644.279358
0.840000 7.000000 2.840000 -0.875360 33.610298 1130.418335
0.840000 7.000000 2.880000 -24.381340 30.147896 1503.345459
0.840000 7.000000 2.920000 -38.885704 7.445927 1567.539795
0.840000 7.000000 2.960000 -30.055843 -20.326357 1316.514526
0.840000 7.000000 3.000000 -1.510657 -31.320185 983.236084
0.840000 7.000000 3.040000 25.566116 -15.156013 883.331055
0.840000 7.000000 3.080000 29.658396 16.571609 1154.238647
0.840000 7.000000 3.120000 7.656497 39.420284 1612.580811
0.840000 7.000000 3.160000 -22.628891 36.976589 1879.334961
0.840000 7.000000 3.200000 -38.503811 14.134949 1682.340210
0.840000 7.040000 2.800000 -2.242098 27.761702 775.739075
0.840000 7.040000 2.840000 -21.589813 27.792854 1238.562744
0.840000 7.040000 2.880000 -37.762188 10.213783 1530.304199
0.840000 7.040000 2.920000 -34.747093 -17.140053 1501.141846
0.840000 7.040000 2.960000 -9.437126 -33.747887 1227.979126
0.840000 7.040000 3.000000 21.335260 -23.532021 1008.949341
0.840000 7.040000 3.040000 32.761642 8.681890 1148.700439
0.840000 7.040000 3.080000 13.834596 38.639000 1684.368286
0.840000 7.040000 3.120000 -21.700144 42.749844 2298.445312
0.840000 7.040000 3.160000 -46.714470 18.637510 2529.598389
0.840000 7.040000 3.200000 -44.186836 -13.401397 2132.073975
0.840000 7.080000 2.800000 -19.587130 19.993626 783.400696
0.840000 7.080000 2.840000 -31.859344 8.600954 1088.994263
0.840000 7.080000 2.880000 -32.474167 -12.549886 1212.071167
0.840000 7.080000 2.920000 -14.521572 -29.705601 1093.298828
0.840000 7.080000 2.960000 13.123557 -26.603821 879.991089
0.840000 7.080000 3.000000 29.226685 -0.849119 854.920105
0.840000 7.080000 3.040000 18.013882 29.839705 1214.907959
0.840000 7.080000 3.080000 -14.785298 40.617451 1868.382324
0.840000 7.080000 3.120000 -44.554276 21.395096 2442.833496
0.840000 7.080000 3.160000 -48.558350 -13.276554 2534.180176
0.840000 7.080000 3.200000 -25.754566 -36.746872 2013.630371
0.840000 7.120000 2.800000 -25.693220 3.150540 670.067444
0.840000 7.120000 2.840000 -25.707882 -10.062206 762.143188
0.840000 7.120000 2.880000 -14.503976 -22.593315 720.823181
0.840000 7.120000 2.920000 5.454765 -23.296520 572.482300
0.840000 7.120000 2.960000 20.842678 -6.607962 478.082397
0.840000 7.120000 3.000000 17.059746 18.338083 627.320190
0.840000 7.120000 3.040000 -7.049956 31.926558 1069.006958
0.840000 7.120000 3.080000 -34.638802 20.653984 1626.433594
0.840000 7.120000 3.120000 -43.630192 -9.135519 1987.051392
0.840000 7.120000 3.160000 -26.279495 -35.000832 1915.670166
0.840000 7.120000 3.200000 3.314106 -37.646149 1428.215820
0.840000 7.160000 2.800000 -19.117868 -9.826021 462.043579
0.840000 7.160000 2.840000 -11.611880 -16.230061 398.250610
0.840000 7.160000 2.880000 0.426420 -16.794027 282.221191
0.840000 7.160000 2.920000 11.042831 -7.414013 176.911713
0.840000 7.160000 2.960000 11.008223 8.770379 198.100510
0.840000 7.160000 3.000000 -3.274695 20.182369 418.051666
0.840000 7.160000 3.040000 -23.222956 15.434931 777.542725
0.840000 7.160000 3.080000 -32.788666 -5.042923 1100.527588
0.840000 7.160000 3.120000 -22.259907 -26.734259 1210.223999
0.840000 7.160000 3.160000 1.717916 -32.436928 1055.105591
0.840000 7.160000 3.200000 20.720890 -17.644161 740.671753
0.840000 7.200000 2.800000 -9.923089 -11.817776 238.127518
0.840000 7.200000 2.840000 -3.266283 -11.226744 136.708374
0.840000 7.200000 2.880000 2.270558 -6.316476 45.053303
0.840000 7.200000 2.920000 2.860657 1.956839 12.012575
0.840000 7.200000 2.960000 -3.933815 8.487135 87.506355
0.840000 7.200000 3.000000 -14.748446 6.761452 263.233887
0.840000 7.200000 3.040000 -20.801945 -4.563195 453.543671
0.840000 7.200000 3.080000 -14.922840 -18.105400 550.496704
0.840000 7.200000 3.120000 0.777565 -22.567465 509.895081
0.840000 7.200000 3.160000 14.958508 -12.766468 386.739655
0.840000 7.200000 3.200000 16.254984 4.656623 285.908630
0.880000 6.800000 2.800000 12.830742 17.344677 465.465759
0.880000 6.800000 2.840000 2.488067 12.029295 150.894409
0.880000 6.800000 2.880000 0.772433 2.882229 8.903896
0.880000 6.800000 2.920000 6.028561 -2.337379 41.806885
0.880000 6.800000 2.960000 12.119617 -1.262379 148.478729
0.880000 6.800000 3.000000 15.114342 3.079067 237.923981
0.880000 6.800000 3.040000 15.643956 7.543064 301.631195
0.880000 6.800000 3.080000 15.325819 12.370907 387.920044
0.880000 6.800000 3.120000 12.773197 18.893183 520.106934
0.880000 6.800000 3.160000 4.904200 24.979290 648.016052
0.880000 6.800000 3.200000 -7.733069 24.935926 681.600769
0.880000 6.840000 2.800000 0.304868 15.169940 230.220016
0.880000 6.840000 2.840000 3.971355 10.335321 122.590530
0.880000 6.840000 2.880000 9.018524 15.024622 307.073029
0.880000 6.840000 2.920000 5.107376 24.762817 639.282410
0.880000 6.840000 2.960000 -8.149693 27.857145 842.438049
0.880000 6.840000 3.000000 -19.969719 18.460648 739.585205
0.880000 6.840000 3.040000 -19.722223 3.669044 402.427979
0.880000 6.840000 3.080000 -8.590664 -3.437897 85.618637
0.880000 6.840000 3.120000 1.230076 2.462029 7.574674
0.880000 6.840000 3.160000 -0.789385 13.164356 173.923401
0.880000 6.840000 3.200000 -12.411926 15.494904 394.147949
0.880000 6.880000 2.800000 -2.493798 6.396145 47.129696
0.880000 6.880000 2.840000 8.451530 16.028004 328.325287
0.880000 6.880000 2.880000 2.675632 36.396996 1331.900391
0.880000 6.880000 2.920000 -23.751034 45.845032 2665.878418
0.880000 6.880000 2.960000 -52.446915 28.739456 3576.635254
0.880000 6.880000 3.000000 -58.787403 -6.910454 3503.713135
0.880000 6.880000 3.040000 -35.969681 -34.957016 2515.811035
0.880000 6.880000 3.080000 -2.427555 -35.211777 1245.762329
0.880000 6.880000 3.120000 15.363559 -12.087477 382.146027
0.880000 6.880000 3.160000 7.428162 10.788488 171.569061
0.880000 6.880000 3.200000 -12.245158 13.938222 344.217926
0.880000 6.920000 2.800000 3.225706 3.546903 22.985699
0.880000 6.920000 2.840000 4.358238 29.057074 863.307800
0.880000 6.920000 2.880000 -24.453947 49.006706 2999.652832
0.880000 6.920000 2.920000 -66.647476 35.609566 5709.927246
0.880000 6.920000 2.960000 -86.445480 -11.840109 7613.009277
0.880000 6.920000 3.000000 -62.137619 -61.550240 7649.515625
0.880000 6.920000 3.040000 -8.563915 -76.229912 5884.340332
0.880000 6.920000 3.080000 34.759998 -47.042542 3421.258301
0.880000 6.920000 3.120000 38.996223 -1.067900 1521.845825
0.880000 6.920000 3.160000 10.351447 24.734671 718.956421
0.880000 6.920000 3.200000 -19.412079 16.721527 656.438232
0.880000 6.960000 2.800000 5.869106 10.262859 139.772690
0.880000 6.960000 2.840000 -13.898985 36.771133 1545.297974
0.880000 6.960000 2.880000 -58.236374 35.190121 4629.819824
0.880000 6.960000 2.920000 -91.060158 -9.025362 8373.409180
0.880000 6.960000 2.960000 -76.971687 -70.856293 10945.254883
0.880000 6.960000 3.000000 -17.076420 -103.460312 10995.640625
0.880000 6.960000 3.040000 47.616501 -79.973969 8663.166016
0.880000 6.960000 3.080000 71.065659 -18.923048 5408.409180
0.880000 6.960000 3.120000 42.492641 32.269207 2846.926270
0.880000 6.960000 3.160000 -6.647121 39.792625 1627.637207
0.880000 6.960000 3.200000 -34.310547 10.690672 1291.504150
0.880000 7.000000 2.800000 -2.394507 17.189440 301.210510
0.880000 7.000000 2.840000 -36.378925 26.390348 2019.876709
0.880000 7.000000 2.880000 -73.154625 -2.934687 5360.211426
0.880000 7.000000 2.920000 -73.944916 -61.062920 9196.531250
0.880000 7.000000 2.960000 -23.941257 -105.490273 11701.380859
0.880000 7.000000 3.000000 47.681435 -96.773506 11638.630859
0.880000 7.000000 3.040000 89.221283 -36.342072 9281.183594
0.880000 7.000000 3.080000 71.530365 31.847935 6130.884277
0.880000 7.000000 3.120000 13.626993 59.330029 3705.747070
0.880000 7.000000 3.160000 -35.965935 34.776764 2502.971680
0.880000 7.000000 3.200000 -43.401199 -10.180857 1987.313965
0.880000 7.040000 2.800000 -15.969923 12.996769 423.954437
0.880000 7.040000 2.840000 -45.010494 0.135237 2025.962891
0.880000 7.040000 2.880000 -55.384720 -41.407288 4782.030762
0.880000 7.040000 2.920000 -24.296814 -84.527580 7735.246582
0.880000 7.040000 2.960000 36.888481 -90.326988 9519.724609
0.880000 7.040000 3.000000 85.660736 -44.748962 9340.231445
0.880000 7.040000 3.040000 83.645439 23.749340 7560.590820
0.880000 7.040000 3.080000 31.902725 65.887939 5359.004395
0.880000 7.040000 3.120000 -28.755417 54.155090 3759.647949
0.880000 7.040000 3.160000 -53.899788 5.813002 2938.978271
0.880000 7.040000 3.200000 -33.559273 -35.411682 2380.211914
0.880000 7.080000 2.800000 -21.665304 -2.149773 474.006927
0.880000 7.080000 2.840000 -31.482800 -24.259850 1579.707031
0.880000 7.080000 2.880000 -17.091471 -54.295967 3240.170410
0.880000 7.080000 2.920000 23.158539 -65.796631 4865.514648
0.880000 7.080000 2.960000 64.546936 -39.732109 5744.947754
0.880000 7.080000 3.000000 73.460991 13.297544 5573.341797
0.880000 7.080000 3.040000 38.126106 56.795731 4679.354980
0.880000 7.080000 3.080000 -17.466293 58.412460 3717.086914
0.880000 7.080000 3.120000 -52.396862 18.976997 3105.557617
0.880000 7.080000 3.160000 -44.214996 -28.033543 2740.845459
0.880000 7.080000 3.200000 -7.249511 -46.780022 2240.925781
0.880000 7.120000 2.800000 -13.466074 -16.055063 439.100189
0.880000 7.120000 2.840000 -6.647476 -29.753119 929.437012
0.880000 7.120000 2.880000 13.591558 -36.933434 1548.808960
0.880000 7.120000 2.920000 38.230728 -24.863554 2079.784912
0.880000 7.120000 2.960000 47.842155 6.312675 2328.721680
0.880000 7.120000 3.000000 29.240255 37.864761 2288.732666
0.880000 7.120000 3.040000 -9.183699 45.377007 2143.413086
0.880000 7.120000 3.080000 -40.703327 20.700653 2085.277832
0.880000 7.120000 3.120000 -42.091110 -18.480171 2113.178223
0.880000 7.120000 3.160000 -14.351868 -42.664635 2026.247070
0.880000 7.120000 3.200000 18.149931 -36.132614 1634.985840
0.880000 7.160000 2.800000 0.486879 -17.652443 311.845795
0.880000 7.160000 2.840000 9.383020 -16.564402 362.420471
0.880000 7.160000 2.880000 17.881044 -9.377577 407.670715
0.880000 7.160000 2.920000 20.499432 4.221355 438.046539
0.880000 7.160000 2.960000 11.581401 18.396503 472.560181
0.880000 7.160000 3.000000 -7.514551 22.506189 562.997070
0.880000 7.160000 3.040000 -25.490900 9.914408 748.081482
0.880000 7.160000 3.080000 -28.373890 -13.617834 990.523071
0.880000 7.160000 3.120000 -12.056662 -31.944790 1165.832642
0.880000 7.160000 3.160000 12.199534 -31.440619 1137.341187
0.880000 7.160000 3.200000 26.307306 -13.381557 871.140381
0.880000 7.200000 2.800000 6.727968 -9.176988 129.482666
0.880000 7.200000 2.840000 6.815719 -1.579800 48.949787
0.880000 7.200000 2.880000 2.246138 3.390471 16.540426
0.880000 7.200000 2.920000 -4.088434 4.171103 34.113388
0.880000 7.200000 2.960000 -9.842535 0.769693 97.467926
0.880000 7.200000 3.000000 -12.779198 -6.321756 203.272491
0.880000 7.200000 3.040000 -10.305552 -15.134085 335.244934
0.880000 7.200000 3.080000 -1.406160 -21.173786 450.306519
0.880000 7.200000 3.120000 10.556210 -19.500252 491.693390
0.880000 7.200000 3.160000 18.428049 -9.371565 427.419220
0.880000 7.200000 3.200000 16.489815 3.358156 283.191223
0.920000 6.800000 2.800000 -7.683985 26.122330 741.419739
0.920000 6.800000 2.840000 -9.099119 12.899683 249.195801
0.920000 6.800000 2.880000 -2.348866 6.850767 52.450180
0.920000 6.800000 2.920000 2.402752 8.985905 86.519699
0.920000 6.800000 2.960000 0.902538 11.502369 133.119064
0.920000 6.800000 3.000000 -1.232014 8.609772 75.646027
0.920000 6.800000 3.040000 3.146912 4.363361 28.941975
0.920000 6.800000 3.080000 12.071896 7.911453 208.321762
0.920000 6.800000 3.120000 14.639423 21.286842 667.442383
0.920000 6.800000 3.160000 2.980388 34.169201 1176.416992
0.920000 6.800000 3.200000 -17.093479 33.013329 1382.066895
0.920000 6.840000 2.800000 -18.219055 13.277734 508.232178
0.920000 6.840000 2.840000 -5.230932 14.963013 251.254410
0.920000 6.840000 2.880000 -5.905495 31.326426 1016.219788
0.920000 6.840000 2.920000 -27.657661 40.217926 2382.427734
0.920000 6.840000 2.960000 -52.891373 23.801895 3364.027588
0.920000 6.840000 3.000000 -55.767368 -10.411880 3218.406494
0.920000 6.840000 3.040000 -29.591389 -34.666832 2077.439453
0.920000 6.840000 3.080000 4.359833 -28.284349 819.012512
0.920000 6.840000 3.120000 16.974453 1.038944 289.211456
0.920000 6.840000 3.160000 -0.020752 24.562103 603.297363
0.920000 6.840000 3.200000 -26.528536 21.127781 1150.146240
0.920000 6.880000 2.800000 -14.891590 0.109115 221.771362
0.920000 6.880000 2.840000 -7.960609 25.590778 718.259216
0.920000 6.880000 2.880000 -37.390591 48.913971 3790.632812
0.920000 6.880000 2.920000 -85.264740 33.753029 8409.342773
0.920000 6.880000 2.960000 -107.237114 -22.834164 12021.198242
0.920000 6.880000 3.000000 -75.629478 -81.832603 12416.392578
0.920000 6.880000 3.040000 -9.269775 -96.765976 9449.583008
0.920000 6.880000 3.080000 41.815548 -57.873039 5097.828613
0.920000 6.880000 3.120000 42.648468 -1.218124 1820.375732
0.920000 6.880000 3.160000 4.284158 26.401840 715.411194
0.920000 6.880000 3.200000 -30.647884 10.833627 1056.660278
0.920000 6.920000 2.800000 -5.943470 -2.637210 42.279713
0.920000 6.920000 2.840000 -25.493748 32.616234 1713.749878
0.920000 6.920000 2.880000 -81.900024 32.866150 7787.797852
0.920000 6.920000 2.920000 -125.752380 -25.575167 16467.750000
0.920000 6.920000 2.960000 -106.233398 -109.865822 23356.035156
0.920000 6.920000 3.000000 -23.350285 -154.864151 24528.140625
0.920000 6.920000 3.040000 66.375755 -122.821060 19490.753906
0.920000 6.920000 3.080000 99.370697 -39.588303 11441.768555
0.920000 6.920000 3.120000 61.831680 29.269306 4679.849121
0.920000 6.920000 3.160000 -1.716821 38.676582 1498.825562
0.920000 6.920000 3.200000 -34.353821 0.956423 1181.099854
0.920000 6.960000 2.800000 -3.579163 2.142389 17.400236
0.920000 6.960000 2.840000 -49.083447 20.474512 2828.390381
0.920000 6.960000 2.880000 -104.002708 -19.345821 11190.824219
0.920000 6.960000 2.920000 -107.012703 -105.934425 22673.820312
0.920000 6.960000 2.960000 -32.352486 -175.006592 31673.990234
0.920000 6.960000 3.000000 77.632698 -165.035599 33263.585938
0.920000 6.960000 3.040000 144.978455 -76.203979 26825.798828
0.920000 6.960000 3.080000 125.049110 26.751818 16352.940430
0.920000 6.960000 3.120000 45.080326 72.220680 7248.062500
0.920000 6.960000 3.160000 -24.609930 43.713501 2516.518799
0.920000 6.960000 3.200000 -36.357483 -13.033354 1491.734863
0.920000 7.000000 2.800000 -9.497679 2.672897 97.350281
0.920000 7.000000 2.840000 -57.680428 -11.073671 3449.657959
0.920000 7.000000 2.880000 -79.052238 -76.814240 12149.683594
0.920000 7.000000 2.920000 -31.039837 -150.446838 23597.722656
0.920000 7.000000 2.960000 70.894943 -165.191498 32314.324219
0.920000 7.000000 3.000000 157.439850 -94.270172 33674.171875
0.920000 7.000000 3.040000 164.070602 18.783064 27271.964844
0.920000 7.000000 3.080000 89.190613 95.252106 17027.929688
0.920000 7.000000 3.120000 -5.115664 89.731186 8077.855469
0.920000 7.000000 3.160000 -50.304565 26.302856 3222.389648
0.920000 7.000000 3.200000 -30.169641 -30.522556 1841.833740
0.920000 7.040000 2.800000 -13.282818 -6.752359 222.027603
0.920000 7.040000 2.840000 -38.434731 -41.979767 3239.529297
0.920000 7.040000 2.880000 -18.904669 -98.973328 10153.106445
0.920000 7.040000 2.920000 52.923302 -126.480469 18798.183594
0.920000 7.040000 2.960000 133.475159 -85.288399 25089.728516
0.920000 7.040000 3.000000 160.349487 9.775024 25807.509766
0.920000 7.040000 3.040000 108.221481 95.890411 20906.859375
0.920000 7.040000 3.080000 14.140861 114.816086 13382.697266
0.920000 7.040000 3.120000 -54.080223 63.027336 6897.115234
0.920000 7.040000 3.160000 -56.805370 -8.515687 3299.366943
0.920000 7.040000 3.200000 -12.561227 -43.305370 2033.139526
0.920000 7.080000 2.800000 -5.385870 -18.174170 359.308044
0.920000 7.080000 2.840000 -1.983763 -48.705490 2376.160156
0.920000 7.080000 2.880000 35.354233 -71.690987 6389.519531
0.920000 7.080000 2.920000 89.665726 -55.114906 11077.595703
0.920000 7.080000 2.960000 119.291992 5.621376 14262.178711
0.920000 7.080000 3.000000 93.222977 75.593033 14404.830078
0.920000 7.080000 3.040000 22.299675 105.850876 11701.683594
0.920000 7.080000 3.080000 -45.978722 75.609787 7830.882812
0.920000 7.080000 3.120000 -66.997223 11.012899 4609.912109
0.920000 7.080000 3.160000 -36.309071 -38.310028 2786.006836
0.920000 7.080000 3.200000 10.348237 -42.645966 1925.764404
0.920000 7.120000 2.800000 10.505566 -18.842018 465.388550
0.920000 7.120000 2.840000 25.056664 -27.080542 1361.192139
0.920000 7.120000 2.880000 48.898911 -20.301722 2803.263428
0.920000 7.120000 2.920000 65.107704 8.386871 4309.353027
0.920000 7.120000 2.960000 54.652603 47.173737 5212.268555
0.920000 7.120000 3.000000 15.283333 70.030174 5137.805176
0.920000 7.120000 3.040000 -31.382889 57.434448 4283.601562
0.920000 7.120000 3.080000 -54.736511 15.156775 3225.813477
0.920000 7.120000 3.120000 -40.575718 -28.107708 2436.432129
0.920000 7.120000 3.160000 -3.376132 -44.114899 1957.522583
0.920000 7.120000 3.200000 26.821424 -28.358776 1523.608887
0.920000 7.160000 2.800000 20.444141 -6.463656 459.741760
0.920000 7.160000 2.840000 24.615295 2.638237 612.873047
0.920000 7.160000 2.880000 23.046661 13.863331 723.340576
0.920000 7.160000 2.920000 14.413128 24.024460 784.912964
0.920000 7.160000 2.960000 -0.958054 28.147215 793.183533
0.920000 7.160000 3.000000 -18.233070 21.020580 774.309692
0.920000 7.160000 3.040000 -28.063105 2.312286 792.884521
0.920000 7.160000 3.080000 -22.529488 -19.794485 899.399475
0.920000 7.160000 3.120000 -2.892162 -32.335819 1053.969849
0.920000 7.160000 3.160000 19.103298 -27.511063 1121.794556
0.920000 7.160000 3.200000 29.627319 -9.917236 976.129639
0.920000 7.200000 2.800000 15.756300 6.917009 296.106018
0.920000 7.200000 2.840000 4.180906 14.875359 238.756271
0.920000 7.200000 2.880000 -9.134298 10.768930 199.405273
0.920000 7.200000 2.920000 -14.540794 -1.332407 213.210022
0.920000 7.200000 2.960000 -10.287010 -12.384635 259.201752
0.920000 7.200000 3.000000 -1.770414 -17.089405 295.182129
0.920000 7.200000 3.040000 5.529974 -16.793358 312.597473
0.920000 7.200000 3.080000 10.838944 -15.041620 343.733063
0.920000 7.200000 3.120000 16.077639 -12.401377 412.284607
0.920000 7.200000 3.160000 20.938204 -6.799074 484.635803
0.920000 7.200000 3.200000 21.981243 1.884851 486.727722
0.960000 6.800000 2.800000 -29.185133 18.312714 1187.127441
0.960000 6.800000 2.840000 -19.505894 5.921791 415.547485
0.960000 6.800000 2.880000 -9.674408 7.085836 143.803253
0.960000 6.800000 2.920000 -10.030666 12.506058 257.015747
0.960000 6.800000 2.960000 -16.083992 9.803970 354.812622
0.960000 6.800000 3.000000 -14.509439 -0.972641 211.469864
0.960000 6.800000 3.040000 -0.187958 -6.230797 38.858158
0.960000 6.800000 3.080000 15.197720 5.564712 261.936707
0.960000 6.800000 3.120000 14.053812 28.632427 1017.325562
0.960000 6.800000 3.160000 -7.585582 42.924397 1900.044800
0.960000 6.800000 3.200000 -33.356392 33.808781 2255.682617
0.960000 6.840000 2.800000 -31.016373 -1.417435 964.024475
0.960000 6.840000 2.840000 -18.537933 11.846443 483.993164
0.960000 6.840000 2.880000 -33.714874 29.551989 2010.012695
0.960000 6.840000 2.920000 -66.205093 20.677155 4810.659180
0.960000 6.840000 2.960000 -80.975227 -20.339096 6970.666016
0.960000 6.840000 3.000000 -54.305801 -63.227310 6946.812988
0.960000 6.840000 3.040000 -1.189980 -69.740662 4865.175781
0.960000 6.840000 3.080000 36.159077 -32.392712 2356.766602
0.960000 6.840000 3.120000 28.625563 16.398369 1088.329346
0.960000 6.840000 3.160000 -11.686310 35.209202 1376.257690
0.960000 6.840000 3.200000 -44.421276 13.233205 2148.367432
0.960000 6.880000 2.800000 -19.687897 -14.060446 585.309448
0.960000 6.880000 2.840000 -30.953354 18.484913 1299.802124
0.960000 6.880000 2.880000 -80.454391 21.112228 6918.635254
0.960000 6.880000 2.920000 -120.795776 -32.651520 15657.741211
0.960000 6.880000 2.960000 -100.634140 -112.273483 22732.566406
0.960000 6.880000 3.000000 -18.960594 -153.219971 23835.863281
0.960000 6.880000 3.040000 67.683029 -117.900452 18481.509766
0.960000 6.880000 3.080000 95.617310 -33.496964 10264.716797
0.960000 6.880000 3.120000 52.742378 32.675392 3849.439941
0.960000 6.880000 3.160000 -13.021263 35.892296 1457.810303
0.960000 6.880000 3.200000 -42.586887 -7.930676 1876.538574
0.960000 6.920000 2.800000 -7.518436 -14.439535 265.027039
0.960000 6.920000 2.840000 -52.479820 8.796909 2831.517090
0.960000 6.920000 2.880000 -111.901291 -32.153206 13555.726562
0.960000 6.920000 2.920000 -115.083412 -127.054337 29386.996094
0.960000 6.920000 2.960000 -30.997501 -203.341553 42308.628906
0.960000 6.920000 3.000000 92.764725 -190.545532 44912.894531
0.960000 6.920000 3.040000 167.386536 -89.108482 35958.574219
0.960000 6.920000 3.080000 142.874084 26.492363 21114.849609
0.960000 6.920000 3.120000 52.116798 75.122612 8359.567383
0.960000 6.920000 3.160000 -23.825102 40.432701 2202.438965
0.960000 6.920000 3.200000 -32.450729 -22.807604 1573.236572
0.960000 6.960000 2.800000 -3.244882 -10.407833 118.852249
0.960000 6.960000 2.840000 -62.337769 -22.443253 4389.696777
0.960000 6.960000 2.880000 -90.713364 -102.653267 18766.607422
0.960000 6.960000 2.920000 -31.196775 -195.562592 39217.964844
0.960000 6.960000 2.960000 98.017250 -214.806610 55749.257812
0.960000 6.960000 3.000000 208.604263 -125.283592 59211.718750
0.960000 6.960000 3.040000 218.394958 17.752466 48011.507812
0.960000 6.960000 3.080000 125.949097 114.727768 29025.636719
0.960000 6.960000 3.120000 10.029005 109.590912 12110.749023
0.960000 6.960000 3.160000 -44.496841 34.243210 3152.566406
0.960000 6.960000 3.200000 -20.146906 -30.776913 1353.116211
0.960000 7.000000 2.800000 -2.999681 -11.573875 142.952667
0.960000 7.000000 2.840000 -42.563011 -57.408501 5107.345703
0.960000 7.000000 2.880000 -18.541866 -139.089935 19689.810547
0.960000 7.000000 2.920000 82.945129 -181.092041 39674.222656
0.960000 7.000000 2.960000 199.739319 -124.806564 55472.476562
0.960000 7.000000 3.000000 241.854492 9.802778 58589.687500
0.960000 7.000000 3.040000 172.598175 133.940979 47730.316406
0.960000 7.000000 3.080000 43.565918 165.940979 29434.398438
0.960000 7.000000 3.120000 -51.722893 101.199890 12916.675781
0.960000 7.000000 3.160000 -60.192444 9.388361 3711.271729
0.960000 7.000000 3.200000 -8.125950 -34.695362 1269.799194
0.960000 7.040000 2.800000 3.056532 -16.863342 293.714691
0.960000 7.040000 2.840000 0.921152 -68.006195 4625.691406
0.960000 7.040000 2.880000 59.035889 -111.374207 15889.450195
0.960000 7.040000 2.920000 150.346008 -89.677536 30645.982422
0.960000 7.040000 2.960000 204.561218 7.333534 41899.074219
0.960000 7.040000 3.000000 169.011185 123.386932 43789.117188
0.960000 7.040000 3.040000 59.568253 179.351212 35715.234375
0.960000 7.040000 3.080000 -49.688446 141.441956 22474.767578
0.960000 7.040000 3.120000 -90.071365 48.954842 10509.427734
0.960000 7.040000 3.160000 -54.682785 -24.304670 3580.924072
0.960000 7.040000 3.200000 4.642394 -35.806240 1303.638672
0.960000 7.080000 2.800000 16.770214 -15.781942 530.309814
0.960000 7.080000 2.840000 39.113354 -42.577637 3342.709473
0.960000 7.080000 2.880000 89.787811 -39.692158 9637.318359
0.960000 7.080000 2.920000 131.159042 12.615341 17361.841797
0.960000 7.080000 2.960000 120.360054 91.789108 22911.783203
0.960000 7.080000 3.000000 49.971657 145.063599 23540.613281
0.960000 7.080000 3.040000 -39.724876 132.873749 19233.500000
0.960000 7.080000 3.080000 -91.829514 63.957447 12523.213867
0.960000 7.080000 3.120000 -79.887703 -11.800327 6521.292480
0.960000 7.080000 3.160000 -27.175480 -46.459332 2896.976074
0.960000 7.080000 3.200000 18.476782 -32.203732 1378.471802
0.960000 7.120000 2.800000 27.687565 -2.102881 771.023376
0.960000 7.120000 2.840000 44.925842 0.537477 2018.620239
0.960000 7.120000 2.880000 60.279381 22.206623 4126.737793
0.960000 7.120000 2.920000 55.276741 57.681473 6382.670410
0.960000 7.120000 2.960000 21.376030 85.670387 7796.349609
0.960000 7.120000 3.000000 -28.396385 83.350975 7753.739746
0.960000 7.120000 3.040000 -65.571198 46.113743 6426.059570
0.960000 7.120000 3.080000 -67.486343 -5.830475 4588.401367
0.960000 7.120000 3.120000 -35.648872 -41.838646 3021.314453
0.960000 7.120000 3.160000 5.777095 -44.580276 2020.775879
0.960000 7.120000 3.200000 30.277306 -22.018030 1401.508789
0.960000 7.160000 2.800000 24.377342 16.403835 863.340637
0.960000 7.160000 2.840000 18.596773 28.282146 1145.719727
0.960000 7.160000 2.880000 5.680851 34.565865 1227.071045
0.960000 7.160000 2.920000 -9.139805 32.622185 1147.742920
0.960000 7.160000 2.960000 -21.486237 23.258934 1002.636353
0.960000 7.160000 3.000000 -28.375832 8.236523 873.028137
0.960000 7.160000 3.040000 -26.863003 -9.816956 817.993530
0.960000 7.160000 3.080000 -14.903154 -25.657791 880.426270
0.960000 7.160000 3.120000 5.204668 -32.064774 1055.238281
0.960000 7.160000 3.160000 25.272177 -24.714651 1249.496826
0.960000 7.160000 3.200000 35.493279 -7.053315 1309.522095
0.960000 7.200000 2.800000 8.667234 24.615894 681.063232
0.960000 7.200000 2.840000 -12.461584 23.247921 695.756897
0.960000 7.200000 2.880000 -24.993647 4.409164 644.123108
0.960000 7.200000 2.920000 -18.478603 -17.231564 638.385559
0.960000 7.200000 2.960000 0.390144 -25.808233 666.217102
0.960000 7.200000 3.000000 15.924266 -19.080082 617.631775
0.960000 7.200000 3.040000 19.593365 -8.201099 451.157959
0.960000 7.200000 3.080000 16.792717 -4.051878 298.413055
0.960000 7.200000 3.120000 18.118801 -5.818895 362.150513
0.960000 7.200000 3.160000 26.073662 -3.895569 695.011292
0.960000 7.200000 3.200000 32.294907 7.460762 1098.623901
1.000000 6.800000 2.800000 -40.215164 -1.250681 1618.823608
1.000000 6.800000 2.840000 -24.236340 -6.711813 632.448608
1.000000 6.800000 2.880000 -16.644291 -0.187531 277.067566
1.000000 6.800000 2.920000 -20.801483 3.141159 442.568573
1.000000 6.800000 2.960000 -24.190435 -5.333298 613.621277
1.000000 6.800000 3.000000 -13.684402 -16.572292 461.903748
1.000000 6.800000 3.040000 7.156059 -13.227274 226.169952
1.000000 6.800000 3.080000 18.940239 9.776756 454.317627
1.000000 6.800000 3.120000 6.233772 36.248245 1352.795166
1.000000 6.800000 3.160000 -24.397438 42.823990 2429.129150
1.000000 6.800000 3.200000 -48.409168 22.545399 2851.742432
1.000000 6.840000 2.800000 -31.802715 -21.038483 1454.030518
1.000000 6.840000 2.840000 -28.881195 -2.362980 839.707092
1.000000 6.840000 2.880000 -53.627972 3.027893 2885.127441
1.000000 6.840000 2.920000 -77.133080 -26.929016 6674.683594
1.000000 6.840000 2.960000 -63.320660 -75.323959 9683.205078
1.000000 6.840000 3.000000 -8.939156 -98.673996 9816.465820
1.000000 6.840000 3.040000 47.663452 -69.874886 7154.304199
1.000000 6.840000 3.080000 61.044357 -7.975143 3790.016602
1.000000 6.840000 3.120000 22.683859 37.519123 1922.241943
1.000000 6.840000 3.160000 -30.534695 33.185905 2033.671875
1.000000 6.840000 3.200000 -52.414291 -7.801888 2808.127441
1.000000 6.880000 2.800000 -14.516945 -28.967499 1049.857666
1.000000 6.880000 2.840000 -43.841949 -7.787554 1982.762573
1.000000 6.880000 2.880000 -89.208076 -37.090538 9333.789062
1.000000 6.880000 2.920000 -91.023270 -111.870354 20800.210938
1.000000 6.880000 2.960000 -21.079437 -172.313202 30136.181641
1.000000 6.880000 3.000000 81.501991 -158.216568 31675.056641
1.000000 6.880000 3.040000 140.880142 -69.748810 24712.111328
1.000000 6.880000 3.080000 114.374641 28.298672 13882.373047
1.000000 6.880000 3.120000 32.091576 65.253036 5287.828125
1.000000 6.880000 3.160000 -33.401890 28.288589 1915.930664
1.000000 6.880000 3.200000 -35.917068 -31.634865 2290.800293
1.000000 6.920000 2.800000 -0.352878 -25.495558 650.147949
1.000000 6.920000 2.840000 -53.309929 -32.604977 3905.032959
1.000000 6.920000 2.880000 -80.077301 -106.227158 17696.582031
1.000000 6.920000 2.920000 -22.806065 -193.841492 38094.640625
1.000000 6.920000 2.960000 102.170105 -210.526749 54760.242188
1.000000 6.920000 3.000000 208.274521 -121.364311 58107.574219
1.000000 6.920000 3.040000 214.763962 18.772560 46475.968750
1.000000 6.920000 3.080000 121.515732 111.235428 27139.394531
1.000000 6.920000 3.120000 8.096670 101.879410 10444.969727
1.000000 6.920000 3.160000 -41.423664 25.017176 2341.779053
1.000000 6.920000 3.200000 -12.294575 -37.510574 1558.199829
1.000000 6.960000 2.800000 6.549500 -19.503281 423.273895
1.000000 6.960000 2.840000 -37.445953 -65.601028 5705.694336
1.000000 6.960000 2.880000 -12.530548 -154.071655 23895.087891
1.000000 6.960000 2.920000 98.948601 -200.172333 49859.785156
1.000000 6.960000 2.960000 228.034332 -137.397125 70877.625000
1.000000 6.960000 3.000000 274.068420 12.079517 75259.414062
1.000000 6.960000 3.040000 196.788712 148.890671 60894.226562
1.000000 6.960000 3.080000 54.944481 182.930969 36482.632812
1.000000 6.960000 3.120000 -47.458271 111.347374 14650.525391
1.000000 6.960000 3.160000 -53.910408 13.163646 3079.613525
1.000000 6.960000 3.200000 3.158790 -29.977551 908.631531
1.000000 7.000000 2.800000 11.715672 -16.268341 401.915894
1.000000 7.000000 2.840000 4.941055 -79.728394 6381.030762
1.000000 7.000000 2.880000 76.431969 -136.587524 24497.998047
1.000000 7.000000 2.920000 192.650696 -111.180252 49475.335938
1.000000 7.000000 2.960000 263.022400 10.833277 69298.140625
1.000000 7.000000 3.000000 220.026825 157.672501 73272.421875
1.000000 7.000000 3.040000 84.351624 229.209198 59652.050781
1.000000 7.000000 3.080000 -50.437851 184.321701 36518.464844
1.000000 7.000000 3.120000 -100.086166 73.743286 15455.312500
1.000000 7.000000 3.160000 -59.052727 -11.510853 3619.724365
1.000000 7.000000 3.200000 7.246008 -22.569368 561.880981
1.000000 7.040000 2.800000 20.343033 -11.517370 546.488770
1.000000 7.040000 2.840000 48.989517 -56.754913 5621.092773
1.000000 7.040000 2.880000 125.885056 -58.748535 19298.437500
1.000000 7.040000 2.920000 192.587402 16.146656 37350.621094
1.000000 7.040000 2.960000 181.934753 134.589874 51214.687500
1.000000 7.040000 3.000000 81.883972 216.755463 53687.914062
1.000000 7.040000 3.040000 -47.664146 204.044006 43905.828125
1.000000 7.040000 3.080000 -124.158737 110.264397 27573.628906
1.000000 7.040000 3.120000 -111.734314 7.336729 12538.383789
1.000000 7.040000 3.160000 -45.372681 -39.320408 3604.774658
1.000000 7.040000 3.200000 9.400217 -22.806349 608.493591
1.000000 7.080000 2.800000 28.291473 1.399443 802.365906
1.000000 7.080000 2.840000 62.924603 -7.713026 4018.996338
1.000000 7.080000 2.880000 103.681107 25.716667 11411.118164
1.000000 7.080000 2.920000 106.909996 95.262680 20504.726562
1.000000 7.080000 2.960000 50.497555 156.632751 27083.820312
1.000000 7.080000 3.000000 -40.962158 162.106262 27956.337891
1.000000 7.080000 3.040000 -112.234283 102.149162 23030.984375
1.000000 7.080000 3.080000 -122.024658 14.929882 15112.918945
1.000000 7.080000 3.120000 -75.335724 -45.662308 7760.517578
1.000000 7.080000 3.160000 -14.658249 -53.410324 3067.527100
1.000000 7.080000 3.200000 19.230846 -25.078236 998.743347
1.000000 7.120000 2.800000 25.764654 20.237732 1073.383179
1.000000 7.120000 2.840000 37.252495 33.477802 2508.511719
1.000000 7.120000 2.880000 34.794861 60.164406 4830.437988
1.000000 7.120000 2.920000 8.393265 84.464951 7204.774414
1.000000 7.120000 2.960000 -35.102135 86.080719 8642.049805
1.000000 7.120000 3.000000 -73.667778 56.263809 8592.557617
1.000000 7.120000 3.040000 -84.864479 6.590981 7245.420898
1.000000 7.120000 3.080000 -62.314850 -37.880581 5318.079102
1.000000 7.120000 3.120000 -20.239826 -56.059147 3552.278564
1.000000 7.120000 3.160000 17.603806 -44.760544 2313.400146
1.000000 7.120000 3.200000 34.949467 -18.156355 1551.118408
1.000000 7.160000 2.800000 9.908985 33.037373 1189.656006
1.000000 7.160000 2.840000 -5.206556 39.560024 1592.103760
1.000000 7.160000 2.880000 -22.584805 33.465500 1630.013062
1.000000 7.160000 2.920000 -32.443867 17.853373 1371.347412
1.000000 7.160000 2.960000 -32.144333 0.967022 1034.193359
1.000000 7.160000 3.000000 -25.515726 -12.176285 799.314209
1.000000 7.160000 3.040000 -15.924147 -22.046837 739.641479
1.000000 7.160000 3.080000 -2.476326 -29.417755 871.536499
1.000000 7.160000 3.120000 16.035439 -30.581800 1192.381836
1.000000 7.160000 3.160000 35.042179 -20.115395 1632.583496
1.000000 7.160000 3.200000 44.741516 1.472024 2003.970093
1.000000 7.200000 2.800000 -8.916828 30.290508 997.024719
1.000000 7.200000 2.840000 -29.895924 14.414949 1101.557007
1.000000 7.200000 2.880000 -29.922159 -14.929683 1118.231079
1.000000 7.200000 2.920000 -6.520519 -34.068691 1203.192993
1.000000 7.200000 2.960000 21.408659 -28.851292 1290.727783
1.000000 7.200000 3.000000 33.001411 -8.040421 1153.741455
1.000000 7.200000 3.040000 25.977314 7.391644 729.457275
1.000000 7.200000 3.080000 16.606724 6.898312 323.369965
1.000000 7.200000 3.120000 20.064526 0.271111 402.658661
1.000000 7.200000 3.160000 33.305836 4.801313 1132.331299
1.000000 7.200000 3.200000 38.913639 24.725744 2125.633789
1.040000 6.800000 2.800000 -36.883980 -21.972118 1843.201904
1.040000 6.800000 2.840000 -20.652370 -20.519924 847.587708
1.040000 6.800000 2.880000 -16.041698 -12.754662 420.017487
1.040000 6.800000 2.920000 -19.169395 -12.322815 519.317505
1.040000 6.800000 2.960000 -16.151085 -20.514027 681.682861
1.040000 6.800000 3.000000 -0.484077 -23.917322 572.272583
1.040000 6.800000 3.040000 16.784828 -9.702019 375.859619
1.040000 6.800000 3.080000 16.772886 17.598988 591.054077
1.040000 6.800000 3.120000 -6.730270 37.110081 1422.454590
1.040000 6.800000 3.160000 -38.039040 31.220638 2421.696777
1.040000 6.800000 3.200000 -52.856430 3.906964 2809.066650
1.040000 6.840000 2.800000 -21.436321 -36.979168 1826.974731
1.040000 6.840000 2.840000 -26.935513 -23.431032 1274.535156
1.040000 6.840000 2.880000 -46.420166 -33.203411 3257.298340
1.040000 6.840000 2.920000 -46.704033 -68.856094 6922.428223
1.040000 6.840000 2.960000 -8.365150 -98.918655 9854.875977
1.040000 6.840000 3.000000 48.807777 -87.427528 10025.771484
1.040000 6.840000 3.040000 80.148178 -32.405609 7473.854004
1.040000 6.840000 3.080000 58.453888 27.423683 4168.915527
1.040000 6.840000 3.120000 1.752829 47.039825 2215.817627
1.040000 6.840000 3.160000 -42.725704 17.045429 2116.032471
1.040000 6.840000 3.200000 -42.850246 -29.016415 2678.095947
1.040000 6.880000 2.800000 -1.642882 -38.891228 1515.226685
1.040000 6.880000 2.840000 -32.542946 -39.448017 2615.189453
1.040000 6.880000 2.880000 -49.316956 -86.302795 9880.333984
1.040000 6.880000 2.920000 -8.610191 -144.718689 21017.632812
1.040000 6.880000 2.960000 80.188438 -153.452301 29977.794922
1.040000 6.880000 3.000000 154.747467 -85.865860 31319.724609
1.040000 6.880000 3.040000 155.167297 18.050751 24402.720703
1.040000 6.880000 3.080000 81.358780 84.297646 13725.343750
1.040000 6.880000 3.120000 -5.742020 71.868088 5197.992676
1.040000 6.880000 3.160000 -41.027206 7.914120 1745.864990
1.040000 6.880000 3.200000 -13.259100 -42.703270 1999.372925
1.040000 6.920000 2.800000 13.068413 -30.900076 1125.598145
1.040000 6.920000 2.840000 -20.996195 -64.455704 4595.377930
1.040000 6.920000 2.880000 0.078857 -134.755035 18158.925781
1.040000 6.920000 2.920000 93.314911 -170.725983 37855.035156
1.040000 6.920000 2.960000 201.059814 -115.127777 53679.457031
1.040000 6.920000 3.000000 237.317963 13.382229 56498.902344
1.040000 6.920000 3.040000 167.897247 129.135925 44865.574219
1.040000 6.920000 3.080000 44.664871 154.621109 25902.638672
1.040000 6.920000 3.120000 -41.418713 88.942032 9626.195312
1.040000 6.920000 3.160000 -42.095573 2.927872 1780.609741
1.040000 6.920000 3.200000 11.755776 -31.437387 1126.507568
1.040000 6.960000 2.800000 20.896425 -20.230484 845.933105
1.040000 6.960000 2.840000 13.753040 -77.991692 6271.850098
1.040000 6.960000 2.880000 82.013184 -131.312500 23969.134766
1.040000 6.960000 2.920000 194.145294 -105.385498 48798.500000
1.040000 6.960000 2.960000 261.419769 14.417834 68548.171875
1.040000 6.960000 3.000000 217.765121 157.411224 72199.937500
1.040000 6.960000 3.040000 84.607979 225.383728 57956.335938
1.040000 6.960000 3.080000 -45.223358 179.544083 34281.230469
1.040000 6.960000 3.120000 -89.980316 72.015144 13282.638672
1.040000 6.960000 3.160000 -47.243427 -7.150949 2283.077393
1.040000 6.960000 3.200000 16.067850 -12.345022 410.575378
1.040000 7.000000 2.800000 25.437279 -9.670244 740.568787
1.040000 7.000000 2.840000 55.158154 -60.505989 6703.396484
1.040000 7.000000 2.880000 141.266800 -64.063187 24060.400391
1.040000 7.000000 2.920000 217.292603 19.696236 47604.015625
1.040000 7.000000 2.960000 206.168335 153.207764 65978.000000
1.040000 7.000000 3.000000 94.508148 245.654221 69277.789062
1.040000 7.000000 3.040000 -49.071457 231.634216 56062.417969
1.040000 7.000000 3.080000 -132.073410 128.801056 34033.097656
1.040000 7.000000 3.120000 -117.125732 18.918964 14076.364258
1.040000 7.000000 3.160000 -46.512001 -27.134995 2899.674072
1.040000 7.000000 3.200000 6.787281 -6.280449 85.511223
1.040000 7.040000 2.800000 27.799641 3.188268 782.985046
1.040000 7.040000 2.840000 74.048111 -14.731429 5700.137695
1.040000 7.040000 2.880000 133.450592 26.591261 18516.156250
1.040000 7.040000 2.920000 143.367325 120.772476 35140.179688
1.040000 7.040000 2.960000 71.250229 206.453949 47699.828125
1.040000 7.040000 3.000000 -49.382751 217.503265 49746.328125
1.040000 7.040000 3.040000 -143.272797 141.770264 40625.902344
1.040000 7.040000 3.080000 -156.637604 31.918255 25554.115234
1.040000 7.040000 3.120000 -99.506012 -41.486546 11622.580078
1.040000 7.040000 3.160000 -29.206512 -48.544174 3209.557129
1.040000 7.040000 3.200000 4.705397 -15.760485 270.533630
1.040000 7.080000 2.800000 23.725723 18.944233 921.793945
1.040000 7.080000 2.840000 54.314980 31.701059 3955.074219
1.040000 7.080000 2.880000 65.639786 79.591156 10643.333984
1.040000 7.080000 2.920000 29.350342 133.375061 18650.349609
1.040000 7.080000 2.960000 -46.175789 148.950256 24318.382812
1.040000 7.080000 3.000000 -117.903885 105.442825 25019.515625
1.040000 7.080000 3.040000 -141.972290 24.728031 20767.605469
1.040000 7.080000 3.080000 -108.627800 -46.054424 13921.008789
1.040000 7.080000 3.120000 -46.912003 -72.269783 7423.657227
1.040000 7.080000 3.160000 2.775476 -55.296021 3065.353271
1.040000 7.080000 3.200000 20.654491 -23.151237 962.587769
1.040000 7.120000 2.800000 9.723274 31.458538 1084.181641
1.040000 7.120000 2.840000 9.585152 48.291573 2423.951172
1.040000 7.120000 2.880000 -8.961678 65.661194 4391.704102
1.040000 7.120000 2.920000 -42.101353 66.715187 6223.439941
1.040000 7.120000 2.960000 -73.231506 43.118889 7222.091797
1.040000 7.120000 3.000000 -84.412323 2.052589 7129.653320
1.040000 7.120000 3.040000 -68.532341 -38.459911 6175.846680
1.040000 7.120000 3.080000 -33.093201 -61.269863 4849.156250
1.040000 7.120000 3.120000 5.844662 -59.648018 3592.046143
1.040000 7.120000 3.160000 33.526894 -38.801411 2629.602051
1.040000 7.120000 3.200000 43.123127 -10.550422 1970.915527
1.040000 7.160000 2.800000 -9.552434 32.532196 1149.592773
1.040000 7.160000 2.840000 -27.246714 28.578943 1559.139404
1.040000 7.160000 2.880000 -38.395256 10.655540 1587.736206
1.040000 7.160000 2.920000 -34.515915 -10.445278 1300.452271
1.040000 7.160000 2.960000 -20.105640 -22.849808 926.350464
1.040000 7.160000 3.000000 -5.909765 -24.972412 658.546631
1.040000 7.160000 3.040000 3.582211 -24.130531 595.114746
1.040000 7.160000 3.080000 13.522751 -24.969751 806.353271
1.040000 7.160000 3.120000 29.248009 -22.198997 1348.241577
1.040000 7.160000 3.160000 45.808205 -6.958746 2146.815674
1.040000 7.160000 3.200000 49.895607 20.227079 2898.706299
1.040000 7.200000 2.800000 -23.021051 21.627993 997.738892
1.040000 7.200000 2.840000 -33.083401 -4.554871 1115.258179
1.040000 7.200000 2.880000 -16.007828 -31.945704 1276.778564
1.040000 7.200000 2.920000 17.749374 -36.166077 1623.025391
1.040000 7.200000 2.960000 41.526466 -13.887749 1917.316895
1.040000 7.200000 3.000000 39.442822 13.873539 1748.211304
1.040000 7.200000 3.040000 21.804714 24.170988 1059.682251
1.040000 7.200000 3.080000 12.356827 15.920422 406.151001
1.040000 7.200000 3.120000 21.565210 9.335028 552.201050
1.040000 7.200000 3.160000 35.281242 22.039444 1730.503174
1.040000 7.200000 3.200000 30.890024 48.409340 3297.657715
1.080000 6.800000 2.800000 -23.498922 -34.873409 1768.354004
1.080000 6.800000 2.840000 -9.417994 -29.742767 973.330811
1.080000 6.800000 2.880000 -5.360788 -22.031631 514.130859
1.080000 6.800000 2.920000 -5.349106 -20.464521 447.409576
1.080000 6.800000 2.960000 0.336136 -22.418596 502.706421
1.080000 6.800000 3.000000 12.211166 -17.105404 441.707428
1.080000 6.800000 3.040000 18.765036 0.778320 352.732330
1.080000 6.800000 3.080000 8.164030 21.969212 549.297668
1.080000 6.800000 3.120000 -17.422585 29.379791 1166.718506
1.080000 6.800000 3.160000 -40.970253 14.866610 1899.577759
1.080000 6.800000 3.200000 -45.512215 -11.396137 2201.233398
1.080000 6.840000 2.800000 -5.179949 -44.213776 1981.689819
1.080000 6.840000 2.840000 -9.674217 -39.403633 1646.236816
1.080000 6.840000 2.880000 -13.737881 -53.005630 2998.326172
1.080000 6.840000 2.920000 4.214455 -73.863274 5473.544922
1.080000 6.840000 2.960000 43.735233 -74.293442 7432.286133
1.080000 6.840000 3.000000 77.120827 -39.240257 7487.419922
1.080000 6.840000 3.040000 73.914963 13.947990 5657.968262
1.080000 6.840000 3.080000 31.757399 47.695053 3283.350586
1.080000 6.840000 3.120000 -18.444994 38.280071 1805.581665
1.080000 6.840000 3.160000 -39.836479 -1.895386 1590.537598
1.080000 6.840000 3.200000 -22.859913 -36.532413 1857.192871
1.080000 6.880000 2.800000 14.725416 -40.808365 1882.160522
1.080000 6.880000 2.840000 0.147835 -54.780151 3000.886963
1.080000 6.880000 2.880000 14.211658 -90.505478 8393.212891
1.080000 6.880000 2.920000 69.394958 -107.277939 16324.216797
1.080000 6.880000 2.960000 132.710434 -69.843765 22490.210938
1.080000 6.880000 3.000000 151.600235 11.554146 23116.128906
1.080000 6.880000 3.040000 104.058426 83.838745 17857.091797
1.080000 6.880000 3.080000 22.630672 97.283562 9976.239258
1.080000 6.880000 3.120000 -33.480202 50.683899 3689.781738
1.080000 6.880000 3.160000 -31.545536 -9.332368 1082.213989
1.080000 6.880000 3.200000 8.492316 -33.537731 1196.898804
1.080000 6.920000 2.800000 28.430557 -28.005768 1592.619629
1.080000 6.920000 2.840000 25.941658 -63.284668 4677.918945
1.080000 6.920000 2.880000 74.708344 -96.201851 14836.132812
1.080000 6.920000 2.920000 153.591553 -73.396355 28977.390625
1.080000 6.920000 2.960000 199.100998 16.035263 39898.335938
1.080000 6.920000 3.000000 163.384247 120.667068 41254.953125
1.080000 6.920000 3.040000 62.742592 168.385529 32290.318359
1.080000 6.920000 3.080000 -33.409130 131.079224 18297.933594
1.080000 6.920000 3.120000 -64.053650 48.829651 6487.205078
1.080000 6.920000 3.160000 -28.400946 -9.724449 901.178589
1.080000 6.920000 3.200000 21.303967 -10.215824 558.222046
1.080000 6.960000 2.800000 33.663094 -11.891146 1274.603271
1.080000 6.960000 2.840000 58.353577 -49.677361 5872.979980
1.080000 6.960000 2.880000 128.927155 -49.155910 19038.513672
1.080000 6.960000 2.920000 190.300903 23.470276 36765.289062
1.080000 6.960000 2.960000 177.966309 136.493866 50302.585938
1.080000 6.960000 3.000000 81.476028 213.144165 52068.777344
1.080000 6.960000 3.040000 -39.980179 198.935272 41173.656250
1.080000 6.960000 3.080000 -107.906082 110.732895 23905.496094
1.080000 6.960000 3.120000 -92.354836 19.479322 8908.860352
1.080000 6.960000 3.160000 -31.964882 -15.155851 1251.453491
1.080000 6.960000 3.200000 9.845949 6.591614 140.392090
1.080000 7.000000 2.800000 31.869522 3.672350 1029.152588
1.080000 7.000000 2.840000 75.811066 -12.444298 5902.178223
1.080000 7.000000 2.880000 133.312439 28.855309 18604.835938
1.080000 7.000000 2.920000 142.368515 121.977921 35147.406250
1.080000 7.000000 2.960000 70.840057 206.208984 47540.457031
1.080000 7.000000 3.000000 -47.381367 216.524445 49127.828125
1.080000 7.000000 3.040000 -137.719238 142.501358 39273.226562
1.080000 7.000000 3.080000 -148.823273 37.718727 23571.070312
1.080000 7.000000 3.120000 -93.641174 -28.896881 9603.699219
1.080000 7.000000 3.160000 -30.189119 -31.408119 1897.852905
1.080000 7.000000 3.200000 -5.020123 0.222804 25.251272
1.080000 7.040000 2.800000 24.202497 17.147007 879.780701
1.080000 7.040000 2.840000 62.217857 29.687674 4752.419922
1.080000 7.040000 2.880000 79.644844 86.758766 13870.384766
1.080000 7.040000 2.920000 39.438438 153.752167 25195.119141
1.080000 7.040000 2.960000 -49.556503 175.909912 33400.144531
1.080000 7.040000 3.000000 -134.748871 127.314163 34366.156250
1.080000 7.040000 3.040000 -163.268555 35.367584 27907.486328
1.080000 7.040000 3.080000 -125.668037 -42.790359 17623.470703
1.080000 7.040000 3.120000 -59.265121 -68.426369 8194.522461
1.080000 7.040000 3.160000 -11.211815 -48.139702 2443.135742
1.080000 7.040000 3.200000 0.611683 -17.796412 317.086395
1.080000 7.080000 2.800000 10.959391 26.304419 812.030640
1.080000 7.080000 2.840000 23.261105 50.552696 3096.654297
1.080000 7.080000 2.880000 5.349503 87.151199 7623.948730
1.080000 7.080000 2.920000 -45.352211 103.366302 12741.416016
1.080000 7.080000 2.960000 -101.585915 76.562355 16181.492188
1.080000 7.080000 3.000000 -127.473663 15.256226 16482.287109
1.080000 7.080000 3.040000 -107.566841 -47.181374 13796.707031
1.080000 7.080000 3.080000 -57.280167 -79.357590 9578.644531
1.080000 7.080000 3.120000 -7.308973 -74.007690 5530.559082
1.080000 7.080000 3.160000 20.992737 -47.287643 2676.816406
1.080000 7.080000 3.200000 26.799570 -20.305845 1130.544312
1.080000 7.120000 2.800000 -5.456389 27.705755 797.381042
1.080000 7.120000 2.840000 -15.867898 38.635876 1744.520996
1.080000 7.120000 2.880000 -38.112099 38.645798 2946.029785
1.080000 7.120000 2.920000 -59.150520 20.365547 3913.539551
1.080000 7.120000 2.960000 -65.116341 -10.346100 4347.179688
1.080000 7.120000 3.000000 -51.641556 -39.833992 4253.597168
1.080000 7.120000 3.040000 -24.820347 -56.859772 3849.083252
1.080000 7.120000 3.080000 5.401604 -57.833099 3373.844727
1.080000 7.120000 3.120000 31.053078 -44.782928 2969.804443
1.080000 7.120000 3.160000 46.765991 -21.700191 2657.956055
1.080000 7.120000 3.200000 48.409706 5.724216 2376.266357
1.080000 7.160000 2.800000 -19.293455 20.298368 784.261169
1.080000 7.160000 2.840000 -31.273039 7.396103 1032.705322
1.080000 7.160000 2.880000 -29.556417 -13.766287 1063.092407
1.080000 7.160000 2.920000 -12.680757 -28.061848 948.268860
1.080000 7.160000 2.960000 7.146404 -27.031326 781.763733
1.080000 7.160000 3.000000 17.739601 -17.039196 605.027649
1.080000 7.160000 3.040000 19.925915 -10.287392 502.872498
1.080000 7.160000 3.080000 24.576862 -9.406696 692.508118
1.080000 7.160000 3.120000 37.070168 -4.069683 1390.759644
1.080000 7.160000 3.160000 47.760658 15.603880 2524.561523
1.080000 7.160000 3.200000 40.776939 44.061142 3604.143066
1.080000 7.200000 2.800000 -25.318806 8.505690 713.388672
1.080000 7.200000 2.840000 -20.547161 -17.144695 716.126404
1.080000 7.200000 2.880000 7.068376 -30.796698 998.398499
1.080000 7.200000 2.920000 37.125496 -16.904488 1664.064209
1.080000 7.200000 2.960000 45.294010 14.265110 2255.040771
1.080000 7.200000 3.000000 28.537025 36.580612 2152.502930
1.080000 7.200000 3.040000 7.790798 35.401703 1313.977051
1.080000 7.200000 3.080000 4.654612 22.462654 526.236267
1.080000 7.200000 3.120000 17.563034 21.718706 780.162354
1.080000 7.200000 3.160000 23.767555 41.636360 2298.483154
1.080000 7.200000 3.200000 5.161517 64.475433 4183.722656
1.120000 6.800000 2.800000 -8.108565 -37.048344 1438.328491
1.120000 6.800000 2.840000 4.516878 -30.004021 920.643433
1.120000 6.800000 2.880000 8.805096 -20.393744 493.434509
1.120000 6.800000 2.920000 8.626411 -14.439524 282.914825
1.120000 6.800000 2.960000 10.026672 -10.961304 220.684326
1.120000 6.800000 3.000000 13.149279 -4.065556 189.432281
1.120000 6.800000 3.040000 11.305286 8.172325 194.596405
1.120000 6.800000 3.080000 -1.137318 18.995872 362.136658
1.120000 6.800000 3.120000 -20.520958 18.353899 757.975342
1.120000 6.800000 3.160000 -34.947395 3.390095 1232.813232
1.120000 6.800000 3.200000 -34.590618 -17.139790 1490.283203
1.120000 6.840000 2.800000 10.784479 -41.943558 1875.567139
1.120000 6.840000 2.840000 14.265884 -39.327843 1750.194702
1.120000 6.840000 2.880000 21.157574 -42.575478 2260.314209
1.120000 6.840000 2.920000 38.137466 -41.873562 3207.861328
1.120000 6.840000 2.960000 57.440647 -24.988949 3923.875488
1.120000 6.840000 3.000000 61.443680 7.054829 3825.096191
1.120000 6.840000 3.040000 40.037552 36.280144 2919.254395
1.120000 6.840000 3.080000 3.271584 42.085377 1781.882202
1.120000 6.840000 3.120000 -24.922653 20.492340 1041.074707
1.120000 6.840000 3.160000 -27.209276 -11.125616 864.124084
1.120000 6.840000 3.200000 -7.798586 -29.321363 920.560303
1.120000 6.880000 2.800000 29.641418 -34.069221 2039.325684
1.120000 6.880000 2.840000 33.894943 -42.377300 2944.702637
1.120000 6.880000 2.880000 57.128464 -49.429363 5706.923340
1.120000 6.880000 2.920000 91.501923 -32.372005 9420.548828
1.120000 6.880000 2.960000 108.942459 14.159931 12068.962891
1.120000 6.880000 3.000000 86.898560 66.465950 11969.082031
1.120000 6.880000 3.040000 32.767921 89.459785 9076.790039
1.120000 6.880000 3.080000 -18.977726 68.200058 5011.402344
1.120000 6.880000 3.120000 -36.057137 22.205860 1793.217285
1.120000 6.880000 3.160000 -16.130480 -12.229752 409.759216
1.120000 6.880000 3.200000 13.945242 -14.526340 405.484314
1.120000 6.920000 2.800000 40.396816 -16.759993 1912.800049
1.120000 6.920000 2.840000 56.751099 -29.754929 4106.042969
1.120000 6.920000 2.880000 95.152985 -21.676777 9523.973633
1.120000 6.920000 2.920000 125.631119 25.343697 16425.480469
1.120000 6.920000 2.960000 112.624260 92.766647 21289.875000
1.120000 6.920000 3.000000 51.239052 136.427826 21237.992188
1.120000 6.920000 3.040000 -23.141296 125.124634 16191.693359
1.120000 6.920000 3.080000 -63.815468 69.693871 8929.649414
1.120000 6.920000 3.120000 -53.090038 13.356327 2996.943848
1.120000 6.920000 3.160000 -14.938500 -7.314333 276.658264
1.120000 6.920000 3.200000 11.077872 7.533957 179.479752
1.120000 6.960000 2.800000 39.765854 2.756742 1588.922729
1.120000 6.960000 2.840000 68.341118 -0.706229 4671.006836
1.120000 6.960000 2.880000 103.015442 32.800423 11688.048828
1.120000 6.960000 2.920000 103.328278 98.415970 20362.437500
1.120000 6.960000 2.960000 49.324223 154.816986 26401.177734
1.120000 6.960000 3.000000 -34.311958 158.808182 26397.349609
1.120000 6.960000 3.040000 -96.164642 105.222610 20319.437500
1.120000 6.960000 3.080000 -102.181885 32.504940 11497.708984
1.120000 6.960000 3.120000 -63.369789 -11.737650 4153.502441
1.120000 6.960000 3.160000 -21.232328 -11.225036 576.813171
1.120000 6.960000 3.200000 -7.540026 11.069746 179.391266
1.120000 7.000000 2.800000 29.690962 17.853237 1200.291260
1.120000 7.000000 2.840000 57.253742 32.037476 4304.390625
1.120000 7.000000 2.880000 67.209091 80.029564 10921.792969
1.120000 7.000000 2.920000 30.881124 133.744446 18841.220703
1.120000 7.000000 2.960000 -43.193005 149.604340 24247.093750
1.120000 7.000000 3.000000 -111.823982 108.430290 24261.730469
1.120000 7.000000 3.040000 -133.346436 34.341274 18960.593750
1.120000 7.000000 3.080000 -102.686699 -26.081886 11224.823242
1.120000 7.000000 3.120000 -52.099342 -43.661736 4620.688477
1.120000 7.000000 3.160000 -19.103682 -27.057119 1097.038330
1.120000 7.000000 3.200000 -14.787121 -6.911350 266.425690
1.120000 7.040000 2.800000 14.892220 25.132030 853.397217
1.120000 7.040000 2.840000 26.486063 49.733318 3174.914307
1.120000 7.040000 2.880000 8.480148 87.319534 7696.614258
1.120000 7.040000 2.920000 -42.707409 104.928230 12833.856445
1.120000 7.040000 2.960000 -99.611259 79.337929 16216.910156
1.120000 7.040000 3.000000 -125.850906 19.641180 16224.226562
1.120000 7.040000 3.040000 -106.966354 -39.743835 13021.373047
1.120000 7.040000 3.080000 -60.594673 -68.181915 8320.488281
1.120000 7.040000 3.120000 -18.162479 -61.688660 4135.366211
1.120000 7.040000 3.160000 1.923534 -39.614708 1573.025024
1.120000 7.040000 3.200000 4.023899 -22.513817 523.063721
1.120000 7.080000 2.800000 0.199633 24.542665 602.382263
1.120000 7.080000 2.840000 -6.575521 42.472157 1847.121460
1.120000 7.080000 2.880000 -33.790691 52.257729 3872.680908
1.120000 7.080000 2.920000 -67.418465 37.110298 5922.423828
1.120000 7.080000 2.960000 -84.589455 -0.972687 7156.322266
1.120000 7.080000 3.000000 -73.115265 -42.442978 7147.248047
1.120000 7.080000 3.040000 -40.298485 -66.693100 6071.937500
1.120000 7.080000 3.080000 -4.387421 -66.990341 4506.955566
1.120000 7.080000 3.120000 20.639463 -51.017742 3028.797607
1.120000 7.080000 3.160000 31.984888 -30.174564 1933.537354
1.120000 7.080000 3.200000 33.259933 -10.735355 1221.470947
1.120000 7.120000 2.800000 -10.981546 18.297457 455.391296
1.120000 7.120000 2.840000 -23.369284 17.873781 865.595459
1.120000 7.120000 2.880000 -35.280029 4.977186 1269.452759
1.120000 7.120000 2.920000 -35.823120 -15.728737 1530.689087
1.120000 7.120000 2.960000 -23.026646 -33.000168 1619.237549
1.120000 7.120000 3.000000 -4.036392 -39.750977 1596.432617
1.120000 7.120000 3.040000 13.576328 -37.304489 1575.941528
1.120000 7.120000 3.080000 28.069178 -29.750797 1672.988647
1.120000 7.120000 3.120000 40.429131 -17.234512 1931.543091
1.120000 7.120000 3.160000 47.454063 2.500339 2258.139893
1.120000 7.120000 3.200000 41.802708 26.331326 2440.804932
1.120000 7.160000 2.800000 -17.362356 9.624876 394.089661
1.120000 7.160000 2.840000 -19.123217 -5.454893 395.453278
1.120000 7.160000 2.880000 -6.524339 -19.357641 417.285248
1.120000 7.160000 2.920000 13.470018 -19.514191 562.245056
1.120000 7.160000 2.960000 26.177761 -6.189434 723.584229
1.120000 7.160000 3.000000 25.316666 7.720378 700.537781
1.120000 7.160000 3.040000 19.630215 11.718567 522.670166
1.120000 7.160000 3.080000 21.648024 10.198601 572.648376
1.120000 7.160000 3.120000 31.192942 17.073391 1264.500244
1.120000 7.160000 3.160000 33.439774 37.779541 2545.512207
1.120000 7.160000 3.200000 15.287768 59.367500 3758.215820
1.120000 7.200000 2.800000 -19.871464 1.283572 396.522614
1.120000 7.200000 2.840000 -5.412653 -14.201600 230.982254
1.120000 7.200000 2.880000 20.005610 -11.319681 528.359619
1.120000 7.200000 2.920000 34.876328 12.388216 1369.826172
1.120000 7.200000 2.960000 25.985973 38.546158 2161.077148
1.120000 7.200000 3.000000 3.137592 46.464439 2168.788574
1.120000 7.200000 3.040000 -11.094907 35.199310 1362.088379
1.120000 7.200000 3.080000 -6.163288 24.230598 625.108032
1.120000 7.200000 3.120000 4.616213 31.210190 995.385376
1.120000 7.200000 3.160000 -0.998969 51.078411 2610.002197
1.120000 7.200000 3.200000 -28.318735 60.243286 4431.204102
1.160000 6.800000 2.800000 2.586078 -31.337711 988.739929
1.160000 6.800000 2.840000 13.770901 -21.943417 671.151245
1.160000 6.800000 2.880000 15.614999 -9.510931 334.286011
1.160000 6.800000 2.920000 10.658308 -1.479303 115.787872
1.160000 6.800000 2.960000 5.589589 0.767128 31.831993
1.160000 6.800000 3.000000 3.803897 1.942169 18.241652
1.160000 6.800000 3.040000 2.035446 6.277157 43.545738
1.160000 6.800000 3.080000 -5.149277 11.577985 160.564774
1.160000 6.800000 3.120000 -17.793850 10.735939 431.881470
1.160000 6.800000 3.160000 -28.476089 -0.434711 811.076660
1.160000 6.800000 3.200000 -28.562906 -17.459301 1120.666748
1.160000 6.840000 2.800000 21.299061 -32.741497 1525.655640
1.160000 6.840000 2.840000 29.849808 -23.712122 1453.275757
1.160000 6.840000 2.880000 33.904930 -13.636035 1335.485718
1.160000 6.840000 2.920000 35.187450 -3.232950 1248.608643
1.160000 6.840000 2.960000 33.148186 8.503326 1171.108765
1.160000 6.840000 3.000000 24.918209 20.250820 1031.012817
1.160000 6.840000 3.040000 9.598957 26.731224 806.698303
1.160000 6.840000 3.080000 -7.955036 22.475899 568.448608
1.160000 6.840000 3.120000 -18.926956 7.802267 419.105042
1.160000 6.840000 3.160000 -17.362782 -9.550388 392.676086
1.160000 6.840000 3.200000 -5.575812 -19.754509 421.330322
1.160000 6.880000 2.800000 38.026932 -20.982237 1886.301758
1.160000 6.880000 2.840000 47.002167 -12.240828 2359.041504
1.160000 6.880000 2.880000 54.717697 1.538536 2996.393555
1.160000 6.880000 2.920000 56.040779 21.737656 3613.094482
1.160000 6.880000 2.960000 44.659447 43.235142 3863.743652
1.160000 6.880000 3.000000 20.593479 55.406048 3493.921387
1.160000 6.880000 3.040000 -6.508045 50.192879 2561.679932
1.160000 6.880000 3.080000 -23.063383 30.030954 1433.777832
1.160000 6.880000 3.120000 -22.106913 7.319070 542.284363
1.160000 6.880000 3.160000 -8.838791 -5.073424 103.863861
1.160000 6.880000 3.200000 4.293328 -3.768211 32.632088
1.160000 6.920000 2.800000 43.986881 -0.738602 1935.391235
1.160000 6.920000 2.840000 53.747162 11.159060 3013.281982
1.160000 6.920000 2.880000 58.920044 33.285339 4579.485352
1.160000 6.920000 2.920000 48.767403 61.030006 6102.920898
1.160000 6.920000 2.960000 20.128948 80.031860 6810.273438
1.160000 6.920000 3.000000 -16.076454 77.176819 6214.713867
1.160000 6.920000 3.040000 -41.352936 52.871574 4505.468750
1.160000 6.920000 3.080000 -44.263245 22.146446 2449.699951
1.160000 6.920000 3.120000 -29.496965 2.651269 877.100220
1.160000 6.920000 3.160000 -12.660229 0.597103 160.637924
1.160000 6.920000 3.200000 -6.029718 7.764777 96.649261
1.160000 6.960000 2.800000 36.503231 18.451923 1672.959351
1.160000 6.960000 2.840000 42.739491 35.482670 3085.684082
1.160000 6.960000 2.880000 36.534813 62.021286 5181.432617
1.160000 6.960000 2.920000 9.922230 84.339706 7211.636719
1.160000 6.960000 2.960000 -29.354477 85.508392 8173.370117
1.160000 6.960000 3.000000 -61.312603 61.104774 7493.028809
1.160000 6.960000 3.040000 -69.688248 24.663074 5464.718750
1.160000 6.960000 3.080000 -55.233204 -3.183947 3060.844238
1.160000 6.960000 3.120000 -33.612198 -11.555094 1263.299927
1.160000 6.960000 3.160000 -20.516821 -6.185191 459.196533
1.160000 6.960000 3.200000 -18.911236 -0.712971 358.143158
1.160000 7.000000 2.800000 20.450336 28.469919 1228.752563
1.160000 7.000000 2.840000 18.016876 46.910538 2525.206543
1.160000 7.000000 2.880000 -1.401670 66.439095 4416.118164
1.160000 7.000000 2.920000 -35.500740 70.297157 6201.993164
1.160000 7.000000 2.960000 -67.395416 49.861382 7028.299805
1.160000 7.000000 3.000000 -79.172157 13.984523 6463.797363
1.160000 7.000000 3.040000 -67.017128 -17.868580 4810.581543
1.160000 7.000000 3.080000 -43.218803 -31.871872 2883.681152
1.160000 7.000000 3.120000 -23.884264 -29.511864 1441.408203
1.160000 7.000000 3.160000 -15.394121 -22.349339 736.471924
1.160000 7.000000 3.200000 -12.534201 -19.004480 518.276489
1.160000 7.040000 2.800000 4.264623 27.560165 777.749756
1.160000 7.040000 2.840000 -6.699694 39.575172 1611.080078
1.160000 7.040000 2.880000 -30.001701 42.868557 2737.815186
1.160000 7.040000 2.920000 -54.343327 27.922432 3732.859375
1.160000 7.040000 2.960000 -64.461014 -1.020687 4156.264160
1.160000 7.040000 3.000000 -54.735588 -29.043699 3839.520996
1.160000 7.040000 3.040000 -33.164539 -43.498085 2991.970215
1.160000 7.040000 3.080000 -12.676651 -43.330486 2038.228516
1.160000 7.040000 3.120000 0.130035 -36.285103 1316.625610
1.160000 7.040000 3.160000 7.349567 -28.990238 894.450012
1.160000 7.040000 3.200000 12.862307 -21.556602 630.126038
1.160000 7.080000 2.800000 -6.134404 20.187731 445.175385
1.160000 7.080000 2.840000 -18.436853 20.470448 758.956787
1.160000 7.080000 2.880000 -31.673243 9.641878 1096.160034
1.160000 7.080000 2.920000 -35.357300 -9.839485 1346.954102
1.160000 7.080000 2.960000 -25.882992 -27.638767 1433.830688
1.160000 7.080000 3.000000 -9.389904 -35.547585 1351.801025
1.160000 7.080000 3.040000 5.477942 -34.019699 1187.347778
1.160000 7.080000 3.080000 15.777473 -28.621086 1068.095215
1.160000 7.080000 3.120000 24.036457 -21.972849 1060.557373
1.160000 7.080000 3.160000 31.145641 -11.634679 1105.416748
1.160000 7.080000 3.200000 32.454060 3.724694 1067.139282
1.160000 7.120000 2.800000 -10.614560 12.307106 264.133728
1.160000 7.120000 2.840000 -15.096775 3.314569 238.898987
1.160000 7.120000 2.880000 -11.407859 -8.988005 210.923462
1.160000 7.120000 2.920000 0.495573 -15.835342 251.003662
1.160000 7.120000 2.960000 12.685539 -13.069010 331.721924
1.160000 7.120000 3.000000 18.269581 -5.697250 366.236237
1.160000 7.120000 3.040000 19.103510 -1.202854 366.390961
1.160000 7.120000 3.080000 22.378139 0.272181 500.855225
1.160000 7.120000 3.120000 29.807766 6.340647 928.706726
1.160000 7.120000 3.160000 32.990028 21.826607 1564.742676
1.160000 7.120000 3.200000 21.989071 39.633282 2054.316162
1.160000 7.160000 2.800000 -12.920607 6.376286 207.599091
1.160000 7.160000 2.840000 -5.791372 -3.304863 44.462109
1.160000 7.160000 2.880000 9.012508 -4.432395 100.871437
1.160000 7.160000 2.920000 20.349400 6.958806 462.523041
1.160000 7.160000 2.960000 18.890533 22.212597 850.251709
1.160000 7.160000 3.000000 8.223585 28.708443 891.802002
1.160000 7.160000 3.040000 1.421932 24.293362 592.189331
1.160000 7.160000 3.080000 5.739038 20.386772 448.557037
1.160000 7.160000 3.120000 12.858137 28.718313 990.073242
1.160000 7.160000 3.160000 7.153056 46.030602 2169.982422
1.160000 7.160000 3.200000 -15.846661 54.884422 3263.416504
1.160000 7.200000 2.800000 -15.784733 0.360522 249.287766
1.160000 7.200000 2.840000 -1.075727 -2.379445 6.818944
1.160000 7.200000 2.880000 12.326812 10.158400 255.143372
1.160000 7.200000 2.920000 10.499023 30.466440 1038.433472
1.160000 7.200000 2.960000 -6.600510 41.638729 1777.350586
1.160000 7.200000 3.000000 -23.589222 35.382618 1808.381104
1.160000 7.200000 3.040000 -25.929607 21.737038 1144.843384
1.160000 7.200000 3.080000 -16.436399 18.315731 605.621216
1.160000 7.200000 3.120000 -12.795950 29.997423 1063.581787
1.160000 7.200000 3.160000 -27.544209 41.950386 2518.518311
1.160000 7.200000 3.200000 -52.292648 34.990353 3958.845703
1.200000 6.800000 2.800000 5.884044 -23.420258 583.130432
1.200000 6.800000 2.840000 13.626875 -12.232990 335.337769
1.200000 6.800000 2.880000 10.616220 -0.229013 112.756584
1.200000 6.800000 2.920000 1.375371 4.079901 18.537233
1.200000 6.800000 2.960000 -4.838499 0.325056 23.516735
1.200000 6.800000 3.000000 -3.672076 -3.789096 27.841389
1.200000 6.800000 3.040000 -0.277506 -1.255928 1.654364
1.200000 6.800000 3.080000 -3.476863 5.850446 46.316288
1.200000 6.800000 3.120000 -15.250070 7.746832 292.578033
1.200000 6.800000 3.160000 -26.899429 -2.660682 730.658508
1.200000 6.800000 3.200000 -26.677048 -21.096655 1156.733643
1.200000 6.840000 2.800000 23.628239 -21.826208 1034.677002
1.200000 6.840000 2.840000 28.568024 -5.667721 848.255005
1.200000 6.840000 2.880000 21.390919 7.668451 516.376587
1.200000 6.840000 2.920000 9.777754 10.973878 216.030457
1.200000 6.840000 2.960000 2.984354 6.785786 54.953255
1.200000 6.840000 3.000000 2.852040 3.435389 19.936035
1.200000 6.840000 3.040000 3.129566 5.396197 38.913128
1.200000 6.840000 3.080000 -2.322221 8.439336 76.615097
1.200000 6.840000 3.120000 -11.597019 4.829235 157.812378
1.200000 6.840000 3.160000 -15.909471 -7.123337 303.853180
1.200000 6.840000 3.200000 -8.856170 -19.724804 467.499634
1.200000 6.880000 2.800000 37.074226 -7.436521 1429.800171
1.200000 6.880000 2.840000 35.274326 12.282867 1395.146973
1.200000 6.880000 2.880000 21.960316 24.343960 1074.883789
1.200000 6.880000 2.920000 7.375616 24.274235 643.638184
1.200000 6.880000 2.960000 -0.021146 17.461542 304.905914
1.200000 6.880000 3.000000 -0.471561 12.513361 156.806564
1.200000 6.880000 3.040000 -0.573759 12.462274 155.637451
1.200000 6.880000 3.080000 -4.890538 12.858791 189.265869
1.200000 6.880000 3.120000 -10.733803 8.116320 181.089172
1.200000 6.880000 3.160000 -11.505039 -1.276610 133.995651
1.200000 6.880000 3.200000 -4.486106 -8.592645 93.958687
1.200000 6.920000 2.800000 37.721539 13.137163 1595.499512
1.200000 6.920000 2.840000 26.557394 31.532162 1699.572388
1.200000 6.920000 2.880000 7.539077 37.575500 1468.755859
1.200000 6.920000 2.920000 -7.741441 30.899366 1014.700745
1.200000 6.920000 2.960000 -12.763539 19.917057 559.597046
1.200000 6.920000 3.000000 -10.517365 13.512568 293.204468
1.200000 6.920000 3.040000 -8.874124 13.318707 256.138000
1.200000 6.920000 3.080000 -12.105207 13.847668 338.293945
1.200000 6.920000 3.120000 -17.131460 9.556986 384.822906
1.200000 6.920000 3.160000 -17.767265 1.076097 316.833710
1.200000 6.920000 3.200000 -11.811039 -5.613106 171.007599
1.200000 6.960000 2.800000 25.020538 28.838829 1457.705322
1.200000 6.960000 2.840000 6.297555 39.341339 1587.400146
1.200000 6.960000 2.880000 -13.684264 35.346043 1436.601807
1.200000 6.960000 2.920000 -24.213528 21.440559 1045.992554
1.200000 6.960000 2.960000 -22.751999 8.510448 590.081177
1.200000 6.960000 3.000000 -16.305740 4.152019 283.116425
1.200000 6.960000 3.040000 -14.055962 6.543661 240.389557
1.200000 6.960000 3.080000 -18.545397 7.538591 400.762085
1.200000 6.960000 3.120000 -23.969913 1.551375 576.963501
1.200000 6.960000 3.160000 -22.849609 -8.774541 599.097229
1.200000 6.960000 3.200000 -13.951492 -15.520793 435.539154
1.200000 7.000000 2.800000 6.940985 32.316139 1092.510132
1.200000 7.000000 2.840000 -12.601397 31.022978 1121.220337
1.200000 7.000000 2.880000 -26.095654 17.641468 992.204590
1.200000 7.000000 2.920000 -26.724665 1.077559 715.368835
1.200000 7.000000 2.960000 -17.833601 -7.915287 380.689087
1.200000 7.000000 3.000000 -9.911163 -6.343216 138.467545
1.200000 7.000000 3.040000 -10.524442 -1.324542 112.518280
1.200000 7.000000 3.080000 -17.141834 -2.487471 300.029968
1.200000 7.000000 3.120000 -20.197205 -11.959579 550.958618
1.200000 7.000000 3.160000 -13.312861 -22.159618 668.280945
1.200000 7.000000 3.200000 -0.123754 -23.620768 557.955994
1.200000 7.040000 2.800000 -6.554574 25.121990 674.076843
1.200000 7.040000 2.840000 -18.853512 14.207222 557.300049
1.200000 7.040000 2.880000 -20.587189 -2.027846 427.944489
1.200000 7.040000 2.920000 -11.267000 -13.240348 302.252106
1.200000 7.040000 2.960000 0.332864 -13.018298 169.586884
1.200000 7.040000 3.000000 4.055887 -5.486953 46.556870
1.200000 7.040000 3.040000 -1.534278 -1.435872 4.415737
1.200000 7.040000 3.080000 -7.609838 -7.154647 109.098618
1.200000 7.040000 3.120000 -4.417159 -17.566799 328.103729
1.200000 7.040000 3.160000 8.031653 -21.312300 518.721558
1.200000 7.040000 3.200000 19.367895 -12.773096 538.267334
1.200000 7.080000 2.800000 -11.420673 15.119471 359.030151
1.200000 7.080000 2.840000 -12.397571 1.947698 157.493286
1.200000 7.080000 2.880000 -3.564446 -8.371656 82.789909
1.200000 7.080000 2.920000 9.202041 -8.380835 154.915939
1.200000 7.080000 2.960000 15.590343 0.760803 243.637634
1.200000 7.080000 3.000000 11.167116 9.114983 207.787384
1.200000 7.080000 3.040000 2.670628 7.778345 67.634895
1.200000 7.080000 3.080000 1.392507 -1.318750 3.678176
1.200000 7.080000 3.120000 10.814076 -6.810020 163.320618
1.200000 7.080000 3.160000 21.945576 -0.003496 481.608307
1.200000 7.080000 3.200000 22.240044 15.031912 720.577881
1.200000 7.120000 2.800000 -11.427896 8.594151 204.456223
1.200000 7.120000 2.840000 -3.507948 0.748926 12.866592
1.200000 7.120000 2.880000 8.652663 1.357765 76.712112
1.200000 7.120000 2.920000 15.899144 11.473585 384.425964
1.200000 7.120000 2.960000 11.943570 22.837269 664.189697
1.200000 7.120000 3.000000 1.112515 25.161552 634.341370
1.200000 7.120000 3.040000 -4.924100 17.294519 323.347168
1.200000 7.120000 3.080000 0.472201 9.520491 90.862717
1.200000 7.120000 3.120000 10.729975 12.948874 282.805664
1.200000 7.120000 3.160000 12.098827 26.665565 857.433960
1.200000 7.120000 3.200000 -1.404042 37.166843 1383.345581
1.200000 7.160000 2.800000 -12.478144 4.876863 179.487869
1.200000 7.160000 2.840000 -2.075705 5.225061 31.609818
1.200000 7.160000 2.880000 5.409335 14.770212 247.420074
1.200000 7.160000 2.920000 2.279535 27.609266 767.467896
1.200000 7.160000 2.960000 -10.035431 32.869633 1181.122559
1.200000 7.160000 3.000000 -20.503393 26.130680 1103.201538
1.200000 7.160000 3.040000 -19.506920 15.483376 620.254883
1.200000 7.160000 3.080000 -10.047349 13.816349 291.840698
1.200000 7.160000 3.120000 -5.823408 24.365637 627.596375
1.200000 7.160000 3.160000 -16.586721 35.518429 1536.678223
1.200000 7.160000 3.200000 -36.136856 32.088017 2335.513184
1.200000 7.200000 2.800000 -15.417418 -1.297671 239.380707
1.200000 7.200000 2.840000 -7.645520 4.710524 80.643013
1.200000 7.200000 2.880000 -7.948347 16.630081 339.735809
1.200000 7.200000 2.920000 -18.903408 24.371973 951.331909
1.200000 7.200000 2.960000 -32.012058 20.057110 1427.059570
1.200000 7.200000 3.000000 -35.495743 7.748842 1319.992310
1.200000 7.200000 3.040000 -27.477238 0.478090 755.227173
1.200000 7.200000 3.080000 -19.400139 6.130166 413.944336
1.200000 7.200000 3.120000 -24.210083 17.438829 890.240845
1.200000 7.200000 3.160000 -41.172283 18.383533 2033.111206
1.200000 7.200000 3.200000 -54.577415 1.560663 2981.129883
