#kx 	ky 	kz 	real 	imag 	intensity
0.800000 -5.200000 6.800000 -36.764034 -2.781132 1359.328979
0.800000 -5.200000 6.840000 -32.835293 -13.273407 1254.339844
0.800000 -5.200000 6.880000 -24.075661 -22.608036 1090.760742
0.800000 -5.200000 6.920000 -11.198362 -27.258114 868.408081
0.800000 -5.200000 6.960000 2.239758 -25.303093 645.263062
0.800000 -5.200000 7.000000 12.563088 -17.989767 481.462891
0.800000 -5.200000 7.040000 18.342251 -8.171280 403.207977
0.800000 -5.200000 7.080000 20.056973 2.126055 406.802246
0.800000 -5.200000 7.120000 18.143017 12.106446 475.735107
0.800000 -5.200000 7.160000 12.307365 20.681528 579.196838
0.800000 -5.200000 7.200000 3.047336 25.593706 664.324036
0.800000 -5.160000 6.800000 -28.252981 -17.420742 1101.713135
0.800000 -5.160000 6.840000 -20.288555 -20.555840 834.167969
0.800000 -5.160000 6.880000 -11.840569 -21.610697 607.221313
0.800000 -5.160000 6.920000 -3.134197 -19.571512 392.867279
0.800000 -5.160000 6.960000 3.991220 -13.862848 208.108398
0.800000 -5.160000 7.000000 7.407245 -5.791267 88.406052
0.800000 -5.160000 7.040000 6.570904 2.023190 47.270073
0.800000 -5.160000 7.080000 2.875144 7.506308 64.611107
0.800000 -5.160000 7.120000 -1.667454 10.260874 108.065933
0.800000 -5.160000 7.160000 -5.841540 11.063225 156.518539
0.800000 -5.160000 7.200000 -9.388728 10.672276 202.045685
0.800000 -5.120000 6.800000 -15.273825 -20.916372 670.784363
0.800000 -5.120000 6.840000 -10.027654 -17.361784 401.985382
0.800000 -5.120000 6.880000 -7.267411 -13.782936 242.784592
0.800000 -5.120000 6.920000 -5.848054 -10.436866 143.127899
0.800000 -5.120000 6.960000 -5.776034 -7.124532 84.121521
0.800000 -5.120000 7.000000 -7.409366 -4.598806 76.047729
0.800000 -5.120000 7.040000 -9.960901 -4.147144 116.418358
0.800000 -5.120000 7.080000 -11.429349 -5.926785 165.756790
0.800000 -5.120000 7.120000 -10.336676 -8.150663 173.280182
0.800000 -5.120000 7.160000 -7.332698 -8.392704 124.205933
0.800000 -5.120000 7.200000 -4.875996 -5.744486 56.774452
0.800000 -5.080000 6.800000 -7.831879 -16.099182 320.521973
0.800000 -5.080000 6.840000 -8.150473 -11.444410 197.404739
0.800000 -5.080000 6.880000 -11.092434 -9.349749 210.459900
0.800000 -5.080000 6.920000 -14.384062 -10.214108 311.229218
0.800000 -5.080000 6.960000 -16.565729 -13.379940 453.446167
0.800000 -5.080000 7.000000 -16.692909 -18.112791 606.726440
0.800000 -5.080000 7.040000 -13.765750 -23.288349 731.843079
0.800000 -5.080000 7.080000 -7.339309 -26.730757 768.398865
0.800000 -5.080000 7.120000 1.104792 -25.798725 666.794800
0.800000 -5.080000 7.160000 7.963530 -19.467697 442.409058
0.800000 -5.080000 7.200000 9.520565 -9.913225 188.913193
0.800000 -5.040000 6.800000 -8.253141 -12.194733 216.825836
0.800000 -5.040000 6.840000 -10.867773 -11.159072 242.633377
0.800000 -5.040000 6.880000 -14.646496 -13.392097 393.868103
0.800000 -5.040000 6.920000 -16.926182 -19.103058 651.422485
0.800000 -5.040000 6.960000 -15.519760 -26.822100 960.288025
0.800000 -5.040000 7.000000 -9.387220 -34.034485 1246.466064
0.800000 -5.040000 7.040000 0.960403 -37.726845 1424.237183
0.800000 -5.040000 7.080000 13.012506 -35.288128 1414.577271
0.800000 -5.040000 7.120000 22.498205 -26.063648 1185.483032
0.800000 -5.040000 7.160000 25.148331 -12.692177 793.529907
0.800000 -5.040000 7.200000 19.435106 -0.544920 378.020294
0.800000 -5.000000 6.800000 -9.808640 -14.914984 318.666168
0.800000 -5.000000 6.840000 -9.328918 -16.483326 358.728760
0.800000 -5.000000 6.880000 -9.537918 -20.078283 494.109314
0.800000 -5.000000 6.920000 -7.767382 -26.100151 741.550110
0.800000 -5.000000 6.960000 -1.738123 -32.546116 1062.270752
0.800000 -5.000000 7.000000 8.773131 -35.948544 1369.265625
0.800000 -5.000000 7.040000 21.304193 -33.191578 1555.549438
0.800000 -5.000000 7.080000 31.409138 -23.387415 1533.505127
0.800000 -5.000000 7.120000 34.630146 -9.035326 1280.884155
0.800000 -5.000000 7.160000 29.065845 4.552449 865.548157
0.800000 -5.000000 7.200000 17.042717 11.767519 428.928711
0.800000 -4.960000 6.800000 -4.713152 -20.457514 440.723663
0.800000 -4.960000 6.840000 0.056853 -19.049049 362.869507
0.800000 -4.960000 6.880000 2.432581 -18.720989 356.392883
0.800000 -4.960000 6.920000 5.421108 -20.446209 447.435883
0.800000 -4.960000 6.960000 11.378815 -22.201387 622.379028
0.800000 -4.960000 7.000000 19.943193 -20.664835 824.766357
0.800000 -4.960000 7.040000 28.003323 -13.787217 974.273438
0.800000 -4.960000 7.080000 31.491734 -2.524622 998.103027
0.800000 -4.960000 7.120000 27.929918 9.209560 864.896301
0.800000 -4.960000 7.160000 18.315510 16.474178 606.856445
0.800000 -4.960000 7.200000 7.052371 16.228449 313.098480
0.800000 -4.920000 6.800000 6.731839 -19.691273 433.063873
0.800000 -4.920000 6.840000 10.747906 -11.450682 246.635590
0.800000 -4.920000 6.880000 10.044290 -5.758158 134.044128
0.800000 -4.920000 6.920000 8.604925 -3.854644 88.903023
0.800000 -4.920000 6.960000 9.271759 -3.754219 100.059677
0.800000 -4.920000 7.000000 12.085377 -2.468483 152.149750
0.800000 -4.920000 7.040000 14.786548 1.610332 221.235168
0.800000 -4.920000 7.080000 14.752091 7.623508 275.742096
0.800000 -4.920000 7.120000 10.946781 12.845543 284.839966
0.800000 -4.920000 7.160000 4.877430 14.543800 235.311447
0.800000 -4.920000 7.200000 -0.210132 12.007461 144.223267
0.800000 -4.880000 6.800000 15.455189 -8.372903 308.968353
0.800000 -4.880000 6.840000 12.124864 3.851545 161.846710
0.800000 -4.880000 6.880000 3.957378 10.090394 117.476891
0.800000 -4.880000 6.920000 -4.067667 9.848490 113.538666
0.800000 -4.880000 6.960000 -8.508204 5.585101 103.582893
0.800000 -4.880000 7.000000 -8.509319 0.758703 72.984146
0.800000 -4.880000 7.040000 -5.420769 -1.936718 33.135609
0.800000 -4.880000 7.080000 -1.646746 -1.520191 5.022753
0.800000 -4.880000 7.120000 0.726027 1.198316 1.963075
0.800000 -4.880000 7.160000 0.969922 4.462055 20.850681
0.800000 -4.880000 7.200000 -0.191292 6.923901 47.976994
0.800000 -4.840000 6.800000 12.426467 7.241617 206.858109
0.800000 -4.840000 6.840000 0.536795 15.561386 242.444885
0.800000 -4.840000 6.880000 -13.018948 15.495634 409.607666
0.800000 -4.840000 6.920000 -23.374975 8.047054 611.144531
0.800000 -4.840000 6.960000 -27.182796 -3.533266 751.388367
0.800000 -4.840000 7.000000 -23.377617 -14.741617 763.828247
0.800000 -4.840000 7.040000 -13.660833 -21.136488 633.369507
0.800000 -4.840000 7.080000 -2.235685 -20.102497 409.108673
0.800000 -4.840000 7.120000 5.871356 -12.314354 186.116135
0.800000 -4.840000 7.160000 7.346856 -1.559509 56.408363
0.800000 -4.840000 7.200000 2.264360 7.349597 59.143894
0.800000 -4.800000 6.800000 -1.897125 15.361983 239.589600
0.800000 -4.800000 6.840000 -16.044109 13.973213 452.664124
0.800000 -4.800000 6.880000 -27.627184 5.566398 794.246094
0.800000 -4.800000 6.920000 -33.526741 -7.982227 1187.758301
0.800000 -4.800000 6.960000 -31.263798 -23.369349 1523.551514
0.800000 -4.800000 7.000000 -20.193594 -35.515743 1669.149292
0.800000 -4.800000 7.040000 -3.328287 -38.947273 1527.967651
0.800000 -4.800000 7.080000 12.505536 -31.024065 1118.881104
0.800000 -4.800000 7.120000 19.704674 -14.694527 604.203247
0.800000 -4.800000 7.160000 14.575345 2.151932 217.071503
0.800000 -4.800000 7.200000 0.088653 11.089092 122.975822
0.840000 -5.200000 6.800000 -46.227867 -21.630939 2604.913086
0.840000 -5.200000 6.840000 -31.347836 -32.145988 2016.051392
0.840000 -5.200000 6.880000 -14.212832 -33.928543 1353.150635
0.840000 -5.200000 6.920000 -0.273603 -27.977322 782.805359
0.840000 -5.200000 6.960000 7.790597 -18.563227 405.286774
0.840000 -5.200000 7.000000 11.251269 -9.389371 214.751343
0.840000 -5.200000 7.040000 12.460269 -0.936812 156.135925
0.840000 -5.200000 7.080000 11.470100 8.030247 196.048065
0.840000 -5.200000 7.120000 6.272879 16.810698 321.948547
0.840000 -5.200000 7.160000 -3.480195 21.762436 485.715363
0.840000 -5.200000 7.200000 -13.961200 19.770603 585.791870
0.840000 -5.160000 6.800000 -23.994329 -42.371735 2371.091797
0.840000 -5.160000 6.840000 -5.307922 -38.992893 1548.619751
0.840000 -5.160000 6.880000 7.741863 -27.076286 793.061768
0.840000 -5.160000 6.920000 11.274273 -11.989861 270.865997
0.840000 -5.160000 6.960000 6.322383 -0.456707 40.181107
0.840000 -5.160000 7.000000 -1.696445 3.890221 18.011742
0.840000 -5.160000 7.040000 -7.167278 2.719847 58.767445
0.840000 -5.160000 7.080000 -8.422981 0.692183 71.425735
0.840000 -5.160000 7.120000 -7.938843 0.937737 63.904572
0.840000 -5.160000 7.160000 -8.792619 2.823659 85.283195
0.840000 -5.160000 7.200000 -11.403716 3.890107 145.177673
0.840000 -5.120000 6.800000 3.009850 -41.735260 1750.891113
0.840000 -5.120000 6.840000 16.255898 -26.230980 952.318542
0.840000 -5.120000 6.880000 17.237768 -5.925049 332.246857
0.840000 -5.120000 6.920000 4.931959 9.396614 112.620575
0.840000 -5.120000 6.960000 -13.485767 11.394712 311.705383
0.840000 -5.120000 7.000000 -26.310524 -0.088253 692.251465
0.840000 -5.120000 7.040000 -25.740576 -16.021015 919.250183
0.840000 -5.120000 7.080000 -13.875215 -24.854292 810.257446
0.840000 -5.120000 7.120000 -0.612326 -21.380259 457.490387
0.840000 -5.120000 7.160000 4.665077 -9.948812 120.741806
0.840000 -5.120000 7.200000 0.026690 0.412240 0.170654
0.840000 -5.080000 6.800000 18.212811 -25.795040 997.090576
0.840000 -5.080000 6.840000 21.284204 -4.819308 476.243103
0.840000 -5.080000 6.880000 7.849990 14.517604 272.383148
0.840000 -5.080000 6.920000 -17.365263 18.785736 654.456238
0.840000 -5.080000 6.960000 -39.037899 2.268522 1529.103760
0.840000 -5.080000 7.000000 -41.659035 -26.009445 2411.966309
0.840000 -5.080000 7.040000 -22.351603 -47.348717 2741.495117
0.840000 -5.080000 7.080000 5.821545 -47.563900 2296.214844
0.840000 -5.080000 7.120000 23.896755 -28.097443 1360.521240
0.840000 -5.080000 7.160000 21.811504 -4.059194 492.218781
0.840000 -5.080000 7.200000 4.909232 8.681623 99.471138
0.840000 -5.040000 6.800000 17.504745 -9.810200 402.656128
0.840000 -5.040000 6.840000 11.215021 10.132572 228.445709
0.840000 -5.040000 6.880000 -12.161013 20.372671 562.935913
0.840000 -5.040000 6.920000 -39.517311 7.748983 1621.664673
0.840000 -5.040000 6.960000 -49.878933 -24.872395 3106.543945
0.840000 -5.040000 7.000000 -31.716148 -57.310154 4290.368164
0.840000 -5.040000 7.040000 5.545618 -66.800232 4493.024902
0.840000 -5.040000 7.080000 37.538319 -46.641140 3584.521484
0.840000 -5.040000 7.120000 44.153336 -11.844113 2089.800049
0.840000 -5.040000 7.160000 24.976189 13.463837 805.084900
0.840000 -5.040000 7.200000 -2.427141 15.324496 240.731201
0.840000 -5.000000 6.800000 9.955219 -3.814602 113.657578
0.840000 -5.000000 6.840000 -2.212367 11.870461 145.802414
0.840000 -5.000000 6.880000 -27.435837 10.440825 861.735962
0.840000 -5.000000 6.920000 -45.508858 -15.024389 2296.788330
0.840000 -5.000000 6.960000 -37.152889 -50.637703 3944.514160
0.840000 -5.000000 7.000000 -2.189827 -70.682938 5000.873047
0.840000 -5.000000 7.040000 37.812363 -58.825867 4890.257324
0.840000 -5.000000 7.080000 56.275772 -22.566322 3676.201660
0.840000 -5.000000 7.120000 43.179115 12.642587 2024.270996
0.840000 -5.000000 7.160000 12.172026 24.346451 740.907898
0.840000 -5.000000 7.200000 -12.363475 10.120358 255.277161
0.840000 -4.960000 6.800000 6.480361 -5.307604 70.165741
0.840000 -4.960000 6.840000 -8.632448 5.638284 106.309410
0.840000 -4.960000 6.880000 -29.137579 -4.175526 866.433533
0.840000 -4.960000 6.920000 -33.833416 -31.925312 2163.925537
0.840000 -4.960000 6.960000 -12.342831 -57.148079 3418.248291
0.840000 -4.960000 7.000000 24.020947 -58.448174 3993.194824
0.840000 -4.960000 7.040000 50.541973 -32.345245 3600.705811
0.840000 -4.960000 7.080000 49.654602 3.196436 2475.796875
0.840000 -4.960000 7.120000 25.273296 23.864655 1208.261230
0.840000 -4.960000 7.160000 -1.711734 18.849247 358.224121
0.840000 -4.960000 7.200000 -11.695303 -2.104443 141.208786
0.840000 -4.920000 6.800000 8.875053 -5.207516 105.884789
0.840000 -4.920000 6.840000 -7.518477 1.059221 57.649452
0.840000 -4.920000 6.880000 -21.426182 -11.512470 591.618225
0.840000 -4.920000 6.920000 -17.707193 -32.887329 1395.121094
0.840000 -4.920000 6.960000 4.020086 -44.587032 2004.164551
0.840000 -4.920000 7.000000 28.754341 -35.613678 2095.146240
0.840000 -4.920000 7.040000 39.007339 -11.789783 1660.571533
0.840000 -4.920000 7.080000 29.494030 9.763828 965.230164
0.840000 -4.920000 7.120000 10.564533 15.436355 349.890411
0.840000 -4.920000 7.160000 -1.767464 5.777534 36.503822
0.840000 -4.920000 7.200000 0.542544 -6.804757 46.599072
0.840000 -4.880000 6.800000 10.102392 0.567750 102.380669
0.840000 -4.880000 6.840000 -5.813246 1.913436 37.455063
0.840000 -4.880000 6.880000 -15.135633 -9.523145 319.777679
0.840000 -4.880000 6.920000 -11.265663 -23.552462 681.633606
0.840000 -4.880000 6.960000 2.109253 -29.564074 878.483398
0.840000 -4.880000 7.000000 15.336649 -24.317749 826.565674
0.840000 -4.880000 7.040000 20.967485 -12.854706 604.878906
0.840000 -4.880000 7.080000 18.639744 -2.914834 355.936310
0.840000 -4.880000 7.120000 13.483572 1.499178 184.054245
0.840000 -4.880000 7.160000 10.608253 2.146356 117.141884
0.840000 -4.880000 7.200000 10.872640 3.520709 130.609680
0.840000 -4.840000 6.800000 4.240708 6.653354 62.250725
0.840000 -4.840000 6.840000 -8.594432 3.752376 87.944580
0.840000 -4.840000 6.880000 -16.061262 -5.745495 290.974854
0.840000 -4.840000 6.920000 -16.249649 -17.505304 570.486755
0.840000 -4.840000 6.960000 -9.278767 -27.545486 844.849365
0.840000 -4.840000 7.000000 3.224847 -32.135239 1043.073242
0.840000 -4.840000 7.040000 17.406420 -28.295908 1103.641846
0.840000 -4.840000 7.080000 27.427055 -15.956321 1006.847534
0.840000 -4.840000 7.120000 28.299763 0.512564 801.139282
0.840000 -4.840000 7.160000 19.513493 14.115686 580.028992
0.840000 -4.840000 7.200000 5.687813 19.697531 420.343933
0.840000 -4.800000 6.800000 -5.644423 5.082761 57.693974
0.840000 -4.800000 6.840000 -13.300802 0.761436 177.491135
0.840000 -4.800000 6.880000 -20.163563 -7.498280 462.793457
0.840000 -4.800000 6.920000 -22.517210 -21.648760 975.693542
0.840000 -4.800000 6.960000 -13.923431 -38.122490 1647.186157
0.840000 -4.800000 7.000000 7.104929 -46.656956 2227.351562
0.840000 -4.800000 7.040000 31.652418 -37.767838 2428.285156
0.840000 -4.800000 7.080000 44.668449 -12.555087 2152.900635
0.840000 -4.800000 7.120000 36.691093 15.527350 1587.334961
0.840000 -4.800000 7.160000 12.269607 30.103888 1056.787231
0.840000 -4.800000 7.200000 -13.301415 24.457623 775.102966
0.880000 -5.200000 6.800000 -42.077324 -49.531158 4223.836914
0.880000 -5.200000 6.840000 -16.870197 -51.267094 2912.918457
0.880000 -5.200000 6.880000 2.063733 -39.738968 1583.444580
0.880000 -5.200000 6.920000 8.934841 -23.714033 642.186707
0.880000 -5.200000 6.960000 6.815269 -12.118711 193.311035
0.880000 -5.200000 7.000000 3.253225 -6.918753 58.452614
0.880000 -5.200000 7.040000 2.234082 -3.589817 17.877911
0.880000 -5.200000 7.080000 1.174868 1.849215 4.799909
0.880000 -5.200000 7.120000 -4.091705 7.502717 73.032806
0.880000 -5.200000 7.160000 -12.642174 8.116138 225.696259
0.880000 -5.200000 7.200000 -18.320190 2.313123 340.979889
0.880000 -5.160000 6.800000 -0.590642 -62.967136 3965.209229
0.880000 -5.160000 6.840000 22.211254 -44.330864 2458.565186
0.880000 -5.160000 6.880000 27.945179 -16.947802 1068.161011
0.880000 -5.160000 6.920000 15.438902 4.644769 259.933563
0.880000 -5.160000 6.960000 -4.800808 9.916004 121.374893
0.880000 -5.160000 7.000000 -18.432369 0.388302 339.903015
0.880000 -5.160000 7.040000 -18.505424 -12.526707 499.369141
0.880000 -5.160000 7.080000 -9.656902 -17.847986 411.806366
0.880000 -5.160000 7.120000 -1.941259 -13.583855 188.289597
0.880000 -5.160000 7.160000 -1.219992 -5.868407 35.926579
0.880000 -5.160000 7.200000 -5.669020 -1.150860 33.462261
0.880000 -5.120000 6.800000 35.921429 -44.743172 3292.300293
0.880000 -5.120000 6.840000 44.917500 -10.689953 2131.856934
0.880000 -5.120000 6.880000 27.783226 22.467720 1276.706055
0.880000 -5.120000 6.920000 -8.321648 34.081810 1230.819580
0.880000 -5.120000 6.960000 -40.855804 15.908813 1922.287109
0.880000 -5.120000 7.000000 -48.344841 -18.987247 2697.739258
0.880000 -5.120000 7.040000 -27.831165 -45.449600 2840.239990
0.880000 -5.120000 7.080000 2.982370 -46.306702 2153.205078
0.880000 -5.120000 7.120000 21.118828 -25.188210 1080.450806
0.880000 -5.120000 7.160000 16.788177 -0.955745 282.756348
0.880000 -5.120000 7.200000 -1.603178 9.632160 95.348694
0.880000 -5.080000 6.800000 47.494080 -10.589427 2367.823486
0.880000 -5.080000 6.840000 36.348274 28.492594 2133.024902
0.880000 -5.080000 6.880000 -4.830944 51.310669 2656.122803
0.880000 -5.080000 6.920000 -54.398682 35.774570 4239.036621
0.880000 -5.080000 6.960000 -77.948105 -13.840317 6267.461426
0.880000 -5.080000 7.000000 -56.700596 -65.411369 7493.604980
0.880000 -5.080000 7.040000 -5.305950 -83.373253 6979.252441
0.880000 -5.080000 7.080000 39.062260 -57.983833 4887.985352
0.880000 -5.080000 7.120000 47.311020 -12.414372 2392.449219
0.880000 -5.080000 7.160000 20.755074 18.450832 771.206299
0.880000 -5.080000 7.200000 -14.199862 16.973337 489.730225
0.880000 -5.040000 6.800000 34.176949 16.228220 1431.418945
0.880000 -5.040000 6.840000 3.577996 48.235947 2339.508545
0.880000 -5.040000 6.880000 -50.689945 46.491196 4730.901855
0.880000 -5.040000 6.920000 -91.392105 -1.257854 8354.098633
0.880000 -5.040000 6.960000 -83.035767 -69.376022 11707.970703
0.880000 -5.040000 7.000000 -25.138012 -110.784966 12905.228516
0.880000 -5.040000 7.040000 43.373154 -95.926300 11083.085938
0.880000 -5.040000 7.080000 75.327820 -38.510212 7157.316406
0.880000 -5.040000 7.120000 54.236843 16.551298 3215.580811
0.880000 -5.040000 7.160000 5.302027 31.681316 1031.817261
0.880000 -5.040000 7.200000 -29.934717 5.691828 928.484192
0.880000 -5.000000 6.800000 12.151497 23.395184 694.993469
0.880000 -5.000000 6.840000 -30.227209 38.759697 2415.998291
0.880000 -5.000000 6.880000 -78.722816 9.460231 6286.777832
0.880000 -5.000000 6.920000 -90.273376 -56.458710 11336.869141
0.880000 -5.000000 6.960000 -44.804184 -115.104355 15256.427734
0.880000 -5.000000 7.000000 32.228592 -121.731537 15857.250000
0.880000 -5.000000 7.040000 87.990280 -70.358704 12692.636719
0.880000 -5.000000 7.080000 86.439529 -0.162022 7471.818848
0.880000 -5.000000 7.120000 37.837643 38.122101 2884.981934
0.880000 -5.000000 7.160000 -13.147594 24.503561 773.283752
0.880000 -5.000000 7.200000 -27.841057 -17.874474 1094.621216
0.880000 -4.960000 6.800000 -2.391806 15.675487 251.441620
0.880000 -4.960000 6.840000 -44.447998 11.408783 2105.784912
0.880000 -4.960000 6.880000 -71.436607 -34.094124 6265.598145
0.880000 -4.960000 6.920000 -50.766464 -93.259109 11274.496094
0.880000 -4.960000 6.960000 13.241723 -120.207123 14625.094727
0.880000 -4.960000 7.000000 78.732155 -90.692200 14423.828125
0.880000 -4.960000 7.040000 100.702568 -24.882727 10760.157227
0.880000 -4.960000 7.080000 69.272995 29.383507 5662.138672
0.880000 -4.960000 7.120000 16.419052 37.560776 1680.397217
0.880000 -4.960000 7.160000 -14.024212 5.606035 228.106140
0.880000 -4.960000 7.200000 -3.810990 -30.148178 923.436279
0.880000 -4.920000 6.800000 -5.348397 5.624022 60.234982
0.880000 -4.920000 6.840000 -35.827721 -12.815744 1447.868896
0.880000 -4.920000 6.880000 -38.664154 -55.874870 4616.917969
0.880000 -4.920000 6.920000 -2.093269 -90.355164 8168.437500
0.880000 -4.920000 6.960000 52.557766 -86.202736 10193.230469
0.880000 -4.920000 7.000000 87.676971 -43.271313 9559.658203
0.880000 -4.920000 7.040000 81.289841 8.191837 6675.144531
0.880000 -4.920000 7.080000 44.812599 33.868675 3155.256348
0.880000 -4.920000 7.120000 10.904453 23.933102 691.700439
0.880000 -4.920000 7.160000 4.085260 -1.850277 20.112873
0.880000 -4.920000 7.200000 21.678783 -14.962243 693.838379
0.880000 -4.880000 6.800000 -2.968811 0.528923 9.093598
0.880000 -4.880000 6.840000 -17.269001 -20.719503 727.516235
0.880000 -4.880000 6.880000 -7.077404 -47.820152 2336.856445
0.880000 -4.880000 6.920000 23.135157 -58.794571 3992.037109
0.880000 -4.880000 6.960000 53.415352 -44.235291 4809.960938
0.880000 -4.880000 7.000000 65.083717 -14.007690 4432.105469
0.880000 -4.880000 7.040000 55.064766 12.518726 3188.846924
0.880000 -4.880000 7.080000 35.768364 22.800035 1799.217529
0.880000 -4.880000 7.120000 22.390224 19.415625 878.288635
0.880000 -4.880000 7.160000 20.195475 14.486653 617.720337
0.880000 -4.880000 7.200000 22.554428 17.245625 806.113770
0.880000 -4.840000 6.800000 -1.384095 -1.381659 3.824699
0.880000 -4.840000 6.840000 -3.961185 -14.634277 229.853073
0.880000 -4.840000 6.880000 3.671055 -25.401918 658.734070
0.880000 -4.840000 6.920000 16.446621 -29.010021 1112.072754
0.880000 -4.840000 6.960000 29.620613 -25.284668 1516.695190
0.880000 -4.840000 7.000000 40.465729 -15.255249 1870.197876
0.880000 -4.840000 7.040000 46.356678 0.249454 2149.003906
0.880000 -4.840000 7.080000 43.883392 18.698940 2275.402344
0.880000 -4.840000 7.120000 31.462828 34.424545 2174.958984
0.880000 -4.840000 7.160000 12.450457 41.215374 1853.720947
0.880000 -4.840000 7.200000 -5.880508 37.123573 1412.739990
0.880000 -4.800000 6.800000 -0.113383 -4.218856 17.811600
0.880000 -4.800000 6.840000 -1.050114 -5.598385 32.444653
0.880000 -4.800000 6.880000 -4.653934 -10.178820 125.267471
0.880000 -4.800000 6.920000 -3.592762 -21.961365 495.209473
0.880000 -4.800000 6.960000 11.050718 -33.581917 1249.863525
0.880000 -4.800000 7.000000 36.562584 -30.147413 2245.688965
0.880000 -4.800000 7.040000 55.839031 -4.526973 3138.490723
0.880000 -4.800000 7.080000 50.844116 31.847603 3599.394043
0.880000 -4.800000 7.120000 20.079533 55.728653 3508.870605
0.880000 -4.800000 7.160000 -18.020046 51.503819 2977.365479
0.880000 -4.800000 7.200000 -40.253696 24.580070 2224.540039
0.920000 -5.200000 6.800000 -17.352932 -73.984360 5774.809570
0.920000 -5.200000 6.840000 10.631433 -60.196163 3736.605469
0.920000 -5.200000 6.880000 21.523314 -35.781219 1743.548706
0.920000 -5.200000 6.920000 15.288387 -16.360037 501.385620
0.920000 -5.200000 6.960000 3.464989 -10.341417 118.951065
0.920000 -5.200000 7.000000 -2.414009 -13.379669 184.842987
0.920000 -5.200000 7.040000 -0.813736 -15.418232 238.384048
0.920000 -5.200000 7.080000 1.328199 -12.010143 146.007660
0.920000 -5.200000 7.120000 -1.327856 -7.523306 58.363335
0.920000 -5.200000 7.160000 -6.095673 -7.703820 96.506073
0.920000 -5.200000 7.200000 -6.625971 -11.333946 172.361847
0.920000 -5.160000 6.800000 35.444019 -64.414520 5405.508789
0.920000 -5.160000 6.840000 49.849197 -29.241005 3339.978760
0.920000 -5.160000 6.880000 37.075645 5.393962 1403.698364
0.920000 -5.160000 6.920000 6.143322 19.318821 410.957275
0.920000 -5.160000 6.960000 -21.073925 6.942558 492.309448
0.920000 -5.160000 7.000000 -27.207632 -18.151047 1069.715820
0.920000 -5.160000 7.040000 -12.714314 -35.246414 1403.963501
0.920000 -5.160000 7.080000 6.965475 -33.671391 1182.280396
0.920000 -5.160000 7.120000 16.455996 -19.078712 634.797119
0.920000 -5.160000 7.160000 12.385043 -4.743735 175.892319
0.920000 -5.160000 7.200000 1.988895 1.359020 5.802639
0.920000 -5.120000 6.800000 65.375305 -22.073799 4761.183105
0.920000 -5.120000 6.840000 54.865658 24.404537 3605.821777
0.920000 -5.120000 6.880000 11.222094 52.572697 2889.823730
0.920000 -5.120000 6.920000 -41.287727 39.976501 3302.797119
0.920000 -5.120000 6.960000 -67.246353 -7.419815 4577.125488
0.920000 -5.120000 7.000000 -49.147419 -56.581741 5616.961914
0.920000 -5.120000 7.040000 -2.753944 -73.496368 5409.300293
0.920000 -5.120000 7.080000 36.383400 -50.603203 3884.436035
0.920000 -5.120000 7.120000 42.693161 -10.511108 1933.189453
0.920000 -5.120000 7.160000 19.074409 15.877195 615.918457
0.920000 -5.120000 7.200000 -10.964299 14.807121 339.466705
0.920000 -5.080000 6.800000 57.535484 25.172680 3943.995850
0.920000 -5.080000 6.840000 17.664034 66.691833 4759.818848
0.920000 -5.080000 6.880000 -50.123600 66.566216 6943.436523
0.920000 -5.080000 6.920000 -101.478691 11.497295 10430.112305
0.920000 -5.080000 6.960000 -95.427200 -67.738251 13694.821289
0.920000 -5.080000 7.000000 -32.193504 -116.704102 14656.269531
0.920000 -5.080000 7.040000 43.375946 -102.268219 12340.261719
0.920000 -5.080000 7.080000 78.471497 -40.582802 7804.739746
0.920000 -5.080000 7.120000 55.650925 18.285706 3431.392334
0.920000 -5.080000 7.160000 3.245858 33.880447 1158.420410
0.920000 -5.080000 7.200000 -34.093018 6.023408 1198.615356
0.920000 -5.040000 6.800000 23.150951 49.841167 3020.108643
0.920000 -5.040000 6.840000 -39.303001 68.606262 6251.545410
0.920000 -5.040000 6.880000 -107.767807 26.796562 12331.956055
0.920000 -5.040000 6.920000 -125.491516 -63.666912 19801.597656
0.920000 -5.040000 6.960000 -66.700600 -144.060013 25202.257812
0.920000 -5.040000 7.000000 34.203537 -155.365906 25308.447266
0.920000 -5.040000 7.040000 107.342361 -90.237015 19665.101562
0.920000 -5.040000 7.080000 105.789307 -0.522782 11191.650391
0.920000 -5.040000 7.120000 43.596169 47.742851 4180.005859
0.920000 -5.040000 7.160000 -21.080433 29.482962 1313.629639
0.920000 -5.040000 7.200000 -39.179237 -24.687698 2144.495117
0.920000 -5.000000 6.800000 -12.168657 43.925968 2077.566895
0.920000 -5.000000 6.840000 -78.816559 29.406727 7076.805176
0.920000 -5.000000 6.880000 -118.852249 -46.155659 16256.202148
0.920000 -5.000000 6.920000 -84.530579 -139.829193 26697.621094
0.920000 -5.000000 6.960000 15.776159 -181.726746 33273.496094
0.920000 -5.000000 7.000000 116.791565 -135.825363 32088.798828
0.920000 -5.000000 7.040000 149.380798 -34.607494 23512.300781
0.920000 -5.000000 7.080000 99.473297 47.438309 12145.330078
0.920000 -5.000000 7.120000 17.625877 57.593811 3627.718750
0.920000 -5.000000 7.160000 -28.497555 6.414927 853.261963
0.920000 -5.000000 7.200000 -12.067625 -49.428566 2588.810791
0.920000 -4.960000 6.800000 -28.939976 20.158636 1243.892822
0.920000 -4.960000 6.840000 -77.467995 -22.788498 6520.605469
0.920000 -4.960000 6.880000 -73.851944 -104.036545 16277.712891
0.920000 -4.960000 6.920000 -0.066698 -164.045624 26910.970703
0.920000 -4.960000 6.960000 102.435196 -149.877441 32956.218750
0.920000 -4.960000 7.000000 163.311951 -64.517563 30833.308594
0.920000 -4.960000 7.040000 143.250992 32.428436 21572.449219
0.920000 -4.960000 7.080000 67.304916 75.369751 10210.550781
0.920000 -4.960000 7.120000 0.471794 47.695370 2275.071045
0.920000 -4.960000 7.160000 -10.160933 -9.473618 192.993988
0.920000 -4.960000 7.200000 27.974604 -39.562397 2347.761719
0.920000 -4.920000 6.800000 -25.074322 -2.293570 633.982056
0.920000 -4.920000 6.840000 -42.453163 -53.907627 4708.303223
0.920000 -4.920000 6.880000 -5.703655 -110.451981 12232.170898
0.920000 -4.920000 6.920000 71.514977 -122.467361 20112.646484
0.920000 -4.920000 6.960000 138.245987 -71.381500 24207.271484
0.920000 -4.920000 7.000000 148.391754 11.649986 22155.835938
0.920000 -4.920000 7.040000 100.054695 71.346390 15101.250000
0.920000 -4.920000 7.080000 35.438931 75.094826 6895.150879
0.920000 -4.920000 7.120000 2.291426 37.723221 1428.291992
0.920000 -4.920000 7.160000 13.874716 3.077005 201.975693
0.920000 -4.920000 7.200000 43.471558 2.691314 1897.019531
0.920000 -4.880000 6.800000 -11.128794 -12.639116 283.597290
0.920000 -4.880000 6.840000 -2.628201 -49.941505 2501.061523
0.920000 -4.880000 6.880000 38.573338 -70.163803 6410.861816
0.920000 -4.880000 6.920000 87.092255 -51.995964 10288.641602
0.920000 -4.880000 6.960000 110.335495 -3.107529 12183.578125
0.920000 -4.880000 7.000000 95.058022 46.513401 11199.523438
0.920000 -4.880000 7.040000 56.352402 69.808563 8048.828613
0.920000 -4.880000 7.080000 22.251831 63.167889 4485.326172
0.920000 -4.880000 7.120000 9.638285 44.981659 2116.246094
0.920000 -4.880000 7.160000 13.271297 36.119663 1480.757446
0.920000 -4.880000 7.200000 15.472773 41.973606 2001.190308
0.920000 -4.840000 6.800000 1.974686 -11.745525 141.856750
0.920000 -4.840000 6.840000 16.555052 -23.806585 840.823242
0.920000 -4.840000 6.880000 37.070145 -21.268604 1826.549194
0.920000 -4.840000 6.920000 51.816776 -5.811371 2718.750244
0.920000 -4.840000 6.960000 55.806274 14.623177 3328.177734
0.920000 -4.840000 7.000000 50.675945 33.745651 3706.820312
0.920000 -4.840000 7.040000 39.168076 49.466774 3981.099854
0.920000 -4.840000 7.080000 22.080980 60.607883 4160.885254
0.920000 -4.840000 7.120000 0.586615 64.126297 4112.526367
0.920000 -4.840000 7.160000 -20.706173 57.282433 3710.022705
0.920000 -4.840000 7.200000 -35.333549 41.756142 2992.035156
0.920000 -4.800000 6.800000 10.006992 -5.270152 127.914398
0.920000 -4.800000 6.840000 11.089680 0.363998 123.113487
0.920000 -4.800000 6.880000 6.689475 0.599838 45.108883
0.920000 -4.800000 6.920000 8.363020 -7.038242 119.476959
0.920000 -4.800000 6.960000 23.640945 -10.244238 663.838684
0.920000 -4.800000 7.000000 42.672508 5.907019 1855.835815
0.920000 -4.800000 7.040000 43.939663 39.944099 3526.225098
0.920000 -4.800000 7.080000 15.580532 69.944473 5134.982422
0.920000 -4.800000 7.120000 -29.724209 71.566025 6005.224609
0.920000 -4.800000 7.160000 -63.425037 41.075714 5709.949707
0.920000 -4.800000 7.200000 -66.045876 -0.374130 4362.197754
0.960000 -5.200000 6.800000 22.187000 -78.480698 6651.482910
0.960000 -5.200000 6.840000 41.868233 -49.649643 4218.036133
0.960000 -5.200000 6.880000 37.428719 -20.023342 1801.843140
0.960000 -5.200000 6.920000 18.489777 -6.619642 385.691498
0.960000 -5.200000 6.960000 3.031946 -11.279839 136.427460
0.960000 -5.200000 7.000000 1.129787 -21.704178 472.347778
0.960000 -5.200000 7.040000 8.299738 -25.260658 706.986450
0.960000 -5.200000 7.080000 13.778111 -20.371933 604.851990
0.960000 -5.200000 7.120000 13.042317 -14.292545 374.378906
0.960000 -5.200000 7.160000 10.461232 -12.045202 254.524277
0.960000 -5.200000 7.200000 10.734921 -10.574196 227.052139
0.960000 -5.160000 6.800000 66.735641 -40.796494 6118.000000
0.960000 -5.160000 6.840000 62.438232 1.929928 3902.257568
0.960000 -5.160000 6.880000 29.621897 28.941792 1715.084106
0.960000 -5.160000 6.920000 -10.002428 23.372753 646.334167
0.960000 -5.160000 6.960000 -29.309849 -7.566620 916.320984
0.960000 -5.160000 7.000000 -18.003868 -38.395676 1798.367188
0.960000 -5.160000 7.040000 10.343571 -47.014416 2317.344727
0.960000 -5.160000 7.080000 32.189995 -31.575382 2033.200562
0.960000 -5.160000 7.120000 34.170963 -7.890284 1229.911377
0.960000 -5.160000 7.160000 20.570965 7.258029 475.843567
0.960000 -5.160000 7.200000 4.063046 8.999366 97.496925
0.960000 -5.120000 6.800000 72.148987 16.577543 5480.291016
0.960000 -5.120000 6.840000 36.368561 58.159775 4705.231445
0.960000 -5.120000 6.880000 -24.419771 61.692085 4402.238281
0.960000 -5.120000 6.920000 -70.664795 17.152447 5287.719727
0.960000 -5.120000 6.960000 -68.218941 -47.712944 6930.348633
0.960000 -5.120000 7.000000 -18.906342 -87.382065 7993.075195
0.960000 -5.120000 7.040000 39.740887 -76.123306 7374.095703
0.960000 -5.120000 7.080000 66.154991 -28.257542 5174.971680
0.960000 -5.120000 7.120000 48.099785 16.921789 2599.936279
0.960000 -5.120000 7.160000 7.862228 29.528460 933.744568
0.960000 -5.120000 7.200000 -21.957073 10.158885 585.316040
0.960000 -5.080000 6.800000 37.560581 58.952194 4886.158203
0.960000 -5.080000 6.840000 -27.191437 79.092545 6995.004395
0.960000 -5.080000 6.880000 -97.199860 38.907475 10961.604492
0.960000 -5.080000 6.920000 -117.296150 -48.956909 16155.166016
0.960000 -5.080000 6.960000 -63.276768 -127.260796 20199.259766
0.960000 -5.080000 7.000000 31.228828 -139.689499 20488.396484
0.960000 -5.080000 7.040000 99.724525 -79.831726 16318.085938
0.960000 -5.080000 7.080000 98.400955 3.196636 9692.966797
0.960000 -5.080000 7.120000 40.697113 47.979652 3958.302246
0.960000 -5.080000 7.160000 -19.777920 31.616358 1390.760132
0.960000 -5.080000 7.200000 -38.478043 -18.085644 1807.650391
0.960000 -5.040000 6.800000 -12.210921 64.071526 4254.266602
0.960000 -5.040000 6.840000 -88.437050 45.569950 9897.732422
0.960000 -5.040000 6.880000 -134.022003 -39.936150 19556.792969
0.960000 -5.040000 6.920000 -97.102097 -144.898132 30424.285156
0.960000 -5.040000 6.960000 12.624439 -192.561661 37239.367188
0.960000 -5.040000 7.000000 123.238991 -143.613800 35812.773438
0.960000 -5.040000 7.040000 158.937515 -33.889904 26409.658203
0.960000 -5.040000 7.080000 104.413635 55.040813 13931.698242
0.960000 -5.040000 7.120000 14.827564 65.662430 4531.411133
0.960000 -5.040000 7.160000 -36.299339 9.348579 1405.038086
0.960000 -5.040000 7.200000 -19.838976 -52.801525 3181.585938
0.960000 -5.000000 6.800000 -46.435947 36.036129 3454.899658
0.960000 -5.000000 6.840000 -105.943298 -22.392010 11725.384766
0.960000 -5.000000 6.880000 -99.134064 -126.849289 25918.304688
0.960000 -5.000000 6.920000 -4.172038 -202.885559 41179.957031
0.960000 -5.000000 6.960000 126.115799 -184.141968 49813.460938
0.960000 -5.000000 7.000000 202.310822 -75.019806 46557.640625
0.960000 -5.000000 7.040000 174.574921 47.946064 32775.226562
0.960000 -5.000000 7.080000 75.502937 100.670601 15835.263672
0.960000 -5.000000 7.120000 -11.084785 62.072701 3975.892822
0.960000 -5.000000 7.160000 -24.573036 -14.674530 819.175903
0.960000 -5.000000 7.200000 25.447842 -56.683517 3860.613770
0.960000 -4.960000 6.800000 -49.918568 -1.750546 2494.927734
0.960000 -4.960000 6.840000 -69.622223 -79.524895 11171.462891
0.960000 -4.960000 6.880000 -10.816866 -161.557434 26217.808594
0.960000 -4.960000 6.920000 105.871712 -175.561798 42030.765625
0.960000 -4.960000 6.960000 203.689041 -94.635490 50445.101562
0.960000 -4.960000 7.000000 212.870514 32.525883 46371.789062
0.960000 -4.960000 7.040000 131.916687 119.885818 31774.621094
0.960000 -4.960000 7.080000 28.400146 117.082916 14514.977539
0.960000 -4.960000 7.120000 -21.537695 49.103302 2875.006592
0.960000 -4.960000 7.160000 2.716593 -12.696384 168.578064
0.960000 -4.960000 7.200000 57.226212 -17.119516 3567.917236
0.960000 -4.920000 6.800000 -29.464561 -26.008707 1544.613281
0.960000 -4.920000 6.840000 -8.223364 -90.831070 8317.907227
0.960000 -4.920000 6.880000 70.735123 -122.662178 20049.466797
0.960000 -4.920000 6.920000 159.936752 -80.978790 32137.330078
0.960000 -4.920000 6.960000 194.929031 18.382065 38335.226562
0.960000 -4.920000 7.000000 149.730576 112.276482 35025.253906
0.960000 -4.920000 7.040000 59.736217 142.742340 23943.791016
0.960000 -4.920000 7.080000 -9.894814 104.717087 11063.575195
0.960000 -4.920000 7.120000 -20.305737 45.262241 2460.993408
0.960000 -4.920000 7.160000 12.703007 17.717577 475.278931
0.960000 -4.920000 7.200000 41.204433 35.899242 2986.561035
0.960000 -4.880000 6.800000 -3.522896 -28.244375 810.155518
0.960000 -4.880000 6.840000 35.460320 -57.634781 4579.202148
0.960000 -4.880000 6.880000 93.849930 -45.322243 10861.915039
0.960000 -4.880000 6.920000 130.420822 11.578888 17143.662109
0.960000 -4.880000 6.960000 117.418251 81.043320 20355.066406
0.960000 -4.880000 7.000000 63.419449 121.993347 18904.404297
0.960000 -4.880000 7.040000 4.564354 117.224655 13762.453125
0.960000 -4.880000 7.080000 -26.666719 83.918884 7753.492676
0.960000 -4.880000 7.120000 -25.973841 54.352955 3628.884033
0.960000 -4.880000 7.160000 -14.513779 47.003475 2419.976318
0.960000 -4.880000 7.200000 -15.128387 54.554672 3205.080322
0.960000 -4.840000 6.800000 12.958393 -14.990121 392.623657
0.960000 -4.840000 6.840000 38.784256 -11.909904 1646.064331
0.960000 -4.840000 6.880000 57.071877 11.432961 3387.911621
0.960000 -4.840000 6.920000 56.269325 42.563644 4977.900879
0.960000 -4.840000 6.960000 38.482880 66.883064 5954.276367
0.960000 -4.840000 7.000000 13.646690 78.175606 6297.657227
0.960000 -4.840000 7.040000 -10.447098 78.718796 6305.791016
0.960000 -4.840000 7.080000 -31.772697 72.270790 6232.571289
0.960000 -4.840000 7.120000 -50.068077 59.548615 6052.849609
0.960000 -4.840000 7.160000 -62.622154 40.493118 5561.226562
0.960000 -4.840000 7.200000 -65.747612 18.396524 4661.180664
0.960000 -4.800000 6.800000 15.842966 2.002495 255.009552
0.960000 -4.800000 6.840000 12.681761 13.457890 341.941833
0.960000 -4.800000 6.880000 3.888420 15.763809 263.617493
0.960000 -4.800000 6.920000 2.980659 10.847466 126.551842
0.960000 -4.800000 6.960000 12.642677 13.744065 348.736633
0.960000 -4.800000 7.000000 17.531612 34.067722 1467.967163
0.960000 -4.800000 7.040000 -0.844852 60.466976 3656.968994
0.960000 -4.800000 7.080000 -41.826958 67.634659 6323.941406
0.960000 -4.800000 7.120000 -81.108795 40.977211 8257.768555
0.960000 -4.800000 7.160000 -91.319473 -6.627748 8383.172852
0.960000 -4.800000 7.200000 -67.581131 -44.852097 6578.919922
1.000000 -5.200000 6.800000 57.845428 -55.384689 6413.557617
1.000000 -5.200000 6.840000 61.317039 -19.956848 4158.055176
1.000000 -5.200000 6.880000 41.690674 4.076283 1754.728394
1.000000 -5.200000 6.920000 16.891287 5.148914 311.826904
1.000000 -5.200000 6.960000 5.251216 -9.298584 114.038933
1.000000 -5.200000 7.000000 10.353893 -22.152557 597.938904
1.000000 -5.200000 7.040000 21.603161 -23.113052 1000.909790
1.000000 -5.200000 7.080000 27.590679 -15.332281 996.324463
1.000000 -5.200000 7.120000 26.495705 -7.485748 758.058777
1.000000 -5.200000 7.160000 23.386478 -2.798656 554.759827
1.000000 -5.200000 7.200000 20.443741 1.920904 421.636414
1.000000 -5.160000 6.800000 75.773872 -1.767598 5744.804199
1.000000 -5.160000 6.840000 52.292835 34.455818 3921.743896
1.000000 -5.160000 6.880000 9.576122 42.548370 1902.065918
1.000000 -5.160000 6.920000 -23.405659 17.026230 837.717407
1.000000 -5.160000 6.960000 -24.654396 -21.720333 1079.612061
1.000000 -5.160000 7.000000 2.537525 -44.556389 1991.710815
1.000000 -5.160000 7.040000 34.180038 -37.752052 2593.492432
1.000000 -5.160000 7.080000 47.324486 -11.580587 2373.717041
1.000000 -5.160000 7.120000 37.407013 12.448241 1554.243408
1.000000 -5.160000 7.160000 16.644440 20.651846 703.536133
1.000000 -5.160000 7.200000 -0.705637 14.296471 204.886993
1.000000 -5.120000 6.800000 51.246456 49.213795 5048.196777
1.000000 -5.120000 6.840000 0.081367 69.605560 4844.940918
1.000000 -5.120000 6.880000 -55.950775 42.940125 4974.343750
1.000000 -5.120000 6.920000 -74.913269 -20.418739 6028.922852
1.000000 -5.120000 6.960000 -39.422310 -77.593224 7574.827148
1.000000 -5.120000 7.000000 25.485741 -87.999176 8393.377930
1.000000 -5.120000 7.040000 72.521774 -47.765842 7540.983398
1.000000 -5.120000 7.080000 71.723282 8.603561 5218.250488
1.000000 -5.120000 7.120000 32.620289 39.555183 2628.695801
1.000000 -5.120000 7.160000 -9.331873 30.051983 990.205566
1.000000 -5.120000 7.200000 -25.448338 -2.398212 653.369263
1.000000 -5.080000 6.800000 -0.053041 67.667328 4578.870117
1.000000 -5.080000 6.840000 -67.348312 53.951805 7446.592773
1.000000 -5.080000 6.880000 -109.366806 -17.207367 12257.192383
1.000000 -5.080000 6.920000 -82.181702 -105.956535 17980.619141
1.000000 -5.080000 6.960000 6.468414 -148.022232 21952.421875
1.000000 -5.080000 7.000000 97.074593 -110.420029 21616.058594
1.000000 -5.080000 7.040000 127.050781 -22.258560 16637.345703
1.000000 -5.080000 7.080000 83.426071 49.939800 9453.892578
1.000000 -5.080000 7.120000 10.435399 59.191135 3612.488037
1.000000 -5.080000 7.160000 -32.828568 13.846222 1269.432739
1.000000 -5.080000 7.200000 -22.339928 -38.114342 1951.775391
1.000000 -5.040000 6.800000 -45.998230 46.081150 4239.309570
1.000000 -5.040000 6.840000 -103.827423 -9.725344 10874.715820
1.000000 -5.040000 6.880000 -99.355530 -109.623627 21888.861328
1.000000 -5.040000 6.920000 -11.082626 -183.592789 33829.136719
1.000000 -5.040000 6.960000 111.715042 -168.272385 40795.847656
1.000000 -5.040000 7.000000 184.332077 -66.920395 38456.656250
1.000000 -5.040000 7.040000 158.831100 48.503345 27579.892578
1.000000 -5.040000 7.080000 65.197021 98.109024 13876.032227
1.000000 -5.040000 7.120000 -17.598158 61.023041 4033.506592
1.000000 -5.040000 7.160000 -31.649275 -13.438303 1182.264526
1.000000 -5.040000 7.200000 15.301225 -56.628326 3440.894775
1.000000 -5.000000 6.800000 -61.256042 2.871052 3760.545654
1.000000 -5.000000 6.840000 -81.544655 -81.153870 13235.481445
1.000000 -5.000000 6.880000 -18.221451 -169.975937 29223.839844
1.000000 -5.000000 6.920000 107.739464 -185.819489 46136.675781
1.000000 -5.000000 6.960000 213.628601 -98.612579 55361.621094
1.000000 -5.000000 7.000000 222.870773 39.278156 51214.156250
1.000000 -5.000000 7.040000 133.029144 133.441360 35503.351562
1.000000 -5.000000 7.080000 18.258951 127.689468 16637.990234
1.000000 -5.000000 7.120000 -36.719933 48.999203 3749.275391
1.000000 -5.000000 7.160000 -8.041788 -23.422165 613.268188
1.000000 -5.000000 7.200000 56.164165 -31.718143 4160.454102
1.000000 -4.960000 6.800000 -43.416306 -33.190102 2986.558594
1.000000 -4.960000 6.840000 -15.515242 -112.575729 12914.017578
1.000000 -4.960000 6.880000 83.578941 -151.410217 29910.494141
1.000000 -4.960000 6.920000 195.424606 -97.710724 47738.164062
1.000000 -4.960000 6.960000 237.420563 29.409258 57233.429688
1.000000 -4.960000 7.000000 175.137817 148.163574 52625.703125
1.000000 -4.960000 7.040000 55.030632 181.817200 36085.863281
1.000000 -4.960000 7.080000 -35.482498 123.433121 16494.742188
1.000000 -4.960000 7.120000 -43.343643 37.047932 3251.220703
1.000000 -4.960000 7.160000 10.031742 -3.553013 113.259750
1.000000 -4.960000 7.200000 58.037140 21.760307 3841.820557
1.000000 -4.920000 6.800000 -10.577166 -43.652451 2017.412964
1.000000 -4.920000 6.840000 47.740879 -86.913719 9833.186523
1.000000 -4.920000 6.880000 136.872406 -67.354141 23270.634766
1.000000 -4.920000 6.920000 191.779968 23.031261 37309.992188
1.000000 -4.920000 6.960000 164.783997 132.950180 44829.515625
1.000000 -4.920000 7.000000 69.344627 191.406250 41445.027344
1.000000 -4.920000 7.040000 -29.687035 167.244812 28852.146484
1.000000 -4.920000 7.080000 -71.403084 93.298569 13803.023438
1.000000 -4.920000 7.120000 -48.098301 33.589104 3441.674316
1.000000 -4.920000 7.160000 -4.076298 26.374138 712.211365
1.000000 -4.920000 7.200000 10.639561 56.604881 3317.312744
1.000000 -4.880000 6.800000 14.884439 -29.963947 1119.384644
1.000000 -4.880000 6.840000 68.232483 -29.786518 5542.908691
1.000000 -4.880000 6.880000 112.342476 19.123280 12986.532227
1.000000 -4.880000 6.920000 108.912338 94.029610 20703.464844
1.000000 -4.880000 6.960000 52.799854 149.090363 25015.759766
1.000000 -4.880000 7.000000 -22.825222 152.384308 23741.966797
1.000000 -4.880000 7.040000 -74.310371 110.523979 17737.582031
1.000000 -4.880000 7.080000 -82.363770 59.332798 10304.171875
1.000000 -4.880000 7.120000 -62.796127 31.258329 4920.436523
1.000000 -4.880000 7.160000 -46.357441 30.536295 3081.477783
1.000000 -4.880000 7.200000 -49.656609 36.750271 3816.361328
1.000000 -4.840000 6.800000 21.582855 -7.090452 516.094177
1.000000 -4.840000 6.840000 42.916107 14.847725 2062.247070
1.000000 -4.840000 6.880000 42.796688 50.416725 4373.402832
1.000000 -4.840000 6.920000 18.412041 79.417786 6646.187988
1.000000 -4.840000 6.960000 -17.545616 88.322853 8108.774902
1.000000 -4.840000 7.000000 -49.408638 78.034729 8530.632812
1.000000 -4.840000 7.040000 -69.874306 58.105968 8258.721680
1.000000 -4.840000 7.080000 -80.506958 36.247593 7795.257812
1.000000 -4.840000 7.120000 -84.452232 14.305964 7336.840332
1.000000 -4.840000 7.160000 -81.600998 -7.615177 6716.713379
1.000000 -4.840000 7.200000 -70.841560 -26.620735 5727.190430
1.000000 -4.800000 6.800000 12.493452 10.076548 257.623169
1.000000 -4.800000 6.840000 2.182748 21.672482 474.460815
1.000000 -4.800000 6.880000 -10.907074 21.278677 571.746338
1.000000 -4.800000 6.920000 -14.870148 15.540809 462.638031
1.000000 -4.800000 6.960000 -12.542587 18.321781 493.004150
1.000000 -4.800000 7.000000 -19.839413 31.595016 1391.847412
1.000000 -4.800000 7.040000 -46.386482 38.767494 3654.624512
1.000000 -4.800000 7.080000 -79.999466 20.527338 6821.286133
1.000000 -4.800000 7.120000 -94.484131 -22.572824 9436.783203
1.000000 -4.800000 7.160000 -74.771317 -66.174622 9969.830078
1.000000 -4.800000 7.200000 -33.203175 -83.223969 8028.679688
1.040000 -5.200000 6.800000 69.723373 -14.660116 5076.267578
1.040000 -5.200000 6.840000 57.339020 15.886463 3540.142822
1.040000 -5.200000 6.880000 29.979025 27.003418 1627.926514
1.040000 -5.200000 6.920000 7.927830 16.124485 322.849518
1.040000 -5.200000 6.960000 3.917562 -2.835823 23.389187
1.040000 -5.200000 7.000000 14.259766 -13.731880 391.905457
1.040000 -5.200000 7.040000 26.071676 -11.652813 815.520386
1.040000 -5.200000 7.080000 30.735043 -2.964466 953.430908
1.040000 -5.200000 7.120000 28.967443 4.879065 862.918091
1.040000 -5.200000 7.160000 24.704845 10.390513 718.292175
1.040000 -5.200000 7.200000 18.117022 14.903139 550.330017
1.040000 -5.160000 6.800000 57.815548 32.235668 4381.775879
1.040000 -5.160000 6.840000 24.873449 52.370750 3361.384033
1.040000 -5.160000 6.880000 -13.253332 41.537186 1900.988525
1.040000 -5.160000 6.920000 -29.846638 6.647331 935.008789
1.040000 -5.160000 6.960000 -14.758007 -26.346676 911.946106
1.040000 -5.160000 7.000000 17.436596 -34.627556 1503.102539
1.040000 -5.160000 7.040000 41.418297 -16.611483 1991.416748
1.040000 -5.160000 7.080000 42.509739 10.086388 1908.813110
1.040000 -5.160000 7.120000 25.444351 26.128403 1330.108398
1.040000 -5.160000 7.160000 5.372058 25.020107 654.864746
1.040000 -5.160000 7.200000 -6.484562 12.903063 208.538574
1.040000 -5.120000 6.800000 16.645403 57.909782 3630.612305
1.040000 -5.120000 6.840000 -31.397398 54.283363 3932.480225
1.040000 -5.120000 6.880000 -64.887100 10.467636 4319.907227
1.040000 -5.120000 6.920000 -53.571743 -47.829079 5157.552734
1.040000 -5.120000 6.960000 -1.233551 -78.548492 6171.387207
1.040000 -5.120000 7.000000 54.866829 -59.655952 6569.201660
1.040000 -5.120000 7.040000 75.373405 -8.216492 5748.661133
1.040000 -5.120000 7.080000 51.356915 35.584503 3903.789551
1.040000 -5.120000 7.120000 8.239146 43.123081 1927.483643
1.040000 -5.120000 7.160000 -19.649218 17.959736 708.643921
1.040000 -5.120000 7.200000 -17.467800 -13.718292 493.315613
1.040000 -5.080000 6.800000 -29.081896 47.851990 3135.569580
1.040000 -5.080000 6.840000 -75.391449 10.144918 5786.790039
1.040000 -5.080000 6.880000 -77.940742 -62.718582 10008.379883
1.040000 -5.080000 6.920000 -18.529099 -120.121826 14772.580078
1.040000 -5.080000 6.960000 68.944763 -114.449326 17852.029297
1.040000 -5.080000 7.000000 123.247856 -45.732647 17281.509766
1.040000 -5.080000 7.040000 108.235512 35.679146 12987.927734
1.040000 -5.080000 7.080000 43.348579 72.237167 7097.307617
1.040000 -5.080000 7.120000 -16.103073 47.328403 2499.286621
1.040000 -5.080000 7.160000 -28.262394 -5.941616 834.065735
1.040000 -5.080000 7.200000 3.507364 -39.654724 1584.798828
1.040000 -5.040000 6.800000 -52.581459 11.067409 2887.297363
1.040000 -5.040000 6.840000 -72.536598 -56.161003 8415.616211
1.040000 -5.040000 6.880000 -24.890816 -130.649139 17688.750000
1.040000 -5.040000 6.920000 76.276329 -148.008698 27724.652344
1.040000 -5.040000 6.960000 164.274414 -80.821541 33518.207031
1.040000 -5.040000 7.000000 174.767593 30.273848 31460.216797
1.040000 -5.040000 7.040000 103.230499 107.854218 22289.068359
1.040000 -5.040000 7.080000 9.194038 103.904236 10880.620117
1.040000 -5.040000 7.120000 -36.980621 38.549744 2853.649170
1.040000 -5.040000 7.160000 -13.618980 -23.618734 743.321228
1.040000 -5.040000 7.200000 41.347450 -33.631840 2840.712402
1.040000 -5.000000 6.800000 -43.593651 -27.340799 2647.925781
1.040000 -5.000000 6.840000 -20.472427 -99.789207 10377.005859
1.040000 -5.000000 6.880000 68.907036 -137.879730 23759.000000
1.040000 -5.000000 6.920000 172.799850 -91.135620 38165.492188
1.040000 -5.000000 6.960000 213.549622 25.558437 46256.675781
1.040000 -5.000000 7.000000 156.348724 136.383530 43045.390625
1.040000 -5.000000 7.040000 43.182293 167.454193 29905.617188
1.040000 -5.000000 7.080000 -42.668999 110.076546 13937.489258
1.040000 -5.000000 7.120000 -48.702614 24.601294 2977.168213
1.040000 -5.000000 7.160000 6.189739 -16.989365 326.951385
1.040000 -5.000000 7.200000 57.782097 6.821609 3385.305176
1.040000 -4.960000 6.800000 -13.706987 -44.883904 2202.446289
1.040000 -4.960000 6.840000 45.540897 -90.706329 10301.611328
1.040000 -4.960000 6.880000 139.526382 -71.870621 24632.998047
1.040000 -4.960000 6.920000 198.939606 23.750669 40141.058594
1.040000 -4.960000 6.960000 169.474655 142.201874 48943.031250
1.040000 -4.960000 7.000000 63.639111 204.146545 45725.750000
1.040000 -4.960000 7.040000 -46.131767 172.606934 31921.294922
1.040000 -4.960000 7.080000 -89.083328 83.956047 14984.457031
1.040000 -4.960000 7.120000 -54.843330 12.914152 3174.566162
1.040000 -4.960000 7.160000 4.852007 6.080875 60.519020
1.040000 -4.960000 7.200000 29.199034 47.021923 3063.644775
1.040000 -4.920000 6.800000 14.720343 -36.443005 1544.781006
1.040000 -4.920000 6.840000 80.404068 -38.908882 7978.714844
1.040000 -4.920000 6.880000 138.071381 21.563675 19528.699219
1.040000 -4.920000 6.920000 134.100372 119.082191 32163.478516
1.040000 -4.920000 6.960000 57.152775 190.672821 39622.566406
1.040000 -4.920000 7.000000 -47.278687 188.092575 37614.089844
1.040000 -4.920000 7.040000 -113.481201 119.148293 27074.298828
1.040000 -4.920000 7.080000 -110.163574 39.353035 13684.673828
1.040000 -4.920000 7.120000 -62.644642 2.373903 3929.986572
1.040000 -4.920000 7.160000 -24.030664 16.445702 847.933960
1.040000 -4.920000 7.200000 -25.815386 45.641052 2749.539795
1.040000 -4.880000 6.800000 25.659517 -14.254820 861.610718
1.040000 -4.880000 6.840000 65.917953 14.902029 4567.247070
1.040000 -4.880000 6.880000 73.323082 76.522148 11231.914062
1.040000 -4.880000 6.920000 29.974400 133.122589 18620.087891
1.040000 -4.880000 6.960000 -44.276596 146.125046 23312.945312
1.040000 -4.880000 7.000000 -106.586746 107.610504 22940.753906
1.040000 -4.880000 7.040000 -125.657944 45.544582 17864.228516
1.040000 -4.880000 7.080000 -104.554993 -1.423519 10933.772461
1.040000 -4.880000 7.120000 -72.549469 -15.282609 5496.983398
1.040000 -4.880000 7.160000 -56.501373 -8.055927 3257.303223
1.040000 -4.880000 7.200000 -59.635269 -4.198568 3573.993164
1.040000 -4.840000 6.800000 18.492403 4.555067 362.717590
1.040000 -4.840000 6.840000 22.908964 34.610767 1722.725830
1.040000 -4.840000 6.880000 1.837437 63.633293 4052.572266
1.040000 -4.840000 6.920000 -35.883583 72.895172 6601.337891
1.040000 -4.840000 6.960000 -71.452759 57.792652 8445.487305
1.040000 -4.840000 7.000000 -91.215881 28.326614 9122.734375
1.040000 -4.840000 7.040000 -94.094330 -1.989067 8857.699219
1.040000 -4.840000 7.080000 -86.714455 -26.270271 8209.523438
1.040000 -4.840000 7.120000 -74.445053 -44.650135 7535.700195
1.040000 -4.840000 7.160000 -58.362946 -58.095032 6781.266113
1.040000 -4.840000 7.200000 -39.146477 -64.898933 5744.318359
1.040000 -4.800000 6.800000 3.751783 10.745506 129.541779
1.040000 -4.800000 6.840000 -11.025814 16.857624 405.748047
1.040000 -4.800000 6.880000 -24.346001 10.936879 712.343018
1.040000 -4.800000 6.920000 -28.472816 2.185890 815.479431
1.040000 -4.800000 6.960000 -29.640615 0.317032 878.666626
1.040000 -4.800000 7.000000 -39.660980 1.511017 1575.276611
1.040000 -4.800000 7.040000 -58.726250 -9.139601 3532.304688
1.040000 -4.800000 7.080000 -70.266273 -39.597450 6505.307129
1.040000 -4.800000 7.120000 -56.274727 -77.390099 9156.072266
1.040000 -4.800000 7.160000 -17.801624 -97.798050 9881.356445
1.040000 -4.800000 7.200000 22.503521 -87.241623 8117.508789
1.080000 -5.200000 6.800000 52.123386 20.878624 3152.764404
1.080000 -5.200000 6.840000 31.863247 39.232735 2554.474121
1.080000 -5.200000 6.880000 6.299125 37.601578 1453.557617
1.080000 -5.200000 6.920000 -8.096207 20.275906 476.660889
1.080000 -5.200000 6.960000 -5.584797 1.687838 34.038754
1.080000 -5.200000 7.000000 6.762066 -6.792013 91.856979
1.080000 -5.200000 7.040000 18.175964 -4.271221 348.609009
1.080000 -5.200000 7.080000 23.321161 3.354998 555.132568
1.080000 -5.200000 7.120000 22.866947 11.104750 646.212769
1.080000 -5.200000 7.160000 18.353540 17.297516 636.056519
1.080000 -5.200000 7.200000 9.995174 20.142574 505.626801
1.080000 -5.160000 6.800000 25.192364 43.899189 2561.793945
1.080000 -5.160000 6.840000 -4.730781 48.738853 2397.856201
1.080000 -5.160000 6.880000 -29.727041 28.755703 1710.587402
1.080000 -5.160000 6.920000 -31.551191 -3.052755 1004.796997
1.080000 -5.160000 6.960000 -10.142368 -24.310772 693.881226
1.080000 -5.160000 7.000000 17.151241 -22.308926 791.853271
1.080000 -5.160000 7.040000 31.335835 -2.998184 990.923645
1.080000 -5.160000 7.080000 26.554331 16.870123 989.733521
1.080000 -5.160000 7.120000 11.230993 24.630991 732.820923
1.080000 -5.160000 7.160000 -2.213215 19.344519 379.108704
1.080000 -5.160000 7.200000 -7.028769 7.938141 112.417664
1.080000 -5.120000 6.800000 -9.571678 42.335899 1883.945435
1.080000 -5.120000 6.840000 -41.733780 26.387861 2438.027588
1.080000 -5.120000 6.880000 -51.858704 -14.378668 2896.071289
1.080000 -5.120000 6.920000 -25.656212 -51.985340 3360.716797
1.080000 -5.120000 6.960000 21.061489 -57.376633 3735.664307
1.080000 -5.120000 7.000000 54.837708 -26.725945 3721.450195
1.080000 -5.120000 7.040000 53.509171 15.295029 3097.169434
1.080000 -5.120000 7.080000 23.976875 37.785835 2002.659912
1.080000 -5.120000 7.120000 -6.714564 29.396307 909.228271
1.080000 -5.120000 7.160000 -16.197214 4.134569 279.444397
1.080000 -5.120000 7.200000 -3.308402 -14.948645 234.407501
1.080000 -5.080000 6.800000 -32.085022 18.537558 1373.089600
1.080000 -5.080000 6.840000 -51.524914 -19.930965 3052.060059
1.080000 -5.080000 6.880000 -29.905544 -69.281693 5694.294922
1.080000 -5.080000 6.920000 29.171246 -88.051468 8604.022461
1.080000 -5.080000 6.960000 86.325279 -54.492855 10421.525391
1.080000 -5.080000 7.000000 99.452820 10.492825 10000.962891
1.080000 -5.080000 7.040000 61.398537 59.931366 7361.548828
1.080000 -5.080000 7.080000 5.782858 61.636223 3832.465332
1.080000 -5.080000 7.120000 -23.987751 24.378748 1169.735596
1.080000 -5.080000 7.160000 -11.940222 -14.054226 340.090149
1.080000 -5.080000 7.200000 21.506653 -22.666042 976.285522
1.080000 -5.040000 6.800000 -31.154085 -11.111106 1094.033691
1.080000 -5.040000 6.840000 -22.310127 -60.349854 4139.846680
1.080000 -5.040000 6.880000 34.133324 -92.051971 9638.649414
1.080000 -5.040000 6.920000 106.470642 -67.220596 15854.606445
1.080000 -5.040000 6.960000 139.952759 9.164785 19670.769531
1.080000 -5.040000 7.000000 105.921463 86.568520 18713.464844
1.080000 -5.040000 7.040000 29.750589 111.367966 13287.921875
1.080000 -5.040000 7.080000 -30.756645 73.608185 6364.136230
1.080000 -5.040000 7.120000 -36.161461 13.437864 1488.227417
1.080000 -5.040000 7.160000 3.106695 -17.576971 318.601471
1.080000 -5.040000 7.200000 42.373344 -1.592813 1798.037476
1.080000 -5.000000 6.800000 -11.755108 -28.324717 940.472107
1.080000 -5.000000 6.840000 28.018768 -65.394501 5061.492188
1.080000 -5.000000 6.880000 98.813553 -56.488449 12955.062500
1.080000 -5.000000 6.920000 147.902985 13.214334 22049.912109
1.080000 -5.000000 6.960000 129.231567 105.060562 27738.519531
1.080000 -5.000000 7.000000 48.258362 155.567184 26530.017578
1.080000 -5.000000 7.040000 -38.847713 131.667175 18845.388672
1.080000 -5.000000 7.080000 -73.290245 59.789711 8946.269531
1.080000 -5.000000 7.120000 -43.676777 0.717424 1908.175537
1.080000 -5.000000 7.160000 8.893791 -4.984673 103.946487
1.080000 -5.000000 7.200000 32.851334 31.324295 2060.421631
1.080000 -4.960000 6.800000 10.068686 -25.833565 768.751465
1.080000 -4.960000 6.840000 63.948772 -31.610760 5088.685547
1.080000 -4.960000 6.880000 115.622803 17.363773 13670.133789
1.080000 -4.960000 6.920000 115.022377 102.603821 23757.691406
1.080000 -4.960000 6.960000 47.364819 167.574860 30324.759766
1.080000 -4.960000 7.000000 -47.934189 164.809387 29459.820312
1.080000 -4.960000 7.040000 -108.216217 98.494377 21411.892578
1.080000 -4.960000 7.080000 -100.898163 21.044336 10623.303711
1.080000 -4.960000 7.120000 -48.968105 -13.510754 2580.415771
1.080000 -4.960000 7.160000 -5.772981 5.227768 60.656860
1.080000 -4.960000 7.200000 -5.425821 41.696442 1768.032837
1.080000 -4.920000 6.800000 20.166222 -10.857323 524.557922
1.080000 -4.920000 6.840000 61.645855 14.410109 4007.862549
1.080000 -4.920000 6.880000 72.532455 76.729431 11148.363281
1.080000 -4.920000 6.920000 28.241367 137.675873 19752.220703
1.080000 -4.920000 6.960000 -53.076229 151.269440 25699.529297
1.080000 -4.920000 7.000000 -121.600113 104.215027 25647.359375
1.080000 -4.920000 7.040000 -136.767273 28.673904 19527.480469
1.080000 -4.920000 7.080000 -100.371475 -25.356010 10717.359375
1.080000 -4.920000 7.120000 -51.328434 -32.082775 3663.912598
1.080000 -4.920000 7.160000 -28.783651 -7.432541 883.741272
1.080000 -4.920000 7.200000 -39.560196 11.755343 1703.197266
1.080000 -4.880000 6.800000 16.014557 2.949884 265.167847
1.080000 -4.880000 6.840000 28.574829 38.864517 2326.971680
1.080000 -4.880000 6.880000 5.702690 81.657661 6700.494141
1.080000 -4.880000 6.920000 -48.442066 98.900665 12127.975586
1.080000 -4.880000 6.960000 -104.029655 73.366501 16204.812500
1.080000 -4.880000 7.000000 -128.798401 18.141220 16918.130859
1.080000 -4.880000 7.040000 -113.449219 -34.382359 14052.872070
1.080000 -4.880000 7.080000 -76.401527 -59.045803 9323.599609
1.080000 -4.880000 7.120000 -45.249222 -55.524368 5130.447754
1.080000 -4.880000 7.160000 -33.716133 -42.806347 2969.160889
1.080000 -4.880000 7.200000 -34.730980 -38.831631 2714.136475
1.080000 -4.840000 6.800000 5.682364 7.050678 82.001328
1.080000 -4.840000 6.840000 -5.162739 29.342096 887.612488
1.080000 -4.840000 6.880000 -33.427231 39.075718 2644.291504
1.080000 -4.840000 6.920000 -64.245171 26.819866 4846.747070
1.080000 -4.840000 6.960000 -81.767746 -2.149231 6690.583496
1.080000 -4.840000 7.000000 -80.446289 -34.090820 7633.789551
1.080000 -4.840000 7.040000 -65.639519 -58.203159 7696.154297
1.080000 -4.840000 7.080000 -45.643753 -71.962814 7261.999023
1.080000 -4.840000 7.120000 -25.026154 -77.549751 6640.272461
1.080000 -4.840000 7.160000 -5.169868 -76.303314 5848.923340
1.080000 -4.840000 7.200000 11.728170 -68.230965 4793.014160
1.080000 -4.800000 6.800000 -1.384012 2.909233 10.379128
1.080000 -4.800000 6.840000 -14.827774 2.348498 225.378326
1.080000 -4.800000 6.880000 -23.600943 -7.434855 612.281555
1.080000 -4.800000 6.920000 -24.465689 -17.699600 911.845825
1.080000 -4.800000 6.960000 -23.933125 -23.452847 1122.830444
1.080000 -4.800000 7.000000 -27.987152 -30.283344 1700.361572
1.080000 -4.800000 7.040000 -31.466644 -46.828724 3183.079102
1.080000 -4.800000 7.080000 -21.291733 -70.988434 5492.695801
1.080000 -4.800000 7.120000 8.083107 -87.001022 7634.514160
1.080000 -4.800000 7.160000 44.344604 -79.460358 8280.392578
1.080000 -4.800000 7.200000 65.774872 -50.377739 6864.250488
1.120000 -5.200000 6.800000 19.123402 31.861649 1380.869141
1.120000 -5.200000 6.840000 0.666305 38.833183 1508.460083
1.120000 -5.200000 6.880000 -17.627167 30.497028 1240.785767
1.120000 -5.200000 6.920000 -24.878914 12.439911 773.711731
1.120000 -5.200000 6.960000 -18.718914 -4.454742 370.242462
1.120000 -5.200000 7.000000 -4.859056 -12.449087 178.590195
1.120000 -5.200000 7.040000 8.922578 -10.490870 189.670761
1.120000 -5.200000 7.080000 17.508389 -1.947517 310.336487
1.120000 -5.200000 7.120000 18.971302 8.727870 436.086029
1.120000 -5.200000 7.160000 13.619436 17.024017 475.306213
1.120000 -5.200000 7.200000 4.494374 18.764164 372.293243
1.120000 -5.160000 6.800000 -1.277740 31.236549 977.354675
1.120000 -5.160000 6.840000 -21.753555 29.501598 1343.561523
1.120000 -5.160000 6.880000 -35.408466 11.072724 1376.364746
1.120000 -5.160000 6.920000 -31.161852 -12.522229 1127.867310
1.120000 -5.160000 6.960000 -11.746111 -25.766655 801.891663
1.120000 -5.160000 7.000000 9.513988 -21.842869 567.626892
1.120000 -5.160000 7.040000 20.222811 -6.576662 452.214539
1.120000 -5.160000 7.080000 17.644556 8.303367 380.276245
1.120000 -5.160000 7.120000 8.050625 14.725598 281.655823
1.120000 -5.160000 7.160000 -0.173850 12.387480 153.479889
1.120000 -5.160000 7.200000 -2.355882 6.141735 43.271088
1.120000 -5.120000 6.800000 -14.334751 18.585613 550.910095
1.120000 -5.120000 6.840000 -32.129936 5.347116 1060.924438
1.120000 -5.120000 6.880000 -32.422485 -21.385252 1508.546509
1.120000 -5.120000 6.920000 -9.865753 -40.940727 1773.476318
1.120000 -5.120000 6.960000 20.774340 -37.000168 1800.585693
1.120000 -5.120000 7.000000 37.689034 -12.611822 1579.521362
1.120000 -5.120000 7.040000 31.303055 13.117066 1151.938721
1.120000 -5.120000 7.080000 11.320240 22.557669 636.996216
1.120000 -5.120000 7.120000 -3.910452 13.963272 210.264587
1.120000 -5.120000 7.160000 -3.984881 0.122737 15.894344
1.120000 -5.120000 7.200000 6.699654 -5.199098 71.915970
1.120000 -5.080000 6.800000 -14.769689 3.472159 230.199600
1.120000 -5.080000 6.840000 -21.290266 -19.646662 839.266724
1.120000 -5.080000 6.880000 -1.569722 -43.521637 1896.596924
1.120000 -5.080000 6.920000 35.004372 -43.141109 3086.461426
1.120000 -5.080000 6.960000 60.619743 -12.830992 3839.387451
1.120000 -5.080000 7.000000 54.631615 26.506861 3687.227051
1.120000 -5.080000 7.040000 23.060465 45.938667 2642.145996
1.120000 -5.080000 7.080000 -7.295046 34.693966 1256.888916
1.120000 -5.080000 7.120000 -13.823837 8.444799 262.413116
1.120000 -5.080000 7.160000 2.599250 -7.174572 58.230587
1.120000 -5.080000 7.200000 21.636129 -0.381552 468.267670
1.120000 -5.040000 6.800000 -6.342360 -4.605563 61.436749
1.120000 -5.040000 6.840000 4.705013 -27.858702 798.244385
1.120000 -5.040000 6.880000 39.296249 -33.219978 2647.762207
1.120000 -5.040000 6.920000 71.271843 -4.387427 5098.925293
1.120000 -5.040000 6.960000 70.559433 43.883163 6904.365723
1.120000 -5.040000 7.000000 32.852394 76.442581 6922.748047
1.120000 -5.040000 7.040000 -14.310625 69.608810 5050.180664
1.120000 -5.040000 7.080000 -36.084068 33.021671 2392.490723
1.120000 -5.040000 7.120000 -21.607183 -0.038996 466.871918
1.120000 -5.040000 7.160000 8.289265 -3.836732 83.432419
1.120000 -5.040000 7.200000 23.059870 17.927094 853.138245
1.120000 -5.000000 6.800000 1.908784 -3.053993 12.970327
1.120000 -5.000000 6.840000 26.845814 -13.198022 894.885498
1.120000 -5.000000 6.880000 58.664154 7.152696 3492.644043
1.120000 -5.000000 6.920000 64.963913 54.242332 7162.541016
1.120000 -5.000000 6.960000 30.023857 95.726242 10064.945312
1.120000 -5.000000 7.000000 -26.722372 98.439636 10404.447266
1.120000 -5.000000 7.040000 -65.624817 59.633369 7862.755371
1.120000 -5.000000 7.080000 -61.969940 10.485954 3950.228760
1.120000 -5.000000 7.120000 -27.387911 -12.169937 898.205017
1.120000 -5.000000 7.160000 2.970311 1.650845 11.548037
1.120000 -5.000000 7.200000 3.819159 29.346180 875.784302
1.120000 -4.960000 6.800000 3.321272 2.788197 18.804890
1.120000 -4.960000 6.840000 28.521467 12.072556 959.220703
1.120000 -4.960000 6.880000 39.472931 48.451485 3905.658691
1.120000 -4.960000 6.920000 14.257269 89.446472 8203.941406
1.120000 -4.960000 6.960000 -39.801807 101.050644 11795.416016
1.120000 -4.960000 7.000000 -88.322746 68.981087 12559.297852
1.120000 -4.960000 7.040000 -98.786240 13.715178 9946.827148
1.120000 -4.960000 7.080000 -69.123947 -26.544443 5482.727539
1.120000 -4.960000 7.120000 -28.392725 -29.133503 1654.907837
1.120000 -4.960000 7.160000 -9.373004 -4.744974 110.367981
1.120000 -4.960000 7.200000 -20.051968 16.072098 660.393677
1.120000 -4.920000 6.800000 -1.270016 5.212308 28.781094
1.120000 -4.920000 6.840000 10.334156 27.213272 847.356995
1.120000 -4.920000 6.880000 -3.463251 59.140854 3509.634766
1.120000 -4.920000 6.920000 -44.656063 74.083893 7482.587402
1.120000 -4.920000 6.960000 -90.273651 53.245876 10984.455078
1.120000 -4.920000 7.000000 -109.920883 4.560071 12103.394531
1.120000 -4.920000 7.040000 -91.660263 -42.331272 10193.540039
1.120000 -4.920000 7.080000 -51.833233 -60.799812 6383.301270
1.120000 -4.920000 7.120000 -19.739986 -48.553185 2747.078613
1.120000 -4.920000 7.160000 -12.357767 -26.250835 841.820801
1.120000 -4.920000 7.200000 -22.670704 -16.506344 786.420166
1.120000 -4.880000 6.800000 -5.336931 1.341952 30.283665
1.120000 -4.880000 6.840000 -10.521711 21.430990 569.993774
1.120000 -4.880000 6.880000 -35.729385 33.828262 2420.940430
1.120000 -4.880000 6.920000 -68.619087 22.864792 5231.377930
1.120000 -4.880000 6.960000 -87.931442 -11.043592 7853.899414
1.120000 -4.880000 7.000000 -80.606224 -50.564255 9054.107422
1.120000 -4.880000 7.040000 -51.858162 -75.208748 8345.625000
1.120000 -4.880000 7.080000 -19.538765 -76.802246 6280.348145
1.120000 -4.880000 7.120000 0.892065 -63.160282 3990.017090
1.120000 -4.880000 7.160000 6.705496 -48.541569 2401.247559
1.120000 -4.880000 7.200000 5.839819 -41.381943 1746.568726
1.120000 -4.840000 6.800000 -3.590264 -4.658801 34.594425
1.120000 -4.840000 6.840000 -16.435255 2.982766 279.014496
1.120000 -4.840000 6.880000 -34.506321 -2.492138 1196.896851
1.120000 -4.840000 6.920000 -46.074650 -21.231195 2573.636963
1.120000 -4.840000 6.960000 -43.954926 -44.709599 3930.983887
1.120000 -4.840000 7.000000 -29.611155 -63.207977 4872.068848
1.120000 -4.840000 7.040000 -9.442186 -72.174889 5298.369141
1.120000 -4.840000 7.080000 11.097689 -72.103134 5322.020508
1.120000 -4.840000 7.120000 29.163433 -64.625633 5026.978516
1.120000 -4.840000 7.160000 42.212036 -50.955326 4378.301270
1.120000 -4.840000 7.200000 47.140411 -34.067513 3382.813965
1.120000 -4.800000 6.800000 2.740489 -6.388925 48.328640
1.120000 -4.800000 6.840000 -5.296772 -9.978820 127.632637
1.120000 -4.800000 6.880000 -8.034129 -18.829819 419.109314
1.120000 -4.800000 6.920000 -5.196058 -26.739889 742.020691
1.120000 -4.800000 6.960000 -1.351471 -32.073338 1030.525391
1.120000 -4.800000 7.000000 2.048874 -38.882439 1516.041870
1.120000 -4.800000 7.040000 10.446642 -49.265575 2536.229248
1.120000 -4.800000 7.080000 29.508362 -56.594437 4073.673584
1.120000 -4.800000 7.120000 55.023087 -49.707367 5498.362305
1.120000 -4.800000 7.160000 72.471756 -25.551899 5905.054688
1.120000 -4.800000 7.200000 69.623787 3.915173 4862.800293
1.160000 -5.200000 6.800000 -5.668105 17.041340 322.534668
1.160000 -5.200000 6.840000 -17.471561 19.400146 681.621155
1.160000 -5.200000 6.880000 -29.297422 10.855070 976.171509
1.160000 -5.200000 6.920000 -32.590359 -5.675350 1094.341064
1.160000 -5.200000 6.960000 -23.674419 -21.857342 1038.221558
1.160000 -5.200000 7.000000 -5.897794 -29.288620 892.607239
1.160000 -5.200000 7.040000 12.606913 -24.337337 751.240234
1.160000 -5.200000 7.080000 23.621841 -9.912806 656.255127
1.160000 -5.200000 7.120000 23.284971 6.372499 582.798645
1.160000 -5.200000 7.160000 14.175810 16.558414 475.134674
1.160000 -5.200000 7.200000 3.720531 17.165054 308.481445
1.160000 -5.160000 6.800000 -7.262003 8.280117 121.297028
1.160000 -5.160000 6.840000 -20.791334 8.551861 505.413879
1.160000 -5.160000 6.880000 -30.688644 -4.466321 961.740906
1.160000 -5.160000 6.920000 -27.095036 -23.096352 1267.582397
1.160000 -5.160000 6.960000 -10.128824 -34.817287 1314.836670
1.160000 -5.160000 7.000000 10.575588 -32.110611 1142.934326
1.160000 -5.160000 7.040000 23.736948 -17.485001 869.167969
1.160000 -5.160000 7.080000 24.453194 -0.326459 598.065247
1.160000 -5.160000 7.120000 16.239895 10.686487 377.935211
1.160000 -5.160000 7.160000 6.740562 13.051289 215.771317
1.160000 -5.160000 7.200000 1.620052 10.408082 110.952736
1.160000 -5.120000 6.800000 -2.003823 5.022928 29.245115
1.160000 -5.120000 6.840000 -16.580524 0.381803 275.059570
1.160000 -5.120000 6.880000 -20.616241 -16.582874 700.021118
1.160000 -5.120000 6.920000 -8.082242 -31.731277 1072.196655
1.160000 -5.120000 6.960000 12.777525 -32.373344 1211.298584
1.160000 -5.120000 7.000000 27.429756 -18.140432 1081.466797
1.160000 -5.120000 7.040000 27.883400 0.044194 777.485962
1.160000 -5.120000 7.080000 18.172369 10.718394 445.118958
1.160000 -5.120000 7.120000 8.496544 11.338168 200.745331
1.160000 -5.120000 7.160000 5.102499 8.073040 91.209465
1.160000 -5.120000 7.200000 5.959462 7.849192 97.124992
1.160000 -5.080000 6.800000 1.614243 10.073151 104.074142
1.160000 -5.080000 6.840000 -9.955168 -0.632114 99.504929
1.160000 -5.080000 6.880000 -5.395733 -16.684269 307.478760
1.160000 -5.080000 6.920000 12.124550 -21.693707 617.621643
1.160000 -5.080000 6.960000 27.267046 -10.013690 843.765808
1.160000 -5.080000 7.000000 27.726973 8.536886 841.663452
1.160000 -5.080000 7.040000 15.454322 19.226652 608.500244
1.160000 -5.080000 7.080000 3.128897 16.738697 289.973999
1.160000 -5.080000 7.120000 0.567291 8.816990 78.061127
1.160000 -5.080000 7.160000 5.589234 6.576881 74.494904
1.160000 -5.080000 7.200000 8.102163 12.593757 224.247757
1.160000 -5.040000 6.800000 -3.329314 17.673725 323.444885
1.160000 -5.040000 6.840000 -7.833433 4.098840 78.163162
1.160000 -5.040000 6.880000 2.788430 -4.868646 31.479053
1.160000 -5.040000 6.920000 16.371799 1.568027 270.494537
1.160000 -5.040000 6.960000 17.766502 18.006584 639.885681
1.160000 -5.040000 7.000000 4.437025 28.771610 847.492737
1.160000 -5.040000 7.040000 -11.343336 24.245361 716.508789
1.160000 -5.040000 7.080000 -15.605162 10.388456 351.441101
1.160000 -5.040000 7.120000 -6.970820 1.823266 51.916637
1.160000 -5.040000 7.160000 2.720819 6.322504 47.376911
1.160000 -5.040000 7.200000 1.528591 17.187056 297.731445
1.160000 -5.000000 6.800000 -15.700979 18.552601 590.719727
1.160000 -5.000000 6.840000 -13.144578 7.714770 232.297623
1.160000 -5.000000 6.880000 -3.381431 7.813824 72.489914
1.160000 -5.000000 6.920000 -0.798444 19.087299 364.962494
1.160000 -5.000000 6.960000 -12.263672 28.586166 967.566528
1.160000 -5.000000 7.000000 -29.282459 23.845558 1426.072998
1.160000 -5.000000 7.040000 -36.412300 6.330948 1365.936523
1.160000 -5.000000 7.080000 -27.147144 -9.567227 828.499329
1.160000 -5.000000 7.120000 -10.677220 -10.977108 234.499939
1.160000 -5.000000 7.160000 -2.506166 0.643866 6.695428
1.160000 -5.000000 7.200000 -8.883909 11.503988 211.265594
1.160000 -4.960000 6.800000 -26.722935 8.175660 780.956665
1.160000 -4.960000 6.840000 -21.425915 3.543413 471.625610
1.160000 -4.960000 6.880000 -18.292858 8.460871 406.214996
1.160000 -4.960000 6.920000 -25.795736 14.887950 887.071045
1.160000 -4.960000 6.960000 -40.334667 10.889769 1745.472412
1.160000 -4.960000 7.000000 -48.788658 -6.322114 2420.302490
1.160000 -4.960000 7.040000 -41.467773 -26.267687 2409.567627
1.160000 -4.960000 7.080000 -22.216881 -34.652229 1694.366699
1.160000 -4.960000 7.120000 -5.226246 -26.920412 752.022217
1.160000 -4.960000 7.160000 -1.751086 -12.309935 154.600784
1.160000 -4.960000 7.200000 -10.052980 -4.578815 122.027969
1.160000 -4.920000 6.800000 -27.042210 -8.714174 807.217957
1.160000 -4.920000 6.840000 -23.922695 -8.240451 640.200378
1.160000 -4.920000 6.880000 -27.406820 -5.176411 777.929016
1.160000 -4.920000 6.920000 -37.069267 -8.364832 1444.101074
1.160000 -4.920000 6.960000 -44.073669 -22.174995 2434.218750
1.160000 -4.920000 7.000000 -39.175770 -40.941269 3210.928467
1.160000 -4.920000 7.040000 -21.787796 -53.117016 3296.125488
1.160000 -4.920000 7.080000 -1.132330 -51.267506 2629.639404
1.160000 -4.920000 7.120000 11.519933 -38.299950 1599.594971
1.160000 -4.920000 7.160000 12.020192 -24.362833 738.032593
1.160000 -4.920000 7.200000 5.589681 -17.928663 352.681519
1.160000 -4.880000 6.800000 -14.717511 -21.242897 667.865845
1.160000 -4.880000 6.840000 -15.575253 -19.517429 623.518555
1.160000 -4.880000 6.880000 -20.813560 -21.601347 899.822510
1.160000 -4.880000 6.920000 -24.988312 -30.911373 1579.928711
1.160000 -4.880000 6.960000 -21.629436 -44.698181 2465.759766
1.160000 -4.880000 7.000000 -8.845285 -55.804047 3192.330566
1.160000 -4.880000 7.040000 9.156233 -58.112640 3460.915527
1.160000 -4.880000 7.080000 25.338049 -50.559853 3198.315430
1.160000 -4.880000 7.120000 34.405121 -36.978390 2551.113770
1.160000 -4.880000 7.160000 35.139366 -23.074219 1767.194580
1.160000 -4.880000 7.200000 29.981848 -13.418964 1078.979736
1.160000 -4.840000 6.800000 2.554313 -20.951378 445.484741
1.160000 -4.840000 6.840000 -0.662718 -20.894981 437.039459
1.160000 -4.840000 6.880000 -3.141309 -26.031826 687.523743
1.160000 -4.840000 6.920000 -0.887033 -34.127502 1165.473267
1.160000 -4.840000 6.960000 6.852025 -41.121902 1737.961060
1.160000 -4.840000 7.000000 18.250210 -44.265717 2292.523682
1.160000 -4.840000 7.040000 31.248011 -42.509754 2783.517334
1.160000 -4.840000 7.080000 43.925457 -34.968277 3152.226074
1.160000 -4.840000 7.120000 52.917271 -21.143085 3247.267578
1.160000 -4.840000 7.160000 53.674309 -3.608595 2893.953369
1.160000 -4.840000 7.200000 44.453365 10.834822 2093.495117
1.160000 -4.800000 6.800000 13.215425 -8.757469 251.340714
1.160000 -4.800000 6.840000 10.088204 -10.534720 212.752197
1.160000 -4.800000 6.880000 10.543750 -14.561242 323.200439
1.160000 -4.800000 6.920000 13.972399 -17.634424 506.200867
1.160000 -4.800000 6.960000 18.364456 -19.556389 719.705566
1.160000 -4.800000 7.000000 24.393600 -21.673090 1064.770508
1.160000 -4.800000 7.040000 34.796806 -22.170002 1702.326782
1.160000 -4.800000 7.080000 48.729881 -15.277235 2607.995117
1.160000 -4.800000 7.120000 58.409439 2.461683 3417.722412
1.160000 -4.800000 7.160000 54.429874 25.237888 3599.562256
1.160000 -4.800000 7.200000 36.086609 39.845016 2889.868652
1.200000 -5.200000 6.800000 -7.314970 -6.437489 94.950035
1.200000 -5.200000 6.840000 -14.564222 -2.031918 216.245270
1.200000 -5.200000 6.880000 -24.227734 -8.346478 656.646790
1.200000 -5.200000 6.920000 -25.557428 -24.166286 1237.191528
1.200000 -5.200000 6.960000 -12.577408 -39.393303 1710.023438
1.200000 -5.200000 7.000000 10.212604 -42.410366 1902.936401
1.200000 -5.200000 7.040000 30.583696 -29.246483 1790.719238
1.200000 -5.200000 7.080000 37.674438 -6.769933 1465.195312
1.200000 -5.200000 7.120000 29.877983 12.736438 1054.910645
1.200000 -5.200000 7.160000 15.072866 20.897015 663.876526
1.200000 -5.200000 7.200000 3.514405 18.647949 360.097046
1.200000 -5.160000 6.800000 5.602750 -6.178411 69.563576
1.200000 -5.160000 6.840000 -7.875170 -1.720323 64.977806
1.200000 -5.160000 6.880000 -19.445637 -12.673560 538.751892
1.200000 -5.160000 6.920000 -16.477783 -31.529490 1265.625977
1.200000 -5.160000 6.960000 2.432857 -43.279224 1879.010132
1.200000 -5.160000 7.000000 26.100174 -37.742371 2105.705566
1.200000 -5.160000 7.040000 39.999321 -17.474705 1905.311035
1.200000 -5.160000 7.080000 37.553326 5.310708 1438.455933
1.200000 -5.160000 7.120000 23.694937 19.109154 926.609741
1.200000 -5.160000 7.160000 8.802387 21.142811 524.500488
1.200000 -5.160000 7.200000 -0.253164 16.778831 281.593262
1.200000 -5.120000 6.800000 12.117861 8.327017 216.181763
1.200000 -5.120000 6.840000 -7.971722 6.695332 108.375809
1.200000 -5.120000 6.880000 -18.006506 -11.568665 458.068237
1.200000 -5.120000 6.920000 -8.451859 -31.668146 1074.305420
1.200000 -5.120000 6.960000 14.434221 -37.417408 1608.409180
1.200000 -5.120000 7.000000 34.579582 -24.405449 1791.373535
1.200000 -5.120000 7.040000 39.756500 -2.110546 1585.033691
1.200000 -5.120000 7.080000 30.108944 15.689459 1152.707642
1.200000 -5.120000 7.120000 14.997661 22.061600 711.643982
1.200000 -5.120000 7.160000 3.218525 19.683758 397.809235
1.200000 -5.120000 7.200000 -3.221009 14.838682 230.561386
1.200000 -5.080000 6.800000 1.370602 25.460140 650.097290
1.200000 -5.080000 6.840000 -20.069481 12.556297 560.444641
1.200000 -5.080000 6.880000 -23.087055 -12.243631 682.918640
1.200000 -5.080000 6.920000 -5.842322 -29.958912 931.669128
1.200000 -5.080000 6.960000 18.078571 -28.389153 1132.778687
1.200000 -5.080000 7.000000 32.097374 -10.924415 1149.584229
1.200000 -5.080000 7.040000 29.861263 8.769480 968.598877
1.200000 -5.080000 7.080000 17.530670 19.479000 686.755859
1.200000 -5.080000 7.120000 5.212264 19.999001 427.127716
1.200000 -5.080000 7.160000 -2.263780 15.913574 258.366547
1.200000 -5.080000 7.200000 -6.441904 11.583756 175.681534
1.200000 -5.040000 6.800000 -22.972279 28.636436 1347.770996
1.200000 -5.040000 6.840000 -37.375370 4.767676 1419.649048
1.200000 -5.040000 6.880000 -29.337315 -21.435528 1320.159912
1.200000 -5.040000 6.920000 -5.935678 -32.470688 1089.577881
1.200000 -5.040000 6.960000 15.717197 -23.745926 810.899292
1.200000 -5.040000 7.000000 23.047443 -5.147438 557.680725
1.200000 -5.040000 7.040000 16.486237 9.545348 362.909668
1.200000 -5.040000 7.080000 5.402295 14.068498 227.107422
1.200000 -5.040000 7.120000 -2.278272 11.668065 141.334259
1.200000 -5.040000 7.160000 -5.698783 8.165653 99.154022
1.200000 -5.040000 7.200000 -7.857901 5.275290 89.575279
1.200000 -5.000000 6.800000 -44.426456 10.713668 2088.492676
1.200000 -5.000000 6.840000 -45.639763 -17.424503 2386.601318
1.200000 -5.000000 6.880000 -27.124254 -37.810665 2165.371582
1.200000 -5.000000 6.920000 -1.911199 -39.341557 1551.410767
1.200000 -5.000000 6.960000 14.460429 -25.259388 847.140686
1.200000 -5.000000 7.000000 15.913597 -8.282863 321.848389
1.200000 -5.000000 7.040000 8.063417 1.051659 66.124687
1.200000 -5.000000 7.080000 0.417620 1.612464 2.774448
1.200000 -5.000000 7.120000 -2.486473 -0.988222 7.159131
1.200000 -5.000000 7.160000 -2.702887 -2.127789 11.833084
1.200000 -5.000000 7.200000 -3.573077 -2.206037 17.633474
1.200000 -4.960000 6.800000 -46.683151 -19.121353 2544.942871
1.200000 -4.960000 6.840000 -35.061497 -42.105431 3002.175781
1.200000 -4.960000 6.880000 -11.675467 -51.446838 2783.093750
1.200000 -4.960000 6.920000 9.761091 -44.009514 2032.116211
1.200000 -4.960000 6.960000 19.060818 -27.876461 1140.411865
1.200000 -4.960000 7.000000 16.337936 -14.581078 479.535980
1.200000 -4.960000 7.040000 9.543183 -9.850016 188.095154
1.200000 -4.960000 7.080000 6.173439 -10.893587 156.781586
1.200000 -4.960000 7.120000 7.294261 -11.460403 184.547104
1.200000 -4.960000 7.160000 8.776844 -8.658110 151.995850
1.200000 -4.960000 7.200000 7.105279 -4.845613 73.964966
1.200000 -4.920000 6.800000 -26.849089 -41.974419 2482.725342
1.200000 -4.920000 6.840000 -9.265298 -53.377281 2934.979736
1.200000 -4.920000 6.880000 11.226340 -51.649948 2793.747803
1.200000 -4.920000 6.920000 24.795618 -39.355106 2163.646973
1.200000 -4.920000 6.960000 27.412493 -25.115818 1382.249023
1.200000 -4.920000 7.000000 22.970165 -16.628059 804.120850
1.200000 -4.920000 7.040000 18.983707 -15.065222 587.342041
1.200000 -4.920000 7.080000 19.817896 -15.404771 630.055969
1.200000 -4.920000 7.120000 23.377350 -12.057223 691.877136
1.200000 -4.920000 7.160000 23.979246 -4.451101 594.816589
1.200000 -4.920000 7.200000 18.483604 2.508377 347.935608
1.200000 -4.880000 6.800000 2.162492 -43.790482 1922.282715
1.200000 -4.880000 6.840000 16.659325 -43.977379 2211.542969
1.200000 -4.880000 6.880000 28.767372 -36.356888 2149.385010
1.200000 -4.880000 6.920000 34.078285 -24.926384 1782.654053
1.200000 -4.880000 6.960000 32.745399 -15.537057 1313.661377
1.200000 -4.880000 7.000000 29.365284 -11.541744 995.531738
1.200000 -4.880000 7.040000 29.150179 -11.042500 971.669739
1.200000 -4.880000 7.080000 33.082062 -8.521424 1167.037476
1.200000 -4.880000 7.120000 36.460243 -0.250570 1329.412109
1.200000 -4.880000 7.160000 33.045074 11.191644 1217.229858
1.200000 -4.880000 7.200000 21.672821 18.175114 800.045898
1.200000 -4.840000 6.800000 21.773655 -25.728102 1136.027344
1.200000 -4.840000 6.840000 27.633743 -21.033518 1206.032715
1.200000 -4.840000 6.880000 31.117203 -14.563928 1180.388306
1.200000 -4.840000 6.920000 31.532692 -8.226363 1061.983765
1.200000 -4.840000 6.960000 30.088024 -4.223260 923.125122
1.200000 -4.840000 7.000000 29.852451 -2.874862 899.433655
1.200000 -4.840000 7.040000 33.125248 -1.083730 1098.456543
1.200000 -4.840000 7.080000 37.948151 5.643335 1471.909424
1.200000 -4.840000 7.120000 38.114655 18.107630 1780.613159
1.200000 -4.840000 7.160000 28.609470 30.317608 1737.659180
1.200000 -4.840000 7.200000 12.073299 33.226070 1249.736328
1.200000 -4.800000 6.800000 21.711948 -2.247619 476.460480
1.200000 -4.800000 6.840000 19.854864 -0.196087 394.254089
1.200000 -4.800000 6.880000 19.099577 0.621431 365.180023
1.200000 -4.800000 6.920000 19.402000 1.197130 377.870728
1.200000 -4.800000 6.960000 20.814430 1.680351 436.064087
1.200000 -4.800000 7.000000 24.275547 2.934580 597.913940
1.200000 -4.800000 7.040000 29.547348 7.779124 933.560547
1.200000 -4.800000 7.080000 32.645851 18.593826 1411.481934
1.200000 -4.800000 7.120000 27.510702 32.753399 1829.623901
1.200000 -4.800000 7.160000 12.288390 41.837208 1901.356445
1.200000 -4.800000 7.200000 -5.959760 38.015823 1480.721558
