#kx 	ky 	kz 	real 	imag 	intensity
6.800000 2.800000 -1.200000 -22.480743 3.852171 520.223022
6.800000 2.800000 -1.160000 -17.951962 -6.699114 367.151062
6.800000 2.800000 -1.120000 -11.931375 -8.300529 211.256485
6.800000 2.800000 -1.080000 -12.218410 -7.262609 202.035019
6.800000 2.800000 -1.040000 -15.217311 -12.307951 383.052185
6.800000 2.800000 -1.000000 -11.115171 -22.388012 624.770142
6.800000 2.800000 -0.960000 2.787960 -26.787720 725.354614
6.800000 2.800000 -0.920000 16.811272 -17.680122 595.205566
6.800000 2.800000 -0.880000 18.469322 -0.408433 341.282684
6.800000 2.800000 -0.840000 6.211014 10.915586 157.726715
6.800000 2.800000 -0.800000 -8.478813 7.974232 135.478638
6.800000 2.840000 -1.200000 -18.572693 -17.117199 637.943420
6.800000 2.840000 -1.160000 -7.531070 -24.419518 653.029907
6.800000 2.840000 -1.120000 2.139846 -23.364603 550.483582
6.800000 2.840000 -1.080000 6.763533 -19.747038 435.690857
6.800000 2.840000 -1.040000 9.091765 -17.684954 395.417786
6.800000 2.840000 -1.000000 12.350698 -15.866504 404.285706
6.800000 2.840000 -0.960000 15.321139 -11.459625 366.060303
6.800000 2.840000 -0.920000 14.485452 -5.546531 240.592316
6.800000 2.840000 -0.880000 9.778023 -2.600018 102.369820
6.800000 2.840000 -0.840000 5.880032 -4.634535 56.053684
6.800000 2.840000 -0.800000 6.757294 -7.821144 106.831322
6.800000 2.880000 -1.200000 -1.486597 -28.488632 813.812134
6.800000 2.880000 -1.160000 13.498320 -29.273090 1039.118408
6.800000 2.880000 -1.120000 25.064404 -21.952574 1110.139771
6.800000 2.880000 -1.080000 29.927055 -10.590465 1007.786621
6.800000 2.880000 -1.040000 27.435528 0.329858 752.817017
6.800000 2.880000 -1.000000 19.248882 6.434889 411.927277
6.800000 2.880000 -0.960000 9.977551 4.680249 121.456245
6.800000 2.880000 -0.920000 6.206915 -3.729756 52.436874
6.800000 2.880000 -0.880000 11.945494 -11.939247 285.240448
6.800000 2.880000 -0.840000 23.737907 -11.432785 694.196777
6.800000 2.880000 -0.800000 31.467312 0.242199 990.250366
6.800000 2.920000 -1.200000 17.326246 -24.355455 893.387085
6.800000 2.920000 -1.160000 31.676418 -16.907669 1289.264648
6.800000 2.920000 -1.120000 39.393265 -2.049250 1556.028809
6.800000 2.920000 -1.080000 36.213730 14.996290 1536.322876
6.800000 2.920000 -1.040000 22.086597 25.688892 1147.736938
6.800000 2.920000 -1.000000 4.489398 22.507538 526.743958
6.800000 2.920000 -0.960000 -3.923821 6.323727 55.385899
6.800000 2.920000 -0.920000 5.166658 -10.809616 143.542160
6.800000 2.920000 -0.880000 26.612785 -13.280217 884.604492
6.800000 2.920000 -0.840000 43.273575 4.494144 1892.799683
6.800000 2.920000 -0.800000 39.527687 31.123241 2531.094238
6.800000 2.960000 -1.200000 26.646835 -8.977092 790.642029
6.800000 2.960000 -1.160000 34.591537 4.960025 1221.176270
6.800000 2.960000 -1.120000 32.465675 22.465223 1558.706299
6.800000 2.960000 -1.080000 18.239422 35.416817 1587.027466
6.800000 2.960000 -1.040000 -2.301667 34.301907 1181.918579
6.800000 2.960000 -1.000000 -15.377525 16.893688 521.864990
6.800000 2.960000 -0.960000 -8.696349 -5.536676 106.281273
6.800000 2.960000 -0.920000 15.927219 -13.863935 445.885010
6.800000 2.960000 -0.880000 40.101547 2.994021 1617.098145
6.800000 2.960000 -0.840000 42.270409 36.017673 3084.060303
6.800000 2.960000 -0.800000 16.677977 61.118668 4013.646484
6.800000 3.000000 -1.200000 22.222042 7.510096 550.220703
6.800000 3.000000 -1.160000 19.994446 21.642622 868.180908
6.800000 3.000000 -1.120000 8.184113 32.314129 1111.182617
6.800000 3.000000 -1.080000 -9.478863 32.010807 1114.540649
6.800000 3.000000 -1.040000 -22.356773 17.460382 804.690308
6.800000 3.000000 -1.000000 -18.702341 -3.709516 363.538055
6.800000 3.000000 -0.960000 2.989995 -14.708986 225.294342
6.800000 3.000000 -0.920000 28.291044 -2.327900 805.802307
6.800000 3.000000 -0.880000 35.554337 29.451096 2131.477783
6.800000 3.000000 -0.840000 14.004580 59.145279 3694.292236
6.800000 3.000000 -0.800000 -25.112392 63.942932 4719.330566
6.800000 3.040000 -1.200000 7.736221 15.840655 310.775482
6.800000 3.040000 -1.160000 -2.505750 21.812874 482.080231
6.800000 3.040000 -1.120000 -15.240088 18.942799 591.089905
6.800000 3.040000 -1.080000 -22.956495 6.530993 569.654541
6.800000 3.040000 -1.040000 -18.267441 -9.433947 422.698761
6.800000 3.040000 -1.000000 -0.510643 -17.170574 295.089355
6.800000 3.040000 -0.960000 20.030638 -6.852918 448.188934
6.800000 3.040000 -0.920000 26.836216 19.592106 1104.033081
6.800000 3.040000 -0.880000 9.728963 46.327412 2240.881836
6.800000 3.040000 -0.840000 -24.924648 53.740929 3509.325439
6.800000 3.040000 -0.800000 -56.841763 33.922821 4381.744141
6.800000 3.080000 -1.200000 -8.651983 12.036876 219.743195
6.800000 3.080000 -1.160000 -18.326574 5.197422 362.876495
6.800000 3.080000 -1.120000 -20.048847 -8.273743 470.411072
6.800000 3.080000 -1.080000 -10.222603 -20.267406 515.269348
6.800000 3.080000 -1.040000 7.448400 -21.602314 522.138611
6.800000 3.080000 -1.000000 22.644199 -8.099483 578.361389
6.800000 3.080000 -0.960000 23.992374 15.164822 805.605835
6.800000 3.080000 -0.920000 6.854523 35.245670 1289.241821
6.800000 3.080000 -0.880000 -22.104456 38.863815 1999.003052
6.800000 3.080000 -0.840000 -47.924091 21.472694 2757.795166
6.800000 3.080000 -0.800000 -56.745850 -9.027590 3301.588867
6.800000 3.120000 -1.200000 -18.827747 -1.778431 357.646881
6.800000 3.120000 -1.160000 -17.932648 -17.915504 642.545166
6.800000 3.120000 -1.120000 -3.016300 -30.109312 915.668762
6.800000 3.120000 -1.080000 18.701059 -27.363222 1098.475586
6.800000 3.120000 -1.040000 33.109089 -8.147932 1162.600586
6.800000 3.120000 -1.000000 29.337011 17.275177 1159.091919
6.800000 3.120000 -0.960000 7.896556 33.578781 1189.890137
6.800000 3.120000 -0.920000 -19.568926 30.891045 1337.199463
6.800000 3.120000 -0.880000 -38.474895 10.907181 1599.284180
6.800000 3.120000 -0.840000 -40.555824 -15.528493 1885.908936
6.800000 3.120000 -0.800000 -27.482597 -36.380676 2078.846680
6.800000 3.160000 -1.200000 -18.165508 -19.146820 696.586426
6.800000 3.160000 -1.160000 -2.483149 -34.398422 1189.417480
6.800000 3.160000 -1.120000 23.382452 -33.123810 1643.925781
6.800000 3.160000 -1.080000 42.110157 -11.215149 1899.044922
6.800000 3.160000 -1.040000 38.811790 19.191374 1874.663940
6.800000 3.160000 -1.000000 13.880344 38.048954 1640.386841
6.800000 3.160000 -0.960000 -16.675404 33.073975 1371.956909
6.800000 3.160000 -0.920000 -33.824066 8.871672 1222.774048
6.800000 3.160000 -0.880000 -29.742691 -18.132393 1213.411377
6.800000 3.160000 -0.840000 -11.367570 -33.365246 1242.461304
6.800000 3.160000 -0.800000 8.136867 -33.721291 1203.334106
6.800000 3.200000 -1.200000 -7.290349 -32.398304 1102.799316
6.800000 3.200000 -1.160000 18.435867 -36.959484 1705.884644
6.800000 3.200000 -1.120000 42.591179 -18.828283 2168.512695
6.800000 3.200000 -1.080000 46.059982 13.749313 2310.565674
6.800000 3.200000 -1.040000 23.689766 39.035149 2084.947754
6.800000 3.200000 -1.000000 -9.733017 39.185547 1630.238647
6.800000 3.200000 -0.960000 -30.991869 15.200400 1191.548096
6.800000 3.200000 -0.920000 -27.281403 -14.416648 952.114624
6.800000 3.200000 -0.880000 -5.227879 -29.712433 910.159363
6.800000 3.200000 -0.840000 17.216988 -24.824753 912.692993
6.800000 3.200000 -0.800000 26.930117 -9.359097 812.823914
6.840000 2.800000 -1.200000 -13.091234 8.004978 235.460083
6.840000 2.800000 -1.160000 -15.769526 1.614577 251.284790
6.840000 2.800000 -1.120000 -16.956324 -5.699570 320.002014
6.840000 2.800000 -1.080000 -14.783900 -15.085758 446.143799
6.840000 2.800000 -1.040000 -5.846928 -23.541218 588.375549
6.840000 2.800000 -1.000000 8.549278 -24.310114 664.071777
6.840000 2.800000 -0.960000 20.181368 -13.969541 602.435669
6.840000 2.800000 -0.920000 20.265385 1.760443 413.784973
6.840000 2.800000 -0.880000 8.559608 11.386322 202.915222
6.840000 2.800000 -0.840000 -5.165422 8.081371 91.990150
6.840000 2.800000 -0.800000 -10.029146 -3.669899 114.051926
6.840000 2.840000 -1.200000 -10.352285 -6.591426 150.616714
6.840000 2.840000 -1.160000 -2.443104 -14.067749 203.870316
6.840000 2.840000 -1.120000 8.560302 -14.474661 282.794556
6.840000 2.840000 -1.080000 16.955359 -7.595127 345.170135
6.840000 2.840000 -1.040000 18.415848 2.846165 347.244110
6.840000 2.840000 -1.000000 12.308254 11.023560 273.011993
6.840000 2.840000 -0.960000 2.441939 12.109280 152.597733
6.840000 2.840000 -0.920000 -4.722165 5.544058 53.035423
6.840000 2.840000 -0.880000 -4.308243 -3.924270 33.960850
6.840000 2.840000 -0.840000 2.951887 -9.280373 94.838951
6.840000 2.840000 -0.800000 10.787740 -6.910290 164.127441
6.840000 2.880000 -1.200000 1.585292 -13.687197 189.852509
6.840000 2.880000 -1.160000 19.169046 -11.912081 509.350006
6.840000 2.880000 -1.120000 31.702953 5.011269 1030.190063
6.840000 2.880000 -1.080000 27.055262 28.598785 1549.877686
6.840000 2.880000 -1.040000 4.384731 42.212379 1801.110840
6.840000 2.880000 -1.000000 -22.479721 33.899017 1654.481323
6.840000 2.880000 -0.960000 -34.367165 7.507671 1237.467163
6.840000 2.880000 -0.920000 -22.260468 -18.660868 843.756409
6.840000 2.880000 -0.880000 4.509306 -26.016987 697.217468
6.840000 2.880000 -0.840000 25.507275 -10.983126 771.250061
6.840000 2.880000 -0.800000 26.184464 12.277384 836.360229
6.840000 2.920000 -1.200000 13.644521 -9.326625 273.158875
6.840000 2.920000 -1.160000 30.385811 8.232605 991.073242
6.840000 2.920000 -1.120000 27.554409 38.942436 2275.758789
6.840000 2.920000 -1.080000 -2.253616 61.002823 3726.423340
6.840000 2.920000 -1.040000 -43.781017 52.601875 4683.734863
6.840000 2.920000 -1.000000 -67.276947 12.847328 4691.241211
6.840000 2.920000 -0.960000 -52.625843 -33.029594 3860.433350
6.840000 2.920000 -0.920000 -8.398012 -52.189381 2794.258057
6.840000 2.920000 -0.880000 33.241264 -31.625477 2105.152344
6.840000 2.920000 -0.840000 42.906342 10.499096 1951.185059
6.840000 2.920000 -0.800000 18.225906 40.732796 1991.344238
6.840000 2.960000 -1.200000 17.227325 2.279056 301.974823
6.840000 2.960000 -1.160000 19.884848 30.598242 1331.659546
6.840000 2.960000 -1.120000 -6.003559 57.280300 3317.075439
6.840000 2.960000 -1.080000 -51.690620 55.297955 5729.784180
6.840000 2.960000 -1.040000 -85.620934 14.424839 7539.020508
6.840000 2.960000 -1.000000 -77.418716 -43.534500 7888.910156
6.840000 2.960000 -0.960000 -26.387543 -77.819473 6752.172852
6.840000 2.960000 -0.920000 33.408447 -62.086529 4970.861328
6.840000 2.960000 -0.880000 59.475765 -8.216683 3604.880615
6.840000 2.960000 -0.840000 36.213940 42.724709 3136.850098
6.840000 2.960000 -0.800000 -13.081459 55.158424 3213.576172
6.840000 3.000000 -1.200000 9.899200 12.135929 245.274948
6.840000 3.000000 -1.160000 -6.059291 36.304474 1354.729736
6.840000 3.000000 -1.120000 -44.302292 40.779911 3625.694336
6.840000 3.000000 -1.080000 -80.239029 8.844349 6516.524414
6.840000 3.000000 -1.040000 -81.032127 -47.621704 8834.032227
6.840000 3.000000 -1.000000 -35.424210 -90.704552 9482.190430
6.840000 3.000000 -0.960000 30.717045 -85.664215 8281.894531
6.840000 3.000000 -0.920000 71.463577 -32.288849 6149.612793
6.840000 3.000000 -0.880000 58.271393 31.857182 4410.435059
6.840000 3.000000 -0.840000 4.068576 61.564079 3806.688965
6.840000 3.000000 -0.800000 -48.597095 40.898895 4034.397461
6.840000 3.040000 -1.200000 -3.391218 12.536206 168.656830
6.840000 3.040000 -1.160000 -28.410374 19.058012 1170.357178
6.840000 3.040000 -1.120000 -56.995598 -1.149668 3249.820068
6.840000 3.040000 -1.080000 -62.342007 -45.142410 5924.363281
6.840000 3.040000 -1.040000 -28.534199 -85.388885 8105.462402
6.840000 3.040000 -1.000000 30.211651 -88.594009 8761.642578
6.840000 3.040000 -0.960000 75.244431 -45.056046 7691.771484
6.840000 3.040000 -0.920000 73.339462 18.848064 5733.926270
6.840000 3.040000 -0.880000 25.152756 59.396637 4160.621582
6.840000 3.040000 -0.840000 -34.303272 50.530609 3730.057129
6.840000 3.040000 -0.800000 -64.531868 3.874132 4179.370605
6.840000 3.080000 -1.200000 -13.682032 1.871481 190.700424
6.840000 3.080000 -1.160000 -30.827562 -10.015902 1050.656860
6.840000 3.080000 -1.120000 -34.244507 -38.670349 2668.082031
6.840000 3.080000 -1.080000 -10.790574 -67.147423 4625.212891
6.840000 3.080000 -1.040000 32.995087 -70.924507 6118.961426
6.840000 3.080000 -1.000000 70.380325 -38.722775 6452.843262
6.840000 3.080000 -0.960000 73.290207 13.970609 5566.632324
6.840000 3.080000 -0.920000 35.986893 53.372967 4143.729980
6.840000 3.080000 -0.880000 -18.008076 53.044556 3138.015625
6.840000 3.080000 -0.840000 -53.420307 14.754095 3071.412598
6.840000 3.080000 -0.800000 -50.336651 -33.910072 3683.671387
6.840000 3.120000 -1.200000 -13.614754 -14.462854 394.535706
6.840000 3.120000 -1.160000 -12.027781 -31.955326 1165.810425
6.840000 3.120000 -1.120000 6.339501 -47.407120 2287.624268
6.840000 3.120000 -1.080000 36.306187 -45.633255 3400.533203
6.840000 3.120000 -1.040000 60.283684 -20.109146 4038.500244
6.840000 3.120000 -1.000000 59.842289 18.574221 3926.101318
6.840000 3.120000 -0.960000 30.830723 47.499870 3206.771240
6.840000 3.120000 -0.920000 -11.148552 47.549145 2385.211426
6.840000 3.120000 -0.880000 -40.855732 18.053143 1995.106689
6.840000 3.120000 -0.840000 -41.459194 -22.580685 2228.751953
6.840000 3.120000 -0.800000 -15.669587 -50.782692 2824.417725
6.840000 3.160000 -1.200000 -2.004752 -27.351273 752.111145
6.840000 3.160000 -1.160000 14.937909 -34.790291 1433.505493
6.840000 3.160000 -1.120000 36.992359 -27.253090 2111.165527
6.840000 3.160000 -1.080000 50.115906 -3.504885 2523.888184
6.840000 3.160000 -1.040000 43.125954 25.440239 2507.053711
6.840000 3.160000 -1.000000 17.046570 42.665638 2110.942139
6.840000 3.160000 -0.960000 -14.248905 37.217606 1588.181396
6.840000 3.160000 -0.920000 -33.160881 12.002149 1243.695557
6.840000 3.160000 -0.880000 -30.126480 -18.475475 1248.947998
6.840000 3.160000 -0.840000 -8.885179 -38.365005 1550.820068
6.840000 3.160000 -0.800000 17.948803 -40.184765 1936.974854
6.840000 3.200000 -1.200000 15.330760 -29.675621 1115.674683
6.840000 3.200000 -1.160000 34.293930 -20.869534 1611.611084
6.840000 3.200000 -1.120000 43.239601 1.876851 1873.185669
6.840000 3.200000 -1.080000 33.118835 26.578419 1803.269653
6.840000 3.200000 -1.040000 7.742800 37.602982 1473.935181
6.840000 3.200000 -1.000000 -17.964077 27.617508 1085.434814
6.840000 3.200000 -0.960000 -28.830009 3.209758 841.471985
6.840000 3.200000 -0.920000 -20.133982 -20.533709 827.010376
6.840000 3.200000 -0.880000 0.603607 -31.258625 977.465942
6.840000 3.200000 -0.840000 21.000469 -26.685682 1153.145264
6.840000 3.200000 -0.800000 32.826660 -13.029266 1247.351318
6.880000 2.800000 -1.200000 -12.927521 21.603224 633.820068
6.880000 2.800000 -1.160000 -24.068398 10.231224 683.965698
6.880000 2.800000 -1.120000 -24.872189 -7.686619 677.709900
6.880000 2.800000 -1.080000 -12.380028 -22.269190 649.181885
6.880000 2.800000 -1.040000 7.052795 -23.791615 615.782837
6.880000 2.800000 -1.000000 20.862659 -11.028946 556.888184
6.880000 2.800000 -0.960000 19.993258 6.368500 440.288147
6.880000 2.800000 -0.920000 6.852123 15.162727 276.859894
6.880000 2.800000 -0.880000 -6.524130 9.731232 137.261139
6.880000 2.800000 -0.840000 -9.175888 -3.396870 95.735649
6.880000 2.800000 -0.800000 -0.697412 -12.276415 151.196747
6.880000 2.840000 -1.200000 -16.438709 7.992923 334.117981
6.880000 2.840000 -1.160000 -9.352390 -2.167149 92.163734
6.880000 2.840000 -1.120000 3.269821 -1.351524 12.518349
6.880000 2.840000 -1.080000 9.355484 10.711673 202.265015
6.880000 2.840000 -1.040000 1.549229 23.633095 560.923279
6.880000 2.840000 -1.000000 -15.485950 24.876801 858.669922
6.880000 2.840000 -0.960000 -28.269190 10.981606 919.742737
6.880000 2.840000 -0.920000 -25.950289 -8.792591 750.727173
6.880000 2.840000 -0.880000 -9.846954 -20.166985 503.669800
6.880000 2.840000 -0.840000 7.797352 -16.177364 322.505829
6.880000 2.840000 -0.800000 14.834008 -2.812748 227.959351
6.880000 2.880000 -1.200000 -10.242667 -2.103846 109.338394
6.880000 2.880000 -1.160000 7.314278 5.905489 88.373459
6.880000 2.880000 -1.120000 9.460331 31.502367 1081.896973
6.880000 2.880000 -1.080000 -15.733227 52.994476 3055.948975
6.880000 2.880000 -1.040000 -55.249138 46.021362 5170.433105
6.880000 2.880000 -1.000000 -79.106476 7.288635 6310.958496
6.880000 2.880000 -0.960000 -66.037476 -39.196476 5897.312012
6.880000 2.880000 -0.920000 -23.319477 -61.165543 4285.021484
6.880000 2.880000 -0.880000 18.623077 -45.607357 2426.850098
6.880000 2.880000 -0.840000 32.368103 -9.220106 1132.704468
6.880000 2.880000 -0.800000 16.083477 17.757549 574.008789
6.880000 2.920000 -1.200000 -1.305781 -3.433598 13.494657
6.880000 2.920000 -1.160000 6.483253 26.100246 723.255432
6.880000 2.920000 -1.120000 -21.869888 57.951775 3836.700195
6.880000 2.920000 -1.080000 -77.120979 55.171085 8991.494141
6.880000 2.920000 -1.040000 -118.586052 3.280365 14073.412109
6.880000 2.920000 -1.000000 -107.558624 -70.080872 16480.185547
6.880000 2.920000 -0.960000 -43.905159 -114.207840 14971.093750
6.880000 2.920000 -0.920000 30.191347 -98.198532 10554.469727
6.880000 2.920000 -0.880000 65.048111 -37.905342 5668.071777
6.880000 2.920000 -0.840000 45.082581 18.778154 2385.058105
6.880000 2.920000 -0.800000 -1.312645 34.174152 1169.595703
6.880000 2.960000 -1.200000 2.465229 1.526910 8.408808
6.880000 2.960000 -1.160000 -14.903584 36.829334 1578.516724
6.880000 2.960000 -1.120000 -69.465851 45.703270 6914.292969
6.880000 2.960000 -1.080000 -123.669334 -1.025990 15295.157227
6.880000 2.960000 -1.040000 -125.921814 -86.506973 23339.759766
6.880000 2.960000 -1.000000 -58.536388 -153.431320 26967.679688
6.880000 2.960000 -0.960000 40.035564 -150.572205 24274.833984
6.880000 2.960000 -0.920000 103.720650 -78.600685 16936.041016
6.880000 2.960000 -0.880000 94.062180 9.001308 8928.716797
6.880000 2.960000 -0.840000 31.029129 51.953575 3661.980957
6.880000 2.960000 -0.800000 -28.665680 32.959126 1908.025146
6.880000 3.000000 -1.200000 -1.233341 5.144928 27.991413
6.880000 3.000000 -1.160000 -39.748631 23.574974 2135.732910
6.880000 3.000000 -1.120000 -92.890106 -4.759846 8651.228516
6.880000 3.000000 -1.080000 -109.909744 -80.913361 18627.125000
6.880000 3.000000 -1.040000 -56.909500 -157.577820 28069.460938
6.880000 3.000000 -1.000000 45.269112 -173.688690 32217.054688
6.880000 3.000000 -0.960000 130.699005 -108.618660 28880.244141
6.880000 3.000000 -0.920000 141.660660 -4.389867 20087.013672
6.880000 3.000000 -0.880000 77.494156 67.728844 10592.541016
6.880000 3.000000 -0.840000 -6.786730 66.520981 4471.100586
6.880000 3.000000 -0.800000 -50.006195 11.213964 2626.372559
6.880000 3.040000 -1.200000 -7.339356 1.357862 55.709946
6.880000 3.040000 -1.160000 -46.130859 -7.294882 2181.271484
6.880000 3.040000 -1.120000 -69.552574 -58.828247 8298.323242
6.880000 3.040000 -1.080000 -39.207222 -126.054436 17426.927734
6.880000 3.040000 -1.040000 44.412384 -154.731400 25914.265625
6.880000 3.040000 -1.000000 132.015015 -109.906021 29507.296875
6.880000 3.040000 -0.960000 161.837280 -11.801237 26330.574219
6.880000 3.040000 -0.920000 112.153923 75.750641 18316.662109
6.880000 3.040000 -0.880000 20.946434 96.872498 9823.034180
6.880000 3.040000 -0.840000 -46.502747 48.600323 4524.497070
6.880000 3.040000 -0.800000 -51.849968 -21.594452 3154.739502
6.880000 3.080000 -1.200000 -7.832082 -8.985988 142.089478
6.880000 3.080000 -1.160000 -26.818455 -34.174301 1887.112305
6.880000 3.080000 -1.120000 -14.928576 -78.555740 6393.866699
6.880000 3.080000 -1.080000 38.958282 -106.276436 12812.428711
6.880000 3.080000 -1.040000 108.231422 -82.680466 18550.101562
6.880000 3.080000 -1.000000 143.808121 -8.819572 20758.560547
6.880000 3.080000 -0.960000 114.566986 72.151352 18331.412109
6.880000 3.080000 -0.920000 36.536350 106.961548 12775.677734
6.880000 3.080000 -0.880000 -37.863831 75.606277 7149.978516
6.880000 3.080000 -0.840000 -62.110039 6.641125 3901.761475
6.880000 3.080000 -0.800000 -31.096888 -49.003616 3368.370850
6.880000 3.120000 -1.200000 1.344459 -18.540682 345.564453
6.880000 3.120000 -1.160000 5.243161 -39.129162 1558.582031
6.880000 3.120000 -1.120000 32.756393 -55.165627 4116.227539
6.880000 3.120000 -1.080000 73.996193 -43.859634 7399.104004
6.880000 3.120000 -1.040000 100.228714 1.237827 10047.327148
6.880000 3.120000 -1.000000 85.763947 58.434052 10769.993164
6.880000 3.120000 -0.960000 32.034534 90.781319 9267.458984
6.880000 3.120000 -0.920000 -29.358284 75.117935 6504.612793
6.880000 3.120000 -0.880000 -59.771835 21.804689 4048.116943
6.880000 3.120000 -0.840000 -43.303040 -33.162678 2974.916504
6.880000 3.120000 -0.800000 2.921805 -56.720810 3225.787109
6.880000 3.160000 -1.200000 16.573044 -19.349228 649.058350
6.880000 3.160000 -1.160000 29.305763 -21.987686 1342.286133
6.880000 3.160000 -1.120000 46.656708 -12.774853 2340.045166
6.880000 3.160000 -1.080000 56.409470 11.395416 3311.883789
6.880000 3.160000 -1.040000 46.150211 41.284267 3834.232910
6.880000 3.160000 -1.000000 14.851486 58.732563 3670.080566
6.880000 3.160000 -0.960000 -22.666050 49.558304 2969.775146
6.880000 3.160000 -0.920000 -44.257343 15.826719 2209.197510
6.880000 3.160000 -0.880000 -36.307709 -23.680054 1878.994629
6.880000 3.160000 -0.840000 -3.894556 -46.219994 2151.455322
6.880000 3.160000 -0.800000 33.314899 -40.878242 2780.913330
6.880000 3.200000 -1.200000 29.109240 -9.329523 934.387817
6.880000 3.200000 -1.160000 34.099174 2.333067 1168.196899
6.880000 3.200000 -1.120000 30.841568 17.058037 1242.178955
6.880000 3.200000 -1.080000 18.065170 28.221451 1122.800659
6.880000 3.200000 -1.040000 -0.304386 29.432537 866.366882
6.880000 3.200000 -1.000000 -16.414501 18.340467 605.808594
6.880000 3.200000 -0.960000 -22.234673 -1.403210 496.349670
6.880000 3.200000 -0.920000 -13.864672 -21.302536 646.027161
6.880000 3.200000 -0.880000 6.007342 -32.000771 1060.137451
6.880000 3.200000 -0.840000 29.036489 -28.009188 1627.632324
6.880000 3.200000 -0.800000 45.251125 -10.642718 2160.931641
6.920000 2.800000 -1.200000 -27.355890 32.154354 1782.247192
6.920000 2.800000 -1.160000 -39.941368 9.268005 1681.208740
6.920000 2.800000 -1.120000 -31.822815 -16.372889 1280.762939
6.920000 2.800000 -1.080000 -8.084568 -27.389645 815.552856
6.920000 2.800000 -1.040000 13.812180 -17.367790 492.416443
6.920000 2.800000 -1.000000 18.492765 3.227776 352.400909
6.920000 2.800000 -0.960000 5.870952 16.213631 297.349884
6.920000 2.800000 -0.920000 -9.528946 11.915600 232.782333
6.920000 2.800000 -0.880000 -12.612896 -2.946262 167.765610
6.920000 2.800000 -0.840000 -1.412434 -13.019823 171.510757
6.920000 2.800000 -0.800000 12.692100 -9.548127 252.256119
6.920000 2.840000 -1.200000 -35.321766 12.412451 1401.696167
6.920000 2.840000 -1.160000 -26.339481 -0.134460 693.786316
6.920000 2.840000 -1.120000 -14.514172 2.360720 216.234177
6.920000 2.840000 -1.080000 -14.787262 14.035900 415.669617
6.920000 2.840000 -1.040000 -29.522982 18.537613 1215.249512
6.920000 2.840000 -1.000000 -45.179523 5.114014 2067.342529
6.920000 2.840000 -0.960000 -44.675900 -19.960842 2394.371338
6.920000 2.840000 -0.920000 -23.928532 -38.197510 2031.624512
6.920000 2.840000 -0.880000 3.674717 -35.713020 1288.923340
6.920000 2.840000 -0.840000 19.317619 -15.855463 624.566101
6.920000 2.840000 -0.800000 15.713111 4.529085 267.414459
6.920000 2.880000 -1.200000 -29.259232 -5.279199 883.972595
6.920000 2.880000 -1.160000 -17.676952 7.939335 375.507690
6.920000 2.880000 -1.120000 -31.680283 29.755140 1889.008667
6.920000 2.880000 -1.080000 -69.496460 29.552818 5703.126953
6.920000 2.880000 -1.040000 -100.826691 -8.546494 10239.064453
6.920000 2.880000 -1.000000 -92.975494 -66.091965 13012.589844
6.920000 2.880000 -0.960000 -42.524750 -103.122375 12442.579102
6.920000 2.880000 -0.920000 18.795776 -92.946693 8992.369141
6.920000 2.880000 -0.880000 50.932053 -45.899529 4700.840820
6.920000 2.880000 -0.840000 39.777451 0.757435 1582.819336
6.920000 2.880000 -0.800000 6.576322 16.561792 317.540985
6.920000 2.920000 -1.200000 -16.546391 -12.981049 442.290680
6.920000 2.920000 -1.160000 -26.995365 18.001760 1052.813110
6.920000 2.920000 -1.120000 -75.867073 26.890476 6478.910645
6.920000 2.920000 -1.080000 -126.883339 -18.427830 16438.966797
6.920000 2.920000 -1.040000 -127.471260 -102.866562 26830.451172
6.920000 2.920000 -1.000000 -58.950642 -169.336945 32150.177734
6.920000 2.920000 -0.960000 40.572006 -166.664673 29423.201172
6.920000 2.920000 -0.920000 105.743927 -95.892838 20377.214844
6.920000 2.920000 -0.880000 99.621857 -9.958935 10023.695312
6.920000 2.920000 -0.840000 42.939522 33.224556 2947.673584
6.920000 2.920000 -0.800000 -9.490980 19.190947 458.371124
6.920000 2.960000 -1.200000 -6.474430 -11.859663 182.569855
6.920000 2.960000 -1.160000 -46.298317 10.940882 2263.237061
6.920000 2.960000 -1.120000 -106.766861 -20.289665 11810.833984
6.920000 2.960000 -1.080000 -126.231339 -109.237617 27867.207031
6.920000 2.960000 -1.040000 -62.910690 -199.778503 43869.203125
6.920000 2.960000 -1.000000 58.650917 -219.136780 51460.859375
6.920000 2.960000 -0.960000 160.625946 -143.549911 46407.273438
6.920000 2.960000 -0.920000 176.610672 -22.992659 31719.992188
6.920000 2.960000 -0.880000 107.929962 60.745781 15338.926758
6.920000 2.960000 -0.840000 18.454933 63.501736 4373.055176
6.920000 2.960000 -0.800000 -25.161217 10.394106 741.124268
6.920000 3.000000 -1.200000 -2.336782 -8.957600 85.699142
6.920000 3.000000 -1.160000 -54.067856 -15.460226 3162.351562
6.920000 3.000000 -1.120000 -89.109207 -83.296043 14878.681641
6.920000 3.000000 -1.080000 -50.704357 -176.807541 33831.839844
6.920000 3.000000 -1.040000 63.246094 -219.867722 52341.882812
6.920000 3.000000 -1.000000 185.581146 -162.525818 60855.003906
6.920000 3.000000 -0.960000 231.653503 -31.400515 54649.335938
6.920000 3.000000 -0.920000 172.178345 87.714409 37339.199219
6.920000 3.000000 -0.880000 58.169853 121.593475 18168.705078
6.920000 3.000000 -0.840000 -25.692720 68.734741 5384.580566
6.920000 3.000000 -0.800000 -33.724136 -8.144552 1203.651123
6.920000 3.040000 -1.200000 -0.148414 -9.301720 86.544014
6.920000 3.040000 -1.160000 -36.868057 -43.039642 3211.664551
6.920000 3.040000 -1.120000 -27.485233 -115.406937 14074.199219
6.920000 3.040000 -1.080000 53.192070 -168.545105 31236.849609
6.920000 3.040000 -1.040000 166.547501 -141.647522 47802.089844
6.920000 3.040000 -1.000000 233.221100 -30.670273 55332.746094
6.920000 3.040000 -0.960000 199.913406 98.768303 49720.546875
6.920000 3.040000 -0.920000 88.079437 162.694901 34227.617188
6.920000 3.040000 -0.880000 -23.069365 128.648499 17082.630859
6.920000 3.040000 -0.840000 -64.005348 39.091728 5624.847656
6.920000 3.040000 -0.800000 -29.258066 -31.427443 1843.718506
6.920000 3.080000 -1.200000 5.526649 -11.172585 155.370483
6.920000 3.080000 -1.160000 -2.995771 -50.162766 2525.277588
6.920000 3.080000 -1.120000 36.878433 -94.077454 10210.585938
6.920000 3.080000 -1.080000 116.253571 -92.506706 22072.382812
6.920000 3.080000 -1.040000 181.429230 -21.223316 33366.996094
6.920000 3.080000 -1.000000 175.752625 86.883698 38437.761719
6.920000 3.080000 -0.960000 91.499733 162.006683 34618.367188
6.920000 3.080000 -0.920000 -18.476952 154.426300 24188.880859
6.920000 3.080000 -0.880000 -82.989296 76.271545 12704.572266
6.920000 3.080000 -0.840000 -70.346100 -10.918476 5067.786621
6.920000 3.080000 -0.800000 -8.877899 -49.894669 2568.295166
6.920000 3.120000 -1.200000 14.992463 -8.764235 301.585785
6.920000 3.120000 -1.160000 25.107466 -31.673513 1633.596191
6.920000 3.120000 -1.120000 63.517128 -39.560852 5599.486328
6.920000 3.120000 -1.080000 106.952538 -7.195053 11490.614258
6.920000 3.120000 -1.040000 115.647964 59.620262 16929.027344
6.920000 3.120000 -1.000000 68.631546 120.589943 19252.222656
6.920000 3.120000 -0.960000 -12.630882 131.095337 17345.527344
6.920000 3.120000 -0.920000 -77.245338 80.562233 12457.115234
6.920000 3.120000 -0.880000 -85.244102 3.117290 7276.274414
6.920000 3.120000 -0.840000 -39.010807 -50.140896 4035.952393
6.920000 3.120000 -0.800000 22.235518 -51.782181 3175.812500
6.920000 3.160000 -1.200000 22.626793 1.013067 512.998047
6.920000 3.160000 -1.160000 31.192125 -2.395173 978.685547
6.920000 3.160000 -1.120000 46.603546 6.766182 2217.671875
6.920000 3.160000 -1.080000 53.047745 33.277195 3921.435059
6.920000 3.160000 -1.040000 34.815525 64.303474 5347.057617
6.920000 3.160000 -1.000000 -6.671875 75.902847 5805.755859
6.920000 3.160000 -0.960000 -48.782200 52.883255 5176.341797
6.920000 3.160000 -0.920000 -63.196144 4.414883 4013.243896
6.920000 3.160000 -0.880000 -38.760143 -40.314030 3127.569824
6.920000 3.160000 -0.840000 8.827686 -53.948746 2988.395264
6.920000 3.160000 -0.800000 49.426060 -31.392963 3428.453369
6.920000 3.200000 -1.200000 22.305265 14.639325 711.834717
6.920000 3.200000 -1.160000 17.904707 17.753298 635.758118
6.920000 3.200000 -1.120000 13.661173 20.242420 596.383240
6.920000 3.200000 -1.080000 7.623096 23.059582 589.855896
6.920000 3.200000 -1.040000 -2.493614 23.269917 547.707153
6.920000 3.200000 -1.000000 -14.347801 15.465572 445.043335
6.920000 3.200000 -0.960000 -19.801231 -2.090698 396.459808
6.920000 3.200000 -0.920000 -10.580012 -22.538849 619.936340
6.920000 3.200000 -0.880000 13.370235 -32.935196 1263.490356
6.920000 3.200000 -0.840000 40.941936 -23.641811 2235.177490
6.920000 3.200000 -0.800000 56.422386 3.216091 3193.828857
6.960000 2.800000 -1.200000 -48.319481 27.748959 3104.776855
6.960000 2.800000 -1.160000 -52.804764 -5.018530 2813.528564
6.960000 2.800000 -1.120000 -32.501862 -30.416218 1981.517334
6.960000 2.800000 -1.080000 -2.653236 -32.197792 1043.737427
6.960000 2.800000 -1.040000 14.800600 -13.382050 398.137024
6.960000 2.800000 -1.000000 10.386272 6.825943 154.468155
6.960000 2.800000 -0.960000 -5.397152 11.049843 151.228271
6.960000 2.800000 -0.920000 -13.512402 -0.688368 183.058838
6.960000 2.800000 -0.880000 -5.119469 -12.878462 192.063736
6.960000 2.800000 -0.840000 10.989228 -11.184336 245.852509
6.960000 2.800000 -0.800000 18.949440 3.523002 371.492798
6.960000 2.840000 -1.200000 -53.885670 -0.714689 2904.176025
6.960000 2.840000 -1.160000 -41.853733 -13.976807 1947.086060
6.960000 2.840000 -1.120000 -31.655537 -12.593729 1160.675049
6.960000 2.840000 -1.080000 -34.062675 -7.943558 1223.365967
6.960000 2.840000 -1.040000 -43.682709 -14.702995 2124.357178
6.960000 2.840000 -1.000000 -44.244106 -34.729168 3163.656006
6.960000 2.840000 -0.960000 -25.579391 -53.602516 3527.535156
6.960000 2.840000 -0.920000 4.696480 -53.975533 2935.415039
6.960000 2.840000 -0.880000 26.976488 -32.661289 1794.490723
6.960000 2.840000 -0.840000 27.538130 -4.344421 777.222595
6.960000 2.840000 -0.800000 10.834249 11.891770 258.795166
6.960000 2.880000 -1.200000 -40.970066 -24.261808 2267.181641
6.960000 2.880000 -1.160000 -38.010452 -12.685411 1605.714111
6.960000 2.880000 -1.120000 -59.646179 -7.873421 3619.657471
6.960000 2.880000 -1.080000 -86.745026 -34.247200 8697.570312
6.960000 2.880000 -1.040000 -84.770821 -86.618927 14688.929688
6.960000 2.880000 -1.000000 -38.233406 -129.404037 18207.197266
6.960000 2.880000 -0.960000 30.350433 -127.242577 17111.822266
6.960000 2.880000 -0.920000 77.379364 -78.158005 12096.240234
6.960000 2.880000 -0.880000 75.881180 -16.511688 6030.589355
6.960000 2.880000 -0.840000 37.876961 17.398083 1737.357422
6.960000 2.880000 -0.800000 0.519382 11.655303 136.115845
6.960000 2.920000 -1.200000 -19.622910 -33.406116 1501.027222
6.960000 2.920000 -1.160000 -44.437645 -16.527096 2247.849121
6.960000 2.920000 -1.120000 -88.571548 -41.394535 9558.426758
6.960000 2.920000 -1.080000 -100.473007 -113.636612 23008.105469
6.960000 2.920000 -1.040000 -44.000420 -186.991867 36901.992188
6.960000 2.920000 -1.000000 60.578243 -200.058197 43693.003906
6.960000 2.920000 -0.960000 147.423813 -133.041153 39433.730469
6.960000 2.920000 -0.920000 160.806412 -28.870350 26692.199219
6.960000 2.920000 -0.880000 103.017082 43.271698 12484.958984
6.960000 2.920000 -0.840000 28.818966 47.361443 3073.638916
6.960000 2.920000 -0.800000 -6.406727 6.341525 81.261093
6.960000 2.960000 -1.200000 -1.345215 -29.563322 875.799622
6.960000 2.960000 -1.160000 -47.487030 -34.264648 3429.084229
6.960000 2.960000 -1.120000 -79.112823 -99.683990 16195.737305
6.960000 2.960000 -1.080000 -38.049206 -190.758560 37836.570312
6.960000 2.960000 -1.040000 77.883224 -230.645233 59263.019531
6.960000 2.960000 -1.000000 200.492981 -169.826279 69038.398438
6.960000 2.960000 -0.960000 245.369415 -36.736942 61555.750000
6.960000 2.960000 -0.920000 185.644928 82.126572 41208.812500
6.960000 2.960000 -0.880000 74.537201 115.920227 18993.292969
6.960000 2.960000 -0.840000 -4.537315 67.042000 4515.217285
6.960000 2.960000 -0.800000 -10.763039 -0.555714 116.151817
6.960000 3.000000 -1.200000 9.219912 -20.273193 496.009155
6.960000 3.000000 -1.160000 -32.270760 -56.109295 4189.654785
6.960000 3.000000 -1.120000 -21.483376 -138.577850 19665.355469
6.960000 3.000000 -1.080000 72.690269 -199.484100 45077.781250
6.960000 3.000000 -1.040000 204.912292 -167.040924 69891.718750
6.960000 3.000000 -1.000000 282.252441 -37.299973 81057.726562
6.960000 3.000000 -0.960000 244.153366 112.429359 72251.226562
6.960000 3.000000 -0.920000 117.903572 186.204498 48573.367188
6.960000 3.000000 -0.880000 -4.973415 150.485931 22670.750000
6.960000 3.000000 -0.840000 -48.816101 57.084526 5641.654785
6.960000 3.000000 -0.800000 -13.564155 -10.770725 299.994812
6.960000 3.040000 -1.200000 14.321455 -10.970800 325.462524
6.960000 3.040000 -1.160000 -0.602207 -62.371933 3890.620605
6.960000 3.040000 -1.120000 50.962730 -123.918304 17952.945312
6.960000 3.040000 -1.080000 158.765533 -124.810272 40784.097656
6.960000 3.040000 -1.040000 249.290863 -30.384411 63069.144531
6.960000 3.040000 -1.000000 245.107422 114.952126 73291.640625
6.960000 3.040000 -0.960000 136.336975 217.255188 65787.585938
6.960000 3.040000 -0.920000 -5.820417 211.820129 44901.644531
6.960000 3.040000 -0.880000 -88.988243 117.404579 21702.742188
6.960000 3.040000 -0.840000 -76.524689 14.998852 6080.993164
6.960000 3.040000 -0.800000 -9.706729 -25.998877 770.162170
6.960000 3.080000 -1.200000 17.018452 -1.830948 292.980042
6.960000 3.080000 -1.160000 28.320042 -43.688423 2710.703125
6.960000 3.080000 -1.120000 90.484367 -64.162476 12304.244141
6.960000 3.080000 -1.080000 166.061707 -17.753849 27891.689453
6.960000 3.080000 -1.040000 188.052399 88.636703 43220.167969
6.960000 3.080000 -1.000000 120.188446 189.994232 50543.070312
6.960000 3.080000 -0.960000 -4.197990 214.354507 45965.480469
6.960000 3.080000 -0.920000 -105.447479 145.276855 32224.535156
6.960000 3.080000 -0.880000 -123.637650 36.179119 16595.197266
6.960000 3.080000 -0.840000 -65.900146 -37.077923 5717.601562
6.960000 3.080000 -0.800000 7.705843 -39.389088 1610.880249
6.960000 3.120000 -1.200000 16.739965 8.613609 354.420715
6.960000 3.120000 -1.160000 35.532013 -11.379400 1392.014648
6.960000 3.120000 -1.120000 77.407898 -2.222198 5996.920410
6.960000 3.120000 -1.080000 104.708328 51.190979 13584.350586
6.960000 3.120000 -1.040000 78.926331 122.080177 21132.935547
6.960000 3.120000 -1.000000 -0.051651 157.917831 24938.042969
6.960000 3.120000 -0.960000 -86.419960 125.189934 23140.929688
6.960000 3.120000 -0.920000 -123.678207 41.203445 16994.023438
6.960000 3.120000 -0.880000 -91.501968 -38.436844 9850.000977
6.960000 3.120000 -0.840000 -20.789227 -65.784668 4759.814453
6.960000 3.120000 -0.800000 35.798882 -37.150429 2661.714355
6.960000 3.160000 -1.200000 11.006347 18.766920 473.336975
6.960000 3.160000 -1.160000 19.843260 12.842171 558.676331
6.960000 3.160000 -1.120000 34.344902 24.172062 1763.860840
6.960000 3.160000 -1.080000 33.235943 52.915871 3904.717285
6.960000 3.160000 -1.040000 3.085266 77.807053 6063.456543
6.960000 3.160000 -1.000000 -44.411537 72.307961 7200.825684
6.960000 3.160000 -0.960000 -77.556503 29.791977 6902.573242
6.960000 3.160000 -0.920000 -70.177582 -26.667564 5636.052246
6.960000 3.160000 -0.880000 -24.678190 -60.934425 4322.017090
6.960000 3.160000 -0.840000 29.057602 -52.638363 3615.141602
6.960000 3.160000 -0.800000 57.948975 -12.146461 3505.620361
6.960000 3.200000 -1.200000 0.209116 24.142420 582.900146
6.960000 3.200000 -1.160000 -2.474152 16.706017 285.212433
6.960000 3.200000 -1.120000 0.505558 13.271036 176.375992
6.960000 3.200000 -1.080000 1.423359 16.291737 267.446625
6.960000 3.200000 -1.040000 -5.746719 19.033295 395.291077
6.960000 3.200000 -1.000000 -17.015587 11.677483 425.893799
6.960000 3.200000 -0.960000 -19.834278 -7.400818 448.170685
6.960000 3.200000 -0.920000 -4.561924 -26.832935 740.817566
6.960000 3.200000 -0.880000 24.633698 -30.111538 1513.523682
6.960000 3.200000 -0.840000 50.552490 -9.856123 2652.697266
6.960000 3.200000 -0.800000 55.814014 24.636808 3722.176514
7.000000 2.800000 -1.200000 -61.014832 8.430727 3793.886719
7.000000 2.800000 -1.160000 -52.809307 -26.061218 3468.010010
7.000000 2.800000 -1.120000 -23.548855 -44.210407 2509.108643
7.000000 2.800000 -1.080000 6.463497 -36.506142 1374.475098
7.000000 2.800000 -1.040000 18.110577 -13.707756 515.895569
7.000000 2.800000 -1.000000 9.720230 3.506073 106.775421
7.000000 2.800000 -0.960000 -3.328835 3.718731 24.910099
7.000000 2.800000 -0.920000 -5.013531 -6.006496 61.213490
7.000000 2.800000 -0.880000 5.734207 -9.527103 123.646835
7.000000 2.800000 -0.840000 15.669638 0.853733 246.266418
7.000000 2.800000 -0.800000 12.411114 16.969990 442.016296
7.000000 2.840000 -1.200000 -58.104134 -24.986177 4000.399414
7.000000 2.840000 -1.160000 -43.077610 -37.673901 3275.003418
7.000000 2.840000 -1.120000 -31.227581 -39.550091 2539.371582
7.000000 2.840000 -1.080000 -26.711117 -40.787945 2377.140137
7.000000 2.840000 -1.040000 -22.166931 -48.433041 2837.132324
7.000000 2.840000 -1.000000 -8.002052 -57.766678 3401.021973
7.000000 2.840000 -0.960000 15.398300 -56.530281 3432.780273
7.000000 2.840000 -0.920000 35.533806 -38.103672 2714.541016
7.000000 2.840000 -0.880000 38.654404 -10.071938 1595.606934
7.000000 2.840000 -0.840000 23.038795 11.080751 653.569092
7.000000 2.840000 -0.800000 1.218448 14.428825 209.675613
7.000000 2.880000 -1.200000 -35.334232 -48.069885 3559.221680
7.000000 2.880000 -1.160000 -36.091717 -44.834435 3312.738525
7.000000 2.880000 -1.120000 -48.194412 -57.328484 5609.256348
7.000000 2.880000 -1.080000 -46.445068 -91.829300 10589.764648
7.000000 2.880000 -1.040000 -10.721390 -126.175972 16035.324219
7.000000 2.880000 -1.000000 49.564316 -127.637863 18748.044922
7.000000 2.880000 -0.960000 98.828339 -84.599899 16924.183594
7.000000 2.880000 -0.920000 105.347870 -20.484299 11517.780273
7.000000 2.880000 -0.880000 69.456650 24.973412 5447.897461
7.000000 2.880000 -0.840000 22.472153 29.643822 1383.753784
7.000000 2.880000 -0.800000 -2.187247 5.691614 37.178520
7.000000 2.920000 -1.200000 -5.837841 -51.925583 2730.346436
7.000000 2.920000 -1.160000 -28.969231 -55.463165 3915.378906
7.000000 2.920000 -1.120000 -43.394550 -99.074554 11698.854492
7.000000 2.920000 -1.080000 -7.795765 -158.838348 25290.394531
7.000000 2.920000 -1.040000 78.962906 -180.195404 38705.523438
7.000000 2.920000 -1.000000 167.085526 -128.650635 44468.558594
7.000000 2.920000 -0.960000 195.854538 -26.674240 39070.515625
7.000000 2.920000 -0.920000 147.670990 61.686211 25611.910156
7.000000 2.920000 -0.880000 63.585117 85.565666 11364.550781
7.000000 2.920000 -0.840000 5.281651 48.988140 2427.733643
7.000000 2.920000 -0.800000 1.155533 0.645311 1.751682
7.000000 2.960000 -1.200000 17.169853 -39.532436 1857.617310
7.000000 2.960000 -1.160000 -12.286266 -67.429382 4697.673828
7.000000 2.960000 -1.120000 1.847189 -134.036285 17969.138672
7.000000 2.960000 -1.080000 86.187897 -180.360565 39958.289062
7.000000 2.960000 -1.040000 200.185303 -145.048904 61113.343750
7.000000 2.960000 -1.000000 262.937592 -27.201794 69876.117188
7.000000 2.960000 -0.960000 224.276779 103.758789 61065.960938
7.000000 2.960000 -0.920000 111.731659 165.201096 39775.367188
7.000000 2.960000 -0.880000 6.564939 131.967102 17458.414062
7.000000 2.960000 -0.840000 -28.090567 53.058174 3604.250000
7.000000 2.960000 -0.800000 2.602221 0.765158 7.357018
7.000000 3.000000 -1.200000 27.902573 -19.926311 1175.611450
7.000000 3.000000 -1.160000 15.415928 -68.102356 4875.581543
7.000000 3.000000 -1.120000 69.005539 -126.112801 20666.203125
7.000000 3.000000 -1.080000 177.664993 -122.080673 46468.539062
7.000000 3.000000 -1.040000 266.005249 -22.451210 71262.843750
7.000000 3.000000 -1.000000 256.969788 125.275688 81727.468750
7.000000 3.000000 -0.960000 144.371246 225.735992 71799.796875
7.000000 3.000000 -0.920000 3.027611 217.267517 47214.343750
7.000000 3.000000 -0.880000 -75.706276 124.069939 21124.789062
7.000000 3.000000 -0.840000 -61.237320 29.323278 4609.863770
7.000000 3.000000 -0.800000 -0.709726 -2.085209 4.851808
7.000000 3.040000 -1.200000 27.442856 -0.782834 753.723206
7.000000 3.040000 -1.160000 40.998241 -48.278038 4011.625000
7.000000 3.040000 -1.120000 114.392349 -70.400925 18041.898438
7.000000 3.040000 -1.080000 202.323303 -13.371639 41113.519531
7.000000 3.040000 -1.040000 225.530090 112.764389 63579.628906
7.000000 3.040000 -1.000000 143.847580 230.019379 73601.039062
7.000000 3.040000 -0.960000 -0.205505 255.992462 65532.183594
7.000000 3.040000 -0.920000 -113.470718 176.595581 44061.601562
7.000000 3.040000 -0.880000 -131.552246 57.525520 20615.179688
7.000000 3.040000 -0.840000 -69.908432 -16.226852 5150.499512
7.000000 3.040000 -0.800000 -0.029900 -13.049246 170.283722
7.000000 3.080000 -1.200000 19.012789 13.943586 555.909729
7.000000 3.080000 -1.160000 47.139114 -15.074896 2449.348633
7.000000 3.080000 -1.120000 108.091087 -1.223881 11685.181641
7.000000 3.080000 -1.080000 146.756927 75.755493 27276.490234
7.000000 3.080000 -1.040000 109.667831 175.611771 42866.527344
7.000000 3.080000 -1.000000 0.059402 224.603745 50446.847656
7.000000 3.080000 -0.960000 -116.285469 180.031525 45933.660156
7.000000 3.080000 -0.920000 -164.545944 70.585358 32057.660156
7.000000 3.080000 -0.880000 -124.189453 -27.776146 16194.535156
7.000000 3.080000 -0.840000 -42.115814 -57.472832 5076.868164
7.000000 3.080000 -0.800000 14.484713 -23.607464 767.119263
7.000000 3.120000 -1.200000 5.575809 21.975283 514.002686
7.000000 3.120000 -1.160000 29.593212 11.600050 1010.319336
7.000000 3.120000 -1.120000 60.934174 37.700207 5134.278809
7.000000 3.120000 -1.080000 58.572830 95.554001 12561.343750
7.000000 3.120000 -1.040000 1.878220 142.560989 20327.162109
7.000000 3.120000 -1.000000 -82.831955 133.117828 24581.488281
7.000000 3.120000 -0.960000 -139.246094 61.880402 23218.658203
7.000000 3.120000 -0.920000 -128.529297 -27.398842 17270.476562
7.000000 3.120000 -0.880000 -62.685112 -77.797089 9981.810547
7.000000 3.120000 -0.840000 7.740246 -66.248688 4448.800293
7.000000 3.120000 -0.800000 38.456177 -17.858870 1797.816772
7.000000 3.160000 -1.200000 -9.007200 21.577763 546.729492
7.000000 3.160000 -1.160000 2.602013 16.622694 283.084442
7.000000 3.160000 -1.120000 12.742275 31.325371 1143.644409
7.000000 3.160000 -1.080000 0.718445 55.830635 3117.575928
7.000000 3.160000 -1.040000 -35.945957 63.926338 5378.688477
7.000000 3.160000 -1.000000 -73.954643 37.147842 6849.250977
7.000000 3.160000 -0.960000 -82.041679 -15.002632 6955.916016
7.000000 3.160000 -0.920000 -48.846630 -59.710377 5951.322266
7.000000 3.160000 -0.880000 5.743801 -67.488754 4587.723145
7.000000 3.160000 -0.840000 46.766541 -36.247589 3500.997070
7.000000 3.160000 -0.800000 52.527931 9.097223 2841.943115
7.000000 3.200000 -1.200000 -19.394827 13.539606 559.480225
7.000000 3.200000 -1.160000 -14.006538 3.206615 206.465500
7.000000 3.200000 -1.120000 -5.221367 2.141136 31.847137
7.000000 3.200000 -1.080000 -3.030628 7.901604 71.620049
7.000000 3.200000 -1.040000 -10.085064 9.905952 199.836395
7.000000 3.200000 -1.000000 -17.508244 0.119179 306.552795
7.000000 3.200000 -0.960000 -12.497738 -17.312973 455.932495
7.000000 3.200000 -0.920000 8.766403 -27.722139 845.366821
7.000000 3.200000 -0.880000 35.404369 -18.334795 1589.634033
7.000000 3.200000 -0.840000 49.427914 9.769976 2538.571045
7.000000 3.200000 -0.800000 40.130615 41.347382 3320.072266
7.040000 2.800000 -1.200000 -57.105278 -13.639158 3447.039307
7.040000 2.800000 -1.160000 -39.176903 -41.857887 3286.912598
7.040000 2.800000 -1.120000 -6.916214 -50.512257 2599.322021
7.040000 2.800000 -1.080000 20.215876 -35.688599 1682.357666
7.040000 2.800000 -1.040000 27.613522 -10.448677 871.681458
7.040000 2.800000 -1.000000 17.327721 6.857350 347.273163
7.040000 2.800000 -0.960000 4.263672 8.670055 93.348755
7.040000 2.800000 -0.920000 0.814831 2.979454 9.541096
7.040000 2.800000 -0.880000 5.579384 2.730366 38.584419
7.040000 2.800000 -0.840000 7.160045 11.520873 183.996750
7.040000 2.800000 -0.800000 -2.007328 20.522512 425.202881
7.040000 2.840000 -1.200000 -44.772694 -45.411324 4066.782227
7.040000 2.840000 -1.160000 -26.827921 -56.683491 3932.755371
7.040000 2.840000 -1.120000 -8.912336 -59.152309 3578.425293
7.040000 2.840000 -1.080000 6.387276 -56.538658 3237.417236
7.040000 2.840000 -1.040000 20.194572 -50.780212 2986.450684
7.040000 2.840000 -1.000000 32.994156 -40.295666 2712.354980
7.040000 2.840000 -0.960000 41.309845 -23.354919 2251.955566
7.040000 2.840000 -0.920000 39.654381 -2.850037 1580.592651
7.040000 2.840000 -0.880000 26.325598 13.300037 869.928101
7.040000 2.840000 -0.840000 7.017577 17.599516 358.989349
7.040000 2.840000 -0.800000 -8.241714 9.531570 158.776672
7.040000 2.880000 -1.200000 -14.673112 -62.057632 4066.449951
7.040000 2.880000 -1.160000 -10.251564 -66.639633 4545.935547
7.040000 2.880000 -1.120000 -2.462429 -81.823029 6701.071289
7.040000 2.880000 -1.080000 23.546253 -98.489342 10254.576172
7.040000 2.880000 -1.040000 66.314827 -95.369278 13492.955078
7.040000 2.880000 -1.000000 103.621964 -60.384281 14383.773438
7.040000 2.880000 -0.960000 109.868408 -6.121666 12108.541992
7.040000 2.880000 -0.920000 79.502296 37.425121 7721.254883
7.040000 2.880000 -0.880000 33.426521 47.378456 3362.050293
7.040000 2.880000 -0.840000 1.503671 26.706352 715.490295
7.040000 2.880000 -0.800000 -2.331206 -0.499810 5.684330
7.040000 2.920000 -1.200000 18.149714 -56.589890 3531.827637
7.040000 2.920000 -1.160000 11.452208 -70.892746 5156.934082
7.040000 2.920000 -1.120000 29.309143 -103.899757 11654.185547
7.040000 2.920000 -1.080000 85.566551 -120.872711 21931.847656
7.040000 2.920000 -1.040000 153.750519 -87.149048 31234.179688
7.040000 2.920000 -1.000000 184.799103 -5.997063 34186.671875
7.040000 2.920000 -0.960000 151.086929 77.212708 28789.062500
7.040000 2.920000 -0.920000 73.865440 111.880692 17973.392578
7.040000 2.920000 -0.880000 5.990551 85.706192 7381.437988
7.040000 2.920000 -0.840000 -14.069809 32.887436 1279.542969
7.040000 2.920000 -0.800000 7.401603 0.086195 54.791153
7.040000 2.960000 -1.200000 39.616814 -33.976856 2723.918701
7.040000 2.960000 -1.160000 37.112076 -63.759323 5442.557617
7.040000 2.960000 -1.120000 80.724396 -98.130264 16145.976562
7.040000 2.960000 -1.080000 160.722046 -85.073105 33069.007812
7.040000 2.960000 -1.040000 220.308228 -2.612999 48542.542969
7.040000 2.960000 -1.000000 204.076721 110.439384 53844.164062
7.040000 2.960000 -0.960000 111.952728 181.939728 45635.480469
7.040000 2.960000 -0.920000 3.875830 168.923431 28550.146484
7.040000 2.960000 -0.880000 -51.751068 94.853897 11675.434570
7.040000 2.960000 -0.840000 -36.411781 25.344303 1968.151611
7.040000 2.960000 -0.800000 9.194217 7.329550 138.255920
7.040000 3.000000 -1.200000 43.417908 -5.593836 1916.405762
7.040000 3.000000 -1.160000 57.601200 -40.599380 4966.208008
7.040000 3.000000 -1.120000 121.031784 -52.676292 17423.484375
7.040000 3.000000 -1.080000 193.363373 3.573277 37402.164062
7.040000 3.000000 -1.040000 206.025970 116.582169 56038.101562
7.040000 3.000000 -1.000000 127.326385 216.312164 63002.960938
7.040000 3.000000 -0.960000 -1.121615 232.541031 54076.589844
7.040000 3.000000 -0.920000 -96.466156 158.330200 34374.171875
7.040000 3.000000 -0.880000 -106.373199 55.911392 14441.341797
7.040000 3.000000 -0.840000 -51.217743 -0.965424 2624.189209
7.040000 3.000000 -0.800000 2.711538 8.824257 85.219948
7.040000 3.040000 -1.200000 31.326727 17.506186 1287.830322
7.040000 3.040000 -1.160000 60.014534 -7.203329 3653.632324
7.040000 3.040000 -1.120000 119.676895 11.738464 14460.351562
7.040000 3.040000 -1.080000 153.785049 93.077667 32313.292969
7.040000 3.040000 -1.040000 109.849442 193.418869 49477.757812
7.040000 3.040000 -1.000000 -4.642841 237.914032 56624.640625
7.040000 3.040000 -0.960000 -120.013138 187.564072 49583.433594
7.040000 3.040000 -0.920000 -162.732788 77.230972 32446.583984
7.040000 3.040000 -0.880000 -119.119331 -14.644724 14403.882812
7.040000 3.040000 -0.840000 -42.665958 -35.594025 3087.318604
7.040000 3.040000 -0.800000 0.137415 -0.131458 0.036164
7.040000 3.080000 -1.200000 10.197285 28.193991 898.885742
7.040000 3.080000 -1.160000 40.074463 19.794836 1997.798096
7.040000 3.080000 -1.120000 75.618790 55.936584 8847.102539
7.040000 3.080000 -1.080000 67.339104 127.567284 20807.966797
7.040000 3.080000 -1.040000 -5.827629 181.145401 32847.617188
7.040000 3.080000 -1.000000 -107.506607 164.410599 38588.515625
7.040000 3.080000 -0.960000 -169.890030 77.359337 34847.089844
7.040000 3.080000 -0.920000 -152.792847 -23.474709 23896.716797
7.040000 3.080000 -0.880000 -78.611992 -73.773415 11622.361328
7.040000 3.080000 -0.840000 -9.199253 -56.209641 3244.149902
7.040000 3.080000 -0.800000 11.199015 -8.774724 202.413712
7.040000 3.120000 -1.200000 -10.847245 24.462193 716.061584
7.040000 3.120000 -1.160000 9.461040 25.251717 727.160461
7.040000 3.120000 -1.120000 20.322868 55.916504 3539.674561
7.040000 3.120000 -1.080000 -7.002029 95.083679 9089.934570
7.040000 3.120000 -1.040000 -68.650055 102.011345 15119.144531
7.040000 3.120000 -1.000000 -124.395248 55.489738 18553.289062
7.040000 3.120000 -0.960000 -131.007172 -21.884399 17641.806641
7.040000 3.120000 -0.920000 -81.636269 -80.268738 13107.550781
7.040000 3.120000 -0.880000 -12.387447 -85.348045 7437.737793
7.040000 3.120000 -0.840000 30.309364 -46.126808 3046.339844
7.040000 3.120000 -0.800000 29.141003 -1.990149 853.158752
7.040000 3.160000 -1.200000 -23.196499 10.112564 640.341553
7.040000 3.160000 -1.160000 -11.895069 9.424461 230.313141
7.040000 3.160000 -1.120000 -9.831684 23.067551 628.773865
7.040000 3.160000 -1.080000 -28.029903 34.291122 1961.556641
7.040000 3.160000 -1.040000 -56.249676 22.917389 3689.232910
7.040000 3.160000 -1.000000 -69.356964 -13.278740 4986.713379
7.040000 3.160000 -0.960000 -50.093529 -52.948872 5312.944336
7.040000 3.160000 -0.920000 -6.292496 -68.305046 4705.174805
7.040000 3.160000 -0.880000 34.714565 -49.118217 3617.700439
7.040000 3.160000 -0.840000 49.156940 -10.639891 2529.612061
7.040000 3.160000 -0.800000 35.132744 21.124416 1680.550659
7.040000 3.200000 -1.200000 -22.685244 -6.041180 551.116150
7.040000 3.200000 -1.160000 -12.766578 -11.491488 295.039795
7.040000 3.200000 -1.120000 -4.690607 -8.944929 102.013550
7.040000 3.200000 -1.080000 -3.605652 -4.490822 33.168205
7.040000 3.200000 -1.040000 -6.590952 -5.634216 75.185051
7.040000 3.200000 -1.000000 -5.201286 -13.379723 206.070358
7.040000 3.200000 -0.960000 6.115250 -20.233185 446.778046
7.040000 3.200000 -0.920000 23.704422 -16.483063 833.590942
7.040000 3.200000 -0.880000 36.600407 0.874746 1340.354858
7.040000 3.200000 -0.840000 35.040169 24.714432 1838.616699
7.040000 3.200000 -0.800000 18.065163 42.710968 2150.576904
7.080000 2.800000 -1.200000 -41.602928 -25.192869 2365.484375
7.080000 2.800000 -1.160000 -20.762102 -44.612381 2421.329346
7.080000 2.800000 -1.120000 10.077774 -45.437416 2166.120361
7.080000 2.800000 -1.080000 33.346748 -25.024883 1738.250488
7.080000 2.800000 -1.040000 35.782669 3.746687 1294.437134
7.080000 2.800000 -1.000000 19.739479 22.808834 909.889954
7.080000 2.800000 -0.960000 0.269150 24.145576 583.081299
7.080000 2.800000 -0.920000 -9.263008 15.034527 311.840332
7.080000 2.800000 -0.880000 -8.493925 8.575682 145.689087
7.080000 2.800000 -0.840000 -7.386968 9.900855 152.594223
7.080000 2.800000 -0.800000 -13.486298 12.397663 335.582275
7.080000 2.840000 -1.200000 -23.633215 -50.869530 3146.237793
7.080000 2.840000 -1.160000 -2.935699 -59.436401 3541.304199
7.080000 2.840000 -1.120000 21.047485 -56.154408 3596.313965
7.080000 2.840000 -1.080000 40.110863 -40.389381 3240.183594
7.080000 2.840000 -1.040000 47.434597 -17.656940 2561.808594
7.080000 2.840000 -1.000000 41.880192 3.447468 1765.835449
7.080000 2.840000 -0.960000 28.066156 16.486439 1059.511719
7.080000 2.840000 -0.920000 12.501925 20.044632 558.085388
7.080000 2.840000 -0.880000 -0.282846 16.470287 271.350372
7.080000 2.840000 -0.840000 -8.612429 8.816755 151.909103
7.080000 2.840000 -0.800000 -12.084266 -0.661913 146.467606
7.080000 2.880000 -1.200000 8.532181 -59.094822 3564.996094
7.080000 2.880000 -1.160000 22.614086 -63.503189 4544.051758
7.080000 2.880000 -1.120000 44.030991 -64.568230 6107.784180
7.080000 2.880000 -1.080000 70.662933 -52.459328 7745.230957
7.080000 2.880000 -1.040000 89.824509 -22.245243 8563.292969
7.080000 2.880000 -1.000000 87.188980 17.353073 7903.047852
7.080000 2.880000 -0.960000 60.177124 47.387371 5866.849609
7.080000 2.880000 -0.920000 22.615864 52.792694 3298.545898
7.080000 2.880000 -0.880000 -4.847727 34.643829 1223.695435
7.080000 2.880000 -0.840000 -10.551096 9.016719 192.626831
7.080000 2.880000 -0.800000 0.383093 -6.589055 43.562405
7.080000 2.920000 -1.200000 39.207794 -44.647858 3530.682129
7.080000 2.920000 -1.160000 49.368343 -52.457378 5189.009766
7.080000 2.920000 -1.120000 77.874100 -56.321632 9236.501953
7.080000 2.920000 -1.080000 116.113907 -34.166893 14649.816406
7.080000 2.920000 -1.040000 135.592667 18.936466 18743.960938
7.080000 2.920000 -1.000000 112.948700 78.836594 18972.617188
7.080000 2.920000 -0.960000 54.675308 109.045914 14880.401367
7.080000 2.920000 -0.920000 -4.428055 92.295547 8538.075195
7.080000 2.920000 -0.880000 -29.796900 46.355774 3036.712891
7.080000 2.920000 -0.840000 -15.974332 8.077068 320.418304
7.080000 2.920000 -0.800000 11.745804 0.802994 138.608719
7.080000 2.960000 -1.200000 53.885948 -14.412835 3111.425049
7.080000 2.960000 -1.160000 67.270378 -25.986811 5200.618164
7.080000 2.960000 -1.120000 105.342674 -21.718613 11568.777344
7.080000 2.960000 -1.080000 142.691452 22.856541 20883.271484
7.080000 2.960000 -1.040000 138.881638 96.879898 28673.824219
7.080000 2.960000 -1.000000 78.755661 155.185242 30284.914062
7.080000 2.960000 -0.960000 -6.903957 156.144272 24428.697266
7.080000 2.960000 -0.920000 -64.362656 100.711639 14285.384766
7.080000 2.960000 -0.880000 -63.554443 33.039318 5130.763672
7.080000 2.960000 -0.840000 -23.036671 0.704470 531.184448
7.080000 2.960000 -0.800000 10.903434 13.263685 294.810211
7.080000 3.000000 -1.200000 46.682838 17.280157 2477.891113
7.080000 3.000000 -1.160000 66.136642 8.181994 4441.000488
7.080000 3.000000 -1.120000 103.943497 29.128786 11652.737305
7.080000 3.000000 -1.080000 120.152298 91.834320 22870.117188
7.080000 3.000000 -1.040000 78.887184 163.139511 32837.687500
7.080000 3.000000 -1.000000 -10.725720 188.665253 35709.621094
7.080000 3.000000 -0.960000 -94.694199 143.275299 29494.800781
7.080000 3.000000 -0.920000 -119.749481 57.827148 17683.917969
7.080000 3.000000 -0.880000 -80.957336 -6.854473 6601.074219
7.080000 3.000000 -0.840000 -23.913881 -14.525623 782.867432
7.080000 3.000000 -0.800000 0.460281 17.125488 293.494202
7.080000 3.040000 -1.200000 22.483292 36.257347 1820.093628
7.080000 3.040000 -1.160000 43.497032 34.811203 3103.811523
7.080000 3.040000 -1.120000 67.163147 68.369583 9185.288086
7.080000 3.040000 -1.080000 52.865784 128.368301 19273.210938
7.080000 3.040000 -1.040000 -14.908581 168.904526 28751.003906
7.080000 3.040000 -1.000000 -102.241821 147.315994 32155.390625
7.080000 3.040000 -0.960000 -150.536728 68.060631 27293.556641
7.080000 3.040000 -0.920000 -129.198746 -16.456417 16963.130859
7.080000 3.040000 -0.880000 -63.911446 -51.887917 6777.028809
7.080000 3.040000 -0.840000 -11.400986 -29.964569 1027.857910
7.080000 3.040000 -0.800000 -5.999733 8.950337 116.105339
7.080000 3.080000 -1.200000 -5.970892 35.258438 1278.809082
7.080000 3.080000 -1.160000 10.025433 39.909389 1693.268677
7.080000 3.080000 -1.120000 14.745337 71.861008 5381.429199
7.080000 3.080000 -1.080000 -18.869892 108.337234 12093.029297
7.080000 3.080000 -1.040000 -83.625809 108.870300 18846.017578
7.080000 3.080000 -1.000000 -136.757996 55.933472 21831.302734
7.080000 3.080000 -0.960000 -136.884155 -22.619644 19248.919922
7.080000 3.080000 -0.920000 -83.597687 -75.194962 12642.855469
7.080000 3.080000 -0.880000 -18.924225 -72.614449 5630.984375
7.080000 3.080000 -0.840000 11.808587 -32.870335 1219.901611
7.080000 3.080000 -0.800000 0.420326 -0.140418 0.196391
7.080000 3.120000 -1.200000 -24.517521 17.436661 905.145996
7.080000 3.120000 -1.160000 -15.281347 22.181343 725.531555
7.080000 3.120000 -1.120000 -21.071560 40.708668 2101.206299
7.080000 3.120000 -1.080000 -51.414085 49.858845 5129.312500
7.080000 3.120000 -1.040000 -88.252548 27.033844 8519.340820
7.080000 3.120000 -1.000000 -99.296410 -23.786903 10425.593750
7.080000 3.120000 -0.960000 -68.927193 -70.987106 9790.126953
7.080000 3.120000 -0.920000 -15.182014 -82.666924 7064.313965
7.080000 3.120000 -0.880000 25.620493 -55.687687 3757.528076
7.080000 3.120000 -0.840000 31.684641 -17.084747 1295.805054
7.080000 3.120000 -0.800000 13.051223 3.003416 179.354919
7.080000 3.160000 -1.200000 -25.219917 -5.141232 662.476501
7.080000 3.160000 -1.160000 -18.977478 -4.035598 376.430725
7.080000 3.160000 -1.120000 -22.221640 1.120800 495.057465
7.080000 3.160000 -1.080000 -34.062431 -2.827251 1168.242676
7.080000 3.160000 -1.040000 -40.773376 -21.738914 2135.048584
7.080000 3.160000 -1.000000 -28.919514 -45.525387 2908.898926
7.080000 3.160000 -0.960000 0.078571 -55.850151 3119.245361
7.080000 3.160000 -0.920000 29.435669 -43.120701 2725.853516
7.080000 3.160000 -0.880000 41.609764 -15.570187 1973.803101
7.080000 3.160000 -0.840000 33.352745 8.659518 1187.392944
7.080000 3.160000 -0.800000 16.415480 17.895590 589.720093
7.080000 3.200000 -1.200000 -11.346066 -18.510529 471.372864
7.080000 3.200000 -1.160000 -4.295042 -19.532734 399.975067
7.080000 3.200000 -1.120000 0.974937 -18.644558 348.570038
7.080000 3.200000 -1.080000 5.467836 -18.032196 355.057312
7.080000 3.200000 -1.040000 11.338226 -17.236965 425.668335
7.080000 3.200000 -1.000000 18.801262 -13.687937 540.847046
7.080000 3.200000 -0.960000 25.243984 -5.639138 669.058594
7.080000 3.200000 -0.920000 27.326071 5.760761 779.900513
7.080000 3.200000 -0.880000 23.603802 17.253925 854.837402
7.080000 3.200000 -0.840000 15.055696 25.768681 890.698914
7.080000 3.200000 -0.800000 3.735090 29.617474 891.145691
7.120000 2.800000 -1.200000 -27.313919 -23.039917 1276.887939
7.120000 2.800000 -1.160000 -8.567356 -36.474449 1403.785034
7.120000 2.800000 -1.120000 19.100740 -32.023201 1390.323608
7.120000 2.800000 -1.080000 36.896370 -6.719967 1406.500122
7.120000 2.800000 -1.040000 30.605984 24.344067 1529.359863
7.120000 2.800000 -1.000000 4.648258 40.133003 1632.264282
7.120000 2.800000 -0.960000 -21.407230 32.403507 1508.256836
7.120000 2.800000 -0.920000 -30.800697 12.175805 1096.933228
7.120000 2.800000 -0.880000 -23.922638 -2.377746 577.946289
7.120000 2.800000 -0.840000 -14.862587 -3.715190 234.699127
7.120000 2.800000 -0.800000 -14.929288 -0.065624 222.887939
7.120000 2.840000 -1.200000 -8.487577 -42.494560 1877.826538
7.120000 2.840000 -1.160000 13.612865 -46.875839 2382.654297
7.120000 2.840000 -1.120000 37.643089 -33.846756 2562.604980
7.120000 2.840000 -1.080000 48.109737 -5.800755 2348.195557
7.120000 2.840000 -1.040000 37.026016 22.245857 1865.804077
7.120000 2.840000 -1.000000 11.626679 34.450653 1322.027222
7.120000 2.840000 -0.960000 -11.675714 27.068127 869.005798
7.120000 2.840000 -0.920000 -21.191500 10.029189 549.664307
7.120000 2.840000 -0.880000 -18.072704 -3.584540 339.471588
7.120000 2.840000 -0.840000 -11.648837 -8.927486 215.395416
7.120000 2.840000 -0.800000 -8.361629 -10.620656 182.715179
7.120000 2.880000 -1.200000 21.696484 -44.189987 2423.492432
7.120000 2.880000 -1.160000 41.069798 -40.446510 3322.648438
7.120000 2.880000 -1.120000 59.320488 -23.444889 4068.583252
7.120000 2.880000 -1.080000 65.387268 4.762884 4298.179688
7.120000 2.880000 -1.040000 52.570923 32.851479 3842.921387
7.120000 2.880000 -1.000000 25.236359 47.069527 2852.414062
7.120000 2.880000 -0.960000 -2.988750 41.222881 1708.258545
7.120000 2.880000 -0.920000 -18.578224 21.232487 795.968872
7.120000 2.880000 -0.880000 -17.248518 0.278164 297.588745
7.120000 2.880000 -0.840000 -5.392918 -10.999205 150.066071
7.120000 2.880000 -0.800000 6.531849 -10.958422 162.752060
7.120000 2.920000 -1.200000 47.115868 -23.808971 2786.772217
7.120000 2.920000 -1.160000 60.712090 -15.822803 3936.318848
7.120000 2.920000 -1.120000 74.317078 2.659870 5530.102539
7.120000 2.920000 -1.080000 76.858742 32.996765 6996.052734
7.120000 2.920000 -1.040000 58.075294 64.252121 7501.074707
7.120000 2.920000 -1.000000 20.751226 78.268463 6556.565430
7.120000 2.920000 -0.960000 -16.956470 64.579681 4458.057129
7.120000 2.920000 -0.920000 -34.055592 31.418848 2146.927246
7.120000 2.920000 -0.880000 -23.939819 0.902569 573.929565
7.120000 2.920000 -0.840000 -0.010682 -8.741707 76.417557
7.120000 2.920000 -0.800000 16.337149 2.217711 271.820679
7.120000 2.960000 -1.200000 52.797867 9.634201 2880.432617
7.120000 2.960000 -1.160000 60.638786 18.217487 4008.939453
7.120000 2.960000 -1.120000 69.820724 38.194405 6333.746094
7.120000 2.960000 -1.080000 64.703156 71.269424 9265.830078
7.120000 2.960000 -1.040000 33.066803 100.696236 11233.144531
7.120000 2.960000 -1.000000 -16.299137 102.660095 10804.756836
7.120000 2.960000 -0.960000 -55.265503 69.656174 7906.258301
7.120000 2.960000 -0.920000 -59.468990 21.714390 4008.075439
7.120000 2.960000 -0.880000 -31.226105 -8.680261 1050.416504
7.120000 2.960000 -0.840000 1.582613 -5.198818 29.532373
7.120000 2.960000 -0.800000 11.157817 18.225233 456.656006
7.120000 3.000000 -1.200000 34.620888 38.531670 2683.295410
7.120000 3.000000 -1.160000 37.990902 45.514343 3514.864014
7.120000 3.000000 -1.120000 40.757629 65.966209 6012.725586
7.120000 3.000000 -1.080000 23.710024 95.953712 9769.280273
7.120000 3.000000 -1.040000 -19.964884 111.484924 12827.485352
7.120000 3.000000 -1.000000 -69.889984 90.482567 13071.705078
7.120000 3.000000 -0.960000 -92.346664 38.454613 10006.663086
7.120000 3.000000 -0.920000 -71.852890 -11.123151 5286.562500
7.120000 3.000000 -0.880000 -28.157658 -25.760906 1456.478027
7.120000 3.000000 -0.840000 0.998545 -4.312442 19.594246
7.120000 3.000000 -0.800000 -4.463718 22.731045 536.625183
7.120000 3.040000 -1.200000 2.611780 47.310852 2245.137939
7.120000 3.040000 -1.160000 3.000923 51.407436 2651.730225
7.120000 3.040000 -1.120000 -1.657763 68.132294 4644.757324
7.120000 3.040000 -1.080000 -27.722385 85.555534 8088.280273
7.120000 3.040000 -1.040000 -70.727280 78.903305 11228.080078
7.120000 3.040000 -1.000000 -102.426315 37.940956 11930.666016
7.120000 3.040000 -0.960000 -95.936409 -16.483063 9475.486328
7.120000 3.040000 -0.920000 -54.219376 -47.851196 5229.477539
7.120000 3.040000 -0.880000 -10.470530 -38.211044 1569.715820
7.120000 3.040000 -0.840000 2.657784 -5.974075 42.753391
7.120000 3.040000 -0.800000 -15.694606 12.564600 404.189819
7.120000 3.080000 -1.200000 -24.801367 32.513340 1672.225098
7.120000 3.080000 -1.160000 -25.532875 33.044258 1743.850708
7.120000 3.080000 -1.120000 -34.251781 41.288948 2877.961914
7.120000 3.080000 -1.080000 -58.354023 41.747078 5148.010254
7.120000 3.080000 -1.040000 -84.227676 18.256840 7427.613281
7.120000 3.080000 -1.000000 -87.161179 -24.305208 8187.814453
7.120000 3.080000 -0.960000 -57.231911 -59.119637 6770.623047
7.120000 3.080000 -0.920000 -13.106052 -61.596088 3965.846680
7.120000 3.080000 -0.880000 13.462961 -34.334892 1360.136230
7.120000 3.080000 -0.840000 8.091030 -5.551458 96.283455
7.120000 3.080000 -0.800000 -12.624538 -1.065410 160.514069
7.120000 3.120000 -1.200000 -32.612144 5.379087 1092.486572
7.120000 3.120000 -1.160000 -32.437485 2.923500 1060.737305
7.120000 3.120000 -1.120000 -38.628696 2.061462 1496.425781
7.120000 3.120000 -1.080000 -49.532017 -8.349144 2523.128906
7.120000 3.120000 -1.040000 -51.569443 -31.648455 3661.032227
7.120000 3.120000 -1.000000 -33.486580 -55.145634 4162.392090
7.120000 3.120000 -0.960000 -1.192478 -60.216194 3627.412109
7.120000 3.120000 -0.920000 24.694418 -41.466568 2329.290527
7.120000 3.120000 -0.880000 27.960007 -13.978617 977.163696
7.120000 3.120000 -0.840000 12.936279 0.621723 167.733856
7.120000 3.120000 -0.800000 -0.166871 -4.526695 20.518816
7.120000 3.160000 -1.200000 -19.385469 -15.603533 619.266663
7.120000 3.160000 -1.160000 -17.427666 -19.197620 672.272156
7.120000 3.160000 -1.120000 -16.364662 -24.498419 867.974731
7.120000 3.160000 -1.080000 -11.627769 -33.275986 1242.496338
7.120000 3.160000 -1.040000 1.389578 -40.528324 1644.475952
7.120000 3.160000 -1.000000 19.928308 -37.870407 1831.305176
7.120000 3.160000 -0.960000 33.764915 -22.691330 1654.965942
7.120000 3.160000 -0.920000 34.172554 -2.821291 1175.723145
7.120000 3.160000 -0.880000 22.906263 9.628162 617.398438
7.120000 3.160000 -0.840000 11.030784 9.684832 215.474152
7.120000 3.160000 -0.800000 7.982821 4.081861 80.387024
7.120000 3.200000 -1.200000 1.897702 -17.796103 320.302551
7.120000 3.200000 -1.160000 4.522370 -21.070398 464.413544
7.120000 3.200000 -1.120000 12.199564 -24.877350 767.711853
7.120000 3.200000 -1.080000 25.010151 -22.988922 1153.998169
7.120000 3.200000 -1.040000 36.433582 -11.218505 1453.260742
7.120000 3.200000 -1.000000 38.123631 6.920651 1501.306641
7.120000 3.200000 -0.960000 27.936565 21.702860 1251.465820
7.120000 3.200000 -0.920000 12.841379 25.506752 815.495422
7.120000 3.200000 -0.880000 2.918927 19.850441 402.560150
7.120000 3.200000 -0.840000 1.969253 13.628880 189.624313
7.120000 3.200000 -0.800000 4.418567 13.931347 213.606171
7.160000 2.800000 -1.200000 -23.145557 -15.159245 765.519531
7.160000 2.800000 -1.160000 -7.191723 -26.783714 769.088257
7.160000 2.800000 -1.120000 16.839308 -18.895901 640.617310
7.160000 2.800000 -1.080000 26.758162 8.947997 796.065857
7.160000 2.800000 -1.040000 9.756772 36.367188 1417.766846
7.160000 2.800000 -1.000000 -23.201826 40.558064 2183.281250
7.160000 2.800000 -0.960000 -46.637314 18.413025 2514.078613
7.160000 2.800000 -0.920000 -44.608036 -10.683593 2104.015869
7.160000 2.800000 -0.880000 -24.810225 -24.312969 1206.667725
7.160000 2.800000 -0.840000 -8.585789 -18.290527 408.259155
7.160000 2.800000 -0.800000 -8.241469 -7.944481 131.036591
7.160000 2.840000 -1.200000 -5.905195 -31.105057 1002.395874
7.160000 2.840000 -1.160000 15.060243 -31.295465 1206.217041
7.160000 2.840000 -1.120000 32.084579 -11.403185 1159.452881
7.160000 2.840000 -1.080000 27.790512 18.022076 1097.107788
7.160000 2.840000 -1.040000 1.475894 35.166569 1238.865723
7.160000 2.840000 -1.000000 -28.565092 26.820499 1535.303711
7.160000 2.840000 -0.960000 -41.272320 0.590112 1703.752686
7.160000 2.840000 -0.920000 -31.439051 -22.871634 1511.525513
7.160000 2.840000 -0.880000 -12.262844 -29.325493 1010.361938
7.160000 2.840000 -0.840000 -0.390742 -22.243877 494.942749
7.160000 2.840000 -0.800000 0.177863 -15.519903 240.899033
7.160000 2.880000 -1.200000 21.292118 -29.262814 1309.666504
7.160000 2.880000 -1.160000 37.254791 -17.052723 1678.714844
7.160000 2.880000 -1.120000 40.915543 6.846056 1720.950195
7.160000 2.880000 -1.080000 25.579895 28.668415 1476.209106
7.160000 2.880000 -1.040000 -1.375160 33.816257 1145.430420
7.160000 2.880000 -1.000000 -23.511711 19.072649 916.566467
7.160000 2.880000 -0.960000 -28.390930 -4.866047 829.723328
7.160000 2.880000 -0.920000 -16.681316 -22.636780 790.690186
7.160000 2.880000 -0.880000 0.407730 -26.322721 693.051941
7.160000 2.880000 -0.840000 11.821192 -19.513144 520.503296
7.160000 2.880000 -0.800000 14.862427 -11.075129 343.550201
7.160000 2.920000 -1.200000 41.005184 -5.943954 1716.755737
7.160000 2.920000 -1.160000 44.263031 11.795547 2098.350830
7.160000 2.920000 -1.120000 35.693481 30.101357 2180.116211
7.160000 2.920000 -1.080000 16.719353 40.617378 1929.308105
7.160000 2.920000 -1.040000 -5.461117 37.553635 1440.099365
7.160000 2.920000 -1.000000 -20.904655 21.487320 898.709534
7.160000 2.920000 -0.960000 -22.329437 0.102895 498.614349
7.160000 2.920000 -0.920000 -9.918843 -15.570477 340.823181
7.160000 2.920000 -0.880000 8.111099 -17.838068 383.986572
7.160000 2.920000 -0.840000 20.589579 -7.543148 480.829834
7.160000 2.920000 -0.800000 21.048546 6.545092 485.879517
7.160000 2.960000 -1.200000 37.982834 26.834585 2162.790527
7.160000 2.960000 -1.160000 28.270664 39.873837 2389.153320
7.160000 2.960000 -1.120000 14.195971 47.019375 2412.347168
7.160000 2.960000 -1.080000 -2.187541 47.813591 2290.924805
7.160000 2.960000 -1.040000 -18.722559 40.292976 1974.058105
7.160000 2.960000 -1.000000 -29.561308 23.290907 1416.337280
7.160000 2.960000 -0.960000 -27.282495 1.973442 748.229004
7.160000 2.960000 -0.920000 -10.831646 -11.937140 259.819855
7.160000 2.960000 -0.880000 9.579458 -8.931529 171.538239
7.160000 2.960000 -0.840000 18.673655 8.086727 414.100525
7.160000 2.960000 -0.800000 9.708348 23.975731 669.087708
7.160000 3.000000 -1.200000 11.628365 48.419395 2479.656494
7.160000 3.000000 -1.160000 -4.151284 49.845520 2501.809082
7.160000 3.000000 -1.120000 -16.209476 46.094376 2387.438477
7.160000 3.000000 -1.080000 -26.974396 40.451660 2363.954834
7.160000 3.000000 -1.040000 -37.708260 29.601885 2298.184570
7.160000 3.000000 -1.000000 -42.132088 10.862643 1893.109863
7.160000 3.000000 -0.960000 -32.239033 -8.807316 1116.924072
7.160000 3.000000 -0.920000 -10.463792 -15.590385 352.551056
7.160000 3.000000 -0.880000 7.610363 -3.146513 67.818169
7.160000 3.000000 -0.840000 6.604771 17.416321 346.951233
7.160000 3.000000 -0.800000 -11.894436 25.610342 797.367249
7.160000 3.040000 -1.200000 -21.929262 44.595573 2469.657715
7.160000 3.040000 -1.160000 -34.808514 34.638813 2411.479980
7.160000 3.040000 -1.120000 -40.187450 24.063061 2194.062012
7.160000 3.040000 -1.080000 -43.901077 14.700472 2143.408447
7.160000 3.040000 -1.040000 -46.436211 1.759490 2159.417480
7.160000 3.040000 -1.000000 -40.683968 -15.026794 1880.989746
7.160000 3.040000 -0.960000 -22.684635 -25.755234 1177.924805
7.160000 3.040000 -0.920000 -1.609998 -19.723995 391.628082
7.160000 3.040000 -0.880000 5.839446 -0.077470 34.105129
7.160000 3.040000 -0.840000 -6.845447 14.985320 271.419952
7.160000 3.040000 -0.800000 -25.970690 9.281412 760.621338
7.160000 3.080000 -1.200000 -41.081024 18.901604 2044.921143
7.160000 3.080000 -1.160000 -45.857716 3.462668 2114.920166
7.160000 3.080000 -1.120000 -43.445621 -9.166417 1971.545166
7.160000 3.080000 -1.080000 -38.759323 -19.280334 1874.016479
7.160000 3.080000 -1.040000 -30.686045 -29.362444 1803.786499
7.160000 3.080000 -1.000000 -15.732369 -35.880337 1534.906006
7.160000 3.080000 -0.960000 2.535523 -31.086069 972.772583
7.160000 3.080000 -0.920000 12.281645 -14.081467 349.126526
7.160000 3.080000 -0.880000 5.016299 3.107690 34.820992
7.160000 3.080000 -0.840000 -12.375051 4.874407 176.901749
7.160000 3.080000 -0.800000 -21.011021 -11.011823 562.723206
7.160000 3.120000 -1.200000 -35.086334 -9.627550 1323.740601
7.160000 3.120000 -1.160000 -32.600334 -24.033615 1640.396484
7.160000 3.120000 -1.120000 -23.625244 -35.113506 1791.110596
7.160000 3.120000 -1.080000 -10.411072 -41.506901 1831.213135
7.160000 3.120000 -1.040000 5.759405 -41.254772 1735.126953
7.160000 3.120000 -1.000000 20.834997 -31.474537 1424.743652
7.160000 3.120000 -0.960000 27.028673 -13.515194 913.209656
7.160000 3.120000 -0.920000 19.179417 3.402050 379.423981
7.160000 3.120000 -0.880000 2.567421 7.590962 64.214355
7.160000 3.120000 -0.840000 -8.379160 -3.566857 82.932793
7.160000 3.120000 -0.800000 -2.524285 -18.350246 343.103546
7.160000 3.160000 -1.200000 -12.197272 -21.204031 598.384399
7.160000 3.160000 -1.160000 -6.958919 -31.919287 1067.267456
7.160000 3.160000 -1.120000 6.375024 -39.457321 1597.521240
7.160000 3.160000 -1.080000 24.942633 -37.506939 2028.905518
7.160000 3.160000 -1.040000 40.545277 -22.857037 2166.363525
7.160000 3.160000 -1.000000 43.551826 -0.141847 1896.781738
7.160000 3.160000 -0.960000 30.703144 18.688179 1291.931152
7.160000 3.160000 -0.920000 10.002450 22.430817 603.190552
7.160000 3.160000 -0.880000 -3.797918 10.563482 126.011337
7.160000 3.160000 -0.840000 -1.197020 -4.789496 24.372133
7.160000 3.160000 -0.800000 13.114691 -8.560694 245.280594
7.160000 3.200000 -1.200000 7.507967 -10.692266 170.694122
7.160000 3.200000 -1.160000 11.893189 -19.624815 526.581299
7.160000 3.200000 -1.120000 27.325436 -23.080875 1279.406250
7.160000 3.200000 -1.080000 45.199112 -11.272198 2170.022217
7.160000 3.200000 -1.040000 50.555828 13.857246 2747.915039
7.160000 3.200000 -1.000000 35.614090 37.354580 2663.728027
7.160000 3.200000 -0.960000 8.694124 43.074512 1931.001343
7.160000 3.200000 -0.920000 -11.464211 28.436966 940.089111
7.160000 3.200000 -0.880000 -12.008258 7.555955 201.290710
7.160000 3.200000 -0.840000 2.490740 -1.325231 7.960020
7.160000 3.200000 -0.800000 14.742085 7.550506 274.339233
7.200000 2.800000 -1.200000 -27.587643 -12.090231 907.251709
7.200000 2.800000 -1.160000 -12.332036 -24.061377 731.028931
7.200000 2.800000 -1.120000 7.893479 -14.357389 268.441650
7.200000 2.800000 -1.080000 9.652451 11.411842 223.399948
7.200000 2.800000 -1.040000 -13.829269 28.624317 1010.600220
7.200000 2.800000 -1.000000 -43.774094 18.307056 2251.319580
7.200000 2.800000 -0.960000 -53.689880 -12.892224 3048.812744
7.200000 2.800000 -0.920000 -35.702660 -38.911400 2788.776855
7.200000 2.800000 -0.880000 -7.686942 -40.319324 1684.737061
7.200000 2.800000 -0.840000 6.008194 -22.708225 551.761902
7.200000 2.800000 -0.800000 -0.727167 -8.534636 73.368774
7.200000 2.840000 -1.200000 -11.382349 -27.172142 867.883179
7.200000 2.840000 -1.160000 6.843247 -25.487120 696.423279
7.200000 2.840000 -1.120000 15.510023 -6.104075 277.820557
7.200000 2.840000 -1.080000 2.047367 14.082448 202.507050
7.200000 2.840000 -1.040000 -24.939270 14.545335 833.533936
7.200000 2.840000 -1.000000 -42.657436 -8.232021 1887.423096
7.200000 2.840000 -0.960000 -35.876030 -36.676277 2632.238770
7.200000 2.840000 -0.920000 -11.174502 -49.027710 2528.585938
7.200000 2.840000 -0.880000 10.687532 -39.734512 1693.054810
7.200000 2.840000 -0.840000 15.683613 -22.575047 755.608398
7.200000 2.840000 -0.800000 8.686833 -14.418996 283.368530
7.200000 2.880000 -1.200000 13.894934 -23.381752 739.775513
7.200000 2.880000 -1.160000 22.333822 -9.690323 592.701965
7.200000 2.880000 -1.120000 14.924707 7.227829 274.988403
7.200000 2.880000 -1.080000 -5.208765 11.881346 168.297607
7.200000 2.880000 -1.040000 -22.759342 -2.063134 522.244202
7.200000 2.880000 -1.000000 -23.519087 -25.445377 1200.614746
7.200000 2.880000 -0.960000 -6.781935 -41.572166 1774.239624
7.200000 2.880000 -0.920000 14.875492 -40.686592 1876.679077
7.200000 2.880000 -0.880000 27.557964 -27.068209 1492.129395
7.200000 2.880000 -0.840000 27.581230 -12.854731 925.968323
7.200000 2.880000 -0.800000 21.896299 -5.968086 515.065979
7.200000 2.920000 -1.200000 28.486738 1.286353 813.148987
7.200000 2.920000 -1.160000 20.068188 15.199986 633.771729
7.200000 2.920000 -1.120000 3.112199 17.948490 331.834076
7.200000 2.920000 -1.080000 -10.685365 6.837495 160.928345
7.200000 2.920000 -1.040000 -12.182287 -10.934321 267.967529
7.200000 2.920000 -1.000000 -1.021585 -24.436230 598.172974
7.200000 2.920000 -0.960000 15.567557 -26.830841 962.242920
7.200000 2.920000 -0.920000 28.870441 -18.631823 1180.647217
7.200000 2.920000 -0.880000 33.928970 -5.350521 1179.803101
7.200000 2.920000 -0.840000 30.750376 6.897248 993.157654
7.200000 2.920000 -0.800000 22.498192 14.217891 708.317078
7.200000 2.960000 -1.200000 18.067167 30.661880 1266.573486
7.200000 2.960000 -1.160000 -2.353244 31.481354 996.613403
7.200000 2.960000 -1.120000 -15.843853 17.279949 549.624329
7.200000 2.960000 -1.080000 -14.837578 -0.734592 220.693344
7.200000 2.960000 -1.040000 -3.099624 -11.608971 144.375870
7.200000 2.960000 -1.000000 10.712682 -12.268426 265.275818
7.200000 2.960000 -0.960000 20.909145 -5.858806 471.517944
7.200000 2.960000 -0.920000 26.098412 4.124589 698.139282
7.200000 2.960000 -0.880000 25.527201 15.782674 900.730774
7.200000 2.960000 -0.840000 17.747837 25.984287 990.168884
7.200000 2.960000 -0.800000 4.147394 29.132563 865.907043
7.200000 3.000000 -1.200000 -12.458027 42.353477 1949.019409
7.200000 3.000000 -1.160000 -31.641605 25.376598 1645.162842
7.200000 3.000000 -1.120000 -31.436695 1.642715 990.964294
7.200000 3.000000 -1.080000 -16.095495 -12.385799 412.472992
7.200000 3.000000 -1.040000 1.047790 -11.830904 141.068161
7.200000 3.000000 -1.000000 11.146341 -2.957643 132.988586
7.200000 3.000000 -0.960000 14.326283 7.162550 256.544495
7.200000 3.000000 -0.920000 13.218178 16.920742 461.031738
7.200000 3.000000 -0.880000 6.861217 26.240944 735.663452
7.200000 3.000000 -0.840000 -6.258322 30.568150 973.578308
7.200000 3.000000 -0.800000 -20.951988 23.390537 986.103027
7.200000 3.040000 -1.200000 -41.395771 26.759096 2429.659180
7.200000 3.040000 -1.160000 -47.866348 -1.226074 2292.690430
7.200000 3.040000 -1.120000 -32.638939 -23.173964 1602.332886
7.200000 3.040000 -1.080000 -9.551902 -27.072046 824.134521
7.200000 3.040000 -1.040000 6.618067 -16.480679 315.411560
7.200000 3.040000 -1.000000 11.482931 -1.962878 135.710602
7.200000 3.040000 -0.960000 8.642815 10.154223 177.806488
7.200000 3.040000 -0.920000 0.949226 19.022533 362.757812
7.200000 3.040000 -0.880000 -11.626656 22.779621 654.090271
7.200000 3.040000 -0.840000 -25.895580 16.461502 941.562134
7.200000 3.040000 -0.800000 -32.107395 -0.816327 1031.551147
7.200000 3.080000 -1.200000 -47.960480 -4.116841 2317.156006
7.200000 3.080000 -1.160000 -39.834488 -31.224030 2561.726318
7.200000 3.080000 -1.120000 -15.808396 -44.001930 2186.075195
7.200000 3.080000 -1.080000 8.233652 -37.654644 1485.665283
7.200000 3.080000 -1.040000 20.807966 -19.807930 825.325562
7.200000 3.080000 -1.000000 20.159883 -0.892393 407.217255
7.200000 3.080000 -0.960000 9.932411 12.641274 258.454620
7.200000 3.080000 -0.920000 -5.700696 17.427139 336.203094
7.200000 3.080000 -0.880000 -21.316593 10.855501 572.239075
7.200000 3.080000 -0.840000 -28.344501 -6.107150 840.708069
7.200000 3.080000 -0.800000 -19.479136 -24.374809 973.568054
7.200000 3.120000 -1.200000 -29.756624 -26.624311 1594.310547
7.200000 3.120000 -1.160000 -13.957708 -45.271217 2244.300781
7.200000 3.120000 -1.120000 11.294203 -48.452557 2475.209229
7.200000 3.120000 -1.080000 32.662659 -34.468773 2254.945557
7.200000 3.120000 -1.040000 40.282990 -10.689481 1736.984253
7.200000 3.120000 -1.000000 31.651421 11.778874 1140.554321
7.200000 3.120000 -0.960000 11.469049 23.006227 660.825562
7.200000 3.120000 -0.920000 -10.146879 17.885216 422.840118
7.200000 3.120000 -0.880000 -21.193607 -0.668903 449.616425
7.200000 3.120000 -0.840000 -14.325071 -21.017118 646.926941
7.200000 3.120000 -0.800000 6.471162 -28.402021 848.550720
7.200000 3.160000 -1.200000 -4.193666 -25.567652 671.291687
7.200000 3.160000 -1.160000 11.056978 -36.647926 1465.327271
7.200000 3.160000 -1.120000 33.674133 -33.955544 2286.926270
7.200000 3.160000 -1.080000 50.994408 -14.460057 2809.522949
7.200000 3.160000 -1.040000 51.040848 13.914148 2798.771729
7.200000 3.160000 -1.000000 31.262753 35.649666 2248.258301
7.200000 3.160000 -0.960000 2.273896 37.493458 1410.930054
7.200000 3.160000 -0.920000 -17.910633 18.677036 669.622437
7.200000 3.160000 -0.880000 -16.557243 -6.887629 321.581726
7.200000 3.160000 -0.840000 3.417950 -20.012943 412.200256
7.200000 3.160000 -0.800000 24.805603 -11.076983 738.017517
7.200000 3.200000 -1.200000 7.272923 -6.357318 93.310898
7.200000 3.200000 -1.160000 19.250074 -15.620984 614.580505
7.200000 3.200000 -1.120000 39.435242 -10.286182 1660.943848
7.200000 3.200000 -1.080000 51.450138 13.243589 2822.509277
7.200000 3.200000 -1.040000 41.252872 42.186752 3481.521484
7.200000 3.200000 -1.000000 11.221481 55.756027 3234.656250
7.200000 3.200000 -0.960000 -19.120451 42.917313 2207.487305
7.200000 3.200000 -0.920000 -28.517157 13.441979 993.915039
7.200000 3.200000 -0.880000 -12.526169 -9.300268 243.399902
7.200000 3.200000 -0.840000 12.299582 -8.369005 221.319977
7.200000 3.200000 -0.800000 23.128342 12.159550 682.774780
