#kx 	ky 	kz 	real 	imag 	intensity
1.800000 3.800000 -4.200000 -4.627491 -29.078028 866.945374
1.800000 3.800000 -4.160000 11.880363 -30.803753 1090.014282
1.800000 3.800000 -4.120000 23.923204 -19.717987 961.118713
1.800000 3.800000 -4.080000 23.689533 -4.915562 585.356689
1.800000 3.800000 -4.040000 14.199429 2.871365 209.868500
1.800000 3.800000 -4.000000 5.029583 0.566628 25.617773
1.800000 3.800000 -3.960000 3.006736 -6.278530 48.460403
1.800000 3.800000 -3.920000 7.246687 -10.284784 158.291260
1.800000 3.800000 -3.880000 12.246887 -8.965202 230.361115
1.800000 3.800000 -3.840000 14.254241 -5.110370 229.299255
1.800000 3.800000 -3.800000 13.956196 -2.067617 199.050446
1.800000 3.840000 -4.200000 10.403597 -28.453251 917.822266
1.800000 3.840000 -4.160000 24.522167 -24.936014 1223.141479
1.800000 3.840000 -4.120000 31.549114 -13.477872 1176.999634
1.800000 3.840000 -4.080000 29.357727 -2.663820 868.972107
1.800000 3.840000 -4.040000 23.062124 1.871322 535.363403
1.800000 3.840000 -4.000000 18.861744 1.123947 357.028625
1.800000 3.840000 -3.960000 18.675806 -0.328707 348.893799
1.800000 3.840000 -3.920000 20.249531 0.500895 410.294373
1.800000 3.840000 -3.880000 20.958332 3.201024 449.498230
1.800000 3.840000 -3.840000 20.340124 6.142342 451.449005
1.800000 3.840000 -3.800000 19.156105 8.915731 446.446625
1.800000 3.880000 -4.200000 20.018255 -18.061409 726.945068
1.800000 3.880000 -4.160000 30.451012 -12.718687 1089.029053
1.800000 3.880000 -4.120000 35.010696 -3.096236 1235.335571
1.800000 3.880000 -4.080000 33.896893 5.608673 1180.456543
1.800000 3.880000 -4.040000 30.255697 11.108101 1038.797119
1.800000 3.880000 -4.000000 26.624317 14.071022 906.847900
1.800000 3.880000 -3.960000 23.692997 15.861149 812.934143
1.800000 3.880000 -3.920000 21.345505 17.195766 751.324951
1.800000 3.880000 -3.880000 19.506611 18.559101 724.948120
1.800000 3.880000 -3.840000 17.717834 20.614937 738.897278
1.800000 3.880000 -3.800000 14.721260 23.413498 764.907410
1.800000 3.920000 -4.200000 19.660461 -5.918686 421.564606
1.800000 3.920000 -4.160000 27.949986 -0.756714 781.774292
1.800000 3.920000 -4.120000 32.121571 8.113123 1097.618042
1.800000 3.920000 -4.080000 31.352070 17.507847 1289.476929
1.800000 3.920000 -4.040000 26.685081 24.797031 1326.986328
1.800000 3.920000 -4.000000 20.315399 28.592224 1230.230713
1.800000 3.920000 -3.960000 14.708780 29.255060 1072.206787
1.800000 3.920000 -3.920000 11.214344 28.793736 954.840759
1.800000 3.920000 -3.880000 8.960302 29.411476 945.321899
1.800000 3.920000 -3.840000 5.517904 31.391243 1015.857422
1.800000 3.920000 -3.800000 -0.594992 32.441940 1052.833496
1.800000 3.960000 -4.200000 13.026663 0.669644 170.142365
1.800000 3.960000 -4.160000 20.442657 6.355235 458.291260
1.800000 3.960000 -4.120000 23.199844 16.136335 798.614136
1.800000 3.960000 -4.080000 19.768999 25.765644 1054.681763
1.800000 3.960000 -4.040000 12.267706 31.269806 1128.297363
1.800000 3.960000 -4.000000 4.937682 31.819717 1036.875122
1.800000 3.960000 -3.960000 0.665453 30.190002 911.879028
1.800000 3.960000 -3.920000 -1.438079 29.941011 898.532227
1.800000 3.960000 -3.880000 -4.859165 31.725521 1030.120117
1.800000 3.960000 -3.840000 -11.699119 32.411636 1187.383545
1.800000 3.960000 -3.800000 -19.814911 28.281284 1192.461792
1.800000 4.000000 -4.200000 6.873886 1.153129 48.580013
1.800000 4.000000 -4.160000 12.097926 8.413118 217.140381
1.800000 4.000000 -4.120000 10.862904 17.688427 430.883148
1.800000 4.000000 -4.080000 4.261452 23.387127 565.117676
1.800000 4.000000 -4.040000 -2.597744 23.444216 556.379517
1.800000 4.000000 -4.000000 -5.628719 21.079668 476.034912
1.800000 4.000000 -3.960000 -5.897280 21.129372 481.228271
1.800000 4.000000 -3.920000 -8.314512 24.539223 671.304565
1.800000 4.000000 -3.880000 -15.991789 26.822960 975.208496
1.800000 4.000000 -3.840000 -26.023369 22.543922 1185.444092
1.800000 4.000000 -3.800000 -31.509319 11.408691 1122.995483
1.800000 4.040000 -4.200000 3.926762 0.012219 15.419610
1.800000 4.040000 -4.160000 4.487486 7.051577 69.862267
1.800000 4.040000 -4.120000 -0.474592 11.301450 127.948006
1.800000 4.040000 -4.080000 -5.479485 9.759445 125.271523
1.800000 4.040000 -4.040000 -5.381173 6.123919 66.459412
1.800000 4.040000 -4.000000 -1.489655 6.902607 49.865055
1.800000 4.040000 -3.960000 -0.838485 13.791077 190.896866
1.800000 4.040000 -3.920000 -8.692099 20.648296 501.904724
1.800000 4.040000 -3.880000 -21.979664 18.973721 843.107666
1.800000 4.040000 -3.840000 -31.017159 6.758381 1007.739868
1.800000 4.040000 -3.800000 -28.433731 -8.543528 881.468933
1.800000 4.080000 -4.200000 1.574201 0.180178 2.510573
1.800000 4.080000 -4.160000 -2.257911 2.475053 11.224047
1.800000 4.080000 -4.120000 -5.643228 -1.431693 33.895763
1.800000 4.080000 -4.080000 -2.090145 -7.495892 60.557102
1.800000 4.080000 -4.040000 7.465707 -7.054803 105.507034
1.800000 4.080000 -4.000000 13.754573 3.593067 202.098404
1.800000 4.080000 -3.960000 7.892578 17.462393 367.227936
1.800000 4.080000 -3.920000 -8.715918 22.131193 565.756897
1.800000 4.080000 -3.880000 -24.035643 11.625641 712.867615
1.800000 4.080000 -3.840000 -25.963871 -7.039336 723.674866
1.800000 4.080000 -3.800000 -13.609079 -19.785519 576.673767
1.800000 4.120000 -4.200000 -3.022130 -0.371407 9.271211
1.800000 4.120000 -4.160000 -6.369959 -6.070758 77.430481
1.800000 4.120000 -4.120000 -1.144743 -15.243036 233.660599
1.800000 4.120000 -4.080000 13.355224 -17.184311 473.662537
1.800000 4.120000 -4.040000 26.746128 -4.847641 738.854980
1.800000 4.120000 -4.000000 25.938618 16.038029 930.030273
1.800000 4.120000 -3.960000 8.254639 29.946747 964.946655
1.800000 4.120000 -3.920000 -14.200665 25.240179 838.725525
1.800000 4.120000 -3.880000 -24.481579 5.437860 628.918030
1.800000 4.120000 -3.840000 -15.959692 -13.507715 437.170135
1.800000 4.120000 -3.800000 2.141813 -17.651352 316.157593
1.800000 4.160000 -4.200000 -8.074318 -5.322000 93.518288
1.800000 4.160000 -4.160000 -4.372889 -16.936634 305.971741
1.800000 4.160000 -4.120000 11.892543 -22.990152 669.979675
1.800000 4.160000 -4.080000 31.343611 -12.637094 1142.118042
1.800000 4.160000 -4.040000 37.802101 12.063786 1574.533813
1.800000 4.160000 -4.000000 23.017204 35.149399 1765.271973
1.800000 4.160000 -3.960000 -4.180051 39.664581 1590.751831
1.800000 4.160000 -3.920000 -24.337124 22.926701 1117.929199
1.800000 4.160000 -3.880000 -24.119547 -0.815738 582.417969
1.800000 4.160000 -3.840000 -7.467195 -13.209055 230.238129
1.800000 4.160000 -3.800000 9.393078 -7.681626 147.237289
1.800000 4.200000 -4.200000 -8.518681 -14.292280 276.837189
1.800000 4.200000 -4.160000 5.064980 -24.842495 642.803589
1.800000 4.200000 -4.120000 27.022247 -20.009836 1130.595459
1.800000 4.200000 -4.080000 40.578922 3.194416 1656.853271
1.800000 4.200000 -4.040000 32.446533 31.697399 2057.502441
1.800000 4.200000 -4.000000 5.586550 45.929810 2140.756836
1.800000 4.200000 -3.960000 -21.994171 36.460293 1813.096436
1.800000 4.200000 -3.920000 -32.179760 12.176893 1183.813721
1.800000 4.200000 -3.880000 -21.665823 -7.834239 530.783203
1.800000 4.200000 -3.840000 -3.130775 -10.802047 126.485970
1.800000 4.200000 -3.800000 7.523343 0.408748 56.767769
1.840000 3.800000 -4.200000 32.013077 -22.482956 1530.320312
1.840000 3.800000 -4.160000 41.388031 -7.550899 1769.985229
1.840000 3.800000 -4.120000 37.016121 9.715225 1464.578857
1.840000 3.800000 -4.080000 23.136051 17.654284 846.950562
1.840000 3.800000 -4.040000 11.052437 13.896379 315.265717
1.840000 3.800000 -4.000000 7.761572 5.961521 95.781731
1.840000 3.800000 -3.960000 10.583315 2.169553 116.713516
1.840000 3.800000 -3.920000 12.413738 3.510235 166.422638
1.840000 3.800000 -3.880000 10.435671 4.846313 132.389984
1.840000 3.800000 -3.840000 8.281004 2.625928 75.470528
1.840000 3.800000 -3.800000 10.174393 -0.581313 103.856186
1.840000 3.840000 -4.200000 35.039528 -2.183352 1232.535522
1.840000 3.840000 -4.160000 40.189514 7.758321 1675.388550
1.840000 3.840000 -4.120000 39.133732 19.723616 1920.469971
1.840000 3.840000 -4.080000 32.414345 29.802681 1938.889404
1.840000 3.840000 -4.040000 21.964138 35.875748 1769.492554
1.840000 3.840000 -4.000000 9.733948 36.659309 1438.654663
1.840000 3.840000 -3.960000 -1.436062 31.160572 973.043518
1.840000 3.840000 -3.920000 -7.356635 20.441353 471.968994
1.840000 3.840000 -3.880000 -5.039435 9.267210 111.277084
1.840000 3.840000 -3.840000 3.646800 4.051332 29.712433
1.840000 3.840000 -3.800000 11.870550 7.630688 199.137360
1.840000 3.880000 -4.200000 22.700266 12.726191 677.257996
1.840000 3.880000 -4.160000 31.427717 18.830570 1342.291748
1.840000 3.880000 -4.120000 35.672253 34.368000 2453.668945
1.840000 3.880000 -4.080000 27.155844 53.873806 3639.826660
1.840000 3.880000 -4.040000 4.555866 65.490913 4309.815430
1.840000 3.880000 -4.000000 -22.581915 59.282803 4024.393555
1.840000 3.880000 -3.960000 -39.007465 36.380547 2845.126465
1.840000 3.880000 -3.920000 -35.422993 10.153967 1357.891479
1.840000 3.880000 -3.880000 -16.637581 -3.414767 288.469727
1.840000 3.880000 -3.840000 1.900973 1.506159 5.882214
1.840000 3.880000 -3.800000 6.941503 16.289503 313.532349
1.840000 3.920000 -4.200000 5.868516 12.736710 196.663254
1.840000 3.920000 -4.160000 20.300131 22.957241 939.130249
1.840000 3.920000 -4.120000 21.722790 48.060154 2781.657959
1.840000 3.920000 -4.080000 -0.609824 71.458054 5106.625488
1.840000 3.920000 -4.040000 -38.518364 72.302597 6711.330078
1.840000 3.920000 -4.000000 -68.269455 44.262394 6619.877930
1.840000 3.920000 -3.960000 -69.460503 3.484169 4836.900879
1.840000 3.920000 -3.920000 -42.889408 -23.422771 2388.127441
1.840000 3.920000 -3.880000 -10.224043 -21.538582 568.441589
1.840000 3.920000 -3.840000 4.858243 0.569093 23.926392
1.840000 3.920000 -3.800000 -3.532285 20.239037 422.095642
1.840000 3.960000 -4.200000 -2.052032 1.810198 7.487654
1.840000 3.960000 -4.160000 11.033743 22.215738 615.282532
1.840000 3.960000 -4.120000 -1.057624 51.784927 2682.797363
1.840000 3.960000 -4.080000 -38.809975 63.635963 5555.750000
1.840000 3.960000 -4.040000 -77.975693 40.554958 7724.913086
1.840000 3.960000 -4.000000 -88.469978 -6.760826 7872.645996
1.840000 3.960000 -3.960000 -61.209572 -46.348869 5894.829102
1.840000 3.960000 -3.920000 -17.118326 -52.064495 3003.748779
1.840000 3.960000 -3.880000 11.184570 -25.922112 797.050476
1.840000 3.960000 -3.840000 7.794103 5.537986 91.417320
1.840000 3.960000 -3.800000 -14.961584 16.629486 500.388794
1.840000 4.000000 -4.200000 2.192368 -7.317205 58.347973
1.840000 4.000000 -4.160000 3.786479 19.766838 405.065308
1.840000 4.000000 -4.120000 -23.554892 40.126003 2164.929199
1.840000 4.000000 -4.080000 -63.173203 28.882675 4825.062500
1.840000 4.000000 -4.040000 -82.368233 -13.783113 6974.500000
1.840000 4.000000 -4.000000 -61.760330 -59.005020 7295.930664
1.840000 4.000000 -3.960000 -14.537760 -73.377815 5595.650391
1.840000 4.000000 -3.920000 24.225056 -48.736801 2962.129150
1.840000 4.000000 -3.880000 28.714060 -8.762101 901.271667
1.840000 4.000000 -3.840000 3.983477 13.835716 207.295135
1.840000 4.000000 -3.800000 -22.154293 6.688864 535.553589
1.840000 4.040000 -4.200000 9.697018 -6.311414 133.866104
1.840000 4.040000 -4.160000 -3.298138 15.783211 259.987457
1.840000 4.040000 -4.120000 -34.626274 16.377842 1467.212646
1.840000 4.040000 -4.080000 -57.030659 -13.692757 3439.987793
1.840000 4.040000 -4.040000 -46.076790 -54.906143 5137.754883
1.840000 4.040000 -4.000000 -4.746958 -74.194809 5527.403320
1.840000 4.040000 -3.960000 36.863007 -55.056747 4390.126465
1.840000 4.040000 -3.920000 48.083412 -13.266296 2488.009033
1.840000 4.040000 -3.880000 25.016932 17.728975 940.163452
1.840000 4.040000 -3.840000 -7.860861 17.390789 364.232697
1.840000 4.040000 -3.800000 -22.409983 -5.382062 531.173950
1.840000 4.080000 -4.200000 9.787753 0.899419 96.609062
1.840000 4.080000 -4.160000 -9.639753 7.875436 154.947342
1.840000 4.080000 -4.120000 -28.728468 -8.663242 900.376648
1.840000 4.080000 -4.080000 -25.032185 -39.148880 2159.245117
1.840000 4.080000 -4.040000 5.675951 -57.223961 3306.798096
1.840000 4.080000 -4.000000 42.175022 -43.738533 3691.791992
1.840000 4.080000 -3.960000 55.578201 -6.113384 3126.310059
1.840000 4.080000 -3.920000 35.814545 27.086185 2016.343018
1.840000 4.080000 -3.880000 0.765076 31.934216 1020.379456
1.840000 4.080000 -3.840000 -21.010319 10.095046 543.343445
1.840000 4.080000 -3.800000 -16.465162 -15.232380 503.126953
1.840000 4.120000 -4.200000 1.462343 3.483027 14.269921
1.840000 4.120000 -4.160000 -11.049297 -4.339366 140.917068
1.840000 4.120000 -4.120000 -9.735722 -23.487286 646.436890
1.840000 4.120000 -4.080000 11.380633 -35.970833 1423.419556
1.840000 4.120000 -4.040000 38.883797 -25.412094 2157.724121
1.840000 4.120000 -4.000000 49.788433 5.746941 2511.915527
1.840000 4.120000 -3.960000 32.585457 35.811951 2344.307861
1.840000 4.120000 -3.920000 -0.999722 42.354031 1794.863281
1.840000 4.120000 -3.880000 -25.879467 22.298023 1166.948730
1.840000 4.120000 -3.840000 -25.932850 -6.014289 708.684387
1.840000 4.120000 -3.800000 -7.054225 -20.520367 470.847534
1.840000 4.160000 -4.200000 -6.078514 -4.039393 53.265030
1.840000 4.160000 -4.160000 -3.876960 -16.174129 276.633301
1.840000 4.160000 -4.120000 11.833391 -23.007126 669.356934
1.840000 4.160000 -4.080000 31.591398 -12.857187 1163.323730
1.840000 4.160000 -4.040000 38.337032 12.905682 1636.284668
1.840000 4.160000 -4.000000 22.394701 37.983521 1944.270508
1.840000 4.160000 -3.960000 -8.175859 43.729046 1979.074219
1.840000 4.160000 -3.920000 -32.860744 25.434719 1726.753418
1.840000 4.160000 -3.880000 -35.695381 -3.179672 1284.270630
1.840000 4.160000 -3.840000 -18.295357 -21.876907 813.319153
1.840000 4.160000 -3.800000 3.182852 -20.925079 447.989502
1.840000 4.200000 -4.200000 -3.806651 -15.921646 267.989410
1.840000 4.200000 -4.160000 9.869081 -20.589800 521.338623
1.840000 4.200000 -4.120000 25.770359 -10.869581 782.259155
1.840000 4.200000 -4.080000 30.233692 11.270789 1041.106812
1.840000 4.200000 -4.040000 15.744560 32.485428 1303.194092
1.840000 4.200000 -4.000000 -11.361197 37.495327 1534.976318
1.840000 4.200000 -3.960000 -34.408684 21.537380 1647.816284
1.840000 4.200000 -3.920000 -39.058403 -5.202762 1552.627563
1.840000 4.200000 -3.880000 -24.325409 -25.515745 1242.778809
1.840000 4.200000 -3.840000 -2.323465 -28.544682 820.197327
1.840000 4.200000 -3.800000 12.380034 -16.827755 436.438599
1.880000 3.800000 -4.200000 53.884048 16.896118 3188.969482
1.880000 3.800000 -4.160000 43.085037 38.223125 3317.327637
1.880000 3.800000 -4.120000 20.283026 45.945305 2522.372070
1.880000 3.800000 -4.080000 1.183205 36.454372 1330.321289
1.880000 3.800000 -4.040000 -3.443569 20.797863 444.409271
1.880000 3.800000 -4.000000 2.561470 12.576870 164.738785
1.880000 3.800000 -3.960000 6.917137 14.315109 252.769135
1.880000 3.800000 -3.920000 3.199735 16.998932 299.201996
1.880000 3.800000 -3.880000 -2.957516 12.210037 157.831909
1.880000 3.800000 -3.840000 -1.960381 2.330229 9.273060
1.880000 3.800000 -3.800000 7.522901 -2.608858 63.400173
1.880000 3.840000 -4.200000 28.367035 39.921425 2398.408936
1.880000 3.840000 -4.160000 22.307108 47.103668 2716.362793
1.880000 3.840000 -4.120000 14.381697 53.735538 3094.341309
1.880000 3.840000 -4.080000 2.739624 59.725784 3574.674805
1.880000 3.840000 -4.040000 -14.510483 61.402287 3980.794922
1.880000 3.840000 -4.000000 -34.407936 52.646034 3955.510986
1.880000 3.840000 -3.960000 -47.673233 31.348450 3255.462402
1.880000 3.840000 -3.920000 -44.888649 4.904755 2039.047485
1.880000 3.840000 -3.880000 -25.886099 -12.765608 833.050842
1.880000 3.840000 -3.840000 -2.471539 -12.125887 153.145645
1.880000 3.840000 -3.800000 10.110981 3.075100 111.688171
1.880000 3.880000 -4.200000 -4.617191 35.939308 1312.952393
1.880000 3.880000 -4.160000 4.058459 43.037346 1868.684204
1.880000 3.880000 -4.120000 1.253452 65.360992 4273.630859
1.880000 3.880000 -4.080000 -26.464619 86.028198 8101.227051
1.880000 3.880000 -4.040000 -71.382004 80.845711 11631.419922
1.880000 3.880000 -4.000000 -105.903984 40.911049 12889.368164
1.880000 3.880000 -3.960000 -104.048187 -15.276138 11059.385742
1.880000 3.880000 -3.920000 -64.778130 -54.008682 7113.143555
1.880000 3.880000 -3.880000 -14.725140 -53.725418 3103.250488
1.880000 3.880000 -3.840000 13.636774 -22.625231 697.862671
1.880000 3.880000 -3.800000 8.556393 9.965756 172.528152
1.880000 3.920000 -4.200000 -20.824190 10.182897 537.338257
1.880000 3.920000 -4.160000 -5.410975 33.444847 1147.836426
1.880000 3.920000 -4.120000 -24.273041 70.612785 5575.346191
1.880000 3.920000 -4.080000 -80.142776 82.303078 13196.661133
1.880000 3.920000 -4.040000 -137.637863 41.397308 20657.917969
1.880000 3.920000 -4.000000 -150.100769 -37.247307 23917.601562
1.880000 3.920000 -3.960000 -101.371964 -104.157822 21125.126953
1.880000 3.920000 -3.920000 -22.619986 -115.983360 13963.803711
1.880000 3.920000 -3.880000 33.346992 -72.297127 6338.896484
1.880000 3.920000 -3.840000 36.750839 -13.743574 1539.510010
1.880000 3.920000 -3.800000 2.629638 15.705574 253.580048
1.880000 3.960000 -4.200000 -11.095127 -14.658120 337.962341
1.880000 3.960000 -4.160000 -8.394571 26.109055 752.151550
1.880000 3.960000 -4.120000 -54.604046 57.403694 6276.786133
1.880000 3.960000 -4.080000 -123.416847 34.280823 16406.892578
1.880000 3.960000 -4.040000 -156.952316 -46.327457 26780.261719
1.880000 3.960000 -4.000000 -116.936729 -134.659286 31807.320312
1.880000 3.960000 -3.960000 -22.765846 -167.759186 28661.427734
1.880000 3.960000 -3.920000 62.198212 -124.378151 19338.542969
1.880000 3.960000 -3.880000 84.897079 -42.825508 9041.538086
1.880000 3.960000 -3.840000 46.041248 15.010143 2345.101074
1.880000 3.960000 -3.800000 -7.229679 17.789169 368.722809
1.880000 4.000000 -4.200000 11.179836 -19.277609 496.614929
1.880000 4.000000 -4.160000 -11.324022 22.199173 621.036743
1.880000 4.000000 -4.120000 -72.986740 24.681458 5936.238770
1.880000 4.000000 -4.080000 -122.007629 -36.083324 16187.867188
1.880000 4.000000 -4.040000 -104.532883 -126.930145 27038.386719
1.880000 4.000000 -4.000000 -17.344397 -179.852798 32647.857422
1.880000 4.000000 -3.960000 83.337616 -151.364975 29856.513672
1.880000 4.000000 -3.920000 128.854721 -62.380802 20494.904297
1.880000 4.000000 -3.880000 97.162842 20.622314 9865.898438
1.880000 4.000000 -3.840000 27.843737 44.789204 2781.346436
1.880000 4.000000 -3.800000 -18.974270 13.173649 533.567932
1.880000 4.040000 -4.200000 23.902466 -4.658178 593.026489
1.880000 4.040000 -4.160000 -16.884623 16.742014 565.385498
1.880000 4.040000 -4.120000 -67.085632 -13.801256 4690.956543
1.880000 4.040000 -4.080000 -73.143990 -86.753265 12876.171875
1.880000 4.040000 -4.040000 -11.475079 -146.875992 21704.234375
1.880000 4.040000 -4.000000 83.034859 -139.848358 26452.349609
1.880000 4.040000 -3.960000 143.091705 -63.197239 24469.126953
1.880000 4.040000 -3.920000 127.555923 28.929235 17107.414062
1.880000 4.040000 -3.880000 56.603451 73.285637 8574.735352
1.880000 4.040000 -3.840000 -9.852526 51.596615 2759.282959
1.880000 4.040000 -3.800000 -27.563913 0.014276 759.769531
1.880000 4.080000 -4.200000 17.279253 11.091616 421.596497
1.880000 4.080000 -4.160000 -20.841024 5.606121 465.776886
1.880000 4.080000 -4.120000 -39.713829 -39.144783 3109.502441
1.880000 4.080000 -4.080000 -8.304407 -90.471283 8254.016602
1.880000 4.080000 -4.040000 61.879795 -99.772141 13783.589844
1.880000 4.080000 -4.000000 120.461060 -47.960548 16811.082031
1.880000 4.080000 -3.960000 120.966125 32.968712 15719.739258
1.880000 4.080000 -3.920000 62.906036 85.786407 11316.476562
1.880000 4.080000 -3.880000 -8.023786 77.844833 6124.199219
1.880000 4.080000 -3.840000 -41.709080 27.164017 2477.531250
1.880000 4.080000 -3.800000 -26.227922 -18.959396 1047.362671
1.880000 4.120000 -4.200000 1.346370 11.756804 140.035141
1.880000 4.120000 -4.160000 -16.767122 -8.540445 354.075592
1.880000 4.120000 -4.120000 -6.688957 -41.523960 1768.981445
1.880000 4.120000 -4.080000 34.099907 -55.289993 4219.787109
1.880000 4.120000 -4.040000 77.226295 -27.823757 6738.062500
1.880000 4.120000 -4.000000 85.418839 28.753792 8123.158203
1.880000 4.120000 -3.960000 46.663315 74.690445 7756.127441
1.880000 4.120000 -3.920000 -12.819405 76.378006 5997.936523
1.880000 4.120000 -3.880000 -50.765614 35.752274 3855.372559
1.880000 4.120000 -3.840000 -45.384216 -12.974902 2228.075195
1.880000 4.120000 -3.800000 -11.305146 -35.278587 1372.385010
1.880000 4.160000 -4.200000 -6.234140 -1.824365 42.192814
1.880000 4.160000 -4.160000 -3.572804 -17.663708 324.771484
1.880000 4.160000 -4.120000 15.676113 -26.125612 928.288147
1.880000 4.160000 -4.080000 39.153301 -13.095421 1704.470947
1.880000 4.160000 -4.040000 45.301506 18.864552 2408.097900
1.880000 4.160000 -4.000000 22.540760 48.321030 2843.007812
1.880000 4.160000 -3.960000 -17.594147 51.455002 2957.171143
1.880000 4.160000 -3.920000 -47.755833 23.248745 2821.123779
1.880000 4.160000 -3.880000 -47.353714 -17.023697 2532.180420
1.880000 4.160000 -3.840000 -19.577074 -41.966682 2144.464355
1.880000 4.160000 -3.800000 13.004163 -38.796951 1674.311646
1.880000 4.200000 -4.200000 1.704910 -14.877271 224.239914
1.880000 4.200000 -4.160000 12.111072 -15.801207 396.356201
1.880000 4.200000 -4.120000 21.660801 -6.613168 512.924316
1.880000 4.200000 -4.080000 21.362921 9.901205 554.408264
1.880000 4.200000 -4.040000 6.775673 23.429955 594.872498
1.880000 4.200000 -4.000000 -16.243515 22.347609 763.267395
1.880000 4.200000 -3.960000 -33.471622 3.319999 1131.371826
1.880000 4.200000 -3.920000 -32.216919 -24.134609 1620.409180
1.880000 4.200000 -3.880000 -11.575993 -43.424244 2019.668457
1.880000 4.200000 -3.840000 16.222900 -43.096031 2120.450439
1.880000 4.200000 -3.800000 35.068218 -25.101801 1859.880371
1.920000 3.800000 -4.200000 37.007999 65.564133 5668.247070
1.920000 3.800000 -4.160000 5.320223 75.201515 5683.572754
1.920000 3.800000 -4.120000 -24.376156 60.207771 4219.172852
1.920000 3.800000 -4.080000 -33.669846 32.125641 2165.715332
1.920000 3.800000 -4.040000 -22.568871 12.138652 656.700806
1.920000 3.800000 -4.000000 -8.079094 10.320236 171.779037
1.920000 3.800000 -3.960000 -5.534161 17.409134 333.704865
1.920000 3.800000 -3.920000 -13.292276 17.318779 476.624695
1.920000 3.800000 -3.880000 -16.982365 5.667646 320.522919
1.920000 3.800000 -3.840000 -7.405790 -6.196898 93.247269
1.920000 3.800000 -3.800000 8.616169 -5.293222 102.256569
1.920000 3.840000 -4.200000 -12.751564 65.194534 4412.929688
1.920000 3.840000 -4.160000 -24.658442 61.804054 4427.779785
1.920000 3.840000 -4.120000 -34.513748 59.072422 4680.750000
1.920000 3.840000 -4.080000 -47.885208 56.517822 5487.257324
1.920000 3.840000 -4.040000 -66.429390 46.549599 6579.729004
1.920000 3.840000 -4.000000 -81.710197 22.133591 7166.452148
1.920000 3.840000 -3.960000 -79.838104 -12.578552 6532.342773
1.920000 3.840000 -3.920000 -54.892021 -40.909901 4686.753906
1.920000 3.840000 -3.880000 -17.922009 -45.972527 2434.671631
1.920000 3.840000 -3.840000 9.433978 -26.225893 776.797424
1.920000 3.840000 -3.800000 12.722976 1.547504 164.268890
1.920000 3.880000 -4.200000 -44.294308 28.196779 2757.043945
1.920000 3.880000 -4.160000 -36.418610 38.028366 2772.471680
1.920000 3.880000 -4.120000 -52.459221 60.062443 6359.466797
1.920000 3.880000 -4.080000 -97.510765 62.992733 13476.433594
1.920000 3.880000 -4.040000 -143.874207 22.483398 21205.291016
1.920000 3.880000 -4.000000 -151.013672 -50.969254 25402.994141
1.920000 3.880000 -3.960000 -102.335114 -114.502083 23583.203125
1.920000 3.880000 -3.920000 -23.795677 -127.099609 16720.544922
1.920000 3.880000 -3.880000 35.516376 -84.947632 8477.512695
1.920000 3.880000 -3.840000 44.104713 -24.326132 2536.986328
1.920000 3.880000 -3.800000 12.362068 10.793928 269.329620
1.920000 3.920000 -4.200000 -36.332233 -16.473528 1591.408203
1.920000 3.920000 -4.160000 -32.408482 20.138739 1455.878418
1.920000 3.920000 -4.120000 -79.988251 48.831837 8782.667969
1.920000 3.920000 -4.080000 -152.470963 19.318741 23620.607422
1.920000 3.920000 -4.040000 -185.974396 -73.796524 40032.402344
1.920000 3.920000 -4.000000 -136.074570 -175.849213 49439.234375
1.920000 3.920000 -3.960000 -22.873497 -214.608185 46579.867188
1.920000 3.920000 -3.920000 81.440437 -163.260864 33286.656250
1.920000 3.920000 -3.880000 113.372391 -63.948071 16942.654297
1.920000 3.920000 -3.840000 70.220917 10.678282 5045.002930
1.920000 3.920000 -3.800000 5.452753 20.337166 443.332825
1.920000 3.960000 -4.200000 -0.181278 -35.356483 1250.113770
1.920000 3.960000 -4.160000 -25.369743 14.047207 840.947937
1.920000 3.960000 -4.120000 -102.041176 15.498932 10652.618164
1.920000 3.960000 -4.080000 -163.881271 -65.333664 31125.558594
1.920000 3.960000 -4.040000 -138.540756 -187.253510 54257.414062
1.920000 3.960000 -4.000000 -18.743271 -260.148041 68028.312500
1.920000 3.960000 -3.960000 122.415054 -223.139801 64776.816406
1.920000 3.960000 -3.920000 191.358307 -100.547699 46727.839844
1.920000 3.960000 -3.880000 153.929794 19.204908 24063.208984
1.920000 3.960000 -3.840000 59.718563 61.445312 7341.833008
1.920000 3.960000 -3.800000 -9.433052 24.977896 712.877747
1.920000 4.000000 -4.200000 31.641333 -19.297379 1373.562744
1.920000 4.000000 -4.160000 -24.828955 12.900711 782.905334
1.920000 4.000000 -4.120000 -99.079086 -31.070641 10782.049805
1.920000 4.000000 -4.080000 -109.850624 -141.599869 32117.683594
1.920000 4.000000 -4.040000 -16.780746 -237.308899 56597.105469
1.920000 4.000000 -4.000000 132.041306 -232.631134 71552.156250
1.920000 4.000000 -3.960000 234.363525 -117.275749 68679.859375
1.920000 4.000000 -3.920000 221.617096 30.542793 50047.000000
1.920000 4.000000 -3.880000 117.100830 111.927208 26240.304688
1.920000 4.000000 -3.840000 9.702026 91.267487 8423.882812
1.920000 4.000000 -3.800000 -28.317020 17.205730 1097.890869
1.920000 4.040000 -4.200000 35.196014 11.105984 1362.102295
1.920000 4.040000 -4.160000 -28.855415 6.801239 878.891846
1.920000 4.040000 -4.120000 -66.397858 -67.438789 8956.666016
1.920000 4.040000 -4.080000 -18.598267 -161.041351 26280.210938
1.920000 4.040000 -4.040000 103.407768 -188.636978 46277.078125
1.920000 4.040000 -4.000000 216.719910 -108.209579 58676.832031
1.920000 4.040000 -3.960000 235.541077 34.457069 56666.886719
1.920000 4.040000 -3.920000 147.326813 141.774643 41805.238281
1.920000 4.040000 -3.880000 22.640650 148.506195 22566.689453
1.920000 4.040000 -3.840000 -49.986885 73.793121 7944.113281
1.920000 4.040000 -3.800000 -39.694748 -6.000469 1611.678589
1.920000 4.080000 -4.200000 14.594584 27.177265 951.605591
1.920000 4.080000 -4.160000 -28.184631 -6.091170 831.475830
1.920000 4.080000 -4.120000 -20.448421 -74.864624 6022.849609
1.920000 4.080000 -4.080000 54.707565 -117.634369 16830.761719
1.920000 4.080000 -4.040000 150.394226 -80.994171 29178.480469
1.920000 4.080000 -4.000000 190.196579 25.748535 36837.726562
1.920000 4.080000 -3.960000 136.069397 131.291122 35752.242188
1.920000 4.080000 -3.920000 24.646729 162.170761 26906.816406
1.920000 4.080000 -3.880000 -64.532539 105.855759 15369.890625
1.920000 4.080000 -3.840000 -78.425316 17.063820 6441.704102
1.920000 4.080000 -3.800000 -30.861200 -36.064884 2253.089600
1.920000 4.120000 -4.200000 -6.094472 18.553711 381.382782
1.920000 4.120000 -4.160000 -17.221233 -17.993143 620.324097
1.920000 4.120000 -4.120000 14.448868 -54.748016 3206.114990
1.920000 4.120000 -4.080000 74.639984 -49.814812 8052.642578
1.920000 4.120000 -4.040000 115.059448 9.424881 13327.504883
1.920000 4.120000 -4.000000 94.439835 87.148575 16513.757812
1.920000 4.120000 -3.960000 18.722031 125.656792 16140.143555
1.920000 4.120000 -3.920000 -60.310844 95.500298 12757.705078
1.920000 4.120000 -3.880000 -88.957336 21.388435 8370.873047
1.920000 4.120000 -3.840000 -56.619461 -41.088322 4894.013672
1.920000 4.120000 -3.800000 0.330147 -54.557922 2976.675781
1.920000 4.160000 -4.200000 -7.953118 -0.826033 63.934422
1.920000 4.160000 -4.160000 -0.248886 -19.919052 396.830597
1.920000 4.160000 -4.120000 25.624378 -25.475653 1305.617676
1.920000 4.160000 -4.080000 50.558571 -3.444866 2568.036377
1.920000 4.160000 -4.040000 48.513100 36.693542 3699.936768
1.920000 4.160000 -4.000000 11.608688 64.647270 4314.031250
1.920000 4.160000 -3.960000 -38.103298 54.251266 4395.061523
1.920000 4.160000 -3.920000 -64.553268 8.193508 4234.258301
1.920000 4.160000 -3.880000 -48.183907 -42.179070 4100.762695
1.920000 4.160000 -3.840000 -2.445236 -63.078709 3984.902832
1.920000 4.160000 -3.800000 39.361099 -45.870392 3653.388916
1.920000 4.200000 -4.200000 6.420154 -10.178640 144.823090
1.920000 4.200000 -4.160000 12.733900 -10.688244 276.390747
1.920000 4.200000 -4.120000 19.139328 -5.202467 393.379547
1.920000 4.200000 -4.080000 19.135292 6.034233 402.571350
1.920000 4.200000 -4.040000 7.723160 15.394490 296.637512
1.920000 4.200000 -4.000000 -10.877449 11.870819 259.235260
1.920000 4.200000 -3.960000 -22.814785 -8.345997 590.170044
1.920000 4.200000 -3.920000 -14.863575 -35.085594 1451.924805
1.920000 4.200000 -3.880000 13.023481 -49.823997 2652.041748
1.920000 4.200000 -3.840000 45.416603 -40.334854 3689.568359
1.920000 4.200000 -3.800000 62.827557 -11.120375 4070.964600
1.960000 3.800000 -4.200000 -13.415289 88.390297 7992.814453
1.960000 3.800000 -4.160000 -52.139935 73.120186 8065.134277
1.960000 3.800000 -4.120000 -69.980003 35.043419 6125.242188
1.960000 3.800000 -4.080000 -57.341732 -0.724216 3288.598633
1.960000 3.800000 -4.040000 -29.749638 -12.841171 1049.936646
1.960000 3.800000 -4.000000 -11.902645 -3.159164 151.653275
1.960000 3.800000 -3.960000 -13.405540 7.972710 243.272614
1.960000 3.800000 -3.920000 -21.822273 4.644836 497.786102
1.960000 3.800000 -3.880000 -19.281548 -8.692518 447.337952
1.960000 3.800000 -3.840000 -3.137215 -14.799572 228.869446
1.960000 3.800000 -3.800000 12.067652 -4.652917 167.277863
1.960000 3.840000 -4.200000 -62.426575 51.061539 6504.357910
1.960000 3.840000 -4.160000 -70.951660 35.700951 6308.696289
1.960000 3.840000 -4.120000 -75.779556 23.684772 6303.509277
1.960000 3.840000 -4.080000 -83.395187 11.608093 7089.505371
1.960000 3.840000 -4.040000 -91.648140 -9.233604 8484.641602
1.960000 3.840000 -4.000000 -88.428490 -40.832840 9486.917969
1.960000 3.840000 -3.960000 -63.250511 -70.840958 9019.068359
1.960000 3.840000 -3.920000 -21.188614 -80.017616 6851.776367
1.960000 3.840000 -3.880000 16.579338 -59.914406 3864.610596
1.960000 3.840000 -3.840000 29.055422 -23.355465 1389.695312
1.960000 3.840000 -3.800000 14.075693 4.562490 218.941452
1.960000 3.880000 -4.200000 -66.043404 -9.270794 4447.678711
1.960000 3.880000 -4.160000 -61.926533 2.829475 3842.901367
1.960000 3.880000 -4.120000 -88.735306 13.167240 8047.330566
1.960000 3.880000 -4.080000 -131.974213 -12.883568 17583.179688
1.960000 3.880000 -4.040000 -148.677673 -81.659584 28773.337891
1.960000 3.880000 -4.000000 -105.939011 -156.433578 35694.539062
1.960000 3.880000 -3.960000 -15.950119 -184.394897 34255.882812
1.960000 3.880000 -3.920000 68.576035 -143.034119 25161.431641
1.960000 3.880000 -3.880000 97.413170 -61.813419 13310.224609
1.960000 3.880000 -3.840000 64.747437 2.689152 4199.461914
1.960000 3.880000 -3.800000 10.738785 15.082937 342.816498
1.960000 3.920000 -4.200000 -24.621580 -48.097603 2919.601562
1.960000 3.920000 -4.160000 -41.589073 -9.906513 1827.790039
1.960000 3.920000 -4.120000 -105.047180 -11.924488 11177.103516
1.960000 3.920000 -4.080000 -155.838699 -87.554382 31951.470703
1.960000 3.920000 -4.040000 -126.586533 -200.559784 56248.375000
1.960000 3.920000 -4.000000 -9.015167 -267.227844 71491.992188
1.960000 3.920000 -3.960000 128.960190 -229.075653 69106.390625
1.960000 3.920000 -3.920000 197.735687 -107.661453 50690.390625
1.960000 3.920000 -3.880000 162.569244 12.583782 26587.111328
1.960000 3.920000 -3.840000 69.736076 57.806515 8204.712891
1.960000 3.920000 -3.800000 -0.549042 24.270414 589.354492
1.960000 3.960000 -4.200000 26.202753 -40.603584 2335.235352
1.960000 3.960000 -4.160000 -28.914896 -7.002560 885.107056
1.960000 3.960000 -4.120000 -105.260101 -54.385681 14037.490234
1.960000 3.960000 -4.080000 -113.604050 -174.682922 43420.003906
1.960000 3.960000 -4.040000 -7.722511 -279.283173 78058.734375
1.960000 3.960000 -4.000000 160.785065 -272.573364 100148.078125
1.960000 3.960000 -3.960000 278.251160 -141.210159 97364.015625
1.960000 3.960000 -3.920000 266.375671 28.634769 71775.953125
1.960000 3.960000 -3.880000 149.113007 125.275391 37928.613281
1.960000 3.960000 -3.840000 25.810284 106.250702 11955.382812
1.960000 3.960000 -3.800000 -20.298550 24.531605 1013.830750
1.960000 4.000000 -4.200000 47.804104 -1.091957 2286.424805
1.960000 4.000000 -4.160000 -28.667194 -4.057476 838.271179
1.960000 4.000000 -4.120000 -74.825798 -95.408829 14701.744141
1.960000 4.000000 -4.080000 -14.044832 -213.536911 45795.269531
1.960000 4.000000 -4.040000 142.611328 -249.681595 82678.890625
1.960000 4.000000 -4.000000 291.092163 -147.566589 106510.546875
1.960000 4.000000 -3.960000 320.442017 37.395035 104081.476562
1.960000 4.000000 -3.920000 211.095520 181.126434 77368.109375
1.960000 4.000000 -3.880000 50.597908 197.603851 41607.429688
1.960000 4.000000 -3.840000 -47.303696 107.638657 13823.719727
1.960000 4.000000 -3.800000 -40.034229 7.343224 1656.662476
1.960000 4.040000 -4.200000 31.076542 33.445618 2084.360840
1.960000 4.040000 -4.160000 -30.871216 -10.525455 1063.817139
1.960000 4.040000 -4.120000 -22.308201 -109.398636 12465.717773
1.960000 4.040000 -4.080000 85.770065 -174.696503 37875.371094
1.960000 4.040000 -4.040000 228.658249 -125.530396 68042.476562
1.960000 4.040000 -4.000000 294.666687 29.590553 87704.054688
1.960000 4.040000 -3.960000 223.824265 189.805115 86123.281250
1.960000 4.040000 -3.920000 64.010582 246.382050 64801.468750
1.960000 4.040000 -3.880000 -71.169487 175.655548 35919.968750
1.960000 4.040000 -3.840000 -101.870758 52.243576 13107.042969
1.960000 4.040000 -3.800000 -43.139294 -25.782730 2525.747803
1.960000 4.080000 -4.200000 -0.486990 37.828403 1431.225342
1.960000 4.080000 -4.160000 -24.323750 -21.700008 1062.535156
1.960000 4.080000 -4.120000 24.984600 -87.876129 8346.444336
1.960000 4.080000 -4.080000 128.659790 -86.874580 24100.535156
1.960000 4.080000 -4.040000 206.230515 9.087502 42613.605469
1.960000 4.080000 -4.000000 183.497467 144.950500 54681.968750
1.960000 4.080000 -3.960000 62.918957 223.602875 53957.042969
1.960000 4.080000 -3.920000 -73.739502 189.696671 41422.343750
1.960000 4.080000 -3.880000 -135.644119 76.800064 24297.576172
1.960000 4.080000 -3.840000 -98.996063 -26.675587 10511.807617
1.960000 4.080000 -3.800000 -17.699995 -57.174469 3582.209717
1.960000 4.120000 -4.200000 -16.919910 17.881460 606.029968
1.960000 4.120000 -4.160000 -8.782302 -26.144192 760.647583
1.960000 4.120000 -4.120000 44.217926 -47.616833 4222.587891
1.960000 4.120000 -4.080000 104.822350 -9.944263 11086.613281
1.960000 4.120000 -4.040000 115.270149 74.404213 18823.193359
1.960000 4.120000 -4.000000 51.068542 145.368149 23739.894531
1.960000 4.120000 -3.960000 -50.539696 144.909439 23553.007812
1.960000 4.120000 -3.920000 -118.739868 69.413185 18917.347656
1.960000 4.120000 -3.880000 -109.492386 -26.209270 12675.508789
1.960000 4.120000 -3.840000 -40.858414 -77.079041 7610.588867
1.960000 4.120000 -3.800000 28.820335 -62.321777 4714.615723
1.960000 4.160000 -4.200000 -9.261612 -1.273431 87.399086
1.960000 4.160000 -4.160000 5.941755 -18.654181 383.282898
1.960000 4.160000 -4.120000 35.468605 -14.959639 1481.812744
1.960000 4.160000 -4.080000 53.299145 17.769669 3156.560059
1.960000 4.160000 -4.040000 35.058258 58.937412 4702.700195
1.960000 4.160000 -4.000000 -15.290955 72.590973 5503.262695
1.960000 4.160000 -3.960000 -62.911888 39.776119 5540.045410
1.960000 4.160000 -3.920000 -69.959320 -21.109512 5339.917969
1.960000 4.160000 -3.880000 -28.898098 -67.605286 5405.574707
1.960000 4.160000 -3.840000 30.871649 -68.905319 5701.001465
1.960000 4.160000 -3.800000 69.293579 -30.197914 5713.514160
1.960000 4.200000 -4.200000 7.268841 -2.275850 58.015541
1.960000 4.200000 -4.160000 10.877136 -4.960739 142.921021
1.960000 4.200000 -4.120000 17.637356 -2.973238 319.916473
1.960000 4.200000 -4.080000 20.020260 6.033238 437.210754
1.960000 4.200000 -4.040000 11.208244 14.260368 328.982849
1.960000 4.200000 -4.000000 -4.162827 9.462875 106.875137
1.960000 4.200000 -3.960000 -10.411062 -11.198837 233.804169
1.960000 4.200000 -3.920000 5.296610 -34.152470 1194.445312
1.960000 4.200000 -3.880000 38.667744 -38.803535 3000.908691
1.960000 4.200000 -3.840000 68.990250 -15.774678 5008.495117
1.960000 4.200000 -3.800000 75.654358 23.704185 6285.470703
2.000000 3.800000 -4.200000 -65.373299 68.213493 8926.748047
2.000000 3.800000 -4.160000 -91.602219 29.482300 9260.172852
2.000000 3.800000 -4.120000 -84.116028 -17.738258 7390.152344
2.000000 3.800000 -4.080000 -48.893158 -44.151909 4339.932129
2.000000 3.800000 -4.040000 -13.142227 -38.463036 1652.123291
2.000000 3.800000 -4.000000 0.309101 -16.352043 267.484863
2.000000 3.800000 -3.960000 -7.040558 -2.796829 57.391708
2.000000 3.800000 -3.920000 -15.162659 -7.104479 280.379852
2.000000 3.800000 -3.880000 -9.077862 -16.775166 363.813782
2.000000 3.800000 -3.840000 6.010889 -14.852871 256.738556
2.000000 3.800000 -3.800000 13.351702 0.102468 178.278442
2.000000 3.840000 -4.200000 -86.689316 5.206312 7542.143066
2.000000 3.840000 -4.160000 -84.646118 -16.673145 7442.958984
2.000000 3.840000 -4.120000 -78.785614 -32.906971 7290.041504
2.000000 3.840000 -4.080000 -73.572868 -48.319981 7747.787109
2.000000 3.840000 -4.040000 -64.304314 -68.357910 8807.848633
2.000000 3.840000 -4.000000 -41.691101 -88.832397 9629.342773
2.000000 3.840000 -3.960000 -4.665222 -95.623009 9165.524414
2.000000 3.840000 -3.920000 32.654716 -77.476952 7069.008789
2.000000 3.840000 -3.880000 49.798622 -39.945244 4075.525391
2.000000 3.840000 -3.840000 38.200665 -4.665695 1481.059448
2.000000 3.840000 -3.800000 10.686554 7.896852 176.562698
2.000000 3.880000 -4.200000 -53.335323 -50.915890 5437.084473
2.000000 3.880000 -4.160000 -54.355366 -40.363449 4583.713867
2.000000 3.880000 -4.120000 -79.858765 -47.486496 8632.389648
2.000000 3.880000 -4.080000 -98.682526 -93.228485 18429.792969
2.000000 3.880000 -4.040000 -71.600410 -158.738174 30324.427734
2.000000 3.880000 -4.000000 7.684120 -194.816757 38012.617188
2.000000 3.880000 -3.960000 98.564789 -164.758133 36860.257812
2.000000 3.880000 -3.920000 144.198792 -80.657791 27298.970703
2.000000 3.880000 -3.880000 120.237846 3.476608 14469.226562
2.000000 3.880000 -3.840000 55.424686 37.188679 4454.893555
2.000000 3.880000 -3.800000 4.345106 15.081390 246.328278
2.000000 3.920000 -4.200000 7.226019 -60.702469 3737.005127
2.000000 3.920000 -4.160000 -26.825417 -37.437767 2121.189453
2.000000 3.920000 -4.120000 -78.492798 -74.370819 11692.137695
2.000000 3.920000 -4.080000 -77.948608 -167.028290 33974.433594
2.000000 3.920000 -4.040000 12.210281 -246.006012 60668.046875
2.000000 3.920000 -4.000000 151.222412 -234.657715 77932.460938
2.000000 3.920000 -3.960000 247.121765 -121.868073 75920.992188
2.000000 3.920000 -3.920000 235.494751 21.985825 55941.152344
2.000000 3.920000 -3.880000 135.696594 104.240067 29279.558594
2.000000 3.920000 -3.840000 30.672943 88.658646 8801.184570
2.000000 3.920000 -3.800000 -8.567959 19.338465 447.386139
2.000000 3.960000 -4.200000 48.537804 -23.749756 2919.969238
2.000000 3.960000 -4.160000 -17.216423 -24.699543 906.472656
2.000000 3.960000 -4.120000 -56.366337 -108.127205 14868.656250
2.000000 3.960000 -4.080000 4.712368 -216.838165 47040.996094
2.000000 3.960000 -4.040000 156.433975 -247.203445 85581.132812
2.000000 3.960000 -4.000000 299.444794 -144.890717 110660.507812
2.000000 3.960000 -3.960000 326.795441 37.032963 108166.695312
2.000000 3.960000 -3.920000 219.317245 178.539429 79976.382812
2.000000 3.960000 -3.880000 61.958214 195.824951 42186.230469
2.000000 3.960000 -3.840000 -34.122284 108.999100 13045.133789
2.000000 3.960000 -3.800000 -26.939333 12.407394 879.671082
2.000000 4.000000 -4.200000 45.312286 24.401590 2648.641113
2.000000 4.000000 -4.160000 -19.805544 -20.032421 793.557495
2.000000 4.000000 -4.120000 -9.302513 -125.589073 15859.152344
2.000000 4.000000 -4.080000 110.408615 -195.190216 50289.281250
2.000000 4.000000 -4.040000 268.881958 -138.784698 91558.703125
2.000000 4.000000 -4.000000 342.574219 35.205349 118596.507812
2.000000 4.000000 -3.960000 264.390747 215.546661 116362.828125
2.000000 4.000000 -3.920000 86.696266 281.486359 86750.812500
2.000000 4.000000 -3.880000 -64.707062 206.174561 46694.953125
2.000000 4.000000 -3.840000 -101.005722 72.068359 15396.004883
2.000000 4.000000 -3.800000 -38.830971 -11.909767 1649.686768
2.000000 4.040000 -4.200000 11.369576 46.404522 2282.646973
2.000000 4.040000 -4.160000 -19.283775 -25.779388 1036.440796
2.000000 4.040000 -4.120000 42.459019 -108.401779 13553.713867
2.000000 4.040000 -4.080000 174.342621 -106.772903 41795.804688
2.000000 4.040000 -4.040000 274.467102 15.935314 75586.125000
2.000000 4.040000 -4.000000 247.766113 190.996719 97867.796875
2.000000 4.040000 -3.960000 95.937485 295.427673 96481.507812
2.000000 4.040000 -3.920000 -78.622101 258.310547 72905.773438
2.000000 4.040000 -3.880000 -161.412170 120.742935 40632.746094
2.000000 4.040000 -3.840000 -121.960030 -6.890797 14921.732422
2.000000 4.040000 -3.800000 -27.351395 -45.295315 2799.764404
2.000000 4.080000 -4.200000 -18.793634 34.328873 1531.672241
2.000000 4.080000 -4.160000 -8.705879 -30.697838 1018.149597
2.000000 4.080000 -4.120000 70.122665 -63.405361 8937.427734
2.000000 4.080000 -4.080000 162.165237 -7.314369 26351.064453
2.000000 4.080000 -4.040000 180.461105 120.172203 47007.570312
2.000000 4.080000 -4.000000 87.304871 230.305847 60662.925781
2.000000 4.080000 -3.960000 -63.726547 236.882965 60174.613281
2.000000 4.080000 -3.920000 -169.630127 133.197098 46515.847656
2.000000 4.080000 -3.880000 -166.134491 -2.519447 27607.017578
2.000000 4.080000 -3.840000 -78.263992 -77.955063 12202.244141
2.000000 4.080000 -3.800000 12.061253 -64.003433 4241.913086
2.000000 4.120000 -4.200000 -23.493340 9.952994 650.999084
2.000000 4.120000 -4.160000 4.816786 -25.133440 654.891235
2.000000 4.120000 -4.120000 62.504581 -18.398552 4245.329590
2.000000 4.120000 -4.080000 98.073524 45.269428 11667.737305
2.000000 4.120000 -4.040000 65.262695 126.244186 20196.814453
2.000000 4.120000 -4.000000 -28.494919 157.891006 25741.531250
2.000000 4.120000 -3.960000 -120.525482 105.901901 25741.605469
2.000000 4.120000 -3.920000 -144.520706 2.174431 20890.962891
2.000000 4.120000 -3.880000 -87.542282 -81.331177 14278.412109
2.000000 4.120000 -3.840000 1.839874 -94.272675 8890.721680
2.000000 4.120000 -3.800000 60.061302 -46.202232 5742.006348
2.000000 4.160000 -4.200000 -9.488476 -1.423723 92.058159
2.000000 4.160000 -4.160000 10.193111 -11.601584 238.496277
2.000000 4.160000 -4.120000 35.185108 2.736547 1245.480469
2.000000 4.160000 -4.080000 38.098919 38.904556 2965.092041
2.000000 4.160000 -4.040000 4.713104 67.885292 4630.626465
2.000000 4.160000 -4.000000 -46.200848 58.079929 5507.796387
2.000000 4.160000 -3.960000 -74.261589 6.947571 5563.052246
2.000000 4.160000 -3.920000 -52.467346 -51.913399 5447.823242
2.000000 4.160000 -3.880000 7.421307 -75.757126 5794.217773
2.000000 4.160000 -3.840000 64.358780 -48.939140 6537.092285
2.000000 4.160000 -3.800000 83.236626 5.962482 6963.887207
2.000000 4.200000 -4.200000 1.718607 5.228199 30.287674
2.000000 4.200000 -4.160000 4.983934 -0.614481 25.217188
2.000000 4.200000 -4.120000 13.751492 -0.211111 189.148087
2.000000 4.200000 -4.080000 17.766514 8.723343 391.745728
2.000000 4.200000 -4.040000 10.225117 16.158970 365.665314
2.000000 4.200000 -4.000000 -1.472300 9.941208 100.995277
2.000000 4.200000 -3.960000 -0.645601 -8.823517 78.271248
2.000000 4.200000 -3.920000 21.338352 -22.827293 976.410645
2.000000 4.200000 -3.880000 53.347816 -13.346418 3024.116455
2.000000 4.200000 -3.840000 71.797005 21.242594 5606.057617
2.000000 4.200000 -3.800000 60.861706 62.144569 7566.094727
2.040000 3.800000 -4.200000 -86.316895 20.109747 7855.008301
2.040000 3.800000 -4.160000 -88.097084 -26.914574 8485.490234
2.040000 3.800000 -4.120000 -56.202507 -64.008659 7255.830078
2.040000 3.800000 -4.080000 -10.193249 -68.580505 4807.187988
2.040000 3.800000 -4.040000 20.486101 -43.561569 2317.290771
2.040000 3.800000 -4.000000 22.426979 -13.394001 682.368652
2.040000 3.800000 -3.960000 7.534874 -0.155383 56.798470
2.040000 3.800000 -3.920000 -2.471481 -4.679661 28.007446
2.040000 3.800000 -3.880000 1.458893 -10.913815 121.239716
2.040000 3.800000 -3.840000 9.834936 -6.305672 136.487457
2.040000 3.800000 -3.800000 9.210499 5.143890 111.292900
2.040000 3.840000 -4.200000 -71.837921 -41.129097 6852.289551
2.040000 3.840000 -4.160000 -58.017971 -61.069557 7095.575684
2.040000 3.840000 -4.120000 -40.695087 -73.374924 7039.969727
2.040000 3.840000 -4.080000 -22.776279 -81.281685 7125.471191
2.040000 3.840000 -4.040000 -1.644150 -86.333649 7456.202148
2.040000 3.840000 -4.000000 24.892807 -83.579231 7605.139648
2.040000 3.840000 -3.960000 50.990845 -65.875252 6939.615234
2.040000 3.840000 -3.920000 63.716671 -34.124237 5224.277832
2.040000 3.840000 -3.880000 54.191368 -1.756393 2939.789307
2.040000 3.840000 -3.840000 28.361519 13.896910 997.499817
2.040000 3.840000 -3.800000 4.817971 6.789463 69.309654
2.040000 3.880000 -4.200000 -17.077354 -69.271858 5090.226562
2.040000 3.880000 -4.160000 -20.273457 -64.106163 4520.613281
2.040000 3.880000 -4.120000 -31.639219 -82.258507 7767.501953
2.040000 3.880000 -4.080000 -19.319584 -123.165314 15542.940430
2.040000 3.880000 -4.040000 34.629074 -154.193802 24974.900391
2.040000 3.880000 -4.000000 109.729187 -137.719742 31007.220703
2.040000 3.880000 -3.960000 158.575989 -68.702209 29866.337891
2.040000 3.880000 -3.920000 147.185150 14.879417 21884.865234
2.040000 3.880000 -3.880000 86.439529 61.892738 11302.503906
2.040000 3.880000 -3.840000 23.458763 51.427044 3195.054443
2.040000 3.880000 -3.800000 0.337658 8.662609 75.154808
2.040000 3.920000 -4.200000 36.034721 -47.071911 3514.266113
2.040000 3.920000 -4.160000 1.010094 -46.478580 2161.278809
2.040000 3.920000 -4.120000 -17.574369 -98.857468 10081.657227
2.040000 3.920000 -4.080000 30.003223 -166.418793 28595.408203
2.040000 3.920000 -4.040000 137.025818 -178.938965 50795.226562
2.040000 3.920000 -4.000000 234.739594 -99.787354 65060.191406
2.040000 3.920000 -3.960000 249.011963 32.922195 63090.828125
2.040000 3.920000 -3.920000 167.524261 134.020813 46025.957031
2.040000 3.920000 -3.880000 52.051270 144.228485 23511.189453
2.040000 3.920000 -3.840000 -16.767551 79.160553 6547.543945
2.040000 3.920000 -3.800000 -8.692142 8.740614 151.951660
2.040000 3.960000 -4.200000 50.966858 2.251400 2602.689453
2.040000 3.960000 -4.160000 2.363670 -30.196224 917.398865
2.040000 3.960000 -4.120000 14.274117 -112.221359 12797.383789
2.040000 3.960000 -4.080000 114.787399 -164.086334 40100.472656
2.040000 3.960000 -4.040000 245.497330 -111.464035 72693.171875
2.040000 3.960000 -4.000000 303.684692 37.921741 93662.445312
2.040000 3.960000 -3.960000 234.088684 190.411194 91053.937500
2.040000 3.960000 -3.920000 81.965469 244.812988 66651.734375
2.040000 3.960000 -3.880000 -45.837749 179.750244 34411.250000
2.040000 3.960000 -3.840000 -74.629951 66.610626 10006.605469
2.040000 3.960000 -3.800000 -20.280823 -1.244953 412.861664
2.040000 4.000000 -4.200000 26.064150 38.682999 2175.714355
2.040000 4.000000 -4.160000 -1.960678 -26.514252 706.849792
2.040000 4.000000 -4.120000 57.777328 -102.143341 13771.481445
2.040000 4.000000 -4.080000 184.206741 -96.897110 43321.175781
2.040000 4.000000 -4.040000 279.039734 24.603174 78468.484375
2.040000 4.000000 -4.000000 250.787659 195.548721 101133.750000
2.040000 4.000000 -3.960000 101.940536 297.015594 98610.140625
2.040000 4.000000 -3.920000 -67.733398 261.223511 72825.531250
2.040000 4.000000 -3.880000 -147.695877 129.291061 38530.250000
2.040000 4.000000 -3.840000 -109.983788 8.848606 12174.731445
2.040000 4.000000 -3.800000 -21.539558 -24.176929 1048.476562
2.040000 4.040000 -4.200000 -9.790844 40.896748 1768.404541
2.040000 4.040000 -4.160000 1.062328 -28.845947 833.217224
2.040000 4.040000 -4.120000 88.411224 -62.838150 11765.177734
2.040000 4.040000 -4.080000 189.982162 2.116127 36097.699219
2.040000 4.040000 -4.040000 208.749237 146.117386 64926.531250
2.040000 4.040000 -4.000000 103.427284 270.004059 83599.398438
2.040000 4.040000 -3.960000 -65.638786 278.557251 81902.593750
2.040000 4.040000 -3.920000 -184.356049 165.599533 61410.359375
2.040000 4.040000 -3.880000 -183.082825 18.372524 33856.871094
2.040000 4.040000 -3.840000 -91.278206 -62.256729 12207.611328
2.040000 4.040000 -3.800000 0.385155 -46.881737 2198.045654
2.040000 4.080000 -4.200000 -27.399849 19.910480 1147.178955
2.040000 4.080000 -4.160000 9.976143 -25.083727 728.716797
2.040000 4.080000 -4.120000 85.854828 -13.597334 7555.938965
2.040000 4.080000 -4.080000 130.920868 73.082344 22481.302734
2.040000 4.080000 -4.040000 85.115204 181.120514 40049.238281
2.040000 4.080000 -4.000000 -39.841957 223.381516 51486.683594
2.040000 4.080000 -3.960000 -161.641769 157.177643 50832.875000
2.040000 4.080000 -3.920000 -196.174698 25.422649 39130.824219
2.040000 4.080000 -3.880000 -129.501373 -80.259842 23212.248047
2.040000 4.080000 -3.840000 -24.515936 -98.962456 10394.598633
2.040000 4.080000 -3.800000 40.774559 -46.114407 3789.103271
2.040000 4.120000 -4.200000 -21.980885 1.634882 485.832123
2.040000 4.120000 -4.160000 13.862894 -13.123037 364.393921
2.040000 4.120000 -4.120000 54.765350 16.784681 3280.969238
2.040000 4.120000 -4.080000 53.871101 81.201599 9495.794922
2.040000 4.120000 -4.040000 -7.854279 128.886017 16673.294922
2.040000 4.120000 -4.000000 -95.152695 110.765190 21322.962891
2.040000 4.120000 -3.960000 -143.393295 27.725182 21330.322266
2.040000 4.120000 -3.920000 -114.502487 -65.368118 17383.810547
2.040000 4.120000 -3.880000 -30.528868 -105.773491 12120.042969
2.040000 4.120000 -3.840000 47.475403 -75.364532 7933.726562
2.040000 4.120000 -3.800000 73.366524 -10.087477 5484.404297
2.040000 4.160000 -4.200000 -10.422665 -0.181367 108.664825
2.040000 4.160000 -4.160000 7.155528 -2.366219 56.800571
2.040000 4.160000 -4.120000 21.040974 16.245943 706.653198
2.040000 4.160000 -4.080000 10.205647 43.895107 2030.935669
2.040000 4.160000 -4.040000 -25.846416 52.256310 3398.759277
2.040000 4.160000 -4.000000 -59.986893 23.644958 4157.511230
2.040000 4.160000 -3.960000 -59.239143 -27.747330 4279.190430
2.040000 4.160000 -3.920000 -15.947807 -64.167084 4371.747070
2.040000 4.160000 -3.880000 42.729992 -56.413116 5008.291992
2.040000 4.160000 -3.840000 77.380157 -9.118130 6070.829102
2.040000 4.160000 -3.800000 69.181625 44.921326 6804.022461
2.040000 4.200000 -4.200000 -8.891399 6.803392 125.343132
2.040000 4.200000 -4.160000 -3.644122 -1.616924 15.894068
2.040000 4.200000 -4.120000 7.197861 -1.133892 53.094910
2.040000 4.200000 -4.080000 11.889870 7.928001 204.222214
2.040000 4.200000 -4.040000 6.177513 14.041428 235.323349
2.040000 4.200000 -4.000000 -0.103588 8.119934 65.944054
2.040000 4.200000 -3.960000 6.993484 -3.996162 64.878136
2.040000 4.200000 -3.920000 28.970932 -5.081635 865.137878
2.040000 4.200000 -3.880000 49.999207 16.317020 2766.165771
2.040000 4.200000 -3.840000 50.065365 52.711971 5285.092773
2.040000 4.200000 -3.800000 23.333988 82.512276 7352.750977
2.080000 3.800000 -4.200000 -69.074478 -22.526354 5278.720215
2.080000 3.800000 -4.160000 -49.332848 -59.741512 6002.778320
2.080000 3.800000 -4.120000 -7.058207 -74.698975 5629.755371
2.080000 3.800000 -4.080000 33.086670 -57.117279 4357.111328
2.080000 3.800000 -4.040000 48.135307 -20.701880 2745.575684
2.080000 3.800000 -4.000000 35.704155 9.224211 1359.872681
2.080000 3.800000 -3.960000 13.223572 17.678925 487.407227
2.080000 3.800000 -3.920000 -0.270788 9.993690 99.947174
2.080000 3.800000 -3.880000 -0.494096 1.811131 3.524324
2.080000 3.800000 -3.840000 3.040775 1.755410 12.327779
2.080000 3.800000 -3.800000 1.250756 5.260721 29.239578
2.080000 3.840000 -4.200000 -33.934204 -59.998489 4751.349121
2.080000 3.840000 -4.160000 -12.998102 -71.552994 5288.781738
2.080000 3.840000 -4.120000 10.359793 -73.251877 5473.162598
2.080000 3.840000 -4.080000 31.858536 -66.239182 5402.595703
2.080000 3.840000 -4.040000 49.339867 -52.172066 5156.346680
2.080000 3.840000 -4.000000 60.543415 -31.831459 4678.747070
2.080000 3.840000 -3.960000 61.508263 -7.549583 3840.262451
2.080000 3.840000 -3.920000 49.448421 13.912849 2638.713867
2.080000 3.840000 -3.880000 28.025129 23.472588 1336.370239
2.080000 3.840000 -3.840000 8.261070 17.032726 358.359070
2.080000 3.840000 -3.800000 1.560980 1.051755 3.542847
2.080000 3.880000 -4.200000 15.838570 -57.801338 3591.854980
2.080000 3.880000 -4.160000 15.739006 -57.613068 3566.981934
2.080000 3.880000 -4.120000 21.229523 -72.510277 5708.432617
2.080000 3.880000 -4.080000 49.494419 -88.601913 10299.996094
2.080000 3.880000 -4.040000 96.099289 -79.841400 15609.722656
2.080000 3.880000 -4.000000 132.495804 -34.175331 18723.091797
2.080000 3.880000 -3.960000 129.104446 29.643280 17546.683594
2.080000 3.880000 -3.920000 83.610718 73.776138 12433.669922
2.080000 3.880000 -3.880000 26.241470 73.079582 6029.240234
2.080000 3.880000 -3.840000 -5.003452 37.210197 1409.633301
2.080000 3.880000 -3.800000 3.397049 1.445673 13.629912
2.080000 3.920000 -4.200000 44.184326 -21.624857 2419.889160
2.080000 3.920000 -4.160000 24.207466 -35.859570 1871.910156
2.080000 3.920000 -4.120000 36.818989 -75.541420 7062.144531
2.080000 3.920000 -4.080000 96.929886 -95.961197 18603.953125
2.080000 3.920000 -4.040000 170.136307 -56.026688 32085.353516
2.080000 3.920000 -4.000000 197.295410 37.512520 40332.667969
2.080000 3.920000 -3.960000 148.174927 128.212967 38394.375000
2.080000 3.920000 -3.920000 52.392311 156.609848 27271.599609
2.080000 3.920000 -3.880000 -24.431026 112.341919 13217.582031
2.080000 3.920000 -3.840000 -37.744999 41.514912 3148.172852
2.080000 3.920000 -3.800000 0.156022 2.794655 7.834439
2.080000 3.960000 -4.200000 36.127670 17.840759 1623.501343
2.080000 3.960000 -4.160000 19.641628 -22.919498 911.096924
2.080000 3.960000 -4.120000 62.929981 -70.098862 8874.033203
2.080000 3.960000 -4.080000 150.807037 -60.159370 26361.912109
2.080000 3.960000 -4.040000 213.878998 30.685558 46685.828125
2.080000 3.960000 -4.000000 188.297058 153.867691 59131.046875
2.080000 3.960000 -3.960000 77.734604 224.528793 56455.847656
2.080000 3.960000 -3.920000 -44.840321 195.648804 40289.109375
2.080000 3.960000 -3.880000 -100.036156 99.191025 19846.091797
2.080000 3.960000 -3.840000 -69.742508 14.561659 5076.059570
2.080000 3.960000 -3.800000 -5.460556 -3.658920 43.205368
2.080000 4.000000 -4.200000 6.855749 33.767815 1187.266602
2.080000 4.000000 -4.160000 16.245783 -19.703550 652.155334
2.080000 4.000000 -4.120000 87.499664 -43.719929 9567.623047
2.080000 4.000000 -4.080000 169.113968 13.449972 28780.435547
2.080000 4.000000 -4.040000 181.203552 134.596558 50950.960938
2.080000 4.000000 -4.000000 90.656593 237.221329 64492.574219
2.080000 4.000000 -3.960000 -51.240376 243.053040 61700.359375
2.080000 4.000000 -3.920000 -149.477936 148.653229 44441.437500
2.080000 4.000000 -3.880000 -147.534332 28.042522 22552.761719
2.080000 4.000000 -3.840000 -72.377342 -34.993874 6463.050781
2.080000 4.000000 -3.800000 -1.290909 -18.347206 338.286407
2.080000 4.040000 -4.200000 -16.932583 24.286219 876.532837
2.080000 4.040000 -4.160000 18.494127 -16.151428 602.901367
2.080000 4.040000 -4.120000 89.993164 -2.193941 8103.583008
2.080000 4.040000 -4.080000 130.656250 83.334946 24015.767578
2.080000 4.040000 -4.040000 83.587524 187.827881 42266.187500
2.080000 4.040000 -4.000000 -38.546535 227.875610 53413.128906
2.080000 4.040000 -3.960000 -156.151825 164.105316 51313.945312
2.080000 4.040000 -3.920000 -189.803040 39.226578 37563.917969
2.080000 4.040000 -3.880000 -128.524048 -59.172504 20019.816406
2.080000 4.040000 -3.840000 -34.034916 -75.258728 6822.251465
2.080000 4.040000 -3.800000 20.206003 -27.081326 1141.680786
2.080000 4.080000 -4.200000 -22.166742 7.511703 547.790161
2.080000 4.080000 -4.160000 18.894283 -6.694664 401.812439
2.080000 4.080000 -4.120000 63.528736 30.982349 4995.806152
2.080000 4.080000 -4.080000 58.227776 106.327179 14695.942383
2.080000 4.080000 -4.040000 -16.162277 159.735519 25776.654297
2.080000 4.080000 -4.000000 -117.236702 137.257874 32584.167969
2.080000 4.080000 -3.960000 -172.418900 42.980156 31575.570312
2.080000 4.080000 -3.920000 -142.072845 -60.283623 23818.808594
2.080000 4.080000 -3.880000 -53.736008 -104.827187 13876.297852
2.080000 4.080000 -3.840000 25.259453 -74.828522 6237.347656
2.080000 4.080000 -3.800000 48.291431 -12.488924 2488.035400
2.080000 4.120000 -4.200000 -16.512489 -0.319940 272.764648
2.080000 4.120000 -4.160000 10.348995 2.405411 112.887703
2.080000 4.120000 -4.120000 25.065868 35.703777 1903.057495
2.080000 4.120000 -4.080000 0.102226 76.195984 5805.838379
2.080000 4.120000 -4.040000 -58.371456 82.794342 10262.129883
2.080000 4.120000 -4.000000 -108.308624 36.034615 13029.250977
2.080000 4.120000 -3.960000 -106.700500 -38.661770 12879.729492
2.080000 4.120000 -3.920000 -49.246735 -89.515343 10438.237305
2.080000 4.120000 -3.880000 24.538544 -82.725327 7445.619629
2.080000 4.120000 -3.840000 66.077789 -30.023378 5267.677734
2.080000 4.120000 -3.800000 58.177021 25.982149 4059.637695
2.080000 4.160000 -4.200000 -14.083025 0.589684 198.679321
2.080000 4.160000 -4.160000 -3.013408 1.456644 11.202437
2.080000 4.160000 -4.120000 1.095772 14.989674 225.891022
2.080000 4.160000 -4.080000 -12.762318 27.461399 917.005188
2.080000 4.160000 -4.040000 -36.271076 19.959091 1713.956299
2.080000 4.160000 -4.000000 -45.730675 -10.176720 2194.860352
2.080000 4.160000 -3.960000 -24.368977 -42.023899 2359.854980
2.080000 4.160000 -3.920000 19.125313 -47.725479 2643.499023
2.080000 4.160000 -3.880000 55.657440 -17.880451 3417.461182
2.080000 4.160000 -3.840000 60.385170 29.487181 4515.862305
2.080000 4.160000 -3.800000 32.950897 65.000496 5310.826172
2.080000 4.200000 -4.200000 -18.381342 -0.640137 338.283508
2.080000 4.200000 -4.160000 -9.553859 -9.738327 186.111237
2.080000 4.200000 -4.120000 3.026524 -8.077879 74.411972
2.080000 4.200000 -4.080000 8.692450 1.092648 76.752556
2.080000 4.200000 -4.040000 6.273769 7.289970 92.503853
2.080000 4.200000 -4.000000 5.001316 5.812057 58.793175
2.080000 4.200000 -3.960000 12.952278 4.134503 184.855621
2.080000 4.200000 -3.920000 26.003216 14.041737 873.337585
2.080000 4.200000 -3.880000 29.971516 37.773720 2325.145508
2.080000 4.200000 -3.840000 14.253284 63.312969 4211.687988
2.080000 4.200000 -3.800000 -17.279104 74.101799 5789.644043
2.120000 3.800000 -4.200000 -34.264530 -36.087608 2476.373535
2.120000 3.800000 -4.160000 -7.062061 -54.322044 3000.757324
2.120000 3.800000 -4.120000 28.687904 -49.054413 3229.331299
2.120000 3.800000 -4.080000 51.948029 -20.260902 3109.101807
2.120000 3.800000 -4.040000 49.364113 15.076210 2664.107910
2.120000 3.800000 -4.000000 25.873726 36.431103 1996.674927
2.120000 3.800000 -3.960000 -0.666861 35.660656 1272.127075
2.120000 3.800000 -3.920000 -14.981748 20.904804 661.463623
2.120000 3.800000 -3.880000 -15.017846 6.449640 267.133575
2.120000 3.800000 -3.840000 -9.100409 -0.128236 82.833878
2.120000 3.800000 -3.800000 -5.000154 -1.266530 26.605633
2.120000 3.840000 -4.200000 -2.137375 -48.230057 2330.706787
2.120000 3.840000 -4.160000 18.712137 -50.084469 2858.598145
2.120000 3.840000 -4.120000 39.356171 -40.494068 3188.677734
2.120000 3.840000 -4.080000 52.610027 -21.127991 3214.207031
2.120000 3.840000 -4.040000 53.934055 1.987167 2912.831055
2.120000 3.840000 -4.000000 43.458820 21.385372 2346.003174
2.120000 3.840000 -3.960000 25.604349 31.242653 1631.686035
2.120000 3.840000 -3.920000 7.287657 29.365734 915.456238
2.120000 3.840000 -3.880000 -4.449692 18.094349 347.205200
2.120000 3.840000 -3.840000 -5.361055 3.885940 43.841442
2.120000 3.840000 -3.800000 3.448055 -5.237400 39.319439
2.120000 3.880000 -4.200000 26.745901 -33.057823 1808.162842
2.120000 3.880000 -4.160000 32.263737 -33.061249 2133.994873
2.120000 3.880000 -4.120000 45.086380 -34.473225 3221.184814
2.120000 3.880000 -4.080000 65.757339 -26.064690 5003.395996
2.120000 3.880000 -4.040000 82.230621 -0.101910 6761.885254
2.120000 3.880000 -4.000000 78.427872 36.431534 7478.187988
2.120000 3.880000 -3.960000 49.925926 63.613846 6539.319336
2.120000 3.880000 -3.920000 11.435387 64.293373 4264.405762
2.120000 3.880000 -3.880000 -13.182060 39.956520 1770.290161
2.120000 3.880000 -3.840000 -10.621237 11.000935 233.831238
2.120000 3.880000 -3.800000 10.502786 -0.157972 110.333466
2.120000 3.920000 -4.200000 34.103004 -4.809054 1186.141846
2.120000 3.920000 -4.160000 32.431683 -17.290659 1350.781006
2.120000 3.920000 -4.120000 54.500805 -29.685251 3851.551758
2.120000 3.920000 -4.080000 91.826302 -15.716362 8679.073242
2.120000 3.920000 -4.040000 113.343956 32.230766 13885.674805
2.120000 3.920000 -4.000000 92.531525 89.739349 16615.234375
2.120000 3.920000 -3.960000 34.721886 117.918678 15110.423828
2.120000 3.920000 -3.920000 -23.588499 97.687889 10099.340820
2.120000 3.920000 -3.880000 -45.286667 47.942928 4349.406250
2.120000 3.920000 -3.840000 -24.743614 9.031185 693.808777
2.120000 3.920000 -3.800000 9.245116 6.848955 132.380371
2.120000 3.960000 -4.200000 21.061697 15.832290 694.256470
2.120000 3.960000 -4.160000 28.228289 -8.688830 872.332092
2.120000 3.960000 -4.120000 67.374619 -16.087044 4798.132324
2.120000 3.960000 -4.080000 109.644135 21.053936 12465.104492
2.120000 3.960000 -4.040000 111.112183 91.751724 20764.296875
2.120000 3.960000 -4.000000 54.788376 148.968994 25193.527344
2.120000 3.960000 -3.960000 -28.478807 149.153778 23057.892578
2.120000 3.960000 -3.920000 -83.747559 92.369019 15545.689453
2.120000 3.960000 -3.880000 -79.690544 23.291712 6893.086914
2.120000 3.960000 -3.840000 -34.591873 -8.985359 1277.334351
2.120000 3.960000 -3.800000 3.939001 6.576653 58.768089
2.120000 4.000000 -4.200000 2.718225 19.834610 400.800507
2.120000 4.000000 -4.160000 25.776970 -2.700333 671.743958
2.120000 4.000000 -4.120000 71.083435 10.170139 5156.286621
2.120000 4.000000 -4.080000 94.933884 69.275078 13811.478516
2.120000 4.000000 -4.040000 60.242699 139.545273 23102.066406
2.120000 4.000000 -4.000000 -23.868952 165.664169 28014.343750
2.120000 4.000000 -3.960000 -103.758514 122.009232 25652.082031
2.120000 4.000000 -3.920000 -126.388596 38.248566 17437.029297
2.120000 4.000000 -3.880000 -85.610901 -26.046236 8007.632812
2.120000 4.000000 -3.840000 -24.806166 -33.945976 1767.675293
2.120000 4.000000 -3.800000 5.589846 -0.077146 31.252325
2.120000 4.040000 -4.200000 -8.418169 13.534223 254.040756
2.120000 4.040000 -4.160000 21.901985 5.580738 510.841614
2.120000 4.040000 -4.120000 53.993252 37.018478 4285.639160
2.120000 4.040000 -4.080000 46.912163 96.557518 11524.105469
2.120000 4.040000 -4.040000 -13.611843 138.027176 19236.785156
2.120000 4.040000 -4.000000 -94.208763 119.979401 23270.347656
2.120000 4.040000 -3.960000 -138.518433 46.321812 21333.066406
2.120000 4.040000 -3.920000 -116.502975 -33.584843 14700.884766
2.120000 4.040000 -3.880000 -50.800331 -67.536591 7141.864258
2.120000 4.040000 -3.840000 5.667755 -44.985199 2055.791504
2.120000 4.040000 -3.800000 17.995417 -0.886694 324.621246
2.120000 4.080000 -4.200000 -12.095776 7.272691 199.199829
2.120000 4.080000 -4.160000 11.017512 12.554910 279.011353
2.120000 4.080000 -4.120000 21.187492 45.237343 2495.327148
2.120000 4.080000 -4.080000 -5.967472 82.513100 6844.022461
2.120000 4.080000 -4.040000 -63.006706 86.687347 11484.541016
2.120000 4.080000 -4.000000 -110.412125 41.468079 13910.438477
2.120000 4.080000 -3.960000 -109.717110 -28.202045 12833.199219
2.120000 4.080000 -3.920000 -59.047607 -75.054504 9119.798828
2.120000 4.080000 -3.880000 4.462366 -70.414787 4978.154785
2.120000 4.080000 -3.840000 38.108986 -27.518929 2209.586182
2.120000 4.080000 -3.800000 29.895931 14.553265 1105.564209
2.120000 4.120000 -4.200000 -14.993245 3.558505 237.460358
2.120000 4.120000 -4.160000 -4.311111 9.700152 112.678635
2.120000 4.120000 -4.120000 -6.350359 27.936281 820.762878
2.120000 4.120000 -4.080000 -29.781298 39.340988 2434.639160
2.120000 4.120000 -4.040000 -60.333706 24.068958 4219.470703
2.120000 4.120000 -4.000000 -70.190605 -16.079342 5185.266602
2.120000 4.120000 -3.960000 -44.041542 -54.545006 4914.815430
2.120000 4.120000 -3.920000 4.275154 -62.004410 3862.823730
2.120000 4.120000 -3.880000 42.386589 -32.651672 2862.754639
2.120000 4.120000 -3.840000 47.411625 11.247675 2374.372314
2.120000 4.120000 -3.800000 23.920336 40.527290 2214.643799
2.120000 4.160000 -4.200000 -19.298306 -2.611912 379.246674
2.120000 4.160000 -4.160000 -13.030636 -4.787900 192.721451
2.120000 4.160000 -4.120000 -10.419852 -0.478165 108.801956
2.120000 4.160000 -4.080000 -15.671870 1.455494 247.725983
2.120000 4.160000 -4.040000 -21.080055 -7.037468 493.894714
2.120000 4.160000 -4.000000 -14.296337 -21.740482 677.033813
2.120000 4.160000 -3.960000 7.327568 -27.676300 819.670837
2.120000 4.160000 -3.920000 31.043671 -13.365877 1142.356201
2.120000 4.160000 -3.880000 38.868210 16.796520 1792.860840
2.120000 4.160000 -3.840000 23.695324 45.242546 2608.356445
2.120000 4.160000 -3.800000 -4.960274 56.340538 3198.860352
2.120000 4.200000 -4.200000 -19.424324 -13.836699 568.758545
2.120000 4.200000 -4.160000 -6.920743 -20.833260 481.921387
2.120000 4.200000 -4.120000 6.790191 -16.792294 328.087799
2.120000 4.200000 -4.080000 13.659870 -6.222092 225.306488
2.120000 4.200000 -4.040000 13.796352 3.167206 200.370529
2.120000 4.200000 -4.000000 12.945225 9.163005 251.539490
2.120000 4.200000 -3.960000 14.000420 16.218943 459.065857
2.120000 4.200000 -3.920000 12.705936 28.377533 966.725220
2.120000 4.200000 -3.880000 2.428301 42.550953 1816.480225
2.120000 4.200000 -3.840000 -17.723289 50.009716 2815.086670
2.120000 4.200000 -3.800000 -40.552341 44.347244 3611.170410
2.160000 3.800000 -4.200000 -9.486036 -22.942051 616.322571
2.160000 3.800000 -4.160000 10.815080 -26.108120 798.599854
2.160000 3.800000 -4.120000 31.190708 -12.877115 1138.680420
2.160000 3.800000 -4.080000 37.908783 13.179923 1610.786133
2.160000 3.800000 -4.040000 24.479906 37.962715 2040.433594
2.160000 3.800000 -4.000000 -2.105104 46.872360 2201.449463
2.160000 3.800000 -3.960000 -26.226002 35.920723 1978.101562
2.160000 3.800000 -3.920000 -35.452572 14.110478 1455.990479
2.160000 3.800000 -3.880000 -28.942516 -4.678437 859.557007
2.160000 3.800000 -3.840000 -15.552228 -12.430323 396.384705
2.160000 3.800000 -3.800000 -4.762628 -10.893193 141.344284
2.160000 3.840000 -4.200000 6.482862 -25.001343 667.094666
2.160000 3.840000 -4.160000 21.648670 -20.923023 906.437805
2.160000 3.840000 -4.120000 33.349350 -6.114432 1149.565430
2.160000 3.840000 -4.080000 33.364193 14.824860 1332.945801
2.160000 3.840000 -4.040000 19.542995 31.661423 1384.374390
2.160000 3.840000 -4.000000 -1.611113 35.473671 1260.977051
2.160000 3.840000 -3.960000 -19.003391 24.983023 985.280273
2.160000 3.840000 -3.920000 -24.353233 7.213898 645.120300
2.160000 3.840000 -3.880000 -17.088806 -7.678696 350.989655
2.160000 3.840000 -3.840000 -3.444640 -12.941666 179.352249
2.160000 3.840000 -3.800000 8.549145 -8.274568 141.556335
2.160000 3.880000 -4.200000 18.582361 -16.436131 615.450562
2.160000 3.880000 -4.160000 26.923225 -12.183843 873.306030
2.160000 3.880000 -4.120000 34.394295 -2.025012 1187.068237
2.160000 3.880000 -4.080000 35.713860 13.423270 1455.663940
2.160000 3.880000 -4.040000 26.978516 28.705992 1551.874268
2.160000 3.880000 -4.000000 9.822095 35.950172 1388.888428
2.160000 3.880000 -3.960000 -7.841545 30.420452 986.893738
2.160000 3.880000 -3.920000 -16.265759 15.116484 493.082947
2.160000 3.880000 -3.880000 -10.980021 -0.019466 120.561234
2.160000 3.880000 -3.840000 3.172308 -4.721636 32.357388
2.160000 3.880000 -3.800000 15.016235 3.890126 240.620407
2.160000 3.920000 -4.200000 22.236853 -3.977334 510.296814
2.160000 3.920000 -4.160000 28.376240 -3.610885 818.249512
2.160000 3.920000 -4.120000 38.185814 3.345109 1469.346069
2.160000 3.920000 -4.080000 43.674789 20.280197 2318.773682
2.160000 3.920000 -4.040000 35.665291 41.315788 2979.007324
2.160000 3.920000 -4.000000 13.420425 53.465355 3038.652100
2.160000 3.920000 -3.960000 -11.693306 47.244522 2368.778320
2.160000 3.920000 -3.920000 -23.974407 26.452360 1274.499512
2.160000 3.920000 -3.880000 -16.914797 6.774905 332.009705
2.160000 3.920000 -3.840000 0.272498 2.933422 8.679220
2.160000 3.920000 -3.800000 10.217609 15.678780 350.223663
2.160000 3.960000 -4.200000 19.120403 6.762835 411.325745
2.160000 3.960000 -4.160000 27.638367 5.541064 794.582703
2.160000 3.960000 -4.120000 40.403061 15.521318 1873.318726
2.160000 3.960000 -4.080000 44.066185 39.030338 3465.195801
2.160000 3.960000 -4.040000 27.412861 64.036018 4852.076660
2.160000 3.960000 -4.000000 -5.498224 71.945175 5206.338867
2.160000 3.960000 -3.960000 -35.293556 54.505909 4216.529297
2.160000 3.960000 -3.920000 -42.940643 23.396677 2391.303223
2.160000 3.960000 -3.880000 -27.089184 1.407164 735.803955
2.160000 3.960000 -3.840000 -5.743612 2.291318 38.239220
2.160000 3.960000 -3.800000 0.387859 18.584568 345.536591
2.160000 4.000000 -4.200000 12.160583 14.310436 352.668396
2.160000 4.000000 -4.160000 22.177563 15.967590 746.808228
2.160000 4.000000 -4.120000 31.899593 31.520126 2011.102417
2.160000 4.000000 -4.080000 25.889877 57.411472 3966.362793
2.160000 4.000000 -4.040000 -2.188474 75.592392 5718.999512
2.160000 4.000000 -4.000000 -39.239677 68.377823 6215.279297
2.160000 4.000000 -3.960000 -61.112564 36.448032 5063.204590
2.160000 4.000000 -3.920000 -53.820282 0.979494 2897.582275
2.160000 4.000000 -3.880000 -26.932842 -14.251123 928.472534
2.160000 4.000000 -3.840000 -4.960402 -4.145259 41.788757
2.160000 4.000000 -3.800000 -4.482685 14.167015 220.798782
2.160000 4.040000 -4.200000 2.110969 18.333899 340.588013
2.160000 4.040000 -4.160000 8.965577 23.080608 613.096069
2.160000 4.040000 -4.120000 10.573422 38.996170 1632.498535
2.160000 4.040000 -4.080000 -4.823627 57.125366 3286.574707
2.160000 4.040000 -4.040000 -35.187912 59.586018 4788.682617
2.160000 4.040000 -4.000000 -61.876114 37.027805 5199.711914
2.160000 4.040000 -3.960000 -64.753479 0.633934 4193.415039
2.160000 4.040000 -3.920000 -41.420647 -25.426521 2362.177979
2.160000 4.040000 -3.880000 -10.630327 -25.331524 754.689941
2.160000 4.040000 -3.840000 4.699928 -5.700835 54.588844
2.160000 4.040000 -3.800000 -1.724375 11.904631 144.693695
2.160000 4.080000 -4.200000 -10.289709 16.374557 374.004242
2.160000 4.080000 -4.160000 -8.444341 19.269123 442.605988
2.160000 4.080000 -4.120000 -12.117599 27.937105 927.318054
2.160000 4.080000 -4.080000 -27.047264 33.050179 1823.868896
2.160000 4.080000 -4.040000 -46.202568 23.026150 2664.880859
2.160000 4.080000 -4.000000 -53.513573 -2.019579 2867.781006
2.160000 4.080000 -3.960000 -39.240223 -26.792427 2257.629150
2.160000 4.080000 -3.920000 -11.163229 -33.422401 1241.674561
2.160000 4.080000 -3.880000 11.084305 -18.185143 453.561218
2.160000 4.080000 -3.840000 13.728348 4.977472 213.242752
2.160000 4.080000 -3.800000 0.757101 18.098688 328.135712
2.160000 4.120000 -4.200000 -20.512877 5.841371 454.899719
2.160000 4.120000 -4.160000 -19.220001 2.704314 376.721771
2.160000 4.120000 -4.120000 -19.429693 3.037514 386.739471
2.160000 4.120000 -4.080000 -23.850815 1.183405 570.261841
2.160000 4.120000 -4.040000 -26.948715 -7.860586 788.022095
2.160000 4.120000 -4.000000 -20.355253 -20.290886 826.056396
2.160000 4.120000 -3.960000 -3.262449 -25.144489 642.888916
2.160000 4.120000 -3.920000 14.243898 -15.089478 430.580994
2.160000 4.120000 -3.880000 19.639462 5.204478 412.795013
2.160000 4.120000 -3.840000 9.723392 22.600231 605.314819
2.160000 4.120000 -3.800000 -6.818830 27.612062 808.922424
2.160000 4.160000 -4.200000 -21.374683 -10.691116 571.177063
2.160000 4.160000 -4.160000 -14.122105 -17.353474 500.576874
2.160000 4.160000 -4.120000 -5.495156 -17.760933 345.647491
2.160000 4.160000 -4.080000 0.517622 -14.779900 218.713364
2.160000 4.160000 -4.040000 4.973722 -11.668530 160.892502
2.160000 4.160000 -4.000000 10.437101 -7.443611 164.340424
2.160000 4.160000 -3.960000 15.627033 1.333204 245.981598
2.160000 4.160000 -3.920000 15.321189 14.773134 452.984314
2.160000 4.160000 -3.880000 5.988325 27.349754 783.869080
2.160000 4.160000 -3.840000 -9.566034 32.299946 1134.795532
2.160000 4.160000 -3.800000 -24.232477 27.930058 1367.301025
2.160000 4.200000 -4.200000 -9.720981 -24.122257 676.380737
2.160000 4.200000 -4.160000 4.423162 -26.519888 722.868835
2.160000 4.200000 -4.120000 17.548395 -19.031153 670.130981
2.160000 4.200000 -4.080000 23.917326 -5.565140 603.009216
2.160000 4.200000 -4.040000 22.760227 8.425426 589.015747
2.160000 4.200000 -4.000000 16.260439 19.887684 659.921875
2.160000 4.200000 -3.960000 6.209921 28.026999 824.075745
2.160000 4.200000 -3.920000 -6.532622 32.004803 1066.982544
2.160000 4.200000 -3.880000 -20.305916 30.400600 1336.526733
2.160000 4.200000 -3.840000 -32.007553 23.035156 1555.101807
2.160000 4.200000 -3.800000 -39.094055 12.160666 1676.226929
2.200000 3.800000 -4.200000 -6.749350 -3.371342 56.919674
2.200000 3.800000 -4.160000 1.120101 -3.121247 10.996808
2.200000 3.800000 -4.120000 9.074472 5.341966 110.882645
2.200000 3.800000 -4.080000 8.443082 20.724718 500.799561
2.200000 3.800000 -4.040000 -5.521065 33.460762 1150.104736
2.200000 3.800000 -4.000000 -27.207380 32.588230 1802.234375
2.200000 3.800000 -3.960000 -43.363522 15.712895 2127.290039
2.200000 3.800000 -3.920000 -43.558937 -7.805840 1958.312134
2.200000 3.800000 -3.880000 -28.790426 -24.127041 1411.002686
2.200000 3.800000 -3.840000 -9.954819 -26.092648 779.924683
2.200000 3.800000 -3.800000 2.070519 -17.725914 318.495087
2.200000 3.840000 -4.200000 -2.920049 -11.270295 135.546234
2.200000 3.840000 -4.160000 5.433056 -7.467151 85.276443
2.200000 3.840000 -4.120000 9.015365 4.150954 98.507225
2.200000 3.840000 -4.080000 1.486190 16.904072 287.956421
2.200000 3.840000 -4.040000 -15.123184 20.521183 649.829651
2.200000 3.840000 -4.000000 -30.495075 10.077553 1031.506592
2.200000 3.840000 -3.960000 -33.922180 -9.019979 1232.074341
2.200000 3.840000 -3.920000 -22.983583 -24.934246 1149.961670
2.200000 3.840000 -3.880000 -5.134907 -28.706671 850.440186
2.200000 3.840000 -3.840000 8.904907 -20.516464 500.222656
2.200000 3.840000 -3.800000 13.427439 -7.751540 240.382477
2.200000 3.880000 -4.200000 7.697618 -15.324049 294.079803
2.200000 3.880000 -4.160000 13.909252 -7.278032 246.437057
2.200000 3.880000 -4.120000 11.637609 3.950700 151.041962
2.200000 3.880000 -4.080000 1.032562 9.921983 99.511925
2.200000 3.880000 -4.040000 -10.674891 5.599131 145.303543
2.200000 3.880000 -4.000000 -14.970500 -6.250038 263.178864
2.200000 3.880000 -3.960000 -8.813942 -17.331175 378.055206
2.200000 3.880000 -3.920000 3.500537 -20.380877 427.633881
2.200000 3.880000 -3.880000 14.306404 -14.048061 402.021240
2.200000 3.880000 -3.840000 18.149921 -2.577078 336.060974
2.200000 3.880000 -3.800000 14.395418 8.196350 274.408203
2.200000 3.920000 -4.200000 20.755335 -9.768627 526.210022
2.200000 3.920000 -4.160000 21.663607 1.021349 470.355011
2.200000 3.920000 -4.120000 14.715443 8.313440 285.657532
2.200000 3.920000 -4.080000 6.110114 7.661572 96.033180
2.200000 3.920000 -4.040000 2.574622 1.541135 9.003775
2.200000 3.920000 -4.000000 5.755821 -3.717216 46.947170
2.200000 3.920000 -3.960000 11.970352 -3.651281 156.621185
2.200000 3.920000 -3.920000 16.320805 1.610508 268.962402
2.200000 3.920000 -3.880000 16.284367 9.083951 347.698761
2.200000 3.920000 -3.840000 11.869061 15.896059 393.559326
2.200000 3.920000 -3.800000 3.956226 20.120817 420.499023
2.200000 3.960000 -4.200000 27.209330 5.918601 775.377441
2.200000 3.960000 -4.160000 21.085217 15.449020 683.258606
2.200000 3.960000 -4.120000 12.390852 16.704693 432.579956
2.200000 3.960000 -4.080000 8.597198 12.484171 229.766327
2.200000 3.960000 -4.040000 10.802667 9.826289 213.253571
2.200000 3.960000 -4.000000 14.014894 12.544103 353.771729
2.200000 3.960000 -3.960000 13.280955 18.377419 514.113281
2.200000 3.960000 -3.920000 8.301397 22.820517 589.689209
2.200000 3.960000 -3.880000 1.965801 24.096088 584.485840
2.200000 3.960000 -3.840000 -4.075903 23.403231 564.324158
2.200000 3.960000 -3.800000 -10.621534 21.249046 564.338989
2.200000 4.000000 -4.200000 19.687504 23.805723 954.310303
2.200000 4.000000 -4.160000 8.224921 27.136423 804.034790
2.200000 4.000000 -4.120000 1.398674 22.114101 490.989777
2.200000 4.000000 -4.080000 2.607851 17.288202 305.682800
2.200000 4.000000 -4.040000 6.437319 18.952257 400.627136
2.200000 4.000000 -4.000000 5.601219 25.265938 669.741272
2.200000 4.000000 -3.960000 -1.339785 29.597759 877.822388
2.200000 4.000000 -3.920000 -9.737610 28.192741 889.651733
2.200000 4.000000 -3.880000 -15.118153 23.148104 764.393250
2.200000 4.000000 -3.840000 -17.697508 18.151180 642.667114
2.200000 4.000000 -3.800000 -20.069130 13.346245 580.892212
2.200000 4.040000 -4.200000 -0.139386 31.581686 997.422302
2.200000 4.040000 -4.160000 -11.596642 25.910467 805.834412
2.200000 4.040000 -4.120000 -13.047199 16.412464 439.598389
2.200000 4.040000 -4.080000 -7.389719 12.828232 219.171478
2.200000 4.040000 -4.040000 -3.574341 17.128418 306.158600
2.200000 4.040000 -4.000000 -6.925522 23.059830 579.718567
2.200000 4.040000 -3.960000 -14.722580 23.892437 787.602905
2.200000 4.040000 -3.920000 -20.746349 19.036737 792.808350
2.200000 4.040000 -3.880000 -22.317930 12.805811 662.078796
2.200000 4.040000 -3.840000 -21.616869 8.253408 535.407776
2.200000 4.040000 -3.800000 -20.908484 4.281464 455.495605
2.200000 4.080000 -4.200000 -20.526363 22.074053 908.595398
2.200000 4.080000 -4.160000 -25.546570 9.352486 740.096252
2.200000 4.080000 -4.120000 -19.449047 -0.622789 378.653320
2.200000 4.080000 -4.080000 -9.848549 -1.061240 98.120140
2.200000 4.080000 -4.040000 -5.478214 5.538398 60.684681
2.200000 4.080000 -4.000000 -8.447855 11.652025 207.135956
2.200000 4.080000 -3.960000 -14.333382 12.574126 363.554504
2.200000 4.080000 -3.920000 -18.197628 9.448662 420.430847
2.200000 4.080000 -3.880000 -19.066025 5.768776 396.792084
2.200000 4.080000 -3.840000 -18.609934 2.950315 355.033997
2.200000 4.080000 -3.800000 -17.418705 0.333681 303.522614
2.200000 4.120000 -4.200000 -27.579241 0.249102 760.676575
2.200000 4.120000 -4.160000 -22.824654 -13.089531 692.300598
2.200000 4.120000 -4.120000 -10.123067 -18.333797 438.604614
2.200000 4.120000 -4.080000 1.565676 -13.155621 175.521698
2.200000 4.120000 -4.040000 5.789351 -2.566769 40.104893
2.200000 4.120000 -4.000000 2.456276 6.601805 49.617115
2.200000 4.120000 -3.960000 -4.381880 10.836274 136.625702
2.200000 4.120000 -3.920000 -10.873800 10.555606 229.660339
2.200000 4.120000 -3.880000 -15.249326 7.637243 290.869415
2.200000 4.120000 -3.840000 -16.998541 3.777269 303.218140
2.200000 4.120000 -3.800000 -16.203053 0.761182 263.118317
2.200000 4.160000 -4.200000 -16.301744 -19.373421 641.076294
2.200000 4.160000 -4.160000 -4.298112 -26.186287 704.195374
2.200000 4.160000 -4.120000 10.192904 -23.093086 637.185974
2.200000 4.160000 -4.080000 19.743958 -11.282037 517.108215
2.200000 4.160000 -4.040000 20.338585 3.708643 427.412079
2.200000 4.160000 -4.000000 12.599310 15.838665 409.605927
2.200000 4.160000 -3.960000 0.296208 21.290392 453.368530
2.200000 4.160000 -3.920000 -11.738666 19.317722 510.970673
2.200000 4.160000 -3.880000 -19.394312 12.182689 524.557251
2.200000 4.160000 -3.840000 -21.100267 4.283164 463.566772
2.200000 4.160000 -3.800000 -19.051426 -0.201115 362.997253
2.200000 4.200000 -4.200000 4.914599 -23.704832 586.072327
2.200000 4.200000 -4.160000 17.029224 -21.061535 733.582764
2.200000 4.200000 -4.120000 26.818876 -10.682883 833.376099
2.200000 4.200000 -4.080000 29.695263 4.843196 905.265198
2.200000 4.200000 -4.040000 23.408321 20.642590 974.066040
2.200000 4.200000 -4.000000 8.992899 31.081030 1046.902588
2.200000 4.200000 -3.960000 -8.910557 31.923531 1098.509888
2.200000 4.200000 -3.920000 -23.438620 22.983377 1077.604492
2.200000 4.200000 -3.880000 -29.272947 9.221976 941.950317
2.200000 4.200000 -3.840000 -26.608006 -1.968125 711.859497
2.200000 4.200000 -3.800000 -21.305344 -6.351051 494.253510
