#kx 	ky 	kz 	real 	imag 	intensity
4.800000 0.800000 -7.200000 -30.544804 -3.791729 947.362244
4.800000 0.800000 -7.160000 -14.331815 -27.142059 942.092285
4.800000 0.800000 -7.120000 13.344546 -24.574593 781.987488
4.800000 0.800000 -7.080000 23.745382 0.333892 563.954712
4.800000 0.800000 -7.040000 6.493957 20.655735 468.830872
4.800000 0.800000 -7.000000 -19.754063 14.772178 608.440247
4.800000 0.800000 -6.960000 -27.650805 -11.131319 888.473267
4.800000 0.800000 -6.920000 -10.115634 -30.717915 1045.916260
4.800000 0.800000 -6.880000 13.460865 -26.270451 871.331482
4.800000 0.800000 -6.840000 19.626293 -6.776033 431.106018
4.800000 0.800000 -6.800000 6.410331 3.850971 55.922321
4.800000 0.840000 -7.200000 -18.629787 -26.416000 1044.874023
4.800000 0.840000 -7.160000 7.462483 -36.724663 1404.389404
4.800000 0.840000 -7.120000 30.298706 -22.012596 1402.565918
4.800000 0.840000 -7.080000 30.838722 2.677540 958.195984
4.800000 0.840000 -7.040000 12.594053 14.083233 356.947632
4.800000 0.840000 -7.000000 -3.444358 4.333406 30.642014
4.800000 0.840000 -6.960000 -1.414071 -12.692272 163.093384
4.800000 0.840000 -6.920000 13.927640 -17.934193 515.614380
4.800000 0.840000 -6.880000 24.740742 -7.632385 670.357605
4.800000 0.840000 -6.840000 20.932945 4.553037 458.918335
4.800000 0.840000 -6.800000 10.596029 4.764662 134.977829
4.800000 0.880000 -7.200000 2.825886 -29.918270 903.088562
4.800000 0.880000 -7.160000 27.009739 -26.522406 1432.963989
4.800000 0.880000 -7.120000 40.123466 -6.950413 1658.200806
4.800000 0.880000 -7.080000 34.933811 13.085484 1391.601074
4.800000 0.880000 -7.040000 20.160572 20.139717 812.056885
4.800000 0.880000 -7.000000 10.097608 14.647326 316.505829
4.800000 0.880000 -6.960000 10.428230 7.526051 165.389420
4.800000 0.880000 -6.920000 15.062178 7.092282 277.169678
4.800000 0.880000 -6.880000 15.667656 11.243353 371.888428
4.800000 0.880000 -6.840000 11.837448 12.539142 297.355255
4.800000 0.880000 -6.800000 10.325591 8.837672 184.722290
4.800000 0.920000 -7.200000 14.775502 -17.504326 524.716919
4.800000 0.920000 -7.160000 30.924995 -7.609234 1014.255798
4.800000 0.920000 -7.120000 36.254906 10.538748 1425.483398
4.800000 0.920000 -7.080000 29.113619 26.475863 1548.574097
4.800000 0.920000 -7.040000 15.831804 33.288376 1358.761963
4.800000 0.920000 -7.000000 4.149829 31.392212 1002.692017
4.800000 0.920000 -6.960000 -2.408636 25.442902 653.142761
4.800000 0.920000 -6.920000 -4.513594 19.183525 388.380157
4.800000 0.920000 -6.880000 -3.568182 13.870689 205.127945
4.800000 0.920000 -6.840000 0.082156 10.345795 107.042221
4.800000 0.920000 -6.800000 5.470980 10.533262 140.881241
4.800000 0.960000 -7.200000 11.257757 -5.127801 153.031433
4.800000 0.960000 -7.160000 21.002855 4.902970 465.159058
4.800000 0.960000 -7.120000 22.086065 20.232178 897.135254
4.800000 0.960000 -7.080000 12.931475 33.392242 1282.264893
4.800000 0.960000 -7.040000 -2.333436 38.112190 1457.984009
4.800000 0.960000 -7.000000 -16.674522 32.782478 1352.730591
4.800000 0.960000 -6.960000 -24.127964 20.778290 1013.895996
4.800000 0.960000 -6.920000 -22.609547 8.236874 579.037659
4.800000 0.960000 -6.880000 -14.484086 0.824569 210.468658
4.800000 0.960000 -6.840000 -5.034241 1.042593 26.430584
4.800000 0.960000 -6.800000 0.422488 7.208733 52.144329
4.800000 1.000000 -7.200000 1.952004 -3.776941 18.075603
4.800000 1.000000 -7.160000 8.666595 5.635446 106.868126
4.800000 1.000000 -7.120000 6.025354 18.620888 383.042358
4.800000 1.000000 -7.080000 -6.089913 26.646959 747.147461
4.800000 1.000000 -7.040000 -21.074324 24.044346 1022.257690
4.800000 1.000000 -7.000000 -30.393732 12.088596 1069.913086
4.800000 1.000000 -6.960000 -29.495941 -2.274827 875.185425
4.800000 1.000000 -6.920000 -20.323784 -11.494104 545.170654
4.800000 1.000000 -6.880000 -9.118402 -12.203339 232.066742
4.800000 1.000000 -6.840000 -1.832550 -6.372425 43.966038
4.800000 1.000000 -6.800000 -0.767407 1.145230 1.900465
4.800000 1.040000 -7.200000 -1.220322 -10.034855 102.187492
4.800000 1.040000 -7.160000 1.896445 0.185260 3.630824
4.800000 1.040000 -7.120000 -5.339346 8.398491 99.043266
4.800000 1.040000 -7.080000 -16.740263 6.980255 328.960388
4.800000 1.040000 -7.040000 -22.882336 -3.187145 533.759155
4.800000 1.040000 -7.000000 -19.465641 -14.361696 585.169495
4.800000 1.040000 -6.960000 -10.009143 -19.343708 474.362000
4.800000 1.040000 -6.920000 -1.334230 -17.050186 292.489044
4.800000 1.040000 -6.880000 2.666895 -11.507205 139.528107
4.800000 1.040000 -6.840000 2.881195 -6.764414 54.058575
4.800000 1.040000 -6.800000 1.832016 -3.608888 16.380352
4.800000 1.080000 -7.200000 2.807213 -13.372879 186.714340
4.800000 1.080000 -7.160000 -0.664051 -4.735738 22.868176
4.800000 1.080000 -7.120000 -9.425325 -6.107584 126.139343
4.800000 1.080000 -7.080000 -11.403281 -16.480202 401.631866
4.800000 1.080000 -7.040000 -2.054361 -24.830715 620.784790
4.800000 1.080000 -7.000000 11.119761 -22.166542 615.004639
4.800000 1.080000 -6.960000 16.987844 -10.764713 404.465912
4.800000 1.080000 -6.920000 12.425191 -0.950998 155.289780
4.800000 1.080000 -6.880000 4.562823 0.261585 20.887783
4.800000 1.080000 -6.840000 1.967543 -4.078829 20.508070
4.800000 1.080000 -6.800000 5.194669 -5.707309 59.557953
4.800000 1.120000 -7.200000 5.374411 -9.932867 127.546143
4.800000 1.120000 -7.160000 -3.648459 -9.405180 101.768661
4.800000 1.120000 -7.120000 -5.491700 -21.425886 489.227386
4.800000 1.120000 -7.080000 8.663752 -31.538334 1069.727051
4.800000 1.120000 -7.040000 29.261728 -24.650141 1463.878174
4.800000 1.120000 -7.000000 37.573936 -2.177583 1416.542480
4.800000 1.120000 -6.960000 25.388941 18.342575 981.048401
4.800000 1.120000 -6.920000 3.792914 20.958969 453.664581
4.800000 1.120000 -6.880000 -8.379091 7.234829 122.551918
4.800000 1.120000 -6.840000 -3.697347 -6.544142 56.496162
4.800000 1.120000 -6.800000 7.653872 -7.184687 110.201477
4.800000 1.160000 -7.200000 0.394702 -6.698123 45.020641
4.800000 1.160000 -7.160000 -6.182370 -18.375010 375.862671
4.800000 1.160000 -7.120000 6.829118 -33.722351 1183.833862
4.800000 1.160000 -7.080000 33.886288 -30.473274 2076.900879
4.800000 1.160000 -7.040000 50.814384 -2.567968 2588.696045
4.800000 1.160000 -7.000000 39.132118 30.804487 2480.239014
4.800000 1.160000 -6.960000 6.020191 42.881180 1875.038208
4.800000 1.160000 -6.920000 -21.791292 25.683529 1134.504150
4.800000 1.160000 -6.880000 -24.049461 -2.673941 585.526550
4.800000 1.160000 -6.840000 -5.626939 -17.002546 320.749023
4.800000 1.160000 -6.800000 11.083017 -9.759789 218.086761
4.800000 1.200000 -7.200000 -7.333797 -12.195339 202.510895
4.800000 1.200000 -7.160000 -1.702193 -31.550266 998.316772
4.800000 1.200000 -7.120000 25.655949 -37.820011 2088.581055
4.800000 1.200000 -7.080000 52.347122 -14.570989 2952.534912
4.800000 1.200000 -7.040000 50.694828 25.989944 3245.442871
4.800000 1.200000 -7.000000 16.454542 51.966949 2971.315674
4.800000 1.200000 -6.960000 -24.869263 42.046417 2386.381348
4.800000 1.200000 -6.920000 -41.595123 6.177566 1768.316650
4.800000 1.200000 -6.880000 -25.358814 -24.674139 1251.882568
4.800000 1.200000 -6.840000 3.406294 -28.586355 828.782532
4.800000 1.200000 -6.800000 18.144806 -11.352495 458.113129
4.840000 0.800000 -7.200000 -2.371551 -19.909081 401.995728
4.840000 0.800000 -7.160000 19.904652 -18.415026 735.308350
4.840000 0.800000 -7.120000 30.187679 3.520241 923.688049
4.840000 0.800000 -7.080000 15.685462 24.454977 844.079590
4.840000 0.800000 -7.040000 -10.198448 22.573755 613.582764
4.840000 0.800000 -7.000000 -21.560577 -0.471096 465.080414
4.840000 0.800000 -6.960000 -7.735113 -20.953686 498.888916
4.840000 0.800000 -6.920000 15.295486 -18.614307 580.444336
4.840000 0.800000 -6.880000 22.549303 1.571622 510.941071
4.840000 0.800000 -6.840000 7.418329 15.323252 289.833649
4.840000 0.800000 -6.800000 -11.328580 6.082123 165.328934
4.840000 0.840000 -7.200000 13.060733 -21.527882 634.032410
4.840000 0.840000 -7.160000 33.824097 -11.506918 1276.478638
4.840000 0.840000 -7.120000 39.054913 11.867460 1666.122803
4.840000 0.840000 -7.080000 24.958435 29.622108 1500.392822
4.840000 0.840000 -7.040000 5.549936 29.463818 898.918396
4.840000 0.840000 -7.000000 -2.806740 17.255926 305.644775
4.840000 0.840000 -6.960000 1.939045 8.654579 78.661636
4.840000 0.840000 -6.920000 7.703384 11.151625 183.700867
4.840000 0.840000 -6.880000 4.020172 16.869406 300.738617
4.840000 0.840000 -6.840000 -5.257659 13.606795 212.787857
4.840000 0.840000 -6.800000 -6.824027 0.726731 47.095482
4.840000 0.880000 -7.200000 21.419147 -10.283210 564.524292
4.840000 0.880000 -7.160000 37.850594 4.623087 1454.040405
4.840000 0.880000 -7.120000 39.643318 29.086460 2417.614746
4.840000 0.880000 -7.080000 24.573076 48.924660 2997.458496
4.840000 0.880000 -7.040000 1.778614 54.374763 2959.778564
4.840000 0.880000 -7.000000 -17.108543 46.212425 2428.290527
4.840000 0.880000 -6.960000 -26.514812 31.890106 1720.014160
4.840000 0.880000 -6.920000 -27.593576 17.824902 1079.132568
4.840000 0.880000 -6.880000 -23.099304 6.344466 573.830139
4.840000 0.880000 -6.840000 -14.115841 -1.432756 201.309753
4.840000 0.880000 -6.800000 -2.093337 -2.864604 12.588017
4.840000 0.920000 -7.200000 16.227379 0.634168 263.729980
4.840000 0.920000 -7.160000 29.107328 18.230762 1179.597290
4.840000 0.920000 -7.120000 26.207916 45.330254 2741.686523
4.840000 0.920000 -7.080000 3.166245 66.936661 4490.541504
4.840000 0.920000 -7.040000 -31.134909 68.951584 5723.703125
4.840000 0.920000 -7.000000 -59.766975 48.240501 5899.237305
4.840000 0.920000 -6.960000 -68.755455 14.915119 4949.773438
4.840000 0.920000 -6.920000 -55.689491 -14.414677 3309.102295
4.840000 0.920000 -6.880000 -30.174133 -27.108162 1645.330811
4.840000 0.920000 -6.840000 -6.699325 -21.267384 497.182556
4.840000 0.920000 -6.800000 4.368573 -4.962085 43.706711
4.840000 0.960000 -7.200000 5.866493 0.263493 34.485168
4.840000 0.960000 -7.160000 15.203315 21.408466 689.463196
4.840000 0.960000 -7.120000 3.109204 49.605766 2470.399170
4.840000 0.960000 -7.080000 -31.772156 63.887016 5091.020508
4.840000 0.960000 -7.040000 -72.131798 48.525261 7557.697266
4.840000 0.960000 -7.000000 -93.068794 7.138466 8712.758789
4.840000 0.960000 -6.960000 -80.805969 -38.072472 7979.117676
4.840000 0.960000 -6.920000 -43.350903 -62.160492 5743.227539
4.840000 0.960000 -6.880000 -4.102183 -55.397884 3085.753418
4.840000 0.960000 -6.840000 15.941104 -28.608244 1072.550415
4.840000 0.960000 -6.800000 12.220372 -2.515855 155.667023
4.840000 1.000000 -7.200000 3.029688 -8.721914 85.250801
4.840000 1.000000 -7.160000 5.294051 16.114792 287.713501
4.840000 1.000000 -7.120000 -18.468739 38.072712 1790.625732
4.840000 1.000000 -7.080000 -58.145905 34.051552 4540.454590
4.840000 1.000000 -7.040000 -86.744728 -2.246335 7529.693848
4.840000 1.000000 -7.000000 -81.329010 -52.187134 9337.904297
4.840000 1.000000 -6.960000 -42.226025 -85.284904 9056.552734
4.840000 1.000000 -6.920000 6.721590 -82.724960 6888.598633
4.840000 1.000000 -6.880000 37.037041 -50.933517 3965.965576
4.840000 1.000000 -6.840000 36.833523 -14.147144 1556.850098
4.840000 1.000000 -6.800000 16.417578 5.978088 305.274414
4.840000 1.040000 -7.200000 10.413319 -14.303865 313.037781
4.840000 1.040000 -7.160000 1.543353 9.384932 90.458878
4.840000 1.040000 -7.120000 -28.588627 16.062769 1075.322144
4.840000 1.040000 -7.080000 -57.274311 -7.798338 3341.160645
4.840000 1.040000 -7.040000 -58.595345 -50.887260 6022.927734
4.840000 1.040000 -7.000000 -25.869776 -84.489059 7807.646484
4.840000 1.040000 -6.960000 21.956575 -85.551819 7801.205078
4.840000 1.040000 -6.920000 55.684547 -54.773739 6100.931152
4.840000 1.040000 -6.880000 58.742012 -14.161767 3651.179688
4.840000 1.040000 -6.840000 37.421593 12.120954 1547.293091
4.840000 1.040000 -6.800000 11.540100 15.454843 372.026062
4.840000 1.080000 -7.200000 18.456005 -9.404215 429.063354
4.840000 1.080000 -7.160000 -0.149030 4.518192 20.436266
4.840000 1.080000 -7.120000 -24.247513 -6.650207 632.167114
4.840000 1.080000 -7.080000 -29.117258 -37.815384 2277.817871
4.840000 1.080000 -7.040000 -4.738230 -64.786713 4219.769043
4.840000 1.080000 -7.000000 34.690639 -65.109116 5442.637207
4.840000 1.080000 -6.960000 63.001526 -37.031815 5340.547852
4.840000 1.080000 -6.920000 63.890408 0.466003 4082.201172
4.840000 1.080000 -6.880000 42.122017 24.971336 2397.832031
4.840000 1.080000 -6.840000 15.734921 27.872513 1024.464722
4.840000 1.080000 -6.800000 -0.648309 16.653971 277.775055
4.840000 1.120000 -7.200000 16.958069 0.172357 287.605804
4.840000 1.120000 -7.160000 -2.466518 -1.320136 7.826468
4.840000 1.120000 -7.120000 -9.111468 -22.059742 569.651062
4.840000 1.120000 -7.080000 8.698280 -41.519318 1799.513794
4.840000 1.120000 -7.040000 39.410595 -38.542953 3038.754150
4.840000 1.120000 -7.000000 58.902657 -11.356616 3598.495605
4.840000 1.120000 -6.960000 52.622929 21.419525 3227.968750
4.840000 1.120000 -6.920000 27.254740 38.547985 2228.768066
4.840000 1.120000 -6.880000 1.935696 34.064476 1164.135498
4.840000 1.120000 -6.840000 -9.973953 18.524994 442.655121
4.840000 1.120000 -6.800000 -9.720884 5.305704 122.646080
4.840000 1.160000 -7.200000 6.986732 2.663657 55.909500
4.840000 1.160000 -7.160000 -2.062281 -11.048237 126.316536
4.840000 1.160000 -7.120000 10.404524 -26.740204 823.292603
4.840000 1.160000 -7.080000 35.784050 -22.775579 1799.225342
4.840000 1.160000 -7.040000 50.132435 4.261071 2531.417725
4.840000 1.160000 -7.000000 37.769863 35.190052 2664.902344
4.840000 1.160000 -6.960000 6.541244 46.551582 2209.837646
4.840000 1.160000 -6.920000 -20.475721 32.425442 1470.664429
4.840000 1.160000 -6.880000 -27.120541 7.699778 794.810303
4.840000 1.160000 -6.840000 -16.918409 -8.663208 361.283752
4.840000 1.160000 -6.800000 -4.973480 -11.339720 153.324753
4.840000 1.200000 -7.200000 -0.206445 -6.119743 37.493870
4.840000 1.200000 -7.160000 6.308523 -21.243120 491.067596
4.840000 1.200000 -7.120000 28.294765 -21.026932 1242.725586
4.840000 1.200000 -7.080000 43.354012 2.867086 1887.790527
4.840000 1.200000 -7.040000 31.901836 34.093697 2180.107422
4.840000 1.200000 -7.000000 -2.072845 46.219978 2140.583008
4.840000 1.200000 -6.960000 -33.648663 28.230646 1929.201904
4.840000 1.200000 -6.920000 -40.374714 -5.257819 1657.762207
4.840000 1.200000 -6.880000 -22.215023 -28.965544 1332.510010
4.840000 1.200000 -6.840000 1.622871 -30.602795 939.164795
4.840000 1.200000 -6.800000 13.583929 -18.912895 542.220703
4.880000 0.800000 -7.200000 27.103025 -3.877108 749.605957
4.880000 0.800000 -7.160000 32.992996 18.179834 1419.044189
4.880000 0.800000 -7.120000 15.672136 38.969650 1764.249512
4.880000 0.800000 -7.080000 -13.507013 37.092934 1558.325195
4.880000 0.800000 -7.040000 -28.830372 12.195019 979.908813
4.880000 0.800000 -7.000000 -17.016506 -12.587437 448.005066
4.880000 0.800000 -6.960000 7.818138 -14.046667 258.432129
4.880000 0.800000 -6.920000 18.358814 6.369720 377.619385
4.880000 0.800000 -6.880000 3.103560 23.717508 572.152283
4.880000 0.800000 -6.840000 -20.991543 16.079628 699.199341
4.880000 0.800000 -6.800000 -26.279137 -11.665541 826.677856
4.880000 0.840000 -7.200000 26.868069 8.705558 797.679871
4.880000 0.840000 -7.160000 28.936447 27.893093 1615.342651
4.880000 0.840000 -7.120000 15.091303 44.318787 2191.902344
4.880000 0.840000 -7.080000 -5.755892 46.140358 2162.062988
4.880000 0.840000 -7.040000 -19.442741 35.086510 1609.083252
4.880000 0.840000 -7.000000 -21.215420 23.296772 992.833618
4.880000 0.840000 -6.960000 -19.045336 19.035919 725.091064
4.880000 0.840000 -6.920000 -22.274139 17.980778 819.445679
4.880000 0.840000 -6.880000 -29.192648 10.042068 953.053833
4.880000 0.840000 -6.840000 -28.452869 -6.390951 850.410034
4.880000 0.840000 -6.800000 -13.061481 -19.882545 565.917908
4.880000 0.880000 -7.200000 15.613123 16.568762 518.293457
4.880000 0.880000 -7.160000 19.293352 34.964752 1594.767334
4.880000 0.880000 -7.120000 7.610476 56.337463 3231.829102
4.880000 0.880000 -7.080000 -18.533810 67.664429 4921.977051
4.880000 0.880000 -7.040000 -48.656425 60.773361 6060.849121
4.880000 0.880000 -7.000000 -69.894768 37.339027 6279.481445
4.880000 0.880000 -6.960000 -74.430222 6.699200 5584.737305
4.880000 0.880000 -6.920000 -62.222443 -20.005032 4271.833496
4.880000 0.880000 -6.880000 -39.338184 -34.630043 2746.732666
4.880000 0.880000 -6.840000 -14.771276 -34.202278 1387.986328
4.880000 0.880000 -6.800000 2.675795 -21.390842 464.728027
4.880000 0.920000 -7.200000 2.656702 11.538298 140.190369
4.880000 0.920000 -7.160000 7.302347 35.702118 1327.965454
4.880000 0.920000 -7.120000 -12.913738 64.493446 4326.169434
4.880000 0.920000 -7.080000 -56.930237 73.816055 8689.861328
4.880000 0.920000 -7.040000 -102.822983 47.826607 12859.949219
4.880000 0.920000 -7.000000 -122.248672 -6.190960 14983.066406
4.880000 0.920000 -6.960000 -101.758987 -60.876385 14060.826172
4.880000 0.920000 -6.920000 -53.169693 -88.050766 10579.954102
4.880000 0.920000 -6.880000 -4.420576 -78.364594 6160.550781
4.880000 0.920000 -6.840000 20.908890 -45.623238 2518.661377
4.880000 0.920000 -6.800000 18.434118 -13.792027 530.036743
4.880000 0.960000 -7.200000 0.336757 -1.967357 3.983897
4.880000 0.960000 -7.160000 -2.148773 30.608742 941.512329
4.880000 0.960000 -7.120000 -39.866924 56.605225 4793.522949
4.880000 0.960000 -7.080000 -97.371223 44.146523 11430.070312
4.880000 0.960000 -7.040000 -135.566406 -14.119495 18577.609375
4.880000 0.960000 -7.000000 -122.187408 -89.531479 22945.648438
4.880000 0.960000 -6.960000 -59.680325 -137.037140 22340.917969
4.880000 0.960000 -6.920000 15.130255 -130.053070 17142.724609
4.880000 0.960000 -6.880000 59.810165 -80.104858 9994.044922
4.880000 0.960000 -6.840000 58.019924 -24.702827 3976.541260
4.880000 0.960000 -6.800000 27.136696 3.969949 752.160767
4.880000 1.000000 -7.200000 11.004176 -10.576620 232.956787
4.880000 1.000000 -7.160000 -6.961376 23.544344 602.796875
4.880000 1.000000 -7.120000 -58.162487 30.913921 4338.545410
4.880000 1.000000 -7.080000 -107.471832 -12.190471 11698.801758
4.880000 1.000000 -7.040000 -110.647354 -89.485817 20250.548828
4.880000 1.000000 -7.000000 -53.105652 -152.335754 26026.392578
4.880000 1.000000 -6.960000 34.359913 -157.799133 26081.169922
4.880000 1.000000 -6.920000 98.786133 -103.630798 20498.042969
4.880000 1.000000 -6.880000 106.839668 -28.709309 12238.939453
4.880000 1.000000 -6.840000 67.959007 20.341099 5032.187012
4.880000 1.000000 -6.800000 20.322544 24.970325 1036.522949
4.880000 1.040000 -7.200000 24.061029 -5.434524 608.467224
4.880000 1.040000 -7.160000 -8.952497 17.442333 384.382172
4.880000 1.040000 -7.120000 -56.758659 -1.309433 3223.260010
4.880000 1.040000 -7.080000 -75.592896 -62.233418 9587.284180
4.880000 1.040000 -7.040000 -37.169807 -126.511108 17386.654297
4.880000 1.040000 -7.000000 43.118835 -145.300461 22971.458984
4.880000 1.040000 -6.960000 115.500443 -100.792831 23499.546875
4.880000 1.040000 -6.920000 135.590866 -21.403898 18843.009766
4.880000 1.040000 -6.880000 98.777199 42.424351 11556.759766
4.880000 1.040000 -6.840000 39.304482 58.794144 5001.593750
4.880000 1.040000 -6.800000 -1.935062 34.724106 1209.508057
4.880000 1.080000 -7.200000 26.545044 8.690792 780.169189
4.880000 1.080000 -7.160000 -10.482208 11.624310 245.001251
4.880000 1.080000 -7.120000 -37.296547 -24.742516 2003.224609
4.880000 1.080000 -7.080000 -21.170414 -77.252197 6416.088379
4.880000 1.080000 -7.040000 37.656517 -102.639984 11952.980469
4.880000 1.080000 -7.000000 102.206711 -74.365326 15976.414062
4.880000 1.080000 -6.960000 128.155731 -6.441204 16465.378906
4.880000 1.080000 -6.920000 99.916138 57.931053 13339.241211
4.880000 1.080000 -6.880000 40.953339 81.815575 8370.963867
4.880000 1.080000 -6.840000 -8.850159 61.462086 3855.913086
4.880000 1.080000 -6.800000 -25.594278 22.523689 1162.383667
4.880000 1.120000 -7.200000 16.167099 18.367483 598.739502
4.880000 1.120000 -7.160000 -10.710396 3.912885 130.023254
4.880000 1.120000 -7.120000 -11.346167 -31.380623 1113.479004
4.880000 1.120000 -7.080000 23.131706 -55.523350 3617.917969
4.880000 1.120000 -7.040000 70.012817 -41.716324 6642.045898
4.880000 1.120000 -7.000000 93.059250 6.839809 8706.807617
4.880000 1.120000 -6.960000 73.328354 58.749626 8828.566406
4.880000 1.120000 -6.920000 24.206585 80.810188 7116.245117
4.880000 1.120000 -6.880000 -21.861980 63.997337 4573.605469
4.880000 1.120000 -6.840000 -40.513287 26.387732 2337.638672
4.880000 1.120000 -6.800000 -31.076561 -6.069676 1002.593628
4.880000 1.160000 -7.200000 3.196196 15.200772 241.279144
4.880000 1.160000 -7.160000 -6.264970 -4.949291 63.745335
4.880000 1.160000 -7.120000 9.499933 -23.991381 665.835083
4.880000 1.160000 -7.080000 38.494274 -19.329760 1855.448730
4.880000 1.160000 -7.040000 54.176811 11.229565 3061.229980
4.880000 1.160000 -7.000000 39.573570 46.357479 3715.083496
4.880000 1.160000 -6.960000 2.453808 59.957870 3600.967529
4.880000 1.160000 -6.920000 -32.339970 43.309540 2921.589844
4.880000 1.160000 -6.880000 -44.523731 10.043457 2083.233643
4.880000 1.160000 -6.840000 -32.776649 -18.304934 1409.379272
4.880000 1.160000 -6.800000 -10.504817 -29.967258 1008.387756
4.880000 1.200000 -7.200000 -0.510870 3.849114 15.076667
4.880000 1.200000 -7.160000 4.051596 -10.146302 119.362885
4.880000 1.200000 -7.120000 20.651974 -10.522509 537.227234
4.880000 1.200000 -7.080000 30.485764 7.561966 986.565125
4.880000 1.200000 -7.040000 19.222868 29.744713 1254.266602
4.880000 1.200000 -7.000000 -8.370399 35.596294 1337.159790
4.880000 1.200000 -6.960000 -32.419647 17.784002 1367.304321
4.880000 1.200000 -6.920000 -36.000420 -11.796793 1435.194580
4.880000 1.200000 -6.880000 -18.957306 -33.850994 1505.269287
4.880000 1.200000 -6.840000 5.061385 -38.249371 1488.632080
4.880000 1.200000 -6.800000 22.829691 -29.117241 1369.008545
4.920000 0.800000 -7.200000 29.962564 30.991249 1858.212769
4.920000 0.800000 -7.160000 9.185436 52.747604 2866.682129
4.920000 0.800000 -7.120000 -25.690620 50.862366 3246.988281
4.920000 0.800000 -7.080000 -47.637337 21.546749 2733.578369
4.920000 0.800000 -7.040000 -38.394081 -12.379698 1627.362427
4.920000 0.800000 -7.000000 -8.690105 -22.515648 582.472351
4.920000 0.800000 -6.960000 11.030056 -3.846680 136.459076
4.920000 0.800000 -6.920000 1.412267 19.409599 378.727051
4.920000 0.800000 -6.880000 -25.542660 18.552940 996.639099
4.920000 0.800000 -6.840000 -38.655113 -9.575830 1585.914307
4.920000 0.800000 -6.800000 -19.943665 -38.934139 1913.616943
4.920000 0.840000 -7.200000 9.188946 37.992222 1527.845703
4.920000 0.840000 -7.160000 -7.113596 49.144543 2465.789307
4.920000 0.840000 -7.120000 -29.080505 46.911118 3046.328613
4.920000 0.840000 -7.080000 -43.968124 31.751009 2941.322510
4.920000 0.840000 -7.040000 -45.885765 14.638590 2319.791748
4.920000 0.840000 -7.000000 -41.251961 5.049652 1727.223267
4.920000 0.840000 -6.960000 -40.108192 0.909599 1609.494507
4.920000 0.840000 -6.920000 -43.295300 -7.556664 1931.586060
4.920000 0.840000 -6.880000 -40.745590 -24.239107 2247.737305
4.920000 0.840000 -6.840000 -23.671513 -39.716736 2137.759521
4.920000 0.840000 -6.800000 2.889537 -39.619839 1578.080933
4.920000 0.880000 -7.200000 -9.867418 27.048277 828.975220
4.920000 0.880000 -7.160000 -17.013947 40.291885 1912.910400
4.920000 0.880000 -7.120000 -38.029228 50.083447 3954.573730
4.920000 0.880000 -7.080000 -67.812469 44.306915 6561.633789
4.920000 0.880000 -7.040000 -92.601593 18.387684 8913.161133
4.920000 0.880000 -7.000000 -98.741730 -20.470009 10168.950195
4.920000 0.880000 -6.960000 -81.351334 -57.179096 9887.488281
4.920000 0.880000 -6.920000 -47.082890 -77.393906 8206.615234
4.920000 0.880000 -6.880000 -10.072563 -75.042976 5732.904785
4.920000 0.880000 -6.840000 15.753383 -54.704041 3240.701172
4.920000 0.880000 -6.800000 23.479813 -28.257942 1349.812866
4.920000 0.920000 -7.200000 -13.053209 6.296215 210.028595
4.920000 0.920000 -7.160000 -20.958832 31.615662 1438.822754
4.920000 0.920000 -7.120000 -58.527958 47.324291 5665.110352
4.920000 0.920000 -7.080000 -109.174149 26.754147 12634.779297
4.920000 0.920000 -7.040000 -137.537842 -33.041702 20008.412109
4.920000 0.920000 -7.000000 -117.253548 -103.776260 24517.906250
4.920000 0.920000 -6.960000 -53.804619 -145.271851 23998.847656
4.920000 0.920000 -6.920000 18.192898 -135.868011 18791.099609
4.920000 0.920000 -6.880000 61.209095 -87.741547 11445.132812
4.920000 0.920000 -6.840000 61.635941 -34.848953 5013.438965
4.920000 0.920000 -6.800000 35.214260 -5.632799 1271.772461
4.920000 0.960000 -7.200000 1.070953 -7.495132 57.323952
4.920000 0.960000 -7.160000 -22.414351 25.372070 1146.145020
4.920000 0.960000 -7.120000 -80.012978 26.373680 7097.647461
4.920000 0.960000 -7.080000 -131.262238 -28.705376 18053.773438
4.920000 0.960000 -7.040000 -127.600174 -118.773972 30389.060547
4.920000 0.960000 -7.000000 -55.660900 -187.957794 38426.269531
4.920000 0.960000 -6.960000 46.928692 -189.421204 38082.691406
4.920000 0.960000 -6.920000 119.736618 -123.749573 29650.814453
4.920000 0.960000 -6.880000 126.995270 -37.179615 17510.123047
4.920000 0.960000 -6.840000 82.139137 17.686256 7059.641602
4.920000 0.960000 -6.800000 29.783379 21.993916 1370.781982
4.920000 1.000000 -7.200000 19.489544 -3.603369 392.826569
4.920000 1.000000 -7.160000 -24.072603 20.257013 989.836792
4.920000 1.000000 -7.120000 -84.621315 -9.327707 7247.773438
4.920000 1.000000 -7.080000 -105.732735 -92.749756 19781.929688
4.920000 1.000000 -7.040000 -50.699249 -178.838577 34553.648438
4.920000 1.000000 -7.000000 59.538692 -202.878632 44704.593750
4.920000 1.000000 -6.960000 158.036606 -141.480820 44992.390625
4.920000 1.000000 -6.920000 185.133881 -33.591728 35402.957031
4.920000 1.000000 -6.880000 135.404190 52.108799 21049.621094
4.920000 1.000000 -6.840000 56.543400 72.865410 8506.524414
4.920000 1.000000 -6.800000 4.643770 40.063553 1626.652832
4.920000 1.040000 -7.200000 26.411875 13.360285 876.084351
4.920000 1.040000 -7.160000 -25.742432 13.967020 857.750427
4.920000 1.040000 -7.120000 -64.807816 -41.742481 5942.487305
4.920000 1.040000 -7.080000 -41.288811 -123.706696 17008.113281
4.920000 1.040000 -7.040000 49.068855 -167.830109 30574.697266
4.920000 1.040000 -7.000000 153.302612 -129.777435 40343.875000
4.920000 1.040000 -6.960000 201.494446 -25.928949 41272.320312
4.920000 1.040000 -6.920000 164.196564 77.970421 33039.898438
4.920000 1.040000 -6.880000 74.580032 120.688347 20127.857422
4.920000 1.040000 -6.840000 -3.364328 92.356766 8541.090820
4.920000 1.040000 -6.800000 -28.437813 33.579353 1936.282227
4.920000 1.080000 -7.200000 17.136578 28.448792 1102.996094
4.920000 1.080000 -7.160000 -25.188532 5.960469 669.989380
4.920000 1.080000 -7.120000 -30.911724 -53.983246 3869.725586
4.920000 1.080000 -7.080000 23.242615 -104.588974 11479.072266
4.920000 1.080000 -7.040000 109.664825 -95.345978 21117.230469
4.920000 1.080000 -7.000000 167.257874 -18.507095 28317.707031
4.920000 1.080000 -6.960000 151.766037 79.909065 29418.388672
4.920000 1.080000 -6.920000 73.165138 136.721497 24045.906250
4.920000 1.080000 -6.880000 -14.173082 122.513618 15210.462891
4.920000 1.080000 -6.840000 -57.837475 60.905312 7054.630859
4.920000 1.080000 -6.800000 -46.531227 1.938336 2168.912109
4.920000 1.120000 -7.200000 0.905711 30.414295 925.849670
4.920000 1.120000 -7.160000 -20.627029 -1.759902 428.571594
4.920000 1.120000 -7.120000 -1.631399 -44.280617 1963.434570
4.920000 1.120000 -7.080000 53.336128 -55.679798 5944.982422
4.920000 1.120000 -7.040000 104.203613 -14.414253 11066.163086
4.920000 1.120000 -7.000000 107.561295 58.158943 14951.894531
4.920000 1.120000 -6.960000 54.596451 112.829597 15711.290039
4.920000 1.120000 -6.920000 -20.643982 112.918770 13176.822266
4.920000 1.120000 -6.880000 -69.991684 63.015335 8869.768555
4.920000 1.120000 -6.840000 -69.450012 1.234957 4824.829102
4.920000 1.120000 -6.800000 -32.862141 -34.726357 2285.840088
4.920000 1.160000 -7.200000 -9.165068 20.928778 522.012207
4.920000 1.160000 -7.160000 -12.660044 -6.126390 197.809357
4.920000 1.160000 -7.120000 11.822237 -24.837660 756.674683
4.920000 1.160000 -7.080000 45.698936 -12.588013 2246.850830
4.920000 1.160000 -7.040000 57.636971 27.518066 4079.264160
4.920000 1.160000 -7.000000 31.491089 66.470795 5410.055176
4.920000 1.160000 -6.960000 -18.193016 73.317078 5706.379883
4.920000 1.160000 -6.920000 -57.845329 41.246166 5047.328125
4.920000 1.160000 -6.880000 -62.430454 -7.907486 3960.089844
4.920000 1.160000 -6.840000 -33.576408 -43.172966 2991.280273
4.920000 1.160000 -6.800000 6.235668 -48.393356 2380.800537
4.920000 1.200000 -7.200000 -8.422777 10.754225 186.596527
4.920000 1.200000 -7.160000 -4.309072 -5.350192 47.192654
4.920000 1.200000 -7.120000 11.981270 -8.896559 222.699585
4.920000 1.200000 -7.080000 23.329840 5.400120 573.442749
4.920000 1.200000 -7.040000 15.542114 25.173058 875.240112
4.920000 1.200000 -7.000000 -8.587868 30.946030 1031.408203
4.920000 1.200000 -6.960000 -30.822090 13.815693 1140.874634
4.920000 1.200000 -6.920000 -33.124146 -16.521774 1370.177979
4.920000 1.200000 -6.880000 -12.384306 -40.245510 1773.072021
4.920000 1.200000 -6.840000 18.650175 -43.400116 2231.399170
4.920000 1.200000 -6.800000 42.999146 -26.648993 2559.095215
4.960000 0.800000 -7.200000 2.573591 54.107262 2934.218994
4.960000 0.800000 -7.160000 -34.559517 54.993092 4218.600586
4.960000 0.800000 -7.120000 -63.846931 24.762772 4689.625488
4.960000 0.800000 -7.080000 -60.634743 -18.335442 4012.760498
4.960000 0.800000 -7.040000 -27.459343 -41.686432 2491.773926
4.960000 0.800000 -7.000000 5.678349 -29.829269 922.028992
4.960000 0.800000 -6.960000 9.890331 -0.681152 98.282616
4.960000 0.800000 -6.920000 -13.731030 11.955860 331.483765
4.960000 0.800000 -6.880000 -35.356915 -7.340224 1303.990356
4.960000 0.800000 -6.840000 -27.154270 -39.955803 2333.820557
4.960000 0.800000 -6.800000 8.158346 -52.502632 2823.084961
4.960000 0.840000 -7.200000 -25.110474 40.801464 2295.295410
4.960000 0.840000 -7.160000 -46.742134 33.928864 3335.994873
4.960000 0.840000 -7.120000 -61.037003 13.462980 3906.767578
4.960000 0.840000 -7.080000 -59.855694 -10.305639 3688.910400
4.960000 0.840000 -7.040000 -47.696922 -25.040424 2902.019043
4.960000 0.840000 -7.000000 -36.754646 -28.840782 2182.694824
4.960000 0.840000 -6.960000 -33.192127 -31.205425 2075.495850
4.960000 0.840000 -6.920000 -30.247898 -40.778412 2577.814209
4.960000 0.840000 -6.880000 -16.693810 -53.585236 3150.060791
4.960000 0.840000 -6.840000 8.359779 -55.769531 3180.126709
4.960000 0.840000 -6.800000 31.246243 -38.834610 2484.454590
4.960000 0.880000 -7.200000 -32.740700 12.561207 1229.737305
4.960000 0.880000 -7.160000 -44.107597 16.312557 2211.579590
4.960000 0.880000 -7.120000 -64.871140 10.767214 4324.197754
4.960000 0.880000 -7.080000 -84.493660 -12.262611 7289.550293
4.960000 0.880000 -7.040000 -88.243614 -49.414623 10228.740234
4.960000 0.880000 -7.000000 -68.042671 -86.314293 12079.962891
4.960000 0.880000 -6.960000 -28.794151 -106.376984 12145.166016
4.960000 0.880000 -6.920000 14.243580 -101.089607 10421.988281
4.960000 0.880000 -6.880000 44.523991 -74.691002 7561.131348
4.960000 0.880000 -6.840000 53.342049 -40.830753 4512.524414
4.960000 0.880000 -6.800000 43.451347 -14.183078 2089.179199
4.960000 0.920000 -7.200000 -16.902983 -8.974194 366.246948
4.960000 0.920000 -7.160000 -36.903004 8.966064 1442.221924
4.960000 0.920000 -7.120000 -78.660385 0.386829 6187.605469
4.960000 0.920000 -7.080000 -109.922623 -49.258999 14509.432617
4.960000 0.920000 -7.040000 -96.178345 -120.064758 23665.820312
4.960000 0.920000 -7.000000 -31.821373 -169.032547 29584.601562
4.960000 0.920000 -6.960000 51.551605 -163.508057 29392.453125
4.960000 0.920000 -6.920000 108.395203 -107.435699 23291.949219
4.960000 0.920000 -6.880000 113.823441 -37.243240 14342.833984
4.960000 0.920000 -6.840000 79.501045 7.952823 6383.663574
4.960000 0.920000 -6.800000 39.055202 14.742353 1742.645874
4.960000 0.960000 -7.200000 7.172182 -8.923569 131.070282
4.960000 0.960000 -7.160000 -34.133625 7.562082 1222.289429
4.960000 0.960000 -7.120000 -87.253204 -27.309593 8358.935547
4.960000 0.960000 -7.080000 -98.594147 -110.013016 21823.667969
4.960000 0.960000 -7.040000 -36.821831 -189.211395 37156.800781
4.960000 0.960000 -7.000000 73.513412 -204.565170 47251.132812
4.960000 0.960000 -6.960000 166.754868 -138.256226 46921.968750
4.960000 0.960000 -6.920000 188.349152 -31.486057 36466.773438
4.960000 0.960000 -6.880000 137.468155 49.705589 21368.140625
4.960000 0.960000 -6.840000 62.339634 67.472672 8438.791016
4.960000 0.960000 -6.800000 15.736816 36.266140 1562.880249
4.960000 1.000000 -7.200000 19.694624 9.043533 469.663696
4.960000 1.000000 -7.160000 -35.848015 4.083561 1301.755615
4.960000 1.000000 -7.120000 -73.502762 -61.783428 9219.847656
4.960000 1.000000 -7.080000 -39.850189 -152.858826 24953.857422
4.960000 1.000000 -7.040000 66.607819 -197.378433 43394.847656
4.960000 1.000000 -7.000000 184.154053 -148.316055 55910.367188
4.960000 1.000000 -6.960000 234.911560 -27.757109 55953.898438
4.960000 1.000000 -6.920000 189.180389 88.538300 43628.250000
4.960000 1.000000 -6.880000 87.923424 133.330231 25507.480469
4.960000 1.000000 -6.840000 4.086302 99.563995 9929.687500
4.960000 1.000000 -6.800000 -18.749500 36.343918 1672.424072
4.960000 1.040000 -7.200000 13.077356 28.076029 959.280640
4.960000 1.040000 -7.160000 -35.811405 -3.958384 1298.125610
4.960000 1.040000 -7.120000 -37.830711 -81.022995 7995.888184
4.960000 1.040000 -7.080000 35.779243 -144.205963 22075.513672
4.960000 1.040000 -7.040000 149.369720 -129.600739 39107.664062
4.960000 1.040000 -7.000000 224.427307 -27.924940 51147.417969
4.960000 1.040000 -6.960000 204.285126 100.822578 51897.605469
4.960000 1.040000 -6.920000 102.854431 174.730881 41109.914062
4.960000 1.040000 -6.880000 -8.329582 156.690628 24621.335938
4.960000 1.040000 -6.840000 -61.538879 79.482811 10104.550781
4.960000 1.040000 -6.800000 -44.761547 9.614698 2096.038574
4.960000 1.080000 -7.200000 -4.046391 34.165337 1183.643555
4.960000 1.080000 -7.160000 -29.892010 -12.001047 1037.557373
4.960000 1.080000 -7.120000 0.361914 -72.861526 5308.933105
4.960000 1.080000 -7.080000 83.001480 -90.029907 14994.629883
4.960000 1.080000 -7.040000 162.075317 -29.895500 27162.148438
4.960000 1.080000 -7.000000 172.785629 79.592194 36189.789062
4.960000 1.080000 -6.960000 98.440681 166.551819 37430.074219
4.960000 1.080000 -6.920000 -12.978508 173.948807 30426.628906
4.960000 1.080000 -6.880000 -88.985077 105.675491 19085.652344
4.960000 1.080000 -6.840000 -91.716423 18.310799 8747.187500
4.960000 1.080000 -6.800000 -42.006256 -30.408833 2689.222656
4.960000 1.120000 -7.200000 -17.531715 26.952677 1033.807861
4.960000 1.120000 -7.160000 -20.597063 -14.597237 637.318359
4.960000 1.120000 -7.120000 20.479771 -46.231567 2556.778809
4.960000 1.120000 -7.080000 81.510925 -28.979706 7483.854004
4.960000 1.120000 -7.040000 111.443863 39.296608 13963.958008
4.960000 1.120000 -7.000000 76.493530 114.819923 19034.875000
4.960000 1.120000 -6.960000 -7.083542 141.882965 20180.951172
4.960000 1.120000 -6.920000 -84.032845 99.976578 17056.835938
4.960000 1.120000 -6.880000 -105.676163 20.304914 11579.740234
4.960000 1.120000 -6.840000 -67.805878 -42.633339 6415.238770
4.960000 1.120000 -6.800000 -7.697610 -56.044277 3200.214111
4.960000 1.160000 -7.200000 -21.045803 16.287468 708.207397
4.960000 1.160000 -7.160000 -13.753340 -11.543123 322.398071
4.960000 1.160000 -7.120000 18.522621 -21.440998 802.803894
4.960000 1.160000 -7.080000 49.440620 3.852276 2459.215088
4.960000 1.160000 -7.040000 47.046997 50.457863 4759.416016
4.960000 1.160000 -7.000000 4.249725 81.368546 6638.900391
4.960000 1.160000 -6.960000 -51.422241 67.956810 7262.375000
4.960000 1.160000 -6.920000 -79.630096 15.746391 6588.900879
4.960000 1.160000 -6.880000 -60.791451 -39.854954 5284.017578
4.960000 1.160000 -6.840000 -10.575159 -63.320175 4121.278809
4.960000 1.160000 -6.800000 36.230679 -46.092800 3437.208252
4.960000 1.200000 -7.200000 -19.175198 10.335786 474.516663
4.960000 1.200000 -7.160000 -12.198515 -7.558332 205.932159
4.960000 1.200000 -7.120000 7.196428 -11.121675 175.480255
4.960000 1.200000 -7.080000 20.335915 4.682085 435.471313
4.960000 1.200000 -7.040000 12.168964 25.572304 802.026428
4.960000 1.200000 -7.000000 -12.967251 29.898924 1062.095215
4.960000 1.200000 -6.960000 -33.483658 8.981247 1201.818237
4.960000 1.200000 -6.920000 -29.273649 -23.777195 1422.301514
4.960000 1.200000 -6.880000 0.519346 -43.840336 1922.244873
4.960000 1.200000 -6.840000 37.055756 -35.972843 2667.174316
4.960000 1.200000 -6.800000 57.837009 -5.324785 3373.472900
5.000000 0.800000 -7.200000 -31.725542 46.467934 3165.778809
5.000000 0.800000 -7.160000 -63.484390 22.460894 4534.759766
5.000000 0.800000 -7.120000 -68.857452 -22.159668 5232.399414
5.000000 0.800000 -7.080000 -39.045586 -57.306824 4808.629883
5.000000 0.800000 -7.040000 4.168499 -57.658127 3341.835938
5.000000 0.800000 -7.000000 26.803932 -28.040901 1504.742920
5.000000 0.800000 -6.960000 15.113457 0.107468 228.428131
5.000000 0.800000 -6.920000 -11.156204 -0.603700 124.825348
5.000000 0.800000 -6.880000 -19.126633 -26.569620 1071.772705
5.000000 0.800000 -6.840000 3.723196 -47.773781 2296.196533
5.000000 0.800000 -6.800000 37.373932 -39.040997 2921.010254
5.000000 0.840000 -7.200000 -47.194504 15.989229 2482.976807
5.000000 0.840000 -7.160000 -59.478519 -5.130512 3564.016602
5.000000 0.840000 -7.120000 -56.482964 -32.334576 4235.850098
5.000000 0.840000 -7.080000 -37.899548 -51.713551 4110.666992
5.000000 0.840000 -7.040000 -15.530334 -55.143341 3281.979248
5.000000 0.840000 -7.000000 -1.967278 -48.263908 2333.274902
5.000000 0.840000 -6.960000 2.010773 -43.754860 1918.531006
5.000000 0.840000 -6.920000 6.999722 -46.855244 2244.409912
5.000000 0.840000 -6.880000 21.537189 -49.297527 2894.096680
5.000000 0.840000 -6.840000 40.580437 -39.020687 3169.385742
5.000000 0.840000 -6.800000 49.315109 -15.246666 2664.440918
5.000000 0.880000 -7.200000 -34.413990 -13.075396 1355.288696
5.000000 0.880000 -7.160000 -43.378338 -17.606367 2191.664307
5.000000 0.880000 -7.120000 -53.968327 -34.396118 4095.673340
5.000000 0.880000 -7.080000 -53.043259 -63.149242 6801.414062
5.000000 0.880000 -7.040000 -31.896410 -91.966141 9475.152344
5.000000 0.880000 -7.000000 5.884674 -105.355370 11134.382812
5.000000 0.880000 -6.960000 46.092636 -95.064789 11161.845703
5.000000 0.880000 -6.920000 73.008614 -65.318245 9596.730469
5.000000 0.880000 -6.880000 78.627586 -29.380772 7045.527344
5.000000 0.880000 -6.840000 65.888321 -1.240639 4342.810059
5.000000 0.880000 -6.800000 45.223129 11.636463 2180.538818
5.000000 0.920000 -7.200000 -6.962734 -19.859007 442.859833
5.000000 0.920000 -7.160000 -31.935150 -15.984750 1275.366089
5.000000 0.920000 -7.120000 -59.199066 -45.926460 5613.769531
5.000000 0.920000 -7.080000 -54.306793 -102.097878 13373.204102
5.000000 0.920000 -7.040000 -1.972187 -148.183136 21962.130859
5.000000 0.920000 -7.000000 76.307365 -147.335327 27530.513672
5.000000 0.920000 -6.960000 136.428528 -93.520432 27358.816406
5.000000 0.920000 -6.920000 146.033401 -17.494625 21631.816406
5.000000 0.920000 -6.880000 108.647034 37.926189 13242.573242
5.000000 0.920000 -6.840000 57.210175 50.650436 5838.470703
5.000000 0.920000 -6.800000 25.090141 31.740709 1636.987793
5.000000 0.960000 -7.200000 11.853752 -3.898039 155.706146
5.000000 0.960000 -7.160000 -31.002451 -13.033827 1131.032593
5.000000 0.960000 -7.120000 -54.104958 -70.846695 7946.600586
5.000000 0.960000 -7.080000 -15.966898 -143.267914 20780.636719
5.000000 0.960000 -7.040000 78.731735 -170.590927 35299.949219
5.000000 0.960000 -7.000000 174.936066 -118.797867 44715.562500
5.000000 0.960000 -6.960000 209.755249 -12.366634 44150.199219
5.000000 0.960000 -6.920000 164.337692 83.613152 33998.035156
5.000000 0.960000 -6.880000 77.562607 116.471466 19581.560547
5.000000 0.960000 -6.840000 10.270624 85.643448 7440.286133
5.000000 0.960000 -6.800000 -5.069843 34.866333 1241.364502
5.000000 1.000000 -7.200000 9.918775 17.491961 404.350769
5.000000 1.000000 -7.160000 -32.836136 -17.528078 1385.445312
5.000000 1.000000 -7.120000 -26.721296 -92.409630 9253.567383
5.000000 1.000000 -7.080000 51.916080 -147.704544 24511.912109
5.000000 1.000000 -7.040000 163.593750 -123.780548 42084.539062
5.000000 1.000000 -7.000000 231.002502 -17.377705 53664.140625
5.000000 1.000000 -6.960000 203.244781 108.746338 53134.207031
5.000000 1.000000 -6.920000 99.986786 175.671448 40857.812500
5.000000 1.000000 -6.880000 -6.148134 152.694138 23353.298828
5.000000 1.000000 -6.840000 -51.806660 77.317825 8661.975586
5.000000 1.000000 -6.800000 -31.281496 15.559553 1220.631714
5.000000 1.040000 -7.200000 -5.890512 27.159500 772.336548
5.000000 1.040000 -7.160000 -27.938049 -25.740965 1443.131836
5.000000 1.040000 -7.120000 12.774837 -90.168396 8293.536133
5.000000 1.040000 -7.080000 108.256027 -101.933342 22109.773438
5.000000 1.040000 -7.040000 194.144638 -27.430155 38444.554688
5.000000 1.040000 -7.000000 200.030777 97.927139 49602.039062
5.000000 1.040000 -6.960000 111.984016 192.726746 49684.015625
5.000000 1.040000 -6.920000 -12.482098 196.465881 38754.648438
5.000000 1.040000 -6.880000 -92.644470 118.803452 22697.257812
5.000000 1.040000 -6.840000 -90.918198 26.114889 8948.106445
5.000000 1.040000 -6.800000 -36.375408 -19.050472 1686.090820
5.000000 1.080000 -7.200000 -20.314699 22.383392 913.703247
5.000000 1.080000 -7.160000 -16.759874 -28.052551 1067.838989
5.000000 1.080000 -7.120000 40.101765 -62.131748 5468.505859
5.000000 1.080000 -7.080000 117.963989 -33.052513 15007.971680
5.000000 1.080000 -7.040000 152.648956 58.925308 26773.894531
5.000000 1.080000 -7.000000 103.761215 156.577927 35283.035156
5.000000 1.080000 -6.960000 -5.126293 189.929413 36099.460938
5.000000 1.080000 -6.920000 -102.546982 135.834396 28966.867188
5.000000 1.080000 -6.880000 -128.448151 36.982147 17866.607422
5.000000 1.080000 -6.840000 -81.612076 -37.012650 8030.466797
5.000000 1.080000 -6.800000 -12.753115 -48.197205 2485.612305
5.000000 1.120000 -7.200000 -25.442005 12.692072 808.384338
5.000000 1.120000 -7.160000 -8.495634 -21.491833 534.074646
5.000000 1.120000 -7.120000 40.252590 -27.941589 2401.003418
5.000000 1.120000 -7.080000 83.252136 15.756035 7179.170410
5.000000 1.120000 -7.040000 75.722519 88.246201 13521.291992
5.000000 1.120000 -7.000000 8.810371 135.735245 18501.679688
5.000000 1.120000 -6.960000 -76.496376 117.223885 19593.134766
5.000000 1.120000 -6.920000 -121.319046 41.803436 16465.837891
5.000000 1.120000 -6.880000 -98.171333 -38.199425 11096.806641
5.000000 1.120000 -6.840000 -31.627207 -71.903946 6170.457520
5.000000 1.120000 -6.800000 27.212307 -49.885216 3229.044434
5.000000 1.160000 -7.200000 -25.310196 6.620174 684.432739
5.000000 1.160000 -7.160000 -9.669580 -13.500895 275.774933
5.000000 1.160000 -7.120000 21.222328 -10.021729 550.822266
5.000000 1.160000 -7.080000 38.237053 23.523132 2015.410034
5.000000 1.160000 -7.040000 17.711868 63.124447 4298.406250
5.000000 1.160000 -7.000000 -32.601952 72.466278 6314.248535
5.000000 1.160000 -6.960000 -75.862854 36.383724 7078.948242
5.000000 1.160000 -6.920000 -77.026085 -22.890564 6456.995605
5.000000 1.160000 -6.880000 -33.516071 -63.533028 5159.772461
5.000000 1.160000 -6.840000 23.298748 -59.361969 4066.674805
5.000000 1.160000 -6.800000 56.157433 -19.373924 3529.006104
5.000000 1.200000 -7.200000 -27.073124 3.074848 742.408752
5.000000 1.200000 -7.160000 -16.291183 -13.351010 443.652130
5.000000 1.200000 -7.120000 4.327675 -13.188150 192.656082
5.000000 1.200000 -7.080000 14.863029 5.117455 247.098007
5.000000 1.200000 -7.040000 3.158600 23.840988 578.369446
5.000000 1.200000 -7.000000 -21.119219 22.161278 937.143616
5.000000 1.200000 -6.960000 -33.803291 -2.752136 1150.236694
5.000000 1.200000 -6.920000 -18.710278 -31.185581 1322.614990
5.000000 1.200000 -6.880000 16.620991 -37.986740 1719.249756
5.000000 1.200000 -6.840000 47.189537 -14.807045 2446.100830
5.000000 1.200000 -6.800000 52.126663 23.575550 3272.995605
5.040000 0.800000 -7.200000 -45.609657 17.239950 2377.456543
5.040000 0.800000 -7.160000 -56.916275 -17.758888 3554.840576
5.040000 0.800000 -7.120000 -37.772461 -55.393860 4495.238281
5.040000 0.800000 -7.080000 4.411878 -68.349434 4691.109863
5.040000 0.800000 -7.040000 40.798393 -46.842804 3858.757324
5.040000 0.800000 -7.000000 46.512703 -10.070099 2264.838623
5.040000 0.800000 -6.960000 24.244217 10.720266 702.706177
5.040000 0.800000 -6.920000 1.347904 1.843426 5.215064
5.040000 0.800000 -6.880000 2.475445 -20.498137 426.301453
5.040000 0.800000 -6.840000 25.443321 -27.911743 1426.427979
5.040000 0.800000 -6.800000 44.884766 -9.196968 2099.226318
5.040000 0.840000 -7.200000 -41.388790 -13.740501 1901.833374
5.040000 0.840000 -7.160000 -39.054577 -36.688122 2871.278320
5.040000 0.840000 -7.120000 -20.862429 -57.129780 3699.052734
5.040000 0.840000 -7.080000 7.239464 -62.337227 3938.339844
5.040000 0.840000 -7.040000 30.331970 -49.909821 3411.018555
5.040000 0.840000 -7.000000 38.169182 -30.954737 2415.082275
5.040000 0.840000 -6.960000 34.635780 -19.165041 1566.936157
5.040000 0.840000 -6.920000 32.367161 -17.233028 1344.610352
5.040000 0.840000 -6.880000 38.207367 -15.517159 1700.585083
5.040000 0.840000 -6.840000 45.630741 -4.473267 2102.174561
5.040000 0.840000 -6.800000 42.714100 13.103376 1996.192871
5.040000 0.880000 -7.200000 -16.644194 -27.965546 1059.100830
5.040000 0.880000 -7.160000 -19.966221 -36.371456 1721.532715
5.040000 0.880000 -7.120000 -16.275995 -54.526554 3238.052979
5.040000 0.880000 -7.080000 3.202873 -72.742722 5301.761719
5.040000 0.880000 -7.040000 35.353531 -77.065765 7189.004395
5.040000 0.880000 -7.000000 66.698570 -60.918694 8159.786133
5.040000 0.880000 -6.960000 83.479973 -30.114807 7875.807617
5.040000 0.880000 -6.920000 80.835312 2.113525 6538.814453
5.040000 0.880000 -6.880000 64.105957 24.323011 4701.182617
5.040000 0.880000 -6.840000 43.285172 32.534485 2932.098633
5.040000 0.880000 -6.800000 26.726116 29.656565 1593.797119
5.040000 0.920000 -7.200000 6.118373 -17.953964 359.779297
5.040000 0.920000 -7.160000 -13.379988 -27.766121 949.981567
5.040000 0.920000 -7.120000 -15.936629 -62.473557 4156.921387
5.040000 0.920000 -7.080000 17.839592 -97.393646 9803.773438
5.040000 0.920000 -7.040000 77.843628 -99.385498 15937.107422
5.040000 0.920000 -7.000000 129.050385 -55.968391 19786.462891
5.040000 0.920000 -6.960000 139.018677 12.042564 19471.216797
5.040000 0.920000 -6.920000 103.948486 66.392052 15213.192383
5.040000 0.920000 -6.880000 50.255146 81.381538 9148.534180
5.040000 0.920000 -6.840000 11.602543 61.446701 3910.315918
5.040000 0.920000 -6.800000 3.069632 32.654121 1075.714233
5.040000 0.960000 -7.200000 10.215201 2.610271 111.163857
5.040000 0.960000 -7.160000 -15.893001 -25.449888 900.284302
5.040000 0.960000 -7.120000 -2.739498 -77.754570 6053.277832
5.040000 0.960000 -7.080000 60.961613 -108.606789 15511.752930
5.040000 0.960000 -7.040000 140.707306 -78.680832 25989.220703
5.040000 0.960000 -7.000000 180.322449 6.909233 32563.923828
5.040000 0.960000 -6.960000 148.968170 98.149689 31824.876953
5.040000 0.960000 -6.920000 67.915817 139.966827 24203.271484
5.040000 0.960000 -6.880000 -7.921131 116.562279 13649.508789
5.040000 0.960000 -6.840000 -36.094746 60.220081 4929.289062
5.040000 0.960000 -6.800000 -17.879040 19.016136 681.273499
5.040000 1.000000 -7.200000 -1.771404 14.979721 227.529922
5.040000 1.000000 -7.160000 -14.719170 -31.211025 1190.782104
5.040000 1.000000 -7.120000 26.861347 -81.323067 7334.973633
5.040000 1.000000 -7.080000 110.177155 -81.416786 18767.699219
5.040000 1.000000 -7.040000 177.429214 -8.753622 31557.751953
5.040000 1.000000 -7.000000 171.909729 100.320946 39617.246094
5.040000 1.000000 -6.960000 88.872208 175.422531 38671.335938
5.040000 1.000000 -6.920000 -17.624348 170.132935 29255.832031
5.040000 1.000000 -6.880000 -79.865555 99.683075 16315.222656
5.040000 1.000000 -6.840000 -71.874901 23.897011 5737.068359
5.040000 1.000000 -6.800000 -24.471306 -6.612345 642.567871
5.040000 1.040000 -7.200000 -15.106671 13.144189 400.981201
5.040000 1.040000 -7.160000 -4.718952 -34.348785 1202.107666
5.040000 1.040000 -7.120000 55.279686 -60.157990 6674.827148
5.040000 1.040000 -7.080000 129.066696 -22.406301 17160.255859
5.040000 1.040000 -7.040000 154.601334 72.494255 29156.988281
5.040000 1.040000 -7.000000 98.018204 165.353851 36949.464844
5.040000 1.040000 -6.960000 -11.489992 190.410461 36388.164062
5.040000 1.040000 -6.920000 -102.499825 131.670639 27843.371094
5.040000 1.040000 -6.880000 -120.756104 36.163223 15889.814453
5.040000 1.040000 -6.840000 -72.104507 -28.433430 6007.520020
5.040000 1.040000 -6.800000 -10.238831 -30.933037 1061.686401
5.040000 1.080000 -7.200000 -20.096359 5.437678 433.431976
5.040000 1.080000 -7.160000 5.413908 -26.676670 740.955139
5.040000 1.080000 -7.120000 60.574081 -24.040180 4247.149414
5.040000 1.080000 -7.080000 102.254326 32.546207 11515.203125
5.040000 1.080000 -7.040000 84.459961 114.541763 20253.300781
5.040000 1.080000 -7.000000 3.594109 162.196121 26320.500000
5.040000 1.080000 -6.960000 -91.024376 134.993713 26508.738281
5.040000 1.080000 -6.920000 -135.825775 49.134277 20862.818359
5.040000 1.080000 -6.880000 -106.448380 -35.125908 12565.086914
5.040000 1.080000 -6.840000 -35.796635 -65.158356 5527.010254
5.040000 1.080000 -6.800000 19.063265 -37.759899 1789.218018
5.040000 1.120000 -7.200000 -19.989988 1.226822 401.104736
5.040000 1.120000 -7.160000 4.248077 -13.822161 209.098282
5.040000 1.120000 -7.120000 39.542595 1.949844 1567.418701
5.040000 1.120000 -7.080000 50.865398 50.365650 5123.987305
5.040000 1.120000 -7.040000 14.338676 98.425835 9893.242188
5.040000 1.120000 -7.000000 -54.542652 103.158798 13616.638672
5.040000 1.120000 -6.960000 -108.119553 51.508732 14342.987305
5.040000 1.120000 -6.920000 -106.303452 -24.133221 11882.835938
5.040000 1.120000 -6.880000 -51.770424 -71.988907 7862.579590
5.040000 1.120000 -6.840000 13.324685 -64.738846 4368.665527
5.040000 1.120000 -6.800000 45.438599 -19.597940 2448.745605
5.040000 1.160000 -7.200000 -22.776939 -0.375982 518.930298
5.040000 1.160000 -7.160000 -7.632931 -9.564107 149.733780
5.040000 1.160000 -7.120000 11.893797 1.714525 144.401993
5.040000 1.160000 -7.080000 12.511272 29.992540 1056.084473
5.040000 1.160000 -7.040000 -15.771622 50.040405 2752.786377
5.040000 1.160000 -7.000000 -54.755733 37.346573 4392.957031
5.040000 1.160000 -6.960000 -71.096725 -6.080879 5091.721191
5.040000 1.160000 -6.920000 -46.682301 -49.749969 4654.296875
5.040000 1.160000 -6.880000 3.460743 -60.492851 3671.361816
5.040000 1.160000 -6.840000 43.911461 -31.417526 2915.277344
5.040000 1.160000 -6.800000 49.729115 13.847011 2664.724609
5.040000 1.200000 -7.200000 -28.674854 -7.305923 875.623779
5.040000 1.200000 -7.160000 -16.726637 -19.898338 675.724243
5.040000 1.200000 -7.120000 0.930801 -16.725540 280.610077
5.040000 1.200000 -7.080000 6.989143 -0.353983 48.973431
5.040000 1.200000 -7.040000 -4.779907 11.785511 161.745789
5.040000 1.200000 -7.000000 -21.338022 5.127449 481.601929
5.040000 1.200000 -6.960000 -22.500217 -15.837151 757.075134
5.040000 1.200000 -6.920000 -1.566353 -30.392054 926.130432
5.040000 1.200000 -6.880000 26.853699 -21.216339 1171.254150
5.040000 1.200000 -6.840000 39.877647 8.963327 1670.567993
5.040000 1.200000 -6.800000 26.929657 40.126690 2335.357666
5.080000 0.800000 -7.200000 -32.777161 -7.287339 1127.447632
5.080000 0.800000 -7.160000 -25.734715 -35.044277 1890.376831
5.080000 0.800000 -7.120000 3.397310 -53.491474 2872.879639
5.080000 0.800000 -7.080000 40.316418 -45.422760 3688.640625
5.080000 0.800000 -7.040000 60.322319 -13.005117 3807.915283
5.080000 0.800000 -7.000000 50.458958 21.053741 2989.366455
5.080000 0.800000 -6.960000 22.388979 33.028111 1592.122437
5.080000 0.800000 -6.920000 1.767727 19.867254 397.832642
5.080000 0.800000 -6.880000 3.811483 0.928509 15.389534
5.080000 0.800000 -6.840000 19.701065 -2.315580 393.493866
5.080000 0.800000 -6.800000 27.562084 12.203485 908.593506
5.080000 0.840000 -7.200000 -17.950043 -24.680656 931.338867
5.080000 0.840000 -7.160000 -6.922508 -39.519421 1609.705688
5.080000 0.840000 -7.120000 16.356474 -46.884460 2465.686768
5.080000 0.840000 -7.080000 42.388512 -36.678070 3142.066895
5.080000 0.840000 -7.040000 55.714973 -11.608234 3238.909180
5.080000 0.840000 -7.000000 49.541100 13.222324 2629.150391
5.080000 0.840000 -6.960000 32.565578 23.940704 1633.674194
5.080000 0.840000 -6.920000 20.131325 20.528084 826.672485
5.080000 0.840000 -6.880000 18.986538 14.996698 585.389587
5.080000 0.840000 -6.840000 22.073341 17.293877 786.310547
5.080000 0.840000 -6.800000 18.579323 24.654058 953.013794
5.080000 0.880000 -7.200000 2.363719 -22.857666 528.060059
5.080000 0.880000 -7.160000 4.214881 -30.962036 976.412903
5.080000 0.880000 -7.120000 18.067406 -41.125999 2017.778931
5.080000 0.880000 -7.080000 42.403664 -39.832401 3384.690918
5.080000 0.880000 -7.040000 64.028664 -20.661572 4526.570312
5.080000 0.880000 -7.000000 69.615013 9.097256 4929.010254
5.080000 0.880000 -6.960000 56.910812 34.713333 4443.855957
5.080000 0.880000 -6.920000 35.232025 46.093040 3365.864014
5.080000 0.880000 -6.880000 16.339197 43.890522 2193.347168
5.080000 0.880000 -6.840000 5.857882 35.517075 1295.777466
5.080000 0.880000 -6.800000 2.546500 27.417940 758.228149
5.080000 0.920000 -7.200000 10.811361 -7.904868 179.372467
5.080000 0.920000 -7.160000 3.715624 -23.449343 563.677551
5.080000 0.920000 -7.120000 19.818939 -44.893280 2408.197021
5.080000 0.920000 -7.080000 56.973541 -47.403694 5493.094727
5.080000 0.920000 -7.040000 91.639839 -17.638489 8708.976562
5.080000 0.920000 -7.000000 97.683762 32.625469 10606.538086
5.080000 0.920000 -6.960000 68.423073 74.746124 10268.699219
5.080000 0.920000 -6.920000 22.064388 86.025497 7887.223633
5.080000 0.920000 -6.880000 -13.650742 66.610626 4623.318359
5.080000 0.920000 -6.840000 -23.033175 36.592190 1869.515503
5.080000 0.920000 -6.800000 -11.633205 17.902378 455.826599
5.080000 0.960000 -7.200000 4.633172 4.200399 39.109634
5.080000 0.960000 -7.160000 1.728565 -24.620955 609.179321
5.080000 0.960000 -7.120000 33.445953 -49.497536 3568.637939
5.080000 0.960000 -7.080000 85.002640 -38.338135 8695.261719
5.080000 0.960000 -7.040000 117.931374 15.873960 14159.791016
5.080000 0.960000 -7.000000 101.680511 84.182701 17425.654297
5.080000 0.960000 -6.960000 41.238205 122.978203 16824.228516
5.080000 0.960000 -6.920000 -25.367542 109.652222 12667.121094
5.080000 0.960000 -6.880000 -58.217983 60.394974 7036.886230
5.080000 0.960000 -6.840000 -47.064262 14.472485 2424.497559
5.080000 0.960000 -6.800000 -15.535706 0.483614 241.592041
5.080000 1.000000 -7.200000 -5.185656 5.146301 53.375443
5.080000 1.000000 -7.160000 7.605730 -27.634672 821.522217
5.080000 1.000000 -7.120000 54.079765 -39.068947 4451.003906
5.080000 1.000000 -7.080000 103.708893 -2.895267 10763.916992
5.080000 1.000000 -7.040000 112.429268 69.806335 17513.263672
5.080000 1.000000 -7.000000 61.670677 133.021835 21498.082031
5.080000 1.000000 -6.960000 -21.295843 142.026443 20625.023438
5.080000 1.000000 -6.920000 -83.316040 91.739716 15357.738281
5.080000 1.000000 -6.880000 -89.154358 21.188740 8397.461914
5.080000 1.000000 -6.840000 -49.133030 -20.610670 2838.854492
5.080000 1.000000 -6.800000 -5.848554 -15.473419 273.632263
5.080000 1.040000 -7.200000 -8.763109 0.424597 76.972366
5.080000 1.040000 -7.160000 17.170183 -21.553833 759.382935
5.080000 1.040000 -7.120000 62.610619 -11.198652 4045.499512
5.080000 1.040000 -7.080000 90.406792 41.868973 9926.399414
5.080000 1.040000 -7.040000 66.220795 109.395126 16352.488281
5.080000 1.040000 -7.000000 -6.840332 142.075058 20232.113281
5.080000 1.040000 -6.960000 -84.299423 111.292679 19492.453125
5.080000 1.040000 -6.920000 -115.108917 36.369568 14572.807617
5.080000 1.040000 -6.880000 -84.688171 -30.346661 8093.006348
5.080000 1.040000 -6.840000 -25.740997 -48.078796 2974.169434
5.080000 1.040000 -6.800000 13.127571 -20.262608 582.906372
5.080000 1.080000 -7.200000 -7.898050 -0.889316 63.170074
5.080000 1.080000 -7.160000 17.526426 -7.024556 356.520020
5.080000 1.080000 -7.120000 46.386185 16.224380 2414.908691
5.080000 1.080000 -7.080000 47.653008 64.878105 6479.977539
5.080000 1.080000 -7.040000 4.640854 105.830887 11221.713867
5.080000 1.080000 -7.000000 -62.823936 101.917999 14334.125000
5.080000 1.080000 -6.960000 -109.209381 46.955746 14131.530273
5.080000 1.080000 -6.920000 -101.144432 -24.265347 10819.002930
5.080000 1.080000 -6.880000 -47.266052 -63.825558 6307.781250
5.080000 1.080000 -6.840000 9.546654 -51.475353 2740.850586
5.080000 1.080000 -6.800000 30.717783 -9.606353 1035.864258
5.080000 1.120000 -7.200000 -10.894724 1.149727 120.016876
5.080000 1.120000 -7.160000 3.748822 2.112915 18.518074
5.080000 1.120000 -7.120000 15.319087 21.356222 690.762634
5.080000 1.120000 -7.080000 4.159134 50.407860 2558.250732
5.080000 1.120000 -7.040000 -33.396511 63.375343 5131.760742
5.080000 1.120000 -7.000000 -74.403992 40.088459 7143.038574
5.080000 1.120000 -6.960000 -85.733017 -11.013767 7471.453613
5.080000 1.120000 -6.920000 -54.366447 -55.609734 6048.153320
5.080000 1.120000 -6.880000 -1.448900 -62.277489 3880.584961
5.080000 1.120000 -6.840000 35.473927 -30.226318 2172.029785
5.080000 1.120000 -6.800000 35.469131 11.485411 1389.973999
5.080000 1.160000 -7.200000 -19.314148 -2.276139 378.217133
5.080000 1.160000 -7.160000 -12.561918 -5.957894 193.298294
5.080000 1.160000 -7.120000 -5.521463 1.124971 31.752119
5.080000 1.160000 -7.080000 -10.906139 13.666434 305.715302
5.080000 1.160000 -7.040000 -29.429281 15.409821 1103.545166
5.080000 1.160000 -7.000000 -44.749260 -3.320747 2013.523560
5.080000 1.160000 -6.960000 -37.969212 -32.074829 2470.455566
5.080000 1.160000 -6.920000 -7.749298 -47.123466 2280.672607
5.080000 1.160000 -6.880000 25.643911 -33.432186 1775.321289
5.080000 1.160000 -6.840000 37.970268 0.447199 1441.941162
5.080000 1.160000 -6.800000 22.820566 30.270573 1437.085815
5.080000 1.200000 -7.200000 -23.604637 -16.167995 818.583008
5.080000 1.200000 -7.160000 -13.915869 -26.156643 877.821411
5.080000 1.200000 -7.120000 -0.112913 -24.427485 596.714783
5.080000 1.200000 -7.080000 5.702509 -13.772608 222.203339
5.080000 1.200000 -7.040000 0.775639 -6.206432 39.121418
5.080000 1.200000 -7.000000 -5.137262 -9.256290 112.070374
5.080000 1.200000 -6.960000 -0.890675 -17.026247 290.686401
5.080000 1.200000 -6.920000 12.978065 -16.244024 432.298523
5.080000 1.200000 -6.880000 23.719063 -0.839310 563.298401
5.080000 1.200000 -6.840000 19.104118 20.873646 800.676392
5.080000 1.200000 -6.800000 -0.403938 33.985645 1155.187256
5.120000 0.800000 -7.200000 -10.833792 -9.532333 208.236420
5.120000 0.800000 -7.160000 0.576907 -22.587543 510.529938
5.120000 0.800000 -7.120000 24.062881 -25.378502 1223.090576
5.120000 0.800000 -7.080000 46.941795 -7.994098 2267.437744
5.120000 0.800000 -7.040000 51.188995 23.638769 3179.104492
5.120000 0.800000 -7.000000 30.807163 49.325478 3382.083984
5.120000 0.800000 -6.960000 -0.351193 51.703991 2673.426025
5.120000 0.800000 -6.920000 -20.014214 32.434727 1452.580200
5.120000 0.800000 -6.880000 -17.758305 10.381537 423.133728
5.120000 0.800000 -6.840000 -3.566954 2.990792 21.667995
5.120000 0.800000 -6.800000 4.185143 9.934152 116.202797
5.120000 0.840000 -7.200000 -0.371724 -13.521348 182.965042
5.120000 0.840000 -7.160000 9.769652 -19.683424 482.883301
5.120000 0.840000 -7.120000 28.707811 -17.079006 1115.830811
5.120000 0.840000 -7.080000 44.645374 1.931328 1996.939453
5.120000 0.840000 -7.040000 42.926453 29.995800 2742.428223
5.120000 0.840000 -7.000000 21.626335 49.169910 2885.378418
5.120000 0.840000 -6.960000 -4.829985 47.441498 2274.024658
5.120000 0.840000 -6.920000 -18.741356 30.131798 1259.163696
5.120000 0.840000 -6.880000 -15.431835 13.886490 430.976135
5.120000 0.840000 -6.840000 -5.630571 9.789953 127.546524
5.120000 0.840000 -6.800000 -2.061615 13.868695 196.590973
5.120000 0.880000 -7.200000 6.861245 -7.687150 106.168961
5.120000 0.880000 -7.160000 11.577217 -13.499485 316.268066
5.120000 0.880000 -7.120000 26.728687 -12.751665 877.027710
5.120000 0.880000 -7.080000 41.105209 3.322685 1700.678467
5.120000 0.880000 -7.040000 40.416016 28.943771 2471.196289
5.120000 0.880000 -7.000000 21.697872 48.205677 2794.584961
5.120000 0.880000 -6.960000 -3.553410 49.690605 2481.782959
5.120000 0.880000 -6.920000 -20.195301 36.105282 1711.441650
5.120000 0.880000 -6.880000 -22.414455 19.897696 898.326050
5.120000 0.880000 -6.840000 -16.004251 10.932380 375.653015
5.120000 0.880000 -6.800000 -9.658615 9.584014 185.142181
5.120000 0.920000 -7.200000 5.780405 -0.845153 34.127365
5.120000 0.920000 -7.160000 9.776952 -12.136400 242.880981
5.120000 0.920000 -7.120000 27.978252 -14.255780 986.009888
5.120000 0.920000 -7.080000 46.065609 3.140810 2131.905029
5.120000 0.920000 -7.040000 46.462814 33.501457 3281.140869
5.120000 0.920000 -7.000000 24.092949 57.980797 3942.242920
5.120000 0.920000 -6.960000 -8.907202 61.038086 3804.986084
5.120000 0.920000 -6.920000 -33.284103 42.696880 2930.854980
5.120000 0.920000 -6.880000 -37.755535 17.155024 1719.775269
5.120000 0.920000 -6.840000 -25.913868 0.520058 671.799011
5.120000 0.920000 -6.800000 -10.759002 -0.704817 116.252884
5.120000 0.960000 -7.200000 1.801172 0.331225 3.353930
5.120000 0.960000 -7.160000 12.485487 -13.793839 346.157410
5.120000 0.960000 -7.120000 36.784107 -11.800076 1492.312378
5.120000 0.960000 -7.080000 55.180901 14.136658 3244.776855
5.120000 0.960000 -7.040000 48.073776 51.697269 4983.695312
5.120000 0.960000 -7.000000 13.341372 76.058235 5962.847168
5.120000 0.960000 -6.960000 -29.806337 69.541122 5724.385742
5.120000 0.960000 -6.920000 -55.160263 36.458485 4371.875488
5.120000 0.960000 -6.880000 -50.133652 -0.142521 2513.403320
5.120000 0.960000 -6.840000 -24.924294 -17.147842 915.268921
5.120000 0.960000 -6.800000 -2.672893 -9.192154 91.640053
5.120000 1.000000 -7.200000 1.682806 -1.264663 4.431210
5.120000 1.000000 -7.160000 19.531471 -9.580481 473.263977
5.120000 1.000000 -7.120000 43.595406 2.939479 1909.199951
5.120000 1.000000 -7.080000 52.329056 37.039860 4110.281250
5.120000 1.000000 -7.040000 30.152929 73.296768 6281.615234
5.120000 1.000000 -7.000000 -16.202011 84.668716 7431.296875
5.120000 1.000000 -6.960000 -59.103737 59.107811 6986.985352
5.120000 1.000000 -6.920000 -70.942932 11.877026 5173.963379
5.120000 1.000000 -6.880000 -47.192688 -25.357004 2870.127441
5.120000 1.000000 -6.840000 -10.316889 -30.542536 1039.284668
5.120000 1.000000 -6.800000 9.932634 -9.054916 180.648743
5.120000 1.040000 -7.200000 3.949460 1.104261 16.817621
5.120000 1.040000 -7.160000 20.696022 3.270303 439.020203
5.120000 1.040000 -7.120000 34.547825 23.223728 1732.893799
5.120000 1.040000 -7.080000 28.143835 54.935036 3809.933594
5.120000 1.040000 -7.040000 -5.213678 76.848526 5932.878418
5.120000 1.040000 -7.000000 -50.040894 67.591324 7072.677734
5.120000 1.040000 -6.960000 -76.805664 26.623695 6607.931152
5.120000 1.040000 -6.920000 -66.035187 -20.993256 4801.362793
5.120000 1.040000 -6.880000 -26.702820 -43.650112 2618.372803
5.120000 1.040000 -6.840000 10.235255 -30.290028 1022.246216
5.120000 1.040000 -6.800000 18.914253 0.285031 357.830200
5.120000 1.080000 -7.200000 1.061403 7.237790 53.512180
5.120000 1.080000 -7.160000 8.149286 14.507109 276.867065
5.120000 1.080000 -7.120000 9.186894 30.720989 1028.178223
5.120000 1.080000 -7.080000 -5.739256 48.602692 2395.160645
5.120000 1.080000 -7.040000 -35.940014 51.562187 3950.343750
5.120000 1.080000 -7.000000 -64.000481 28.421642 4903.851074
5.120000 1.080000 -6.960000 -67.402206 -11.862921 4683.786621
5.120000 1.080000 -6.920000 -39.606731 -43.156208 3431.151367
5.120000 1.080000 -6.880000 0.788287 -43.703209 1910.591797
5.120000 1.080000 -6.840000 24.722555 -16.437510 881.396423
5.120000 1.080000 -6.800000 18.728954 13.200027 525.014465
5.120000 1.120000 -7.200000 -9.355471 8.326292 156.851974
5.120000 1.120000 -7.160000 -11.338413 10.343974 235.557419
5.120000 1.120000 -7.120000 -14.565886 14.492029 422.183929
5.120000 1.120000 -7.080000 -24.313164 17.747366 906.098938
5.120000 1.120000 -7.040000 -38.927254 11.072841 1637.938843
5.120000 1.120000 -7.000000 -46.394188 -9.350460 2239.851807
5.120000 1.120000 -6.960000 -34.721519 -33.129154 2303.124756
5.120000 1.120000 -6.920000 -6.428194 -41.812977 1789.646729
5.120000 1.120000 -6.880000 19.942028 -26.370152 1093.069336
5.120000 1.120000 -6.840000 25.654697 2.223588 663.107849
5.120000 1.120000 -6.800000 9.718658 22.158886 585.468567
5.120000 1.160000 -7.200000 -18.480011 -2.474332 347.633118
5.120000 1.160000 -7.160000 -20.137932 -10.105781 507.663086
5.120000 1.160000 -7.120000 -16.181671 -14.915491 484.318359
5.120000 1.160000 -7.080000 -12.794371 -15.398224 400.801208
5.120000 1.160000 -7.040000 -12.335503 -16.671595 430.106689
5.120000 1.160000 -7.000000 -9.745637 -21.913349 575.172302
5.120000 1.160000 -6.960000 0.320387 -26.001144 676.162170
5.120000 1.160000 -6.920000 14.502749 -20.228159 619.508179
5.120000 1.160000 -6.880000 21.727329 -3.260296 482.706360
5.120000 1.160000 -6.840000 14.377937 15.004718 431.866638
5.120000 1.160000 -6.800000 -2.867880 22.328506 506.786926
5.120000 1.200000 -7.200000 -14.262287 -19.524715 584.627319
5.120000 1.200000 -7.160000 -7.462209 -30.515594 986.886047
5.120000 1.200000 -7.120000 6.418977 -33.119812 1138.125244
5.120000 1.200000 -7.080000 18.045395 -25.660660 984.105774
5.120000 1.200000 -7.040000 21.852879 -14.305295 682.189758
5.120000 1.200000 -7.000000 19.849064 -5.440251 423.581696
5.120000 1.200000 -6.960000 16.840237 0.249314 283.655731
5.120000 1.200000 -6.920000 13.986062 5.851521 229.850220
5.120000 1.200000 -6.880000 8.471514 12.218144 221.049591
5.120000 1.200000 -6.840000 -1.276617 15.950242 256.039978
5.120000 1.200000 -6.800000 -12.225004 13.642170 335.559509
5.160000 0.800000 -7.200000 -1.609380 4.966273 27.253975
5.160000 0.800000 -7.160000 2.582750 0.015669 6.670845
5.160000 0.800000 -7.120000 15.536053 0.949839 242.271118
5.160000 0.800000 -7.080000 27.065289 16.696404 1011.299744
5.160000 0.800000 -7.040000 21.828657 41.487701 2197.719727
5.160000 0.800000 -7.000000 -3.694316 56.666840 3224.778564
5.160000 0.800000 -6.960000 -34.347412 47.785675 3463.215332
5.160000 0.800000 -6.920000 -48.704319 19.696806 2760.074707
5.160000 0.800000 -6.880000 -38.986992 -7.085121 1570.184570
5.160000 0.800000 -6.840000 -17.674263 -15.767883 561.005737
5.160000 0.800000 -6.800000 -3.786794 -8.311232 83.416374
5.160000 0.840000 -7.200000 -2.076077 3.021286 13.438267
5.160000 0.840000 -7.160000 2.735427 -0.928775 8.345183
5.160000 0.840000 -7.120000 14.713256 4.213286 234.231689
5.160000 0.840000 -7.080000 19.958801 23.154934 934.504700
5.160000 0.840000 -7.040000 6.303871 44.156353 1989.522339
5.160000 0.840000 -7.000000 -21.819725 48.840893 2861.533203
5.160000 0.840000 -6.960000 -45.225388 30.740498 2990.313965
5.160000 0.840000 -6.920000 -47.715435 2.673601 2283.910889
5.160000 0.840000 -6.880000 -31.171291 -15.382701 1208.276855
5.160000 0.840000 -6.840000 -12.159637 -15.130322 376.783447
5.160000 0.840000 -6.800000 -4.260333 -5.569147 49.165840
5.160000 0.880000 -7.200000 -2.533433 0.834099 7.114006
5.160000 0.880000 -7.160000 3.022191 -2.825221 17.115509
5.160000 0.880000 -7.120000 12.594264 4.504243 178.903702
5.160000 0.880000 -7.080000 12.269788 22.097309 638.838745
5.160000 0.880000 -7.040000 -4.437929 36.184486 1329.012207
5.160000 0.880000 -7.000000 -28.424255 33.287579 1916.001221
5.160000 0.880000 -6.960000 -42.953003 13.830783 2036.250977
5.160000 0.880000 -6.920000 -39.281181 -8.223288 1610.633667
5.160000 0.880000 -6.880000 -23.711655 -18.858150 917.872437
5.160000 0.880000 -6.840000 -9.593230 -15.950376 346.444550
5.160000 0.880000 -6.800000 -4.120754 -7.929258 79.853752
5.160000 0.920000 -7.200000 -0.736222 -2.467013 6.628175
5.160000 0.920000 -7.160000 6.618616 -4.674536 65.657364
5.160000 0.920000 -7.120000 13.865400 4.003675 208.278732
5.160000 0.920000 -7.080000 10.380346 18.799398 461.168976
5.160000 0.920000 -7.040000 -5.450838 27.684320 796.133179
5.160000 0.920000 -7.000000 -24.354788 22.410185 1095.372070
5.160000 0.920000 -6.960000 -34.335812 5.660910 1210.993896
5.160000 0.920000 -6.920000 -30.521507 -11.925587 1073.781982
5.160000 0.920000 -6.880000 -17.721380 -20.839514 748.332642
5.160000 0.920000 -6.840000 -4.933685 -18.969666 384.189453
5.160000 0.920000 -6.800000 1.591873 -10.632097 115.575546
5.160000 0.960000 -7.200000 5.005263 -3.229808 35.484322
5.160000 0.960000 -7.160000 12.840358 -1.197240 166.308167
5.160000 0.960000 -7.120000 16.644529 8.781540 354.155792
5.160000 0.960000 -7.080000 10.744050 20.825573 549.139099
5.160000 0.960000 -7.040000 -3.961147 26.435862 714.545471
5.160000 0.960000 -7.000000 -20.241772 20.413382 826.435425
5.160000 0.960000 -6.960000 -29.024023 4.571788 863.295166
5.160000 0.960000 -6.920000 -25.194319 -12.971960 803.025452
5.160000 0.960000 -6.880000 -11.206894 -22.602913 636.486145
5.160000 0.960000 -6.840000 3.917747 -19.439579 393.246002
5.160000 0.960000 -6.800000 10.246534 -7.072215 155.007690
5.160000 1.000000 -7.200000 10.575146 2.838765 119.892296
5.160000 1.000000 -7.160000 14.255013 9.668308 296.681580
5.160000 1.000000 -7.120000 12.446255 18.793463 508.103516
5.160000 1.000000 -7.080000 4.078726 26.427517 715.049622
5.160000 1.000000 -7.040000 -9.587103 27.886089 869.546509
5.160000 1.000000 -7.000000 -23.383821 19.349422 921.203247
5.160000 1.000000 -6.960000 -29.086458 1.990426 849.983826
5.160000 1.000000 -6.920000 -21.059952 -15.681755 689.439026
5.160000 1.000000 -6.880000 -2.866032 -22.270103 504.171661
5.160000 1.000000 -6.840000 12.908800 -13.212715 341.212952
5.160000 1.000000 -6.800000 14.266452 3.267464 214.207962
5.160000 1.040000 -7.200000 8.434828 13.434457 251.630951
5.160000 1.040000 -7.160000 3.843883 20.504309 435.202087
5.160000 1.040000 -7.120000 -3.206887 23.808578 577.132507
5.160000 1.040000 -7.080000 -11.348342 24.147814 711.901733
5.160000 1.040000 -7.040000 -20.787933 20.311966 844.714111
5.160000 1.040000 -7.000000 -28.405888 9.456746 896.324524
5.160000 1.040000 -6.960000 -27.200407 -6.781726 785.853943
5.160000 1.040000 -6.920000 -13.536769 -19.144156 549.742798
5.160000 1.040000 -6.880000 5.586244 -17.453163 335.819031
5.160000 1.040000 -6.840000 15.901648 -2.020236 256.943756
5.160000 1.040000 -6.800000 9.289212 13.654927 272.746490
5.160000 1.080000 -7.200000 -3.460313 19.037861 374.413910
5.160000 1.080000 -7.160000 -14.843756 19.122366 586.001953
5.160000 1.080000 -7.120000 -21.683113 12.761477 633.012695
5.160000 1.080000 -7.080000 -23.570337 6.040257 592.045532
5.160000 1.080000 -7.040000 -23.996231 0.124721 575.834656
5.160000 1.080000 -7.000000 -22.781509 -7.584645 576.524048
5.160000 1.080000 -6.960000 -15.604576 -15.967452 498.462311
5.160000 1.080000 -6.920000 -1.793655 -17.927530 324.613525
5.160000 1.080000 -6.880000 10.548515 -8.186213 178.285278
5.160000 1.080000 -6.840000 10.944187 7.850708 181.408844
5.160000 1.080000 -6.800000 -1.191350 16.751242 282.023407
5.160000 1.120000 -7.200000 -16.634182 11.895286 418.193848
5.160000 1.120000 -7.160000 -27.351284 1.506967 750.363647
5.160000 1.120000 -7.120000 -26.306633 -12.314447 843.684570
5.160000 1.120000 -7.080000 -17.239614 -19.969845 695.999023
5.160000 1.120000 -7.040000 -8.058414 -20.287886 476.536316
5.160000 1.120000 -7.000000 -1.800981 -17.732872 317.698273
5.160000 1.120000 -6.960000 3.643551 -14.370461 219.785599
5.160000 1.120000 -6.920000 8.773126 -7.849541 138.583038
5.160000 1.120000 -6.880000 9.303921 2.585284 93.246635
5.160000 1.120000 -6.840000 1.798693 11.403965 133.285706
5.160000 1.120000 -6.800000 -9.438583 11.486524 221.027084
5.160000 1.160000 -7.200000 -18.541092 -4.282793 362.114410
5.160000 1.160000 -7.160000 -21.014359 -20.965410 881.151733
5.160000 1.160000 -7.120000 -8.812514 -34.080559 1239.144897
5.160000 1.160000 -7.080000 9.117389 -34.082073 1244.714600
5.160000 1.160000 -7.040000 21.337296 -22.637766 967.748657
5.160000 1.160000 -7.000000 23.376896 -8.190964 613.571167
5.160000 1.160000 -6.960000 18.200603 2.700274 338.553436
5.160000 1.160000 -6.920000 10.266766 8.714675 181.352036
5.160000 1.160000 -6.880000 1.701633 10.658058 116.489754
5.160000 1.160000 -6.840000 -6.172215 8.539306 111.015984
5.160000 1.160000 -6.800000 -10.745628 3.068363 124.883385
5.160000 1.200000 -7.200000 -5.400447 -15.520964 270.065155
5.160000 1.200000 -7.160000 1.259912 -29.889183 894.950684
5.160000 1.200000 -7.120000 19.856754 -34.577728 1589.909912
5.160000 1.200000 -7.080000 38.146599 -23.130598 1990.187500
5.160000 1.200000 -7.040000 43.925224 -1.326754 1931.185547
5.160000 1.200000 -7.000000 34.255318 18.452566 1513.923950
5.160000 1.200000 -6.960000 15.964630 26.897751 978.358398
5.160000 1.200000 -6.920000 -0.898281 22.993816 529.522461
5.160000 1.200000 -6.880000 -9.819012 12.350624 248.950897
5.160000 1.200000 -6.840000 -10.302820 2.169942 110.856750
5.160000 1.200000 -6.800000 -6.412738 -2.892128 49.487617
5.200000 0.800000 -7.200000 -10.603857 16.823757 395.480591
5.200000 0.800000 -7.160000 -13.553153 8.773479 260.661896
5.200000 0.800000 -7.120000 -5.181169 5.390678 55.903927
5.200000 0.800000 -7.080000 2.392270 16.410002 275.011108
5.200000 0.800000 -7.040000 -6.486867 34.039734 1200.782959
5.200000 0.800000 -7.000000 -32.198902 38.610764 2527.560303
5.200000 0.800000 -6.960000 -56.186287 18.947392 3515.902588
5.200000 0.800000 -6.920000 -57.984230 -14.369358 3568.649414
5.200000 0.800000 -6.880000 -35.543705 -37.930908 2702.108887
5.200000 0.800000 -6.840000 -7.069450 -37.839676 1481.818237
5.200000 0.800000 -6.800000 7.557346 -21.839664 534.084412
5.200000 0.840000 -7.200000 -16.183517 7.101366 312.335663
5.200000 0.840000 -7.160000 -13.622923 -0.450748 185.787201
5.200000 0.840000 -7.120000 -4.998759 2.380863 30.656105
5.200000 0.840000 -7.080000 -5.312050 16.099640 287.416260
5.200000 0.840000 -7.040000 -22.192375 25.947922 1165.796143
5.200000 0.840000 -7.000000 -45.222984 16.821894 2328.094482
5.200000 0.840000 -6.960000 -54.676311 -9.792178 3085.385742
5.200000 0.840000 -6.920000 -41.096043 -35.645912 2959.515869
5.200000 0.840000 -6.880000 -14.768259 -43.087677 2074.649414
5.200000 0.840000 -6.840000 4.968617 -31.489260 1016.260620
5.200000 0.840000 -6.800000 8.713781 -15.519531 316.785828
5.200000 0.880000 -7.200000 -12.644652 -4.108114 176.763840
5.200000 0.880000 -7.160000 -6.885053 -6.615823 91.173065
5.200000 0.880000 -7.120000 -3.331578 0.559304 11.412235
5.200000 0.880000 -7.080000 -11.261246 9.708610 221.072754
5.200000 0.880000 -7.040000 -27.700502 7.983418 831.052734
5.200000 0.880000 -7.000000 -38.962090 -8.595658 1591.929810
5.200000 0.880000 -6.960000 -33.993553 -29.913631 2050.386963
5.200000 0.880000 -6.920000 -15.395972 -41.089821 1925.409424
5.200000 0.880000 -6.880000 3.518116 -36.417660 1338.623169
5.200000 0.880000 -6.840000 11.879050 -23.243036 681.350525
5.200000 0.880000 -6.800000 10.259942 -12.655388 265.425262
5.200000 0.920000 -7.200000 -0.935218 -8.543949 73.873703
5.200000 0.920000 -7.160000 2.487264 -4.505617 26.487068
5.200000 0.920000 -7.120000 -1.421678 1.770739 5.156682
5.200000 0.920000 -7.080000 -11.565093 1.831528 137.105865
5.200000 0.920000 -7.040000 -19.622789 -7.750069 445.117432
5.200000 0.920000 -7.000000 -18.068804 -21.576067 792.008301
5.200000 0.920000 -6.960000 -7.238235 -30.513336 983.455688
5.200000 0.920000 -6.920000 5.681590 -29.959429 929.847839
5.200000 0.920000 -6.880000 13.807146 -22.702946 706.061035
5.200000 0.920000 -6.840000 15.788831 -14.434839 457.651733
5.200000 0.920000 -6.800000 14.265108 -8.040066 268.135986
5.200000 0.960000 -7.200000 10.507801 -1.098413 111.620392
5.200000 0.960000 -7.160000 6.186064 5.999431 74.260551
5.200000 0.960000 -7.120000 -3.227675 5.773216 43.747913
5.200000 0.960000 -7.080000 -9.044376 -2.722713 89.213913
5.200000 0.960000 -7.040000 -6.282227 -12.773750 202.635071
5.200000 0.960000 -7.000000 2.110514 -17.325167 304.615662
5.200000 0.960000 -6.960000 9.641621 -15.501234 333.249084
5.200000 0.960000 -6.920000 13.293119 -11.441364 307.611847
5.200000 0.960000 -6.880000 14.926847 -8.118862 288.726685
5.200000 0.960000 -6.840000 16.425833 -4.368337 288.890350
5.200000 0.960000 -6.800000 15.758735 1.418867 250.350906
5.200000 1.000000 -7.200000 11.380476 13.894793 322.580505
5.200000 1.000000 -7.160000 -1.883625 17.058414 294.537537
5.200000 1.000000 -7.120000 -11.470079 7.336641 185.389038
5.200000 1.000000 -7.080000 -8.748269 -5.569083 107.546898
5.200000 1.000000 -7.040000 2.165187 -10.332263 111.443695
5.200000 1.000000 -7.000000 10.555743 -5.520268 141.897079
5.200000 1.000000 -6.960000 11.318871 1.059387 129.239136
5.200000 1.000000 -6.920000 8.892250 3.038270 88.303200
5.200000 1.000000 -6.880000 9.376797 2.521548 94.282524
5.200000 1.000000 -6.840000 11.721652 5.330183 165.807968
5.200000 1.000000 -6.800000 9.453287 11.241262 215.730621
5.200000 1.040000 -7.200000 -0.887907 24.461599 599.158264
5.200000 1.040000 -7.160000 -18.506168 17.639057 653.614624
5.200000 1.040000 -7.120000 -22.072418 -0.438079 487.383575
5.200000 1.040000 -7.080000 -9.815759 -12.621264 255.645416
5.200000 1.040000 -7.040000 5.193073 -9.862572 124.238319
5.200000 1.040000 -7.000000 10.367806 1.332605 109.267242
5.200000 1.040000 -6.960000 5.930472 8.799753 112.606155
5.200000 1.040000 -6.920000 1.202856 8.754404 78.086449
5.200000 1.040000 -6.880000 1.437131 7.471308 57.885792
5.200000 1.040000 -6.840000 2.163212 10.362236 112.055420
5.200000 1.040000 -6.800000 -2.558845 13.583900 191.070038
5.200000 1.080000 -7.200000 -17.248549 21.164886 745.464844
5.200000 1.080000 -7.160000 -31.449951 3.481064 1001.217224
5.200000 1.080000 -7.120000 -24.801872 -18.052757 941.034912
5.200000 1.080000 -7.080000 -4.476802 -24.928690 641.481323
5.200000 1.080000 -7.040000 11.510506 -14.200506 334.146118
5.200000 1.080000 -7.000000 12.903738 1.692321 169.370407
5.200000 1.080000 -6.960000 4.616410 10.117455 123.674126
5.200000 1.080000 -6.920000 -2.715073 9.987118 107.114143
5.200000 1.080000 -6.880000 -5.390720 8.186744 96.082642
5.200000 1.080000 -6.840000 -7.543135 8.154144 123.388947
5.200000 1.080000 -6.800000 -11.586077 6.240298 173.178497
5.200000 1.120000 -7.200000 -24.255465 6.477074 630.280090
5.200000 1.120000 -7.160000 -29.150869 -17.123720 1142.994995
5.200000 1.120000 -7.120000 -12.131003 -35.601021 1414.593994
5.200000 1.120000 -7.080000 12.853953 -33.721146 1302.339844
5.200000 1.120000 -7.040000 26.854221 -14.706602 937.433350
5.200000 1.120000 -7.000000 22.940157 5.750443 559.318420
5.200000 1.120000 -6.960000 8.869714 15.357422 314.522217
5.200000 1.120000 -6.920000 -3.882384 13.735895 203.747726
5.200000 1.120000 -6.880000 -10.451601 7.475555 165.119888
5.200000 1.120000 -6.840000 -12.328574 1.213536 153.466415
5.200000 1.120000 -6.800000 -11.042095 -4.227027 139.795624
5.200000 1.160000 -7.200000 -16.559883 -6.559361 317.254944
5.200000 1.160000 -7.160000 -11.784307 -28.915648 974.984619
5.200000 1.160000 -7.120000 11.569968 -39.359055 1682.999268
5.200000 1.160000 -7.080000 36.172161 -27.381399 2058.166260
5.200000 1.160000 -7.040000 44.140003 -0.885400 1949.123779
5.200000 1.160000 -7.000000 31.552990 22.281254 1492.045410
5.200000 1.160000 -6.960000 9.020012 29.530716 953.423767
5.200000 1.160000 -6.920000 -9.217587 21.173679 533.288635
5.200000 1.160000 -6.880000 -15.641193 6.401947 285.631836
5.200000 1.160000 -6.840000 -11.580990 -5.265760 161.847565
5.200000 1.160000 -6.800000 -3.136036 -9.031957 91.410965
5.200000 1.200000 -7.200000 -2.511881 -6.223439 45.040741
5.200000 1.200000 -7.160000 7.405772 -22.952217 581.649719
5.200000 1.200000 -7.120000 31.107731 -24.463676 1566.162354
5.200000 1.200000 -7.080000 50.121277 -4.371422 2531.251709
5.200000 1.200000 -7.040000 48.265377 25.791168 2994.730957
5.200000 1.200000 -7.000000 25.074699 46.251633 2767.954102
5.200000 1.200000 -6.960000 -4.593995 44.850693 2032.689331
5.200000 1.200000 -6.920000 -22.943766 25.359228 1169.506836
5.200000 1.200000 -6.880000 -22.285402 2.772008 504.323181
5.200000 1.200000 -6.840000 -8.789042 -8.865076 155.836823
5.200000 1.200000 -6.800000 4.155032 -5.939237 52.538826
