#kx 	ky 	kz 	real 	imag 	intensity
5.800000 5.800000 3.800000 -10.456089 -18.480499 450.858643
5.800000 5.800000 3.840000 -5.992938 -12.886254 201.970856
5.800000 5.800000 3.880000 -9.018303 -10.292407 187.263428
5.800000 5.800000 3.920000 -11.504176 -15.797362 381.902710
5.800000 5.800000 3.960000 -5.064758 -24.156134 609.170593
5.800000 5.800000 4.000000 9.442801 -24.871765 707.771179
5.800000 5.800000 4.040000 21.933941 -13.204584 655.458801
5.800000 5.800000 4.080000 22.836754 4.633169 542.983582
5.800000 5.800000 4.120000 12.143051 17.561340 455.854370
5.800000 5.800000 4.160000 -1.741947 20.080282 406.252136
5.800000 5.800000 4.200000 -11.281960 15.757565 375.583496
5.800000 5.840000 3.800000 -0.148568 -25.929977 672.385803
5.800000 5.840000 3.840000 0.584737 -18.704466 350.198975
5.800000 5.840000 3.880000 -2.548450 -19.140867 372.867401
5.800000 5.840000 3.920000 0.511493 -24.876095 619.081665
5.800000 5.840000 3.960000 11.419438 -25.826981 797.436462
5.800000 5.840000 4.000000 21.413929 -16.245234 722.463989
5.800000 5.840000 4.040000 21.262184 -1.597783 454.633392
5.800000 5.840000 4.080000 11.563679 7.468803 189.501678
5.800000 5.840000 4.120000 1.592558 6.859105 49.583557
5.800000 5.840000 4.160000 -1.714170 2.750698 10.504717
5.800000 5.840000 4.200000 -1.535989 3.021816 11.490637
5.800000 5.880000 3.800000 13.600534 -26.738110 899.901062
5.800000 5.880000 3.840000 11.759954 -20.716137 567.454834
5.800000 5.880000 3.880000 11.426124 -22.191435 623.016113
5.800000 5.880000 3.920000 17.972315 -23.067423 855.110107
5.800000 5.880000 3.960000 25.609598 -16.108543 915.336670
5.800000 5.880000 4.000000 25.465897 -4.504516 668.802551
5.800000 5.880000 4.040000 17.352911 1.960162 304.965759
5.800000 5.880000 4.080000 10.596842 -0.664449 112.734543
5.800000 5.880000 4.120000 12.557024 -4.844046 181.143631
5.800000 5.880000 4.160000 18.530834 -0.373367 343.531219
5.800000 5.880000 4.200000 16.051245 12.125153 404.661804
5.800000 5.920000 3.800000 26.981325 -18.898764 1085.155151
5.800000 5.920000 3.840000 24.180721 -14.005075 780.849426
5.800000 5.920000 3.880000 25.450871 -13.326437 825.340759
5.800000 5.920000 3.920000 29.827494 -8.990789 970.513672
5.800000 5.920000 3.960000 30.031906 -0.570517 902.240906
5.800000 5.920000 4.000000 24.127270 4.507194 602.439941
5.800000 5.920000 4.040000 19.657188 1.933008 390.141571
5.800000 5.920000 4.080000 24.205185 -1.534344 588.245178
5.800000 5.920000 4.120000 33.631485 5.454575 1160.829224
5.800000 5.920000 4.160000 33.537571 24.120476 1706.566040
5.800000 5.920000 4.200000 14.713112 40.119461 1826.046875
5.800000 5.960000 3.800000 34.080791 -2.690024 1168.736572
5.800000 5.960000 3.840000 29.571484 1.727065 877.455383
5.800000 5.960000 3.880000 28.737570 4.094071 842.609314
5.800000 5.960000 3.920000 28.145250 8.496346 864.342957
5.800000 5.960000 3.960000 24.669256 11.841684 748.797729
5.800000 5.960000 4.000000 22.298512 10.509190 607.666687
5.800000 5.960000 4.040000 27.142889 8.964460 817.098022
5.800000 5.960000 4.080000 36.500969 17.238779 1629.496216
5.800000 5.960000 4.120000 37.032185 38.046654 2818.930664
5.800000 5.960000 4.160000 17.452972 58.674870 3747.346436
5.800000 5.960000 4.200000 -16.684534 59.703880 3842.927002
5.800000 6.000000 3.800000 29.125196 16.635489 1125.016479
5.800000 6.000000 3.840000 21.382351 18.546185 801.165894
5.800000 6.000000 3.880000 17.560312 18.126774 636.944458
5.800000 6.000000 3.920000 15.715919 17.614819 557.271912
5.800000 6.000000 3.960000 16.115231 16.419029 529.285156
5.800000 6.000000 4.000000 21.153282 17.199936 743.299133
5.800000 6.000000 4.040000 28.372490 26.526182 1508.636475
5.800000 6.000000 4.080000 27.285278 46.443211 2901.458252
5.800000 6.000000 4.120000 7.689552 66.705780 4508.790527
5.800000 6.000000 4.160000 -27.305641 69.486610 5573.987305
5.800000 6.000000 4.200000 -58.679611 45.351456 5500.051758
5.800000 6.040000 3.800000 11.464267 29.551929 1004.745972
5.800000 6.040000 3.840000 2.169923 24.906471 625.040894
5.800000 6.040000 3.880000 -0.062598 18.287724 334.444733
5.800000 6.040000 3.920000 3.559039 14.079471 210.898254
5.800000 6.040000 3.960000 10.833404 15.695828 363.721649
5.800000 6.040000 4.000000 17.025877 26.250948 978.992737
5.800000 6.040000 4.040000 13.746168 44.766884 2193.031006
5.800000 6.040000 4.080000 -5.952846 61.862942 3862.459961
5.800000 6.040000 4.120000 -38.791088 62.930031 5464.937500
5.800000 6.040000 4.160000 -68.784111 39.693760 6306.848633
5.800000 6.040000 4.200000 -77.115379 0.131121 5946.798828
5.800000 6.080000 3.800000 -11.571054 27.964354 915.894348
5.800000 6.080000 3.840000 -16.565594 15.250490 506.996338
5.800000 6.080000 3.880000 -10.809332 5.012173 141.963531
5.800000 6.080000 3.920000 0.785996 4.251142 18.689995
5.800000 6.080000 3.960000 9.574059 15.312470 326.134338
5.800000 6.080000 4.000000 6.444908 33.813549 1184.892944
5.800000 6.080000 4.040000 -12.908978 48.709206 2539.228271
5.800000 6.080000 4.080000 -42.892464 47.279785 4075.141602
5.800000 6.080000 4.120000 -68.524429 24.128750 5277.794434
5.800000 6.080000 4.160000 -74.143036 -12.572466 5655.256836
5.800000 6.080000 4.200000 -55.086647 -44.577694 5021.709473
5.800000 6.120000 3.800000 -28.252760 11.770478 936.762573
5.800000 6.120000 3.840000 -23.065208 -4.726354 554.342285
5.800000 6.120000 3.880000 -7.532549 -10.963802 176.944260
5.800000 6.120000 3.920000 7.040899 -1.782531 52.751682
5.800000 6.120000 3.960000 8.356462 17.647539 381.266083
5.800000 6.120000 4.000000 -8.416348 33.724251 1208.160034
5.800000 6.120000 4.040000 -35.908791 32.703533 2358.962402
5.800000 6.120000 4.080000 -57.945087 10.596024 3469.908691
5.800000 6.120000 4.120000 -60.074924 -22.791016 4128.426758
5.800000 6.120000 4.160000 -39.935822 -49.758110 4070.739502
5.800000 6.120000 4.200000 -9.132114 -56.924526 3323.797119
5.800000 6.160000 3.800000 -30.618792 -10.218286 1041.923706
5.800000 6.160000 3.840000 -14.626945 -22.642349 726.623474
5.800000 6.160000 3.880000 5.473892 -18.493160 371.960480
5.800000 6.160000 3.920000 14.604712 0.363948 213.430054
5.800000 6.160000 3.960000 4.129844 20.027281 418.147583
5.800000 6.160000 4.000000 -20.183424 24.089817 987.689880
5.800000 6.160000 4.040000 -41.176407 6.488644 1737.598999
5.800000 6.160000 4.080000 -42.942230 -22.975906 2371.927490
5.800000 6.160000 4.120000 -23.079601 -45.697868 2620.963135
5.800000 6.160000 4.160000 5.732468 -48.393566 2374.798340
5.800000 6.160000 4.200000 26.070164 -32.545990 1738.894897
5.800000 6.200000 3.800000 -20.131479 -26.787138 1122.827271
5.800000 6.200000 3.840000 1.284259 -29.627159 879.417847
5.800000 6.200000 3.880000 17.969185 -15.109825 551.198425
5.800000 6.200000 3.920000 16.946737 6.848116 334.088593
5.800000 6.200000 3.960000 -1.517901 18.792631 355.467010
5.800000 6.200000 4.000000 -22.531456 10.118048 610.041382
5.800000 6.200000 4.040000 -28.243542 -13.264940 973.656250
5.800000 6.200000 4.080000 -12.847750 -33.284855 1272.946289
5.800000 6.200000 4.120000 12.590431 -34.736439 1365.139038
5.800000 6.200000 4.160000 29.809038 -17.610003 1198.690918
5.800000 6.200000 4.200000 28.599060 4.053782 834.339417
5.840000 5.800000 3.800000 -2.726883 -6.147356 45.225876
5.840000 5.800000 3.840000 -6.531088 -5.262996 70.354233
5.840000 5.800000 3.880000 -9.449593 -11.402719 219.316788
5.840000 5.800000 3.920000 -4.288280 -20.480902 437.856689
5.840000 5.800000 3.960000 9.022440 -23.427372 630.246155
5.840000 5.800000 4.000000 22.345510 -14.982461 723.795959
5.840000 5.800000 4.040000 26.550785 1.002306 705.948853
5.840000 5.800000 4.080000 19.580578 15.208764 614.705505
5.840000 5.800000 4.120000 7.096666 21.302938 504.177856
5.840000 5.800000 4.160000 -4.172690 20.075619 420.441803
5.840000 5.800000 4.200000 -12.346240 15.584633 395.310425
5.840000 5.840000 3.800000 3.714592 -10.985087 134.470337
5.840000 5.840000 3.840000 3.677786 -10.734552 128.756729
5.840000 5.840000 3.880000 6.954203 -12.360243 201.136551
5.840000 5.840000 3.920000 13.565277 -10.273880 289.569336
5.840000 5.840000 3.960000 17.816547 -2.244849 322.468689
5.840000 5.840000 4.000000 14.900373 7.099943 272.430328
5.840000 5.840000 4.040000 6.913908 11.059289 170.110001
5.840000 5.840000 4.080000 0.836205 8.584187 74.387497
5.840000 5.840000 4.120000 0.327116 5.546120 30.866447
5.840000 5.840000 4.160000 1.068759 7.396215 55.846249
5.840000 5.840000 4.200000 -4.055850 11.496984 148.630554
5.840000 5.880000 3.800000 13.895866 -10.398409 301.222015
5.840000 5.880000 3.840000 17.289663 -5.633096 330.664246
5.840000 5.880000 3.880000 19.673603 2.328236 392.471344
5.840000 5.880000 3.920000 15.963744 12.600802 413.621338
5.840000 5.880000 3.960000 4.453989 17.989119 343.446411
5.840000 5.880000 4.000000 -7.736061 12.093451 206.098175
5.840000 5.880000 4.040000 -9.649851 -1.589796 95.647072
5.840000 5.880000 4.080000 1.665346 -10.205835 106.932449
5.840000 5.880000 4.120000 15.551417 -3.642998 255.118027
5.840000 5.880000 4.160000 16.535915 13.650459 459.771545
5.840000 5.880000 4.200000 0.223402 24.750771 612.650574
5.840000 5.920000 3.800000 22.640263 -1.137857 513.876221
5.840000 5.920000 3.840000 23.121447 10.752164 650.210327
5.840000 5.920000 3.880000 15.143827 23.865597 798.902222
5.840000 5.920000 3.920000 -2.707356 29.055941 851.577454
5.840000 5.920000 3.960000 -20.712790 17.852957 747.747681
5.840000 5.920000 4.000000 -23.207354 -5.385482 567.584656
5.840000 5.920000 4.040000 -4.187803 -22.357006 517.373413
5.840000 5.920000 4.080000 22.855183 -15.870327 774.226685
5.840000 5.920000 4.120000 33.974426 12.207076 1303.274292
5.840000 5.920000 4.160000 16.637009 39.388195 1828.219971
5.840000 5.920000 4.200000 -16.772869 41.689705 2019.360596
5.840000 5.960000 3.800000 22.263891 14.303655 700.275391
5.840000 5.960000 3.840000 13.003359 28.095493 958.444092
5.840000 5.960000 3.880000 -6.677834 34.359043 1225.137329
5.840000 5.960000 3.920000 -28.399868 23.114124 1340.815186
5.840000 5.960000 3.960000 -34.763737 -4.029993 1224.758179
5.840000 5.960000 4.000000 -15.112600 -28.286905 1028.539673
5.840000 5.960000 4.040000 19.635818 -26.851007 1106.541992
5.840000 5.960000 4.080000 41.405800 4.855836 1738.019409
5.840000 5.960000 4.120000 28.647995 44.591545 2809.113525
5.840000 5.960000 4.160000 -12.353864 60.182381 3774.536865
5.840000 5.960000 4.200000 -50.689674 38.039856 4016.473633
5.840000 6.000000 3.800000 9.177973 26.750547 799.826965
5.840000 6.000000 3.840000 -8.996114 32.264774 1121.945679
5.840000 6.000000 3.880000 -29.992950 23.115398 1433.898682
5.840000 6.000000 3.920000 -39.312077 -1.958809 1549.276245
5.840000 6.000000 3.960000 -24.227684 -28.506462 1399.599121
5.840000 6.000000 4.000000 10.048811 -33.452133 1220.023804
5.840000 6.000000 4.040000 38.045738 -6.003096 1483.515259
5.840000 6.000000 4.080000 33.237617 37.629967 2520.753662
5.840000 6.000000 4.120000 -6.857689 63.754425 4111.654785
5.840000 6.000000 4.160000 -54.934689 49.545124 5472.539062
5.840000 6.000000 4.200000 -75.782204 4.082533 5759.609375
5.840000 6.040000 3.800000 -11.043638 26.384769 818.118042
5.840000 6.040000 3.840000 -28.136614 17.865019 1110.828003
5.840000 6.040000 3.880000 -36.578987 -2.678807 1345.198364
5.840000 6.040000 3.920000 -26.249657 -26.013184 1365.730225
5.840000 6.040000 3.960000 1.737080 -34.147141 1169.044678
5.840000 6.040000 4.000000 28.947466 -14.696785 1053.951294
5.840000 6.040000 4.040000 30.778137 23.722126 1510.032959
5.840000 6.040000 4.080000 -1.532375 53.027176 2814.229492
5.840000 6.040000 4.120000 -49.083271 47.318298 4648.188477
5.840000 6.040000 4.160000 -78.094704 6.326141 6138.802734
5.840000 6.040000 4.200000 -67.861069 -42.441662 6406.418945
5.840000 6.080000 3.800000 -26.314041 11.199502 817.857605
5.840000 6.080000 3.840000 -31.058020 -6.267015 1003.876038
5.840000 6.080000 3.880000 -22.092829 -24.183386 1072.929199
5.840000 6.080000 3.920000 -0.782225 -30.919853 956.649170
5.840000 6.080000 3.960000 20.735508 -17.645544 741.326538
5.840000 6.080000 4.000000 24.607506 11.236442 731.786987
5.840000 6.080000 4.040000 1.690429 36.139141 1308.895020
5.840000 6.080000 4.080000 -37.006313 35.194481 2608.118652
5.840000 6.080000 4.120000 -65.232834 3.173171 4265.391602
5.840000 6.080000 4.160000 -61.643360 -41.429070 5516.271484
5.840000 6.080000 4.200000 -27.870842 -69.907425 5663.831543
5.840000 6.120000 3.800000 -27.205629 -10.395941 848.221802
5.840000 6.120000 3.840000 -16.963459 -24.541445 890.041504
5.840000 6.120000 3.880000 1.035931 -27.959715 782.818848
5.840000 6.120000 3.920000 16.904871 -16.707130 564.902832
5.840000 6.120000 3.960000 19.158133 4.430389 386.662415
5.840000 6.120000 4.000000 2.664573 21.905712 486.960175
5.840000 6.120000 4.040000 -24.942163 21.029591 1064.355225
5.840000 6.120000 4.080000 -45.702354 -2.465886 2094.785889
5.840000 6.120000 4.120000 -43.563831 -36.712021 3245.579834
5.840000 6.120000 4.160000 -17.320099 -60.824600 3999.617920
5.840000 6.120000 4.200000 17.438442 -60.484268 3962.446045
5.840000 6.160000 3.800000 -14.460695 -26.038948 887.138489
5.840000 6.160000 3.840000 2.851046 -27.895452 786.284729
5.840000 6.160000 3.880000 16.451027 -16.725723 550.386108
5.840000 6.160000 3.920000 17.327328 0.979292 301.195312
5.840000 6.160000 3.960000 3.944713 13.515946 198.241562
5.840000 6.160000 4.000000 -15.698332 11.206018 372.012482
5.840000 6.160000 4.040000 -28.327263 -6.660803 846.800171
5.840000 6.160000 4.080000 -24.033527 -30.301357 1495.782715
5.840000 6.160000 4.120000 -3.493975 -45.393059 2072.737549
5.840000 6.160000 4.160000 22.045124 -42.876629 2324.392822
5.840000 6.160000 4.200000 38.645126 -25.231888 2130.093994
5.840000 6.200000 3.800000 2.382463 -29.337751 866.379822
5.840000 6.200000 3.840000 16.208103 -20.010624 663.127686
5.840000 6.200000 3.880000 18.765558 -3.773896 366.388458
5.840000 6.200000 3.920000 8.358213 8.142479 136.159698
5.840000 6.200000 3.960000 -7.128555 7.038600 100.358185
5.840000 6.200000 4.000000 -15.752764 -6.483343 290.183289
5.840000 6.200000 4.040000 -10.333559 -22.770878 625.295288
5.840000 6.200000 4.080000 6.295303 -30.258648 955.216614
5.840000 6.200000 4.120000 23.749615 -23.860844 1133.384033
5.840000 6.200000 4.160000 31.957279 -8.058352 1086.204712
5.840000 6.200000 4.200000 28.122492 7.293125 844.064270
5.880000 5.800000 3.800000 -8.877077 7.382966 133.310684
5.880000 5.800000 3.840000 -13.817624 -1.907160 194.563995
5.880000 5.800000 3.880000 -9.036585 -13.940538 275.998474
5.880000 5.800000 3.920000 4.808716 -19.282722 394.947144
5.880000 5.800000 3.960000 19.233276 -12.785652 533.391846
5.880000 5.800000 4.000000 25.146261 1.680347 635.158020
5.880000 5.800000 4.040000 20.508059 15.112904 648.980347
5.880000 5.800000 4.080000 10.670229 21.611456 580.908813
5.880000 5.800000 4.120000 1.683582 22.188341 495.156921
5.880000 5.800000 4.160000 -5.418661 20.658459 456.133789
5.880000 5.800000 4.200000 -12.925486 17.313021 466.808868
5.880000 5.840000 3.800000 -5.251456 0.072629 27.583069
5.880000 5.840000 3.840000 0.253987 -2.748905 7.620989
5.880000 5.840000 3.880000 7.030571 1.461917 51.566128
5.880000 5.840000 3.920000 7.494720 10.877793 174.497223
5.880000 5.840000 3.960000 -0.548550 17.212973 296.587341
5.880000 5.840000 4.000000 -10.372666 14.086121 306.010986
5.880000 5.840000 4.040000 -12.579735 4.547728 178.931549
5.880000 5.840000 4.080000 -5.351372 -1.110056 29.869404
5.880000 5.840000 4.120000 2.495020 3.869871 21.201027
5.880000 5.840000 4.160000 0.167018 14.370096 206.527557
5.880000 5.840000 4.200000 -12.877724 17.348150 466.794067
5.880000 5.880000 3.800000 3.309484 -0.447821 11.153225
5.880000 5.880000 3.840000 9.021709 11.449924 212.492004
5.880000 5.880000 3.880000 0.672565 28.014149 785.244873
5.880000 5.880000 3.920000 -22.243698 33.057487 1587.579590
5.880000 5.880000 3.960000 -43.892803 16.150879 2187.428955
5.880000 5.880000 4.000000 -44.652199 -14.050739 2191.242188
5.880000 5.880000 4.040000 -20.574022 -34.371311 1604.677490
5.880000 5.880000 4.080000 10.098660 -27.640551 865.982971
5.880000 5.880000 4.120000 22.034437 0.142147 485.536621
5.880000 5.880000 4.160000 6.266262 23.997297 615.136353
5.880000 5.880000 4.200000 -20.891106 22.815495 956.985107
5.880000 5.920000 3.800000 8.159910 7.893932 128.898300
5.880000 5.920000 3.840000 -0.247469 29.546268 873.043213
5.880000 5.920000 3.880000 -30.371550 39.610893 2491.453857
5.880000 5.920000 3.920000 -64.371986 19.211761 4512.844238
5.880000 5.920000 3.960000 -72.306221 -26.235113 5916.470703
5.880000 5.920000 4.000000 -40.265251 -65.368294 5894.304199
5.880000 5.920000 4.040000 12.330570 -66.311066 4549.200195
5.880000 5.920000 4.080000 46.215462 -26.642666 2845.700684
5.880000 5.920000 4.120000 36.475842 22.015743 1815.180054
5.880000 5.920000 4.160000 -4.879820 41.360542 1734.507080
5.880000 5.920000 4.200000 -40.277256 20.363695 2036.937378
5.880000 5.960000 3.800000 2.153774 17.946901 326.730011
5.880000 5.960000 3.840000 -24.467865 32.987537 1686.854004
5.880000 5.960000 3.880000 -63.101463 18.986252 4342.272461
5.880000 5.960000 3.920000 -81.524963 -28.428814 7454.517090
5.880000 5.960000 3.960000 -54.385685 -80.746765 9477.842773
5.880000 5.960000 4.000000 8.259521 -96.163780 9315.692383
5.880000 5.960000 4.040000 63.013176 -57.360573 7260.895508
5.880000 5.960000 4.080000 68.636742 9.042023 4792.760742
5.880000 5.960000 4.120000 22.983130 53.116554 3349.592773
5.880000 5.960000 4.160000 -34.667133 44.824333 3211.031006
5.880000 5.960000 4.200000 -59.041824 -0.953854 3486.846924
5.880000 6.000000 3.800000 -12.222642 18.753342 501.080811
5.880000 6.000000 3.840000 -44.947247 13.693771 2207.774414
5.880000 6.000000 3.880000 -68.734146 -23.324869 5268.432129
5.880000 6.000000 3.920000 -54.192276 -75.559540 8646.046875
5.880000 6.000000 3.960000 2.134625 -103.228294 10660.637695
5.880000 6.000000 4.000000 65.777107 -77.092987 10269.957031
5.880000 6.000000 4.040000 88.907700 -9.055305 7986.577637
5.880000 6.000000 4.080000 52.219765 52.713013 5505.565430
5.880000 6.000000 4.120000 -15.928713 63.540947 4291.175781
5.880000 6.000000 4.160000 -63.274845 20.680288 4431.380371
5.880000 6.000000 4.200000 -58.922523 -36.226551 4784.226562
5.880000 6.040000 3.800000 -23.558571 6.097313 592.183533
5.880000 6.040000 3.840000 -43.769817 -16.685932 2194.217285
5.880000 6.040000 3.880000 -39.869949 -56.601326 4793.323242
5.880000 6.040000 3.920000 -0.494769 -86.262482 7441.460449
5.880000 6.040000 3.960000 55.633251 -75.594498 8809.586914
5.880000 6.040000 4.000000 88.113510 -21.690563 8234.471680
5.880000 6.040000 4.040000 68.085190 41.515602 6359.138672
5.880000 6.040000 4.080000 6.408134 67.999229 4664.958984
5.880000 6.040000 4.120000 -52.212029 38.814842 4232.687988
5.880000 6.040000 4.160000 -66.421577 -21.143354 4858.867676
5.880000 6.040000 4.200000 -32.580597 -65.519203 5354.261230
5.880000 6.080000 3.800000 -21.499027 -12.529562 619.198120
5.880000 6.080000 3.840000 -20.550552 -36.493958 1754.134155
5.880000 6.080000 3.880000 2.228156 -57.684883 3332.510254
5.880000 6.080000 3.920000 40.254780 -55.764122 4730.084473
5.880000 6.080000 3.960000 68.900314 -22.072521 5234.449707
5.880000 6.080000 4.000000 62.761009 26.656982 4649.539062
5.880000 6.080000 4.040000 19.552023 56.469109 3571.041748
5.880000 6.080000 4.080000 -33.065727 43.277641 2966.296387
5.880000 6.080000 4.120000 -57.711090 -5.047132 3356.043457
5.880000 6.080000 4.160000 -38.186707 -53.637543 4335.210938
5.880000 6.080000 4.200000 7.586623 -69.683289 4913.317383
5.880000 6.120000 3.800000 -6.434191 -24.169607 625.568726
5.880000 6.120000 3.840000 7.395038 -33.597141 1183.454468
5.880000 6.120000 3.880000 27.800909 -31.261177 1750.151733
5.880000 6.120000 3.920000 43.799015 -12.754546 2081.032227
5.880000 6.120000 3.960000 41.992096 15.390629 2000.207642
5.880000 6.120000 4.000000 17.874445 35.803398 1601.379150
5.880000 6.120000 4.040000 -16.431273 31.680920 1273.667358
5.880000 6.120000 4.080000 -37.958080 1.693736 1443.684692
5.880000 6.120000 4.120000 -30.221224 -35.893333 2201.653809
5.880000 6.120000 4.160000 2.570801 -56.058483 3149.162598
5.880000 6.120000 4.200000 38.267509 -46.804756 3655.087402
5.880000 6.160000 3.800000 10.957678 -22.093163 608.178528
5.880000 6.160000 3.840000 21.635605 -15.335773 703.285278
5.880000 6.160000 3.880000 25.660774 -2.780583 666.206970
5.880000 6.160000 3.920000 20.477577 9.958414 518.501221
5.880000 6.160000 3.960000 7.425728 16.533327 328.492310
5.880000 6.160000 4.000000 -7.913548 12.162568 210.552307
5.880000 6.160000 4.040000 -16.955751 -3.156017 297.457947
5.880000 6.160000 4.080000 -12.474844 -22.572895 665.157349
5.880000 6.160000 4.120000 5.701361 -34.867035 1248.215576
5.880000 6.160000 4.160000 28.756388 -31.598282 1825.381226
5.880000 6.160000 4.200000 43.996548 -13.775294 2125.454834
5.880000 6.200000 3.800000 19.988255 -11.273712 526.626953
5.880000 6.200000 3.840000 19.068329 0.633289 364.002228
5.880000 6.200000 3.880000 10.150171 7.506967 159.380524
5.880000 6.200000 3.920000 0.034353 5.473215 29.957264
5.880000 6.200000 3.960000 -4.715748 -2.839602 30.301617
5.880000 6.200000 4.000000 -2.135626 -11.676925 140.911469
5.880000 6.200000 4.040000 5.498105 -16.671764 308.176880
5.880000 6.200000 4.080000 14.746041 -16.475426 488.885406
5.880000 6.200000 4.120000 23.003880 -11.496481 661.347534
5.880000 6.200000 4.160000 28.250975 -2.641018 805.092529
5.880000 6.200000 4.200000 28.554859 8.299599 884.263367
5.920000 5.800000 3.800000 -24.432499 11.091755 719.974060
5.920000 5.800000 3.840000 -22.316162 -5.873430 532.508240
5.920000 5.800000 3.880000 -7.890018 -16.416159 331.742645
5.920000 5.800000 3.920000 9.564934 -13.293839 268.214111
5.920000 5.800000 3.960000 18.893017 0.349819 357.068451
5.920000 5.800000 4.000000 16.476170 14.347023 477.301239
5.920000 5.800000 4.040000 7.984543 21.146168 510.913330
5.920000 5.800000 4.080000 1.042351 21.674129 470.854370
5.920000 5.800000 4.120000 -2.787996 21.564373 472.795105
5.920000 5.800000 4.160000 -7.781097 22.700779 575.870850
5.920000 5.800000 4.200000 -16.180260 20.424019 678.941345
5.920000 5.840000 3.800000 -19.642183 0.112133 385.827942
5.920000 5.840000 3.840000 -9.639246 0.665838 93.358406
5.920000 5.840000 3.880000 -7.094158 10.372137 157.908310
5.920000 5.840000 3.920000 -16.626965 17.191132 571.990967
5.920000 5.840000 3.960000 -29.316975 10.857620 977.372925
5.920000 5.840000 4.000000 -31.012527 -5.517342 992.217896
5.920000 5.840000 4.040000 -17.199337 -17.137363 589.506470
5.920000 5.840000 4.080000 0.911304 -11.980835 144.370880
5.920000 5.840000 4.120000 6.424463 6.199831 79.711632
5.920000 5.840000 4.160000 -6.288004 20.225498 448.609772
5.920000 5.840000 4.200000 -24.890202 15.987732 875.129761
5.920000 5.880000 3.800000 -10.989007 -1.648432 123.475609
5.920000 5.880000 3.840000 -13.001129 17.204760 465.033112
5.920000 5.880000 3.880000 -38.005859 27.518284 2201.701172
5.920000 5.880000 3.920000 -68.275970 8.939278 4741.518555
5.920000 5.880000 3.960000 -74.089050 -33.320171 6599.421387
5.920000 5.880000 4.000000 -42.719334 -68.771133 6554.410156
5.920000 5.880000 4.040000 6.229736 -68.148262 4682.995117
5.920000 5.880000 4.080000 36.275818 -31.367144 2299.832520
5.920000 5.880000 4.120000 26.817373 11.119015 842.804016
5.920000 5.880000 4.160000 -8.351534 25.878139 739.426208
5.920000 5.880000 4.200000 -34.918877 6.636464 1263.370605
5.920000 5.920000 3.800000 -8.453175 3.440769 83.295052
5.920000 5.920000 3.840000 -35.042606 22.613518 1739.355469
5.920000 5.920000 3.880000 -78.543457 7.060066 6218.919434
5.920000 5.920000 3.920000 -98.239082 -48.635986 12016.375977
5.920000 5.920000 3.960000 -64.308197 -109.100327 16038.425781
5.920000 5.920000 4.000000 9.319572 -125.715073 15891.133789
5.920000 5.920000 4.040000 71.928192 -81.381531 11796.619141
5.920000 5.920000 4.080000 79.464432 -8.650860 6389.433105
5.920000 5.920000 4.120000 33.526081 38.168217 2580.811035
5.920000 5.920000 4.160000 -21.760653 30.916191 1429.336914
5.920000 5.920000 4.200000 -41.499207 -10.322243 1828.732910
5.920000 5.960000 3.800000 -14.377077 5.191238 233.649307
5.920000 5.960000 3.840000 -56.895470 2.865269 3245.304199
5.920000 5.960000 3.880000 -89.665176 -46.319954 10185.381836
5.920000 5.960000 3.920000 -69.103638 -118.067474 18715.242188
5.920000 5.960000 3.960000 8.942060 -156.100220 24447.240234
5.920000 5.960000 4.000000 96.345108 -121.785995 24114.208984
5.920000 5.960000 4.040000 130.472137 -33.156841 18122.355469
5.920000 5.960000 4.080000 89.300308 47.047661 10188.027344
5.920000 5.960000 4.120000 10.859568 65.377975 4392.209961
5.920000 5.960000 4.160000 -42.142498 22.652939 2289.145752
5.920000 5.960000 4.200000 -37.955860 -32.261551 2481.455078
5.920000 6.000000 3.800000 -20.220524 -3.237047 419.348083
5.920000 6.000000 3.840000 -54.905666 -32.292427 4057.433105
5.920000 6.000000 3.880000 -52.916687 -94.611130 11751.441406
5.920000 6.000000 3.920000 7.785378 -144.256805 20870.636719
5.920000 6.000000 3.960000 97.916641 -131.226395 26808.035156
5.920000 6.000000 4.000000 154.077789 -50.311203 26271.181641
5.920000 6.000000 4.040000 132.680481 47.151302 19827.355469
5.920000 6.000000 4.080000 50.181061 94.342560 11418.657227
5.920000 6.000000 4.120000 -30.357403 66.013275 5279.324219
5.920000 6.000000 4.160000 -54.545738 -2.465524 2981.316406
5.920000 6.000000 4.200000 -21.097853 -51.059902 3052.232910
5.920000 6.040000 3.800000 -15.327885 -16.966652 522.811340
5.920000 6.040000 3.840000 -24.426064 -56.053013 3738.572754
5.920000 6.040000 3.880000 9.367281 -99.934113 10074.573242
5.920000 6.040000 3.920000 79.054039 -105.183609 17313.132812
5.920000 6.040000 3.960000 139.051926 -50.001888 21835.626953
5.920000 6.040000 4.000000 140.359589 38.664524 21195.759766
5.920000 6.040000 4.040000 75.342758 101.660797 16011.449219
5.920000 6.040000 4.080000 -11.638736 96.591415 9465.361328
5.920000 6.040000 4.120000 -60.589794 34.134483 4836.286133
5.920000 6.040000 4.160000 -46.191200 -33.023262 3224.162842
5.920000 6.040000 4.200000 4.999877 -57.602577 3343.055664
5.920000 6.080000 3.800000 1.169379 -23.436649 550.643982
5.920000 6.080000 3.840000 13.962211 -49.337677 2629.149658
5.920000 6.080000 3.880000 53.077473 -59.658379 6376.339844
5.920000 6.080000 3.920000 96.958298 -32.265549 10441.976562
5.920000 6.080000 3.960000 109.792633 27.495438 12810.420898
5.920000 6.080000 4.000000 72.426598 83.629944 12239.579102
5.920000 6.080000 4.040000 3.541332 96.070152 9242.015625
5.920000 6.080000 4.080000 -51.704041 55.099312 5709.242188
5.920000 6.080000 4.120000 -58.080673 -8.878014 3452.183594
5.920000 6.080000 4.160000 -18.793602 -50.749260 2928.686768
5.920000 6.080000 4.200000 30.234240 -48.014587 3219.509766
5.920000 6.120000 3.800000 18.262587 -15.212971 564.956543
5.920000 6.120000 3.840000 33.108284 -18.905279 1453.567993
5.920000 6.120000 3.880000 52.336731 -7.892841 2801.430176
5.920000 6.120000 3.920000 60.967430 19.992336 4116.721191
5.920000 6.120000 3.960000 45.375767 51.913898 4754.012695
5.920000 6.120000 4.000000 7.383156 65.824821 4387.418457
5.920000 6.120000 4.040000 -32.243088 47.736523 3318.392334
5.920000 6.120000 4.080000 -47.511627 5.739468 2290.296143
5.920000 6.120000 4.120000 -28.065163 -33.668457 1921.218262
5.920000 6.120000 4.160000 11.701784 -45.778389 2232.592529
5.920000 6.120000 4.200000 44.407200 -26.833704 2692.047119
5.920000 6.160000 3.800000 23.636650 1.924124 562.393494
5.920000 6.160000 3.840000 24.355511 9.733531 687.932556
5.920000 6.160000 3.880000 20.724064 17.668560 741.664795
5.920000 6.160000 3.920000 12.876274 23.851452 734.690186
5.920000 6.160000 3.960000 0.988346 25.712837 662.126831
5.920000 6.160000 4.000000 -12.346642 19.488361 532.235779
5.920000 6.160000 4.040000 -20.330017 3.723457 427.173737
5.920000 6.160000 4.080000 -15.324657 -16.195408 497.136353
5.920000 6.160000 4.120000 3.891724 -28.852663 847.621643
5.920000 6.160000 4.160000 28.296616 -24.650885 1408.364502
5.920000 6.160000 4.200000 43.675720 -4.336382 1926.372681
5.920000 6.200000 3.800000 16.038042 14.546480 468.818848
5.920000 6.200000 3.840000 3.792314 17.218388 310.854523
5.920000 6.200000 3.880000 -6.170553 9.626949 130.753876
5.920000 6.200000 3.920000 -6.771006 -1.829854 49.194881
5.920000 6.200000 3.960000 0.137398 -8.435245 71.172226
5.920000 6.200000 4.000000 6.974503 -8.005356 112.729408
5.920000 6.200000 4.040000 9.457470 -5.693291 121.857300
5.920000 6.200000 4.080000 10.815372 -6.400593 157.939850
5.920000 6.200000 4.120000 16.628483 -8.016356 340.768402
5.920000 6.200000 4.160000 26.494259 -3.521931 714.349731
5.920000 6.200000 4.200000 32.517021 10.267643 1162.781128
5.960000 5.800000 3.800000 -38.649441 1.940779 1497.545898
5.960000 5.800000 3.840000 -26.851950 -15.503532 961.386719
5.960000 5.800000 3.880000 -6.889637 -19.381081 423.093384
5.960000 5.800000 3.920000 8.432629 -8.944527 151.113770
5.960000 5.800000 3.960000 11.320576 6.480927 170.157852
5.960000 5.800000 4.000000 4.718380 16.391251 290.936218
5.960000 5.800000 4.040000 -2.444145 18.289896 340.494141
5.960000 5.800000 4.080000 -5.169193 17.862961 345.805908
5.960000 5.800000 4.120000 -6.741190 20.501894 465.771301
5.960000 5.800000 4.160000 -12.919263 24.081882 746.844421
5.960000 5.800000 4.200000 -22.960365 21.505505 989.665039
5.960000 5.840000 3.800000 -30.582802 -10.484135 1045.224854
5.960000 5.840000 3.840000 -21.873257 -5.596025 509.754852
5.960000 5.840000 3.880000 -26.104992 1.764576 684.584290
5.960000 5.840000 3.920000 -37.609573 -2.555412 1421.010132
5.960000 5.840000 3.960000 -40.404236 -19.942078 2030.188721
5.960000 5.840000 4.000000 -25.030426 -35.912437 1916.225342
5.960000 5.840000 4.040000 0.045891 -33.768623 1140.322021
5.960000 5.840000 4.080000 14.894045 -11.912384 363.737457
5.960000 5.840000 4.120000 6.931702 12.924757 215.097839
5.960000 5.840000 4.160000 -16.358467 20.668587 694.789917
5.960000 5.840000 4.200000 -33.956055 6.838523 1199.779053
5.960000 5.880000 3.800000 -21.255600 -13.575199 636.086548
5.960000 5.880000 3.840000 -35.501915 1.367771 1262.256836
5.960000 5.880000 3.880000 -65.400345 -8.979141 4357.830078
5.960000 5.880000 3.920000 -78.137062 -50.530632 8658.745117
5.960000 5.880000 3.960000 -49.551510 -95.405090 11557.482422
5.960000 5.880000 4.000000 8.889885 -105.199951 11146.059570
5.960000 5.880000 4.040000 56.690899 -67.511688 7771.686035
5.960000 5.880000 4.080000 59.999989 -9.467018 3689.623047
5.960000 5.880000 4.120000 22.126646 25.996922 1165.428345
5.960000 5.880000 4.160000 -20.781897 18.483824 773.538940
5.960000 5.880000 4.200000 -34.134201 -13.903006 1358.437256
5.960000 5.920000 3.800000 -17.372025 -13.293364 478.500732
5.960000 5.920000 3.840000 -54.918526 -13.470385 3197.495605
5.960000 5.920000 3.880000 -84.330482 -59.979755 10709.201172
5.960000 5.920000 3.920000 -61.544231 -128.135254 20206.335938
5.960000 5.920000 3.960000 16.301559 -161.890320 26474.216797
5.960000 5.920000 4.000000 100.531654 -125.090057 25754.136719
5.960000 5.920000 4.040000 131.163727 -38.172783 18661.085938
5.960000 5.920000 4.080000 90.451065 37.400940 9580.225586
5.960000 5.920000 4.120000 17.766895 53.241257 3150.293945
5.960000 5.920000 4.160000 -28.187834 14.505138 1004.953003
5.960000 5.920000 4.200000 -22.054466 -30.995171 1447.100098
5.960000 5.960000 3.800000 -15.773155 -17.260952 546.732910
5.960000 5.960000 3.840000 -54.653370 -47.352623 5229.261719
5.960000 5.960000 3.880000 -51.477280 -117.543076 16466.285156
5.960000 5.960000 3.920000 19.747643 -172.659393 30201.234375
5.960000 5.960000 3.960000 123.254646 -154.974319 39208.746094
5.960000 5.960000 4.000000 185.878433 -61.259834 38303.558594
5.960000 5.960000 4.040000 161.088928 48.076538 28260.996094
5.960000 5.960000 4.080000 71.360367 99.860184 15064.358398
5.960000 5.960000 4.120000 -12.798674 71.149803 5226.100586
5.960000 5.960000 4.160000 -36.388016 4.295961 1342.542969
5.960000 5.960000 4.200000 -4.281248 -37.858921 1451.626953
5.960000 6.000000 3.800000 -7.942008 -24.494265 663.044495
5.960000 6.000000 3.840000 -23.095928 -74.212341 6040.893555
5.960000 6.000000 3.880000 20.890919 -133.188812 18175.689453
5.960000 6.000000 3.920000 114.455070 -140.145721 32740.785156
5.960000 6.000000 3.960000 194.669830 -66.132324 42269.828125
5.960000 6.000000 4.000000 197.074554 50.910820 41430.289062
5.960000 6.000000 4.040000 114.832451 133.390091 30979.408203
5.960000 6.000000 4.080000 7.147732 130.258957 17018.486328
5.960000 6.000000 4.120000 -52.540073 59.464935 6296.538086
5.960000 6.000000 4.160000 -38.862976 -13.162374 1683.579102
5.960000 6.000000 4.200000 11.379083 -35.658634 1401.021729
5.960000 6.040000 3.800000 8.394284 -25.239525 707.497620
5.960000 6.040000 3.840000 22.371159 -68.332977 5169.864746
5.960000 6.040000 3.880000 83.286743 -89.290878 14909.542969
5.960000 6.040000 3.920000 155.225540 -48.631123 26459.955078
5.960000 6.040000 3.960000 178.823486 45.182861 34019.332031
5.960000 6.040000 4.000000 124.287956 134.280029 33478.625000
5.960000 6.040000 4.040000 22.242062 157.833191 25406.025391
5.960000 6.040000 4.080000 -59.652710 104.430634 14464.203125
5.960000 6.040000 4.120000 -73.746109 20.580301 5862.037598
5.960000 6.040000 4.160000 -29.544842 -32.215164 1910.714478
5.960000 6.040000 4.200000 22.422039 -29.662872 1382.633789
5.960000 6.080000 3.800000 23.935081 -12.028267 717.567322
5.960000 6.080000 3.840000 49.078506 -30.294641 3326.465088
5.960000 6.080000 3.880000 92.703285 -17.273100 8892.259766
5.960000 6.080000 3.920000 118.718666 36.561131 15430.837891
5.960000 6.080000 3.960000 94.686852 103.766243 19733.033203
5.960000 6.080000 4.000000 23.936981 137.751984 19548.587891
5.960000 6.080000 4.040000 -51.920055 111.712494 15175.374023
5.960000 6.080000 4.080000 -85.439117 42.912437 9141.320312
5.960000 6.080000 4.120000 -61.965912 -21.315136 4294.109375
5.960000 6.080000 4.160000 -8.982296 -43.137268 1941.505493
5.960000 6.080000 4.200000 31.127941 -22.528183 1476.467773
5.960000 6.120000 3.800000 25.923874 10.097992 774.016663
5.960000 6.120000 3.840000 39.227669 11.888510 1680.146606
5.960000 6.120000 3.880000 50.950550 30.840508 3547.095459
5.960000 6.120000 3.920000 43.957428 61.584278 5724.878906
5.960000 6.120000 3.960000 11.186172 84.051941 7189.859375
5.960000 6.120000 4.000000 -34.189262 77.755257 7214.785645
5.960000 6.120000 4.040000 -65.444672 39.917839 5876.438477
5.960000 6.120000 4.080000 -62.401978 -9.322033 3980.907227
5.960000 6.120000 4.120000 -27.912159 -41.030525 2462.592773
5.960000 6.120000 4.160000 14.323932 -39.435684 1760.348267
5.960000 6.120000 4.200000 38.790165 -12.518924 1661.400391
5.960000 6.160000 3.800000 11.795218 26.337318 832.781494
5.960000 6.160000 3.840000 6.262762 28.580755 856.081726
5.960000 6.160000 3.880000 -0.103962 29.345894 861.192261
5.960000 6.160000 3.920000 -7.609623 28.908360 893.599609
5.960000 6.160000 3.960000 -17.342484 25.490028 950.503296
5.960000 6.160000 4.000000 -27.331450 15.178158 977.384583
5.960000 6.160000 4.040000 -30.686991 -3.227966 952.111145
5.960000 6.160000 4.080000 -20.186905 -23.301294 950.461426
5.960000 6.160000 4.120000 3.674616 -32.881615 1094.703369
5.960000 6.160000 4.160000 29.608953 -23.329580 1420.959473
5.960000 6.160000 4.200000 42.357914 1.962125 1798.042847
5.960000 6.200000 3.800000 -6.681806 26.282185 735.399780
5.960000 6.200000 3.840000 -19.161945 15.572939 609.696594
5.960000 6.200000 3.880000 -20.093973 -1.940214 407.532196
5.960000 6.200000 3.920000 -8.465748 -13.768248 261.233521
5.960000 6.200000 3.960000 5.262280 -12.790340 191.284393
5.960000 6.200000 4.000000 10.200049 -4.716309 126.284576
5.960000 6.200000 4.040000 6.819914 -1.325138 48.267220
5.960000 6.200000 4.080000 6.041960 -6.675982 81.074005
5.960000 6.200000 4.120000 16.117476 -11.726185 397.276428
5.960000 6.200000 4.160000 31.701288 -4.005053 1021.012146
5.960000 6.200000 4.200000 37.605873 17.769720 1729.964600
6.000000 5.800000 3.800000 -43.366852 -14.162804 2081.268799
6.000000 5.800000 3.840000 -25.190542 -26.814304 1353.570312
6.000000 5.800000 3.880000 -4.695381 -24.136978 604.640320
6.000000 5.800000 3.920000 6.885406 -10.247871 152.427689
6.000000 5.800000 3.960000 6.202507 4.255066 56.576675
6.000000 5.800000 4.000000 -0.809052 11.635510 136.039673
6.000000 5.800000 4.040000 -6.109444 12.872626 203.029816
6.000000 5.800000 4.080000 -7.829763 14.260563 264.668854
6.000000 5.800000 4.120000 -10.872850 18.816206 472.268494
6.000000 5.800000 4.160000 -19.514551 22.224434 874.743164
6.000000 5.800000 4.200000 -30.643242 18.046947 1264.700684
6.000000 5.840000 3.800000 -32.876781 -26.389282 1777.277100
6.000000 5.840000 3.840000 -27.799892 -22.351183 1272.409424
6.000000 5.840000 3.880000 -31.855106 -23.207642 1553.342407
6.000000 5.840000 3.920000 -32.951496 -35.123474 2319.459473
6.000000 5.840000 3.960000 -19.584915 -49.069622 2791.396729
6.000000 5.840000 4.000000 5.364273 -48.985069 2428.312500
6.000000 5.840000 4.040000 24.955750 -28.384827 1428.487793
6.000000 5.840000 4.080000 23.257591 1.239155 542.451050
6.000000 5.840000 4.120000 0.765530 19.342775 374.728973
6.000000 5.840000 4.160000 -25.187105 14.505537 844.800842
6.000000 5.840000 4.200000 -35.797844 -5.590081 1312.734619
6.000000 5.880000 3.800000 -21.462132 -31.674973 1463.927002
6.000000 5.880000 3.840000 -39.240280 -31.021441 2502.129395
6.000000 5.880000 3.880000 -53.378757 -59.201805 6354.145508
6.000000 5.880000 3.920000 -34.302681 -100.469376 11270.769531
6.000000 5.880000 3.960000 19.525589 -117.612152 14213.867188
6.000000 5.880000 4.000000 74.803482 -87.369766 13229.037109
6.000000 5.880000 4.040000 91.472092 -25.189018 9001.629883
6.000000 5.880000 4.080000 59.176350 26.370697 4197.253906
6.000000 5.880000 4.120000 6.491854 35.022728 1268.735596
6.000000 5.880000 4.160000 -25.928259 5.873774 706.775818
6.000000 5.880000 4.200000 -21.424610 -27.133926 1195.263916
6.000000 5.920000 3.800000 -11.094291 -34.322788 1301.137085
6.000000 5.920000 3.840000 -39.036114 -57.164471 4791.594727
6.000000 5.920000 3.880000 -32.497284 -112.837227 13788.313477
6.000000 5.920000 3.920000 29.927383 -154.184570 24668.529297
6.000000 5.920000 3.960000 116.396072 -133.415375 31347.707031
6.000000 5.920000 4.000000 165.027863 -50.597385 29794.291016
6.000000 5.920000 4.040000 139.292938 41.243530 21103.552734
6.000000 5.920000 4.080000 61.710770 81.620262 10470.085938
6.000000 5.920000 4.120000 -7.344070 55.013931 3080.468018
6.000000 5.920000 4.160000 -24.360126 -0.046271 593.417908
6.000000 5.920000 4.200000 2.633119 -31.645878 1008.394897
6.000000 5.960000 3.800000 1.599245 -35.404160 1256.012085
6.000000 5.960000 3.840000 -11.619585 -81.838516 6832.557617
6.000000 5.960000 3.880000 33.900379 -137.219910 19978.539062
6.000000 5.960000 3.920000 127.235199 -139.548370 35662.542969
6.000000 5.960000 3.960000 204.080765 -61.960365 45488.042969
6.000000 5.960000 4.000000 201.907639 54.642231 43752.468750
6.000000 5.960000 4.040000 118.300888 133.065186 31701.445312
6.000000 5.960000 4.080000 14.585373 127.033760 16350.309570
6.000000 5.960000 4.120000 -39.274017 59.288933 5057.625977
6.000000 5.960000 4.160000 -24.469784 -4.901763 622.797607
6.000000 5.960000 4.200000 18.913551 -19.931223 754.976074
6.000000 6.000000 3.800000 17.829456 -29.690926 1199.440674
6.000000 6.000000 3.840000 33.309494 -78.478424 7268.385742
6.000000 6.000000 3.880000 104.522644 -101.320160 21190.757812
6.000000 6.000000 3.920000 187.398514 -51.449120 37765.214844
6.000000 6.000000 3.960000 211.945343 58.639008 48359.359375
6.000000 6.000000 4.000000 146.680817 159.654663 47004.875000
6.000000 6.000000 4.040000 31.114834 183.805557 34752.617188
6.000000 6.000000 4.080000 -57.270382 123.851166 18619.007812
6.000000 6.000000 4.120000 -70.186623 36.130959 6231.608398
6.000000 6.000000 4.160000 -25.263237 -13.564165 822.217712
6.000000 6.000000 4.200000 20.039845 -6.685197 446.287231
6.000000 6.040000 3.800000 30.673601 -12.215196 1090.080811
6.000000 6.040000 3.840000 64.958267 -40.192642 5835.025391
6.000000 6.040000 3.880000 127.503822 -22.842457 16779.001953
6.000000 6.040000 3.920000 164.456604 53.190517 29875.205078
6.000000 6.040000 3.960000 130.436249 146.452164 38461.851562
6.000000 6.040000 4.000000 33.901413 191.624710 37869.335938
6.000000 6.040000 4.040000 -65.357513 156.325653 28709.312500
6.000000 6.040000 4.080000 -106.435623 69.537766 16164.042969
6.000000 6.040000 4.120000 -77.678787 -5.531588 6064.592773
6.000000 6.040000 4.160000 -20.234625 -26.887167 1132.359741
6.000000 6.040000 4.200000 15.060238 -4.103060 243.645859
6.000000 6.080000 3.800000 29.397367 12.594950 1022.837952
6.000000 6.080000 3.840000 58.779808 9.747211 3550.073975
6.000000 6.080000 3.880000 87.504761 44.310860 9620.535156
6.000000 6.080000 3.920000 78.648979 103.955582 16992.425781
6.000000 6.080000 3.960000 20.377220 146.998901 22023.908203
6.000000 6.080000 4.000000 -58.295868 136.826935 22120.017578
6.000000 6.080000 4.040000 -108.846252 74.865044 17452.281250
6.000000 6.080000 4.080000 -103.131302 0.575352 10636.396484
6.000000 6.080000 4.120000 -54.950069 -41.725464 4760.524414
6.000000 6.080000 4.160000 -4.411526 -37.857597 1452.659180
6.000000 6.080000 4.200000 17.866932 -9.056243 401.242798
6.000000 6.120000 3.800000 11.005091 30.879496 1074.655273
6.000000 6.120000 3.840000 20.301067 36.950737 1777.490234
6.000000 6.120000 3.880000 19.563568 57.493481 3688.233398
6.000000 6.120000 3.920000 -3.132874 78.030106 6098.512207
6.000000 6.120000 3.960000 -42.414799 78.029045 7887.546875
6.000000 6.120000 4.000000 -76.701813 48.330429 8218.998047
6.000000 6.120000 4.040000 -83.885742 0.702290 7037.311035
6.000000 6.120000 4.080000 -58.651772 -39.644371 5011.706543
6.000000 6.120000 4.120000 -16.544369 -52.534081 3033.545654
6.000000 6.120000 4.160000 18.346609 -36.645908 1679.520630
6.000000 6.120000 4.200000 30.877916 -7.698988 1012.720154
6.000000 6.160000 3.800000 -13.659481 30.916502 1142.411499
6.000000 6.160000 3.840000 -19.186247 26.876755 1090.471924
6.000000 6.160000 3.880000 -24.087494 21.494389 1042.216064
6.000000 6.160000 3.920000 -28.318611 14.959934 1025.743408
6.000000 6.160000 3.960000 -32.187931 6.307388 1075.846069
6.000000 6.160000 4.000000 -33.808475 -6.479660 1184.999023
6.000000 6.160000 4.040000 -28.165010 -22.838997 1314.887573
6.000000 6.160000 4.080000 -11.122519 -36.332756 1443.779663
6.000000 6.160000 4.120000 14.270677 -37.132118 1582.446411
6.000000 6.160000 4.160000 36.363907 -20.182775 1729.678223
6.000000 6.160000 4.200000 41.970310 8.142333 1827.804565
6.000000 6.200000 3.800000 -27.800421 15.167148 1002.905762
6.000000 6.200000 3.840000 -31.628965 -3.005246 1009.422974
6.000000 6.200000 3.880000 -20.914473 -20.999283 878.385010
6.000000 6.200000 3.920000 -0.962301 -26.170944 685.844360
6.000000 6.200000 3.960000 13.838676 -16.679207 469.704926
6.000000 6.200000 4.000000 14.824935 -4.361183 238.798615
6.000000 6.200000 4.040000 8.628387 -2.150373 79.073181
6.000000 6.200000 4.080000 9.873600 -9.334059 184.612640
6.000000 6.200000 4.120000 24.058020 -11.475907 710.484741
6.000000 6.200000 4.160000 39.390728 3.685750 1565.214111
6.000000 6.200000 4.200000 37.594322 31.019627 2375.550293
6.040000 5.800000 3.800000 -38.178780 -28.559170 2273.245361
6.040000 5.800000 3.840000 -17.927530 -35.984940 1616.312256
6.040000 5.800000 3.880000 1.465967 -29.221912 856.069214
6.040000 5.800000 3.920000 10.882053 -13.440216 299.058472
6.040000 5.800000 3.960000 8.566673 1.563015 75.830910
6.040000 5.800000 4.000000 0.508041 9.332024 87.344765
6.040000 5.800000 4.040000 -6.138535 11.147896 161.957184
6.040000 5.800000 4.080000 -9.914427 12.532475 255.358765
6.040000 5.800000 4.120000 -15.037670 15.807917 476.021729
6.040000 5.800000 4.160000 -24.793020 17.024876 904.540283
6.040000 5.800000 4.200000 -36.008007 10.769015 1412.548218
6.040000 5.840000 3.800000 -25.920746 -41.489239 2393.241943
6.040000 5.840000 3.840000 -19.693695 -42.266586 2174.305908
6.040000 5.840000 3.880000 -14.281065 -47.027397 2415.524902
6.040000 5.840000 3.920000 -1.852753 -52.862122 2797.836426
6.040000 5.840000 3.960000 17.870193 -49.814690 2800.847168
6.040000 5.840000 4.000000 34.517021 -31.655315 2193.483887
6.040000 5.840000 4.040000 35.279251 -4.304581 1263.155029
6.040000 5.840000 4.080000 16.953068 16.992931 576.166199
6.040000 5.840000 4.120000 -9.920383 19.775671 489.491180
6.040000 5.840000 4.160000 -29.056290 4.649643 865.887146
6.040000 5.840000 4.200000 -31.449608 -15.759913 1237.452637
6.040000 5.880000 3.800000 -9.085489 -48.297852 2415.228516
6.040000 5.880000 3.840000 -15.560980 -59.286263 3757.004883
6.040000 5.880000 3.880000 -4.475029 -84.927078 7232.634277
6.040000 5.880000 3.920000 34.515255 -99.771759 11145.707031
6.040000 5.880000 3.960000 82.354515 -79.037186 13029.142578
6.040000 5.880000 4.000000 104.530914 -25.439163 11573.863281
6.040000 5.880000 4.040000 82.440094 29.169563 7647.232422
6.040000 5.880000 4.080000 31.466038 50.382607 3528.518555
6.040000 5.880000 4.120000 -12.243134 30.745943 1095.207275
6.040000 5.880000 4.160000 -23.366350 -6.024117 582.276306
6.040000 5.880000 4.200000 -6.875574 -28.928356 884.123291
6.040000 5.920000 3.800000 10.542387 -47.366261 2354.704590
6.040000 5.920000 3.840000 7.472195 -76.330994 5882.253906
6.040000 5.920000 3.880000 44.318398 -109.145691 13876.902344
6.040000 5.920000 3.920000 111.563599 -102.373055 22926.679688
6.040000 5.920000 3.960000 162.249176 -39.495861 27884.718750
6.040000 5.920000 4.000000 153.239410 47.077545 25698.611328
6.040000 5.920000 4.040000 86.563782 101.115387 17717.609375
6.040000 5.920000 4.080000 9.349335 91.772987 8509.691406
6.040000 5.920000 4.120000 -28.140293 39.092102 2320.068359
6.040000 5.920000 4.160000 -15.105919 -8.098269 293.770752
6.040000 5.920000 4.200000 16.932802 -18.158236 616.441284
6.040000 5.960000 3.800000 29.616909 -36.004105 2173.456787
6.040000 5.960000 3.840000 45.673328 -72.612259 7358.592773
6.040000 5.960000 3.880000 107.258728 -85.824318 18870.248047
6.040000 5.960000 3.920000 175.226242 -36.906731 32066.343750
6.040000 5.960000 3.960000 189.985291 60.424149 39745.488281
6.040000 5.960000 4.000000 127.967384 144.905457 37373.242188
6.040000 5.960000 4.040000 27.090242 160.365906 26451.105469
6.040000 5.960000 4.080000 -45.506874 105.426590 13185.640625
6.040000 5.960000 4.120000 -52.255093 31.757069 3739.106201
6.040000 5.960000 4.160000 -13.298470 -5.755219 209.971863
6.040000 5.960000 4.200000 20.741928 3.568589 442.962402
6.040000 6.000000 3.800000 40.927414 -13.617912 1860.500732
6.040000 6.000000 3.840000 75.652740 -38.383053 7196.595703
6.040000 6.000000 3.880000 137.540039 -16.949430 19204.544922
6.040000 6.000000 3.920000 171.012756 62.624546 33167.195312
6.040000 6.000000 3.960000 131.817413 155.828979 41658.500000
6.040000 6.000000 4.000000 32.625362 196.868820 39821.746094
6.040000 6.000000 4.040000 -63.844990 157.545746 28896.843750
6.040000 6.000000 4.080000 -99.208824 72.185356 15053.116211
6.040000 6.000000 4.120000 -68.456985 4.567135 4707.217773
6.040000 6.000000 4.160000 -17.118658 -9.272921 379.035522
6.040000 6.000000 4.200000 6.899825 13.588531 232.255783
6.040000 6.040000 3.800000 36.454247 13.418025 1508.955566
6.040000 6.040000 3.840000 73.078629 10.794532 5457.007812
6.040000 6.040000 3.880000 108.130013 55.081665 14726.089844
6.040000 6.040000 3.920000 95.221153 128.977066 25702.152344
6.040000 6.040000 3.960000 22.502962 179.356598 32675.171875
6.040000 6.040000 4.000000 -70.661743 163.784271 31818.369141
6.040000 6.040000 4.040000 -125.573639 89.849983 23841.757812
6.040000 6.040000 4.080000 -114.624283 8.608219 13212.828125
6.040000 6.040000 4.120000 -61.819309 -31.030144 4784.496582
6.040000 6.040000 4.160000 -15.619570 -21.968006 726.564270
6.040000 6.040000 4.200000 -3.723530 3.877078 28.896408
6.040000 6.080000 3.800000 15.139177 32.263680 1270.139771
6.040000 6.080000 3.840000 36.276924 43.634533 3219.987793
6.040000 6.080000 3.880000 38.489410 82.179855 8234.963867
6.040000 6.080000 3.920000 0.991402 119.696770 14328.298828
6.040000 6.080000 3.960000 -63.021629 120.198807 18419.478516
6.040000 6.080000 4.000000 -114.295105 73.136459 18412.312500
6.040000 6.080000 4.040000 -120.424919 4.406059 14521.574219
6.040000 6.080000 4.080000 -82.651184 -45.464264 8898.217773
6.040000 6.080000 4.120000 -31.895369 -54.712799 4010.804932
6.040000 6.080000 4.160000 0.033872 -34.022362 1157.522217
6.040000 6.080000 4.200000 5.204742 -10.483391 136.990829
6.040000 6.120000 3.800000 -12.607058 32.231022 1197.776611
6.040000 6.120000 3.840000 -9.497915 39.764427 1671.420166
6.040000 6.120000 3.880000 -21.314854 52.407196 3200.837158
6.040000 6.120000 3.920000 -48.055710 53.050121 5123.666992
6.040000 6.120000 3.960000 -74.511681 31.177036 6523.998047
6.040000 6.120000 4.000000 -82.117874 -7.099636 6793.750000
6.040000 6.120000 4.040000 -63.764053 -43.151131 5927.874512
6.040000 6.120000 4.080000 -28.715153 -59.826508 4403.770996
6.040000 6.120000 4.120000 5.334300 -52.844608 2821.007568
6.040000 6.120000 4.160000 24.892429 -31.087852 1586.087646
6.040000 6.120000 4.200000 27.390060 -7.861408 812.017151
6.040000 6.160000 3.800000 -30.627945 14.756353 1155.820923
6.040000 6.160000 3.840000 -33.235596 7.925302 1167.415283
6.040000 6.160000 3.880000 -34.517746 -1.532820 1193.824219
6.040000 6.160000 3.920000 -31.916872 -12.145290 1166.194824
6.040000 6.160000 3.960000 -25.626938 -21.390297 1114.284668
6.040000 6.160000 4.000000 -17.027212 -28.754333 1116.737671
6.040000 6.160000 4.040000 -5.533928 -34.633465 1230.101318
6.040000 6.160000 4.080000 10.607941 -36.584167 1450.929810
6.040000 6.160000 4.120000 29.417307 -29.083656 1711.237061
6.040000 6.160000 4.160000 42.526176 -9.364056 1896.161255
6.040000 6.160000 4.200000 40.205055 16.345844 1883.633057
6.040000 6.200000 3.800000 -29.998028 -5.938614 935.148804
6.040000 6.200000 3.840000 -25.107668 -22.645245 1143.202148
6.040000 6.200000 3.880000 -7.235718 -34.589989 1248.822876
6.040000 6.200000 3.920000 15.147120 -31.123690 1198.119263
6.040000 6.200000 3.960000 27.325729 -14.604454 959.985596
6.040000 6.200000 4.000000 24.045933 0.434446 578.395630
6.040000 6.200000 4.040000 15.881199 2.644668 259.206757
6.040000 6.200000 4.080000 17.641556 -3.092382 320.787323
6.040000 6.200000 4.120000 30.779486 -0.571342 947.703186
6.040000 6.200000 4.160000 39.809708 18.911453 1942.455933
6.040000 6.200000 4.200000 28.259975 44.303516 2761.427734
6.080000 5.800000 3.800000 -28.364880 -36.621986 2145.736328
6.080000 5.800000 3.840000 -7.446709 -40.476433 1693.795044
6.080000 5.800000 3.880000 11.498953 -30.170252 1042.469971
6.080000 5.800000 3.920000 18.934460 -11.115779 482.074310
6.080000 5.800000 3.960000 13.039608 5.855835 204.322174
6.080000 5.800000 4.000000 0.850899 13.290432 177.359619
6.080000 5.800000 4.040000 -8.870333 12.636421 238.361938
6.080000 5.800000 4.080000 -13.776978 10.735790 305.062317
6.080000 5.800000 4.120000 -18.549446 11.232759 470.256836
6.080000 5.800000 4.160000 -27.577625 10.374306 868.151611
6.080000 5.800000 4.200000 -38.110481 1.902242 1456.027344
6.080000 5.840000 3.800000 -12.173859 -51.142700 2763.778564
6.080000 5.840000 3.840000 1.542389 -53.095615 2821.523193
6.080000 5.840000 3.880000 16.984783 -50.332367 2821.830078
6.080000 5.840000 3.920000 32.015362 -39.863583 2614.088623
6.080000 5.840000 3.960000 40.878002 -21.115402 2116.871338
6.080000 5.840000 4.000000 37.828651 1.037483 1432.083252
6.080000 5.840000 4.040000 22.147701 17.838917 808.747620
6.080000 5.840000 4.080000 -0.085899 21.988478 483.500549
6.080000 5.840000 4.120000 -19.269054 12.457986 526.497864
6.080000 5.840000 4.160000 -28.044508 -5.042039 811.916626
6.080000 5.840000 4.200000 -25.183462 -22.083767 1121.899536
6.080000 5.880000 3.800000 12.736048 -54.986240 3185.693359
6.080000 5.880000 3.840000 23.368797 -62.489090 4450.987305
6.080000 5.880000 3.880000 47.417435 -65.826477 6581.538086
6.080000 5.880000 3.920000 77.722900 -49.307266 8472.055664
6.080000 5.880000 3.960000 93.575584 -10.348907 8863.489258
6.080000 5.880000 4.000000 78.914642 33.297081 7336.216797
6.080000 5.880000 4.040000 38.722542 56.132126 4650.250977
6.080000 5.880000 4.080000 -3.098579 46.245102 2148.210449
6.080000 5.880000 4.120000 -23.089046 15.018681 758.664795
6.080000 5.880000 4.160000 -16.578989 -13.808613 465.540680
6.080000 5.880000 4.200000 1.843175 -24.654499 611.241577
6.080000 5.920000 3.800000 38.057098 -42.648575 3267.243652
6.080000 5.920000 3.840000 54.426430 -55.059448 5993.779297
6.080000 5.920000 3.880000 91.875381 -51.156410 11058.064453
6.080000 5.920000 3.920000 126.662750 -11.993776 16187.302734
6.080000 5.920000 3.960000 125.741211 50.714203 18382.783203
6.080000 5.920000 4.000000 79.228806 99.453125 16168.126953
6.080000 5.920000 4.040000 13.292984 102.713318 10726.728516
6.080000 5.920000 4.080000 -30.928463 63.189121 4949.434570
6.080000 5.920000 4.120000 -32.474922 14.504400 1264.998291
6.080000 5.920000 4.160000 -5.788137 -9.905232 131.616165
6.080000 5.920000 4.200000 17.416586 -4.692043 325.352722
6.080000 5.960000 3.800000 52.181778 -15.755801 2971.183350
6.080000 5.960000 3.840000 77.850861 -24.153044 6644.125977
6.080000 5.960000 3.880000 118.028084 -0.373842 13930.768555
6.080000 5.960000 3.920000 134.110443 61.279991 21740.847656
6.080000 5.960000 3.960000 97.471397 127.217346 25684.925781
6.080000 5.960000 4.000000 20.981886 151.192535 23299.423828
6.080000 5.960000 4.040000 -48.286430 116.542427 15913.716797
6.080000 5.960000 4.080000 -69.772552 51.873291 7559.047363
6.080000 5.960000 4.120000 -43.754379 4.389450 1933.712891
6.080000 5.960000 4.160000 -6.213002 -2.273073 43.768257
6.080000 5.960000 4.200000 8.525532 15.803825 322.445587
6.080000 6.000000 3.800000 46.651657 15.307057 2410.683105
6.080000 6.000000 3.840000 74.878952 19.121307 5972.481934
6.080000 6.000000 3.880000 99.184280 60.480579 13495.421875
6.080000 6.000000 3.920000 81.705719 123.199722 21853.996094
6.080000 6.000000 3.960000 15.304401 161.900665 26446.050781
6.080000 6.000000 4.000000 -63.818871 143.003021 24522.710938
6.080000 6.000000 4.040000 -106.005020 77.330902 17217.132812
6.080000 6.000000 4.080000 -91.893509 11.006790 8565.566406
6.080000 6.000000 4.120000 -46.934135 -16.347960 2470.068848
6.080000 6.000000 4.160000 -13.641469 -4.384403 205.312668
6.080000 6.000000 4.200000 -11.331923 15.222267 360.129883
6.080000 6.040000 3.800000 22.785522 35.807953 1801.389526
6.080000 6.040000 3.840000 42.184834 50.300468 4309.697266
6.080000 6.040000 3.880000 41.030098 91.327194 10024.125000
6.080000 6.040000 3.920000 -1.048162 128.647705 16551.332031
6.080000 6.040000 3.960000 -67.763809 125.545258 20353.544922
6.080000 6.040000 4.000000 -117.050781 74.612213 19267.867188
6.080000 6.040000 4.040000 -118.171829 6.661919 14008.961914
6.080000 6.040000 4.080000 -78.406189 -36.556652 7483.918945
6.080000 6.040000 4.120000 -33.504372 -38.542000 2608.028809
6.080000 6.040000 4.160000 -13.127985 -17.797749 489.103851
6.080000 6.040000 4.200000 -16.666473 -4.176956 295.218292
6.080000 6.080000 3.800000 -7.152962 35.785946 1331.798828
6.080000 6.080000 3.840000 -1.839531 50.263557 2529.809082
6.080000 6.080000 3.880000 -19.417850 72.056534 5569.196777
6.080000 6.080000 3.920000 -59.094223 74.920578 9105.219727
6.080000 6.080000 3.960000 -96.349113 44.462517 11260.066406
6.080000 6.080000 4.000000 -104.256500 -6.528255 10912.036133
6.080000 6.080000 4.040000 -77.586853 -48.572239 8378.982422
6.080000 6.080000 4.080000 -36.211761 -61.069397 5040.762695
6.080000 6.080000 4.120000 -5.785334 -47.732117 2311.824951
6.080000 6.080000 4.160000 3.887271 -28.420792 822.852295
6.080000 6.080000 4.200000 2.209044 -18.274853 338.850128
6.080000 6.120000 3.800000 -27.045097 17.626949 1042.146729
6.080000 6.120000 3.840000 -30.159483 21.822147 1385.800537
6.080000 6.120000 3.880000 -44.027912 20.440210 2356.259277
6.080000 6.120000 3.920000 -58.450985 4.377232 3435.677734
6.080000 6.120000 3.960000 -59.762939 -22.353767 4071.299805
6.080000 6.120000 4.000000 -43.405811 -46.155361 4014.381836
6.080000 6.120000 4.040000 -17.080320 -55.704849 3394.767578
6.080000 6.120000 4.080000 7.082048 -49.993198 2549.475342
6.080000 6.120000 4.120000 22.057484 -35.960854 1779.715576
6.080000 6.120000 4.160000 28.114571 -20.630196 1216.034058
6.080000 6.120000 4.200000 28.036697 -6.804396 832.356201
6.080000 6.160000 3.800000 -28.229439 -4.886084 820.775024
6.080000 6.160000 3.840000 -28.974442 -12.196882 988.282166
6.080000 6.160000 3.880000 -25.110174 -23.853559 1199.513184
6.080000 6.160000 3.920000 -13.148367 -33.340755 1284.485474
6.080000 6.160000 3.960000 2.317923 -34.488010 1194.795654
6.080000 6.160000 4.000000 13.985924 -28.549759 1010.694824
6.080000 6.160000 4.040000 20.250328 -21.843651 887.220825
6.080000 6.160000 4.080000 25.919790 -17.080873 963.591736
6.080000 6.160000 4.120000 34.144646 -9.710001 1260.140869
6.080000 6.160000 4.160000 39.892380 5.432895 1620.918335
6.080000 6.160000 4.200000 34.110821 24.771084 1777.154663
6.080000 6.200000 3.800000 -15.980783 -16.878511 540.269531
6.080000 6.200000 3.840000 -8.183644 -28.610910 885.556213
6.080000 6.200000 3.880000 11.300526 -33.909988 1277.589233
6.080000 6.200000 3.920000 31.979610 -22.946632 1549.243408
6.080000 6.200000 3.960000 38.903496 -0.954689 1514.393311
6.080000 6.200000 4.000000 29.479805 15.689649 1115.223999
6.080000 6.200000 4.040000 17.130226 17.112801 586.292603
6.080000 6.200000 4.080000 16.372166 11.159818 392.589355
6.080000 6.200000 4.120000 25.714331 14.419990 869.162903
6.080000 6.200000 4.160000 28.435162 32.211880 1846.163574
6.080000 6.200000 4.200000 11.691763 50.317360 2668.533936
6.120000 5.800000 3.800000 -19.099592 -39.340538 1912.472412
6.120000 5.800000 3.840000 2.849226 -39.563114 1573.358032
6.120000 5.800000 3.880000 20.341860 -24.310741 1004.803406
6.120000 5.800000 3.920000 22.785709 -1.740698 522.218567
6.120000 5.800000 3.960000 10.434702 14.589537 321.737579
6.120000 5.800000 4.000000 -6.036428 17.409676 339.535278
6.120000 5.800000 4.040000 -15.967253 11.228092 381.023193
6.120000 5.800000 4.080000 -18.397007 5.868679 372.891266
6.120000 5.800000 4.120000 -20.826748 5.176462 460.549194
6.120000 5.800000 4.160000 -28.707150 3.242632 834.615051
6.120000 5.800000 4.200000 -37.530350 -7.748246 1468.562378
6.120000 5.840000 3.800000 4.133318 -52.816193 2806.634521
6.120000 5.840000 3.840000 24.743980 -47.420998 2861.015625
6.120000 5.840000 3.880000 39.759972 -30.426170 2506.607178
6.120000 5.840000 3.920000 42.494743 -7.841278 1867.288818
6.120000 5.840000 3.960000 32.497314 11.316544 1184.139648
6.120000 5.840000 4.000000 15.346896 20.792633 667.860840
6.120000 5.840000 4.040000 -1.859179 20.015045 404.058563
6.120000 5.840000 4.080000 -14.823599 12.185145 368.216858
6.120000 5.840000 4.120000 -22.442059 0.492210 503.888275
6.120000 5.840000 4.160000 -24.278339 -13.320322 766.868713
6.120000 5.840000 4.200000 -19.077871 -27.195801 1103.576782
6.120000 5.880000 3.800000 35.014668 -47.182762 3452.240234
6.120000 5.880000 3.840000 52.565338 -37.820030 4193.469727
6.120000 5.880000 3.880000 66.396683 -18.279530 4742.660645
6.120000 5.880000 3.920000 68.551071 9.251013 4784.830566
6.120000 5.880000 3.960000 53.849869 35.493408 4159.590332
6.120000 5.880000 4.000000 25.862547 48.523716 3023.422363
6.120000 5.880000 4.040000 -3.349499 42.162949 1788.933350
6.120000 5.880000 4.080000 -20.727989 21.010914 871.108032
6.120000 5.880000 4.120000 -20.948465 -2.733455 446.309967
6.120000 5.880000 4.160000 -8.894657 -18.091103 406.402924
6.120000 5.880000 4.200000 5.811165 -22.021778 518.728333
6.120000 5.920000 3.800000 56.691162 -20.420738 3630.894531
6.120000 5.920000 3.840000 70.653244 -8.297180 5060.724121
6.120000 5.920000 3.880000 81.343216 16.239546 6880.441406
6.120000 5.920000 3.920000 75.572868 50.255665 8236.890625
6.120000 5.920000 3.960000 46.643978 77.814209 8230.711914
6.120000 5.920000 4.000000 4.616566 81.282372 6628.136230
6.120000 5.920000 4.040000 -28.556122 57.356064 4105.169922
6.120000 5.920000 4.080000 -36.226425 21.629984 1780.210083
6.120000 5.920000 4.120000 -20.486340 -3.855285 434.553314
6.120000 5.920000 4.160000 1.249210 -8.601286 75.542641
6.120000 5.920000 4.200000 12.847351 0.035100 165.055664
6.120000 5.960000 3.800000 55.443733 15.312678 3308.485596
6.120000 5.960000 3.840000 64.901535 29.490730 5081.912598
6.120000 5.960000 3.880000 66.968781 58.118317 7862.556152
6.120000 5.960000 3.920000 46.027252 91.061371 10410.680664
6.120000 5.960000 3.960000 2.317524 105.633865 11163.884766
6.120000 5.960000 4.000000 -42.788727 87.247589 9443.016602
6.120000 5.960000 4.040000 -63.136955 45.249146 6033.760254
6.120000 5.960000 4.080000 -50.760887 6.664191 2621.079102
6.120000 5.960000 4.120000 -22.423023 -7.194275 554.549561
6.120000 5.960000 4.160000 -2.952160 1.812846 12.001659
6.120000 5.960000 4.200000 -2.371961 14.098085 204.382217
6.120000 6.000000 3.800000 31.193802 40.870781 2643.474121
6.120000 6.000000 3.840000 34.626625 55.314896 4258.741211
6.120000 6.000000 3.880000 24.322353 81.020668 7155.925293
6.120000 6.000000 3.920000 -9.541434 99.745087 10040.121094
6.120000 6.000000 3.960000 -54.597034 90.524597 11175.539062
6.120000 6.000000 4.000000 -83.782753 51.869476 9709.992188
6.120000 6.000000 4.040000 -79.518738 6.295817 6362.866699
6.120000 6.000000 4.080000 -50.216682 -18.914513 2879.473877
6.120000 6.000000 4.120000 -21.846111 -15.866352 728.993713
6.120000 6.000000 4.160000 -13.123102 -0.720333 172.734680
6.120000 6.000000 4.200000 -19.736673 5.041994 414.957977
6.120000 6.040000 3.800000 -1.655136 43.371361 1883.814453
6.120000 6.040000 3.840000 -4.503108 54.483383 2988.717041
6.120000 6.040000 3.880000 -23.459915 68.004776 5175.017090
6.120000 6.040000 3.920000 -56.534359 64.942139 7413.615234
6.120000 6.040000 3.960000 -83.916115 36.291283 8358.971680
6.120000 6.040000 4.000000 -85.632370 -5.174656 7359.679688
6.120000 6.040000 4.040000 -61.043747 -34.958733 4948.452148
6.120000 6.040000 4.080000 -29.671282 -39.058174 2405.926025
6.120000 6.040000 4.120000 -12.406508 -25.572741 807.886536
6.120000 6.040000 4.160000 -12.673380 -14.256910 363.874054
6.120000 6.040000 4.200000 -16.545473 -15.813034 523.804749
6.120000 6.080000 3.800000 -24.345005 25.175676 1226.493896
6.120000 6.080000 3.840000 -30.721907 29.353870 1805.485352
6.120000 6.080000 3.880000 -47.576439 26.964718 2990.613525
6.120000 6.080000 3.920000 -63.881302 8.426373 4151.824707
6.120000 6.080000 3.960000 -64.399094 -20.909267 4584.440430
6.120000 6.080000 4.000000 -45.297836 -44.360226 4019.723633
6.120000 6.080000 4.040000 -18.421532 -49.465935 2786.231445
6.120000 6.080000 4.080000 0.193123 -39.073059 1526.741333
6.120000 6.080000 4.120000 5.070564 -26.715790 739.444031
6.120000 6.080000 4.160000 4.069059 -22.098717 504.910522
6.120000 6.080000 4.200000 7.390738 -22.545650 562.929382
6.120000 6.120000 3.800000 -27.153765 1.365618 739.191895
6.120000 6.120000 3.840000 -32.141529 -2.232002 1038.059692
6.120000 6.120000 3.880000 -36.451618 -14.590717 1541.609497
6.120000 6.120000 3.920000 -30.414295 -31.746017 1932.838989
6.120000 6.120000 3.960000 -12.941610 -42.500999 1973.820190
6.120000 6.120000 4.000000 6.637352 -40.092312 1651.447876
6.120000 6.120000 4.040000 18.130325 -28.843815 1160.674316
6.120000 6.120000 4.080000 20.356655 -18.636822 761.724487
6.120000 6.120000 4.120000 20.434841 -14.065036 615.407959
6.120000 6.120000 4.160000 24.058594 -10.751804 694.417236
6.120000 6.120000 4.200000 28.565632 -2.515507 822.323059
6.120000 6.160000 3.800000 -15.408622 -12.353628 390.037750
6.120000 6.160000 3.840000 -14.903837 -21.015305 663.767395
6.120000 6.160000 3.880000 -4.300576 -31.767860 1027.691895
6.120000 6.160000 3.920000 14.861189 -32.825138 1298.344727
6.120000 6.160000 3.960000 30.402519 -19.977028 1323.394775
6.120000 6.160000 4.000000 32.526798 -2.292484 1063.248047
6.120000 6.160000 4.040000 24.629971 7.498898 662.868896
6.120000 6.160000 4.080000 19.065460 6.994581 412.415924
6.120000 6.160000 4.120000 22.539124 6.139455 545.705017
6.120000 6.160000 4.160000 28.203232 14.651820 1010.098145
6.120000 6.160000 4.200000 23.969973 29.504250 1445.060303
6.120000 6.200000 3.800000 -3.415587 -11.418890 142.057297
6.120000 6.200000 3.840000 3.633807 -20.950008 452.107422
6.120000 6.200000 3.880000 22.525433 -21.494576 969.411865
6.120000 6.200000 3.920000 38.846218 -4.487780 1529.168823
6.120000 6.200000 3.960000 37.397614 20.349337 1812.677002
6.120000 6.200000 4.000000 19.720776 34.326450 1567.214111
6.120000 6.200000 4.040000 3.141317 30.098198 915.769348
6.120000 6.200000 4.080000 1.652159 19.673309 389.768707
6.120000 6.200000 4.120000 10.275733 20.382254 521.026917
6.120000 6.200000 4.160000 11.141473 34.482609 1313.182739
6.120000 6.200000 4.200000 -5.171088 45.950981 2138.232910
6.160000 5.800000 3.800000 -11.959919 -39.970825 1740.706543
6.160000 5.800000 3.840000 9.656332 -35.056950 1322.234497
6.160000 5.800000 3.880000 22.177485 -15.364891 727.920715
6.160000 5.800000 3.920000 17.088520 6.780409 337.991455
6.160000 5.800000 3.960000 -0.387277 17.326847 300.369629
6.160000 5.800000 4.000000 -16.419405 12.960908 437.582001
6.160000 5.800000 4.040000 -21.918793 2.758032 488.040222
6.160000 5.800000 4.080000 -20.232283 -2.610844 416.161774
6.160000 5.800000 4.120000 -21.165867 -2.385003 453.682159
6.160000 5.800000 4.160000 -28.241568 -5.446815 827.253906
6.160000 5.800000 4.200000 -33.378506 -18.633541 1461.333496
6.160000 5.840000 3.800000 17.906431 -46.878845 2518.266602
6.160000 5.840000 3.840000 36.791920 -30.059038 2257.191162
6.160000 5.840000 3.880000 39.795418 -4.595387 1604.792847
6.160000 5.840000 3.920000 26.088484 15.249320 913.150757
6.160000 5.840000 3.960000 5.777430 20.554617 455.870972
6.160000 5.840000 4.000000 -9.468865 13.645185 275.850494
6.160000 5.840000 4.040000 -15.707326 3.392611 258.229889
6.160000 5.840000 4.080000 -17.142241 -4.380007 313.040894
6.160000 5.840000 4.120000 -18.447468 -11.217031 466.130859
6.160000 5.840000 4.160000 -18.166784 -21.152283 777.451111
6.160000 5.840000 4.200000 -10.578757 -32.984459 1199.884644
6.160000 5.880000 3.800000 47.442513 -28.538227 3065.222412
6.160000 5.880000 3.840000 55.135567 -3.941292 3055.464355
6.160000 5.880000 3.880000 46.287773 20.000885 2542.593262
6.160000 5.880000 3.920000 26.365929 32.967358 1782.008789
6.160000 5.880000 3.960000 5.440510 32.146690 1063.008789
6.160000 5.880000 4.000000 -8.922924 21.911329 559.724915
6.160000 5.880000 4.040000 -14.925706 8.679884 298.117096
6.160000 5.880000 4.080000 -14.497385 -3.578474 222.979660
6.160000 5.880000 4.120000 -9.518543 -13.678028 277.691132
6.160000 5.880000 4.160000 -0.493526 -20.694351 428.499725
6.160000 5.880000 4.200000 11.682844 -22.404320 638.442383
6.160000 5.920000 3.800000 56.376339 7.489862 3234.389648
6.160000 5.920000 3.840000 50.010277 30.591450 3436.864746
6.160000 5.920000 3.880000 32.379501 46.169548 3180.059326
6.160000 5.920000 3.920000 10.391248 49.870461 2595.040771
6.160000 5.920000 3.960000 -8.784389 42.253731 1862.543335
6.160000 5.920000 4.000000 -20.105156 27.280741 1148.456055
6.160000 5.920000 4.040000 -21.572330 10.545362 576.570068
6.160000 5.920000 4.080000 -14.557377 -2.413504 217.742218
6.160000 5.920000 4.120000 -3.314071 -8.080965 76.285057
6.160000 5.920000 4.160000 7.012938 -6.494899 91.365021
6.160000 5.920000 4.200000 13.188342 -0.730627 174.466187
6.160000 5.960000 3.800000 37.622139 39.850250 3003.467773
6.160000 5.960000 3.840000 21.725458 53.132332 3295.040283
6.160000 5.960000 3.880000 1.602334 57.173805 3271.411377
6.160000 5.960000 3.920000 -17.810455 51.303780 2949.290283
6.160000 5.960000 3.960000 -31.536558 36.918091 2357.500000
6.160000 5.960000 4.000000 -35.362213 18.344522 1587.007568
6.160000 5.960000 4.040000 -28.530529 2.571157 820.601929
6.160000 5.960000 4.080000 -15.781872 -4.281148 267.395691
6.160000 5.960000 4.120000 -5.050987 -1.627917 28.162586
6.160000 5.960000 4.160000 -1.505586 4.838156 25.674540
6.160000 5.960000 4.200000 -3.443064 8.281221 80.433319
6.160000 6.000000 3.800000 3.413057 49.511280 2463.015869
6.160000 6.000000 3.840000 -13.664896 50.500626 2737.042725
6.160000 6.000000 3.880000 -29.958881 44.019432 2835.245117
6.160000 6.000000 3.920000 -42.035065 30.379129 2689.838135
6.160000 6.000000 3.960000 -45.652199 12.227083 2233.624756
6.160000 6.000000 4.000000 -38.801064 -4.113853 1522.446411
6.160000 6.000000 4.040000 -25.296844 -11.723158 777.362793
6.160000 6.000000 4.080000 -13.634519 -8.972456 266.405060
6.160000 6.000000 4.120000 -10.339314 -1.899813 110.510696
6.160000 6.000000 4.160000 -13.917104 0.850097 194.408447
6.160000 6.000000 4.200000 -16.294182 -3.628674 278.667633
6.160000 6.040000 3.800000 -24.382179 34.199532 1764.098633
6.160000 6.040000 3.840000 -36.068142 26.389370 1997.309814
6.160000 6.040000 3.880000 -44.223106 13.208167 2130.138672
6.160000 6.040000 3.920000 -45.022900 -3.615946 2040.136597
6.160000 6.040000 3.960000 -36.258183 -18.395319 1653.043457
6.160000 6.040000 4.000000 -21.464787 -24.372431 1054.752441
6.160000 6.040000 4.040000 -9.142456 -19.914303 480.163971
6.160000 6.040000 4.080000 -6.009648 -11.322418 164.313034
6.160000 6.040000 4.120000 -10.478957 -7.863620 171.645050
6.160000 6.040000 4.160000 -13.736303 -12.972508 356.972015
6.160000 6.040000 4.200000 -8.344052 -20.565964 492.582062
6.160000 6.080000 3.800000 -31.412106 8.813941 1064.406006
6.160000 6.080000 3.840000 -35.958313 -2.278518 1298.191895
6.160000 6.080000 3.880000 -34.259312 -17.174721 1468.671509
6.160000 6.080000 3.920000 -22.989025 -30.015341 1429.416016
6.160000 6.080000 3.960000 -5.783448 -33.039520 1125.058105
6.160000 6.080000 4.000000 7.625215 -24.483955 657.607971
6.160000 6.080000 4.040000 9.697408 -11.922161 236.177643
6.160000 6.080000 4.080000 2.704959 -6.152722 45.172791
6.160000 6.080000 4.120000 -2.900934 -10.935791 128.006943
6.160000 6.080000 4.160000 1.394067 -19.179770 369.806976
6.160000 6.080000 4.200000 13.689473 -19.936398 584.861633
6.160000 6.120000 3.800000 -20.729517 -8.020405 494.039764
6.160000 6.120000 3.840000 -19.898718 -18.963503 755.573425
6.160000 6.120000 3.880000 -9.170189 -30.616198 1021.443909
6.160000 6.120000 3.920000 9.774213 -32.484543 1150.780762
6.160000 6.120000 3.960000 25.427568 -20.079884 1049.762939
6.160000 6.120000 4.000000 26.963718 -1.590187 729.570801
6.160000 6.120000 4.040000 15.716232 8.847383 325.276123
6.160000 6.120000 4.080000 4.627786 5.026570 46.682808
6.160000 6.120000 4.120000 5.386746 -5.037889 54.397354
6.160000 6.120000 4.160000 16.685104 -7.558025 335.516449
6.160000 6.120000 4.200000 26.113281 2.762299 689.533752
6.160000 6.160000 3.800000 -7.460043 -9.021453 137.038849
6.160000 6.160000 3.840000 -3.020664 -19.333563 382.911072
6.160000 6.160000 3.880000 13.610717 -23.891317 756.046631
6.160000 6.160000 3.920000 31.648834 -12.240146 1151.469849
6.160000 6.160000 3.960000 35.373138 10.580361 1363.203003
6.160000 6.160000 4.000000 21.255882 27.416428 1203.473022
6.160000 6.160000 4.040000 2.753249 26.427399 705.987793
6.160000 6.160000 4.080000 -3.340234 13.560924 195.055817
6.160000 6.160000 4.120000 5.587430 5.982868 67.014084
6.160000 6.160000 4.160000 15.914397 13.492449 435.314209
6.160000 6.160000 4.200000 13.315444 28.479578 988.387451
6.160000 6.200000 3.800000 -4.150736 -1.917806 20.906590
6.160000 6.200000 3.840000 4.128137 -11.766452 155.490906
6.160000 6.200000 3.880000 22.021879 -7.656707 543.588318
6.160000 6.200000 3.920000 30.964462 13.374269 1137.668945
6.160000 6.200000 3.960000 19.284031 35.328140 1619.951416
6.160000 6.200000 4.000000 -4.114992 39.849792 1604.939087
6.160000 6.200000 4.040000 -18.782286 26.124292 1035.252930
6.160000 6.200000 4.080000 -14.730002 11.565393 350.731323
6.160000 6.200000 4.120000 -2.736813 12.340800 159.785492
6.160000 6.200000 4.160000 -1.400059 25.712286 663.081787
6.160000 6.200000 4.200000 -15.806437 34.046432 1409.002930
6.200000 5.800000 3.800000 -5.805630 -40.501343 1674.064087
6.200000 5.800000 3.840000 12.029052 -31.085590 1111.011963
6.200000 5.800000 3.880000 17.509708 -11.389507 436.310730
6.200000 5.800000 3.920000 7.381505 5.004399 79.530632
6.200000 5.800000 3.960000 -9.169319 7.999312 148.065414
6.200000 5.800000 4.000000 -19.580578 -0.327941 383.506561
6.200000 5.800000 4.040000 -19.784863 -9.340017 478.676727
6.200000 5.800000 4.080000 -16.548962 -11.780071 412.638214
6.200000 5.800000 4.120000 -18.087139 -11.073321 449.763031
6.200000 5.800000 4.160000 -23.469316 -16.073847 809.177368
6.200000 5.800000 4.200000 -22.866478 -29.094604 1369.371826
6.200000 5.840000 3.800000 25.407707 -37.236076 2032.076904
6.200000 5.840000 3.840000 34.276184 -14.667997 1390.006958
6.200000 5.840000 3.880000 24.350069 6.396683 633.843384
6.200000 5.840000 3.920000 4.522972 12.868451 186.054306
6.200000 5.840000 3.960000 -10.615829 4.587910 133.744751
6.200000 5.840000 4.000000 -13.911603 -7.796244 254.314117
6.200000 5.840000 4.040000 -10.055522 -14.607449 314.491089
6.200000 5.840000 4.080000 -7.796866 -16.014395 317.251984
6.200000 5.840000 4.120000 -9.187652 -19.217960 453.742920
6.200000 5.840000 4.160000 -7.599459 -27.924059 837.504822
6.200000 5.840000 4.200000 3.658615 -36.165939 1321.360718
6.200000 5.880000 3.800000 45.936218 -9.711061 2204.440918
6.200000 5.880000 3.840000 36.744717 15.377147 1586.630859
6.200000 5.880000 3.880000 13.921242 24.911602 814.388855
6.200000 5.880000 3.920000 -5.468777 16.088291 288.740631
6.200000 5.880000 3.960000 -10.768712 0.075687 115.970886
6.200000 5.880000 4.000000 -5.063190 -10.340849 132.569061
6.200000 5.880000 4.040000 1.362108 -12.181248 150.238129
6.200000 5.880000 4.080000 2.998223 -11.930951 151.336929
6.200000 5.880000 4.120000 3.724636 -15.592984 257.014069
6.200000 5.880000 4.160000 10.261845 -20.878021 541.197266
6.200000 5.880000 4.200000 22.760706 -19.681681 905.418335
6.200000 5.920000 3.800000 39.827381 25.478523 2235.375488
6.200000 5.920000 3.840000 15.145377 38.531364 1714.048462
6.200000 5.920000 3.880000 -8.755289 29.824783 966.172791
6.200000 5.920000 3.920000 -16.786774 9.784770 377.537506
6.200000 5.920000 3.960000 -9.086334 -5.297147 110.621231
6.200000 5.920000 4.000000 2.631505 -7.978543 70.581970
6.200000 5.920000 4.040000 8.253701 -3.405777 79.722900
6.200000 5.920000 4.080000 7.818798 -0.590949 61.482822
6.200000 5.920000 4.120000 8.113843 -2.147708 70.447098
6.200000 5.920000 4.160000 13.132093 -3.007448 181.496613
6.200000 5.920000 4.200000 19.350456 2.271065 379.597900
6.200000 5.960000 3.800000 10.632933 45.163376 2152.789795
6.200000 5.960000 3.840000 -16.672764 38.659237 1772.517700
6.200000 5.960000 3.880000 -28.970764 16.003626 1095.421143
6.200000 5.960000 3.920000 -21.303158 -4.859322 477.437531
6.200000 5.960000 3.960000 -4.336347 -11.023278 140.316559
6.200000 5.960000 4.000000 7.460140 -3.777887 69.926117
6.200000 5.960000 4.040000 8.331551 6.201691 107.875702
6.200000 5.960000 4.080000 3.139620 10.454099 119.145393
6.200000 5.960000 4.120000 -0.508779 9.043033 82.035294
6.200000 5.960000 4.160000 -0.065150 7.237895 52.391369
6.200000 5.960000 4.200000 1.485433 8.490633 74.297363
6.200000 6.000000 3.800000 -21.357597 38.287300 1922.064331
6.200000 6.000000 3.840000 -37.823429 16.847979 1714.466187
6.200000 6.000000 3.880000 -33.449295 -8.344518 1188.486328
6.200000 6.000000 3.920000 -14.012395 -20.551483 618.710693
6.200000 6.000000 3.960000 4.873516 -14.758921 241.576904
6.200000 6.000000 4.000000 11.175327 0.546624 125.186737
6.200000 6.000000 4.040000 4.473180 12.543371 177.345505
6.200000 6.000000 4.080000 -6.794930 14.381878 253.009491
6.200000 6.000000 4.120000 -13.926479 8.154124 260.436584
6.200000 6.000000 4.160000 -13.923017 0.405556 194.014862
6.200000 6.000000 4.200000 -9.249248 -3.764270 99.718307
6.200000 6.040000 3.800000 -36.109798 14.044580 1501.167847
6.200000 6.040000 3.840000 -37.023972 -10.457544 1480.134644
6.200000 6.040000 3.880000 -20.164936 -28.124878 1197.633423
6.200000 6.040000 3.920000 3.068862 -28.051922 796.328247
6.200000 6.040000 3.960000 17.379009 -12.193390 450.708740
6.200000 6.040000 4.000000 14.960995 6.939874 271.993225
6.200000 6.040000 4.040000 0.248285 16.219929 263.147736
6.200000 6.040000 4.080000 -14.768957 11.090864 341.129364
6.200000 6.040000 4.120000 -19.894110 -2.637488 402.731934
6.200000 6.040000 4.160000 -13.264991 -14.487558 385.849304
6.200000 6.040000 4.200000 -1.031857 -17.081921 292.856750
6.200000 6.080000 3.800000 -29.689554 -7.595678 939.163940
6.200000 6.080000 3.840000 -20.156750 -25.829813 1073.473877
6.200000 6.080000 3.880000 1.026432 -32.757435 1074.103149
6.200000 6.080000 3.920000 21.391027 -22.228291 951.672974
6.200000 6.080000 3.960000 27.479813 -0.462113 755.353638
6.200000 6.080000 4.000000 15.611801 17.585651 552.983459
6.200000 6.080000 4.040000 -4.611897 19.598660 405.377045
6.200000 6.080000 4.080000 -17.681412 5.632897 344.361847
6.200000 6.080000 4.120000 -14.494941 -12.257281 360.344238
6.200000 6.080000 4.160000 0.953133 -20.197412 408.843933
6.200000 6.080000 4.200000 15.980265 -13.431995 435.787354
6.200000 6.120000 3.800000 -14.928827 -13.630545 408.661621
6.200000 6.120000 3.840000 -2.933787 -24.433086 605.582825
6.200000 6.120000 3.880000 16.825300 -23.126495 817.925537
6.200000 6.120000 3.920000 31.000216 -5.925879 996.129395
6.200000 6.120000 3.960000 27.519421 17.188095 1052.749023
6.200000 6.120000 4.000000 7.793831 29.297920 919.111877
6.200000 6.120000 4.040000 -12.770346 21.512299 625.860718
6.200000 6.120000 4.080000 -17.872414 1.639821 322.112183
6.200000 6.120000 4.120000 -4.884491 -12.629215 183.355331
6.200000 6.120000 4.160000 13.369809 -9.722727 273.283203
6.200000 6.120000 4.200000 21.155834 6.213949 486.182465
6.200000 6.160000 3.800000 -7.511727 -7.563747 113.636322
6.200000 6.160000 3.840000 3.546875 -15.201509 243.666214
6.200000 6.160000 3.880000 20.447989 -9.039919 499.840363
6.200000 6.160000 3.920000 27.214169 11.380140 870.118530
6.200000 6.160000 3.960000 14.630335 31.087196 1180.460449
6.200000 6.160000 4.000000 -8.668179 33.433846 1192.959351
6.200000 6.160000 4.040000 -23.287224 17.088137 834.299194
6.200000 6.160000 4.080000 -17.937002 -1.943749 325.514221
6.200000 6.160000 4.120000 -0.393953 -6.048676 36.741688
6.200000 6.160000 4.160000 10.958596 6.935364 168.190094
6.200000 6.160000 4.200000 5.745822 23.036825 563.709778
6.200000 6.200000 3.800000 -11.499134 -2.888671 140.574509
6.200000 6.200000 3.840000 0.827047 -10.134306 103.388161
6.200000 6.200000 3.880000 15.095127 -0.348476 227.984299
6.200000 6.200000 3.920000 14.088591 19.949322 596.463806
6.200000 6.200000 3.960000 -4.555510 31.752729 1028.988525
6.200000 6.200000 4.000000 -24.883186 23.653431 1178.657715
6.200000 6.200000 4.040000 -29.130421 4.220135 866.390991
6.200000 6.200000 4.080000 -16.353743 -7.109523 317.990204
6.200000 6.200000 4.120000 -2.751609 -0.632521 7.971437
6.200000 6.200000 4.160000 -3.743725 14.206012 215.826248
6.200000 6.200000 4.200000 -17.947086 20.367964 736.951843
