#kx 	ky 	kz 	real 	imag 	intensity
0.800000 6.800000 0.800000 14.877384 -25.801033 887.029846
0.800000 6.800000 0.840000 15.434829 -11.362880 367.348969
0.800000 6.800000 0.880000 5.292760 -5.250562 55.581711
0.800000 6.800000 0.920000 -2.900723 -11.929122 150.718140
0.800000 6.800000 0.960000 0.841920 -23.006763 530.019958
0.800000 6.800000 1.000000 14.468981 -25.989817 884.822021
0.800000 6.800000 1.040000 26.700703 -16.311024 978.977051
0.800000 6.800000 1.080000 28.276573 -0.679093 800.025757
0.800000 6.800000 1.120000 19.828060 10.560812 504.682739
0.800000 6.800000 1.160000 9.199120 13.160271 257.816528
0.800000 6.800000 1.200000 2.486053 10.895933 124.901825
0.800000 6.840000 0.800000 16.925701 -16.236603 550.106628
0.800000 6.840000 0.840000 12.945984 -7.066438 217.533051
0.800000 6.840000 0.880000 4.178967 -7.819425 78.607178
0.800000 6.840000 0.920000 2.423529 -17.594212 315.429779
0.800000 6.840000 0.960000 12.820121 -25.316696 805.290649
0.800000 6.840000 1.000000 28.183319 -20.631451 1219.956299
0.800000 6.840000 1.040000 35.693489 -4.238139 1291.986938
0.800000 6.840000 1.080000 29.082085 12.752527 1008.394592
0.800000 6.840000 1.120000 13.982386 19.511768 576.216187
0.800000 6.840000 1.160000 1.532011 14.991013 227.077515
0.800000 6.840000 1.200000 -2.419150 6.982583 54.608749
0.800000 6.880000 0.800000 15.709712 -12.668054 407.274658
0.800000 6.880000 0.840000 12.861509 -8.532736 238.226013
0.800000 6.880000 0.880000 9.576544 -11.873067 232.679901
0.800000 6.880000 0.920000 14.081951 -18.721975 548.813721
0.800000 6.880000 0.960000 26.558472 -19.161531 1072.516724
0.800000 6.880000 1.000000 37.690689 -7.759492 1480.797729
0.800000 6.880000 1.040000 37.380341 10.005287 1497.395752
0.800000 6.880000 1.080000 24.798532 22.350965 1114.532959
0.800000 6.880000 1.120000 9.226557 22.266052 580.906433
0.800000 6.880000 1.160000 0.939184 13.552658 184.556610
0.800000 6.880000 1.200000 1.787597 5.887929 37.863216
0.800000 6.920000 0.800000 18.921774 -11.775834 496.703796
0.800000 6.920000 0.840000 19.187840 -8.137069 434.385071
0.800000 6.920000 0.880000 19.740749 -8.761832 466.466888
0.800000 6.920000 0.920000 25.392235 -9.721333 739.269897
0.800000 6.920000 0.960000 34.158409 -4.436117 1186.475952
0.800000 6.920000 1.000000 38.404869 8.436388 1546.106567
0.800000 6.920000 1.040000 32.639133 22.387169 1566.498291
0.800000 6.920000 1.080000 19.580809 28.920815 1219.821533
0.800000 6.920000 1.120000 7.774893 25.764233 724.244629
0.800000 6.920000 1.160000 3.288689 18.600601 356.797852
0.800000 6.920000 1.200000 4.388836 14.670948 234.498596
0.800000 6.960000 0.800000 25.829815 -5.285746 695.118408
0.800000 6.960000 0.840000 25.894432 1.062767 671.651062
0.800000 6.960000 0.880000 25.044559 3.915966 642.564758
0.800000 6.960000 0.920000 26.924271 5.944633 760.255005
0.800000 6.960000 0.960000 30.286238 11.468239 1048.776611
0.800000 6.960000 1.000000 30.338345 21.090172 1365.210449
0.800000 6.960000 1.040000 24.050478 30.564459 1512.611572
0.800000 6.960000 1.080000 13.508442 34.945332 1403.654175
0.800000 6.960000 1.120000 3.761836 33.313095 1123.913696
0.800000 6.960000 1.160000 -2.125731 28.952200 842.748596
0.800000 6.960000 1.200000 -5.254785 25.240295 664.685303
0.800000 7.000000 0.800000 27.617691 9.357041 850.291077
0.800000 7.000000 0.840000 23.090908 16.265316 797.750610
0.800000 7.000000 0.880000 17.978313 18.049187 648.992920
0.800000 7.000000 0.920000 16.425901 17.470867 575.041443
0.800000 7.000000 0.960000 18.148565 19.293524 701.610474
0.800000 7.000000 1.000000 18.909451 25.696424 1017.873535
0.800000 7.000000 1.040000 14.484056 34.252174 1382.999268
0.800000 7.000000 1.080000 4.337702 40.037663 1621.830078
0.800000 7.000000 1.120000 -8.118137 39.583103 1632.726196
0.800000 7.000000 1.160000 -18.328894 33.075752 1429.953735
0.800000 7.000000 1.200000 -23.571152 23.446640 1105.344116
0.800000 7.040000 0.800000 17.201221 24.488316 895.559631
0.800000 7.040000 0.840000 8.156204 26.362835 761.522766
0.800000 7.040000 0.880000 1.864966 22.170229 494.997131
0.800000 7.040000 0.920000 2.180883 16.736872 284.879120
0.800000 7.040000 0.960000 7.363550 16.454660 324.977722
0.800000 7.040000 1.000000 10.729194 23.846825 683.786621
0.800000 7.040000 1.040000 5.788163 34.732948 1239.880493
0.800000 7.040000 1.080000 -8.138243 40.878025 1737.243896
0.800000 7.040000 1.120000 -24.743996 36.345890 1933.289062
0.800000 7.040000 1.160000 -35.280815 22.232456 1739.018066
0.800000 7.040000 1.200000 -35.006771 5.786964 1258.963013
0.800000 7.080000 0.800000 -2.132761 29.053543 848.656982
0.800000 7.080000 0.840000 -10.243262 22.727837 621.479004
0.800000 7.080000 0.880000 -11.353136 12.853338 294.101990
0.800000 7.080000 0.920000 -4.397447 6.436833 60.770363
0.800000 7.080000 0.960000 5.103069 9.539995 117.052826
0.800000 7.080000 1.000000 7.849567 21.463305 522.289124
0.800000 7.080000 1.040000 -1.889883 33.521572 1127.267456
0.800000 7.080000 1.080000 -20.441563 34.982395 1641.625488
0.800000 7.080000 1.120000 -36.416183 21.921528 1806.691772
0.800000 7.080000 1.160000 -39.382759 1.082987 1552.174561
0.800000 7.080000 1.200000 -28.178139 -15.190175 1024.748901
0.800000 7.120000 0.800000 -18.718002 19.678251 737.597168
0.800000 7.120000 0.840000 -19.834854 8.045388 458.149719
0.800000 7.120000 0.880000 -12.366697 -1.612672 155.535904
0.800000 7.120000 0.920000 0.290315 -2.500050 6.334530
0.800000 7.120000 0.960000 9.349601 7.668345 146.218552
0.800000 7.120000 1.000000 6.287768 22.720375 555.751465
0.800000 7.120000 1.040000 -9.442320 30.833055 1039.834717
0.800000 7.120000 1.080000 -28.031977 23.581049 1341.857666
0.800000 7.120000 1.120000 -36.032139 3.730027 1312.228149
0.800000 7.120000 1.160000 -27.249798 -15.975642 997.772583
0.800000 7.120000 1.200000 -8.065081 -22.861748 587.705017
0.800000 7.160000 0.800000 -23.352070 4.272104 563.570007
0.800000 7.160000 0.840000 -16.310318 -6.110689 303.366974
0.800000 7.160000 0.880000 -3.247787 -9.300227 97.042343
0.800000 7.160000 0.920000 8.871387 -1.758085 81.792366
0.800000 7.160000 0.960000 11.388809 13.222877 304.549438
0.800000 7.160000 1.000000 0.748021 25.609337 656.397644
0.800000 7.160000 1.040000 -16.875090 25.282238 923.960205
0.800000 7.160000 1.080000 -28.743776 10.719435 941.110962
0.800000 7.160000 1.120000 -25.398483 -8.436731 716.261353
0.800000 7.160000 1.160000 -8.827175 -18.484047 419.579041
0.800000 7.160000 1.200000 8.840807 -12.741755 240.512177
0.800000 7.200000 0.800000 -17.711420 -5.683837 346.000397
0.800000 7.200000 0.840000 -6.838323 -10.485697 156.712494
0.800000 7.200000 0.880000 5.255778 -6.128736 65.184616
0.800000 7.200000 0.920000 10.900869 6.330742 158.907257
0.800000 7.200000 0.960000 5.207522 19.515656 407.979095
0.800000 7.200000 1.000000 -9.012770 23.978462 656.196716
0.800000 7.200000 1.040000 -21.863659 15.689420 724.177490
0.800000 7.200000 1.080000 -23.546614 0.282531 554.522827
0.800000 7.200000 1.120000 -12.533669 -10.647976 270.472229
0.800000 7.200000 1.160000 2.747326 -8.776180 84.569138
0.800000 7.200000 1.200000 10.659347 4.200059 131.262161
0.840000 6.800000 0.800000 32.188541 -5.253687 1063.703369
0.840000 6.800000 0.840000 20.976166 5.287892 467.961334
0.840000 6.800000 0.880000 8.576068 2.745008 81.084015
0.840000 6.800000 0.920000 5.761189 -7.255351 85.831406
0.840000 6.800000 0.960000 13.413352 -13.381365 358.978943
0.840000 6.800000 1.000000 23.149845 -9.475690 625.704041
0.840000 6.800000 1.040000 26.396692 0.976432 697.738770
0.840000 6.800000 1.080000 21.895351 10.190258 583.247742
0.840000 6.800000 1.120000 14.529013 14.156998 411.512787
0.840000 6.800000 1.160000 8.469633 14.767300 289.807831
0.840000 6.800000 1.200000 3.203048 14.921247 232.903107
0.840000 6.840000 0.800000 22.457609 7.235700 556.699585
0.840000 6.840000 0.840000 15.203365 7.497948 287.361542
0.840000 6.840000 0.880000 13.319942 3.319026 188.436798
0.840000 6.840000 0.920000 17.328667 1.942784 304.057098
0.840000 6.840000 0.960000 21.246960 7.089941 501.700562
0.840000 6.840000 1.000000 19.156864 15.307793 601.313965
0.840000 6.840000 1.040000 11.271497 19.989094 526.610535
0.840000 6.840000 1.080000 3.162475 18.338121 346.287933
0.840000 6.840000 1.120000 -0.568631 13.665960 187.081818
0.840000 6.840000 1.160000 -0.871860 10.876201 119.051880
0.840000 6.840000 1.200000 -2.136069 10.666131 118.329140
0.840000 6.880000 0.800000 12.243996 7.158397 201.158081
0.840000 6.880000 0.840000 15.343225 6.471317 277.292511
0.840000 6.880000 0.880000 19.617350 11.457855 516.122803
0.840000 6.880000 0.920000 18.416880 21.232752 790.011230
0.840000 6.880000 0.960000 8.843758 28.804674 907.921265
0.840000 6.880000 1.000000 -4.280163 27.433853 770.936035
0.840000 6.880000 1.040000 -12.204655 17.530886 456.285522
0.840000 6.880000 1.080000 -10.424776 6.800196 154.918625
0.840000 6.880000 1.120000 -2.961123 3.057766 18.118183
0.840000 6.880000 1.160000 1.751215 6.909342 50.805759
0.840000 6.880000 1.200000 -0.775587 11.654243 136.422928
0.840000 6.920000 0.800000 11.096465 2.763909 130.770737
0.840000 6.920000 0.840000 19.271408 11.348711 500.180420
0.840000 6.920000 0.880000 17.321074 26.962046 1026.971436
0.840000 6.920000 0.920000 1.834008 37.745441 1428.081909
0.840000 6.920000 0.960000 -18.373419 33.257675 1443.655518
0.840000 6.920000 1.000000 -28.733225 14.966724 1049.601074
0.840000 6.920000 1.040000 -21.890398 -3.817642 493.763916
0.840000 6.920000 1.080000 -4.675093 -9.382927 109.895805
0.840000 6.920000 1.120000 8.029107 0.293165 64.552505
0.840000 6.920000 1.160000 6.718333 14.384385 252.046539
0.840000 6.920000 1.200000 -4.861937 19.854038 417.821259
0.840000 6.960000 0.800000 15.657313 5.219956 272.399414
0.840000 6.960000 0.840000 16.994373 23.328297 833.018127
0.840000 6.960000 0.880000 0.770661 38.812290 1506.987793
0.840000 6.960000 0.920000 -24.767054 36.254982 1927.830566
0.840000 6.960000 0.960000 -40.456657 13.692799 1824.233887
0.840000 6.960000 1.000000 -32.975597 -13.158430 1260.534302
0.840000 6.960000 1.040000 -7.884481 -23.624126 620.264404
0.840000 6.960000 1.080000 14.403498 -10.452914 316.724152
0.840000 6.960000 1.120000 16.614178 13.790730 466.215149
0.840000 6.960000 1.160000 -0.524087 28.540115 814.812866
0.840000 6.960000 1.200000 -20.457064 23.678913 979.182373
0.840000 7.000000 0.800000 14.589433 15.674112 458.529358
0.840000 7.000000 0.840000 2.668227 32.644493 1072.782349
0.840000 7.000000 0.880000 -22.597086 34.621727 1709.292236
0.840000 7.000000 0.920000 -42.781780 14.015652 2026.719238
0.840000 7.000000 0.960000 -39.406986 -16.810843 1835.514893
0.840000 7.000000 1.000000 -12.276177 -33.789345 1292.424316
0.840000 7.000000 1.040000 17.842503 -22.395767 819.925293
0.840000 7.000000 1.080000 26.613634 8.277125 776.796326
0.840000 7.000000 1.120000 7.778161 33.047596 1152.643311
0.840000 7.000000 1.160000 -21.796057 33.060585 1568.070435
0.840000 7.000000 1.200000 -38.261307 11.683254 1600.426025
0.840000 7.040000 0.800000 2.111611 23.897913 575.569153
0.840000 7.040000 0.840000 -17.128063 28.288040 1093.583740
0.840000 7.040000 0.880000 -36.771690 13.628346 1537.889038
0.840000 7.040000 0.920000 -38.390045 -14.622141 1687.602539
0.840000 7.040000 0.960000 -15.456900 -35.469620 1497.009644
0.840000 7.040000 1.000000 16.877596 -29.857590 1176.328857
0.840000 7.040000 1.040000 32.521473 0.410229 1057.814575
0.840000 7.040000 1.080000 17.539658 31.848497 1321.966309
0.840000 7.040000 1.120000 -16.478725 39.248642 1812.004395
0.840000 7.040000 1.160000 -42.469448 17.956779 2126.100098
0.840000 7.040000 1.200000 -42.070080 -12.931100 1937.104980
0.840000 7.080000 0.800000 -14.817020 19.669350 606.427429
0.840000 7.080000 0.840000 -28.431656 10.246931 913.358643
0.840000 7.080000 0.880000 -31.486034 -10.648271 1104.755981
0.840000 7.080000 0.920000 -15.313457 -29.676512 1115.197266
0.840000 7.080000 0.960000 12.745533 -29.351112 1023.936401
0.840000 7.080000 1.000000 31.477430 -5.197599 1017.843628
0.840000 7.080000 1.040000 23.433065 26.430651 1247.687866
0.840000 7.080000 1.080000 -7.802108 40.258095 1681.587158
0.840000 7.080000 1.120000 -38.652573 24.290337 2084.041748
0.840000 7.080000 1.160000 -45.639996 -8.905990 2162.325928
0.840000 7.080000 1.200000 -25.853029 -33.404568 1784.244263
0.840000 7.120000 0.800000 -23.428532 4.261235 567.054260
0.840000 7.120000 0.840000 -23.468975 -9.158073 634.663086
0.840000 7.120000 0.880000 -12.125816 -21.844156 624.202576
0.840000 7.120000 0.920000 8.224322 -22.753696 585.370178
0.840000 7.120000 0.960000 24.539581 -6.040191 638.674927
0.840000 7.120000 1.000000 22.009972 19.865768 879.087585
0.840000 7.120000 1.040000 -1.549361 35.671806 1274.878296
0.840000 7.120000 1.080000 -30.454042 27.028919 1658.011230
0.840000 7.120000 1.120000 -42.671440 -1.503522 1823.112427
0.840000 7.120000 1.160000 -28.850899 -28.823084 1663.144531
0.840000 7.120000 1.200000 -0.783073 -35.184944 1238.593506
0.840000 7.160000 0.800000 -18.466629 -10.514921 451.579956
0.840000 7.160000 0.840000 -8.506834 -16.748165 352.867249
0.840000 7.160000 0.880000 5.063520 -15.353485 261.368744
0.840000 7.160000 0.920000 15.654324 -3.664453 258.486053
0.840000 7.160000 0.960000 14.692806 14.293367 420.178894
0.840000 7.160000 1.000000 -0.850993 27.125820 736.534302
0.840000 7.160000 1.040000 -22.739281 23.694754 1078.516235
0.840000 7.160000 1.080000 -35.400970 3.622591 1266.351929
0.840000 7.160000 1.120000 -28.316200 -19.921253 1198.663574
0.840000 7.160000 1.160000 -5.924601 -29.871582 927.412292
0.840000 7.160000 1.200000 15.149807 -19.582474 612.989929
0.840000 7.200000 0.800000 -7.453135 -14.513140 266.180450
0.840000 7.200000 0.840000 2.391550 -11.009682 126.932602
0.840000 7.200000 0.880000 7.966758 -1.765659 66.586784
0.840000 7.200000 0.920000 5.976017 9.581572 127.519287
0.840000 7.200000 0.960000 -4.076551 17.133030 310.158997
0.840000 7.200000 1.000000 -17.764162 15.216407 547.104492
0.840000 7.200000 1.040000 -26.616638 3.018100 717.554382
0.840000 7.200000 1.080000 -23.571661 -12.802620 719.530273
0.840000 7.200000 1.120000 -9.283321 -21.568207 551.367554
0.840000 7.200000 1.160000 6.932581 -16.650852 325.311554
0.840000 7.200000 1.200000 13.683400 -1.370677 189.114197
0.880000 6.800000 0.800000 28.184229 25.448277 1441.965576
0.880000 6.800000 0.840000 11.412873 23.269215 671.710022
0.880000 6.800000 0.880000 4.372919 12.262815 169.499069
0.880000 6.800000 0.920000 8.210026 3.957909 83.069565
0.880000 6.800000 0.960000 14.687351 4.337049 234.528290
0.880000 6.800000 1.000000 16.108379 9.582920 351.312256
0.880000 6.800000 1.040000 12.833141 12.666401 325.127228
0.880000 6.800000 1.080000 10.485368 12.153381 257.647614
0.880000 6.800000 1.120000 11.298502 12.817443 291.942993
0.880000 6.800000 1.160000 10.615334 17.936235 434.393829
0.880000 6.800000 1.200000 3.049644 23.234451 549.140076
0.880000 6.840000 0.800000 5.266380 28.730946 853.201965
0.880000 6.840000 0.840000 4.710441 20.960299 461.522369
0.880000 6.840000 0.880000 9.942081 22.302658 596.253540
0.880000 6.840000 0.920000 8.020641 32.357063 1111.310181
0.880000 6.840000 0.960000 -6.326981 38.621441 1531.646362
0.880000 6.840000 1.000000 -23.565247 30.149704 1464.325439
0.880000 6.840000 1.040000 -28.598663 10.480396 927.722229
0.880000 6.840000 1.080000 -16.937225 -4.723227 309.178467
0.880000 6.840000 1.120000 -0.277969 -3.481923 12.201052
0.880000 6.840000 1.160000 5.108579 9.932974 124.761551
0.880000 6.840000 1.200000 -4.943056 19.351217 398.903412
0.880000 6.880000 0.800000 -8.208933 15.643230 312.097229
0.880000 6.880000 0.840000 4.628248 20.393953 437.334015
0.880000 6.880000 0.880000 3.530136 40.990105 1692.650635
0.880000 6.880000 0.920000 -21.797110 55.749298 3583.098145
0.880000 6.880000 0.960000 -56.182079 42.996468 5005.122070
0.880000 6.880000 1.000000 -70.986282 4.608635 5060.291992
0.880000 6.880000 1.040000 -51.665504 -32.792542 3744.675293
0.880000 6.880000 1.080000 -12.993443 -41.850670 1920.308105
0.880000 6.880000 1.120000 14.250445 -20.047943 604.995239
0.880000 6.880000 1.160000 12.035587 8.886440 223.824188
0.880000 6.880000 1.200000 -9.510757 18.750298 442.028168
0.880000 6.920000 0.800000 -5.426491 2.331043 34.880566
0.880000 6.920000 0.840000 2.729897 26.739603 722.458679
0.880000 6.920000 0.880000 -21.769455 52.793499 3261.062744
0.880000 6.920000 0.920000 -67.886459 47.027740 6820.179688
0.880000 6.920000 0.960000 -97.720238 0.507500 9549.502930
0.880000 6.920000 1.000000 -81.017189 -57.620434 9883.899414
0.880000 6.920000 1.040000 -25.624685 -84.060043 7722.715332
0.880000 6.920000 1.080000 27.596130 -60.810619 4459.477539
0.880000 6.920000 1.120000 41.534157 -11.269890 1852.096558
0.880000 6.920000 1.160000 15.283192 22.759270 751.560303
0.880000 6.920000 1.200000 -18.951326 19.699347 747.217041
0.880000 6.960000 0.800000 3.583340 1.277689 14.472813
0.880000 6.960000 0.840000 -9.272854 33.033134 1177.173828
0.880000 6.960000 0.880000 -54.498379 40.773186 4632.525879
0.880000 6.960000 0.920000 -96.579346 1.295925 9329.250000
0.880000 6.960000 0.960000 -92.719849 -65.895638 12939.205078
0.880000 6.960000 1.000000 -35.004097 -110.682312 13475.861328
0.880000 6.960000 1.040000 37.810539 -96.747665 10789.747070
0.880000 6.960000 1.080000 73.138550 -35.628696 6618.651367
0.880000 6.960000 1.120000 51.169250 23.673214 3178.713379
0.880000 6.960000 1.160000 0.082209 39.503380 1560.523682
0.880000 6.960000 1.200000 -33.601864 12.703131 1290.454712
0.880000 7.000000 0.800000 4.495283 9.257810 105.914612
0.880000 7.000000 0.840000 -27.731482 27.253241 1511.774170
0.880000 7.000000 0.880000 -71.230026 4.916056 5097.884277
0.880000 7.000000 0.920000 -82.428177 -54.829407 9800.667969
0.880000 7.000000 0.960000 -37.694908 -109.297775 13366.910156
0.880000 7.000000 1.000000 38.766827 -111.401863 13913.242188
0.880000 7.000000 1.040000 91.710274 -54.108994 11338.557617
0.880000 7.000000 1.080000 83.203217 20.406475 7339.199707
0.880000 7.000000 1.120000 26.208744 57.725845 4019.171387
0.880000 7.000000 1.160000 -29.262127 38.860336 2366.397949
0.880000 7.000000 1.200000 -42.918507 -7.090392 1892.271851
0.880000 7.040000 0.800000 -5.503235 12.767844 193.303452
0.880000 7.040000 0.840000 -38.439030 6.666169 1521.996826
0.880000 7.040000 0.880000 -57.200764 -33.892014 4420.595703
0.880000 7.040000 0.920000 -32.306267 -83.643860 8039.990234
0.880000 7.040000 0.960000 30.548546 -98.950897 10724.494141
0.880000 7.040000 1.000000 88.168358 -58.106533 11150.028320
0.880000 7.040000 1.040000 95.438675 14.267241 9312.094727
0.880000 7.040000 1.080000 46.542641 65.625763 6472.958008
0.880000 7.040000 1.120000 -18.882221 61.285156 4112.408691
0.880000 7.040000 1.160000 -51.575821 13.864885 2852.300293
0.880000 7.040000 1.200000 -35.730877 -31.644249 2278.054199
0.880000 7.080000 0.800000 -15.583982 3.993709 258.810181
0.880000 7.080000 0.840000 -30.728956 -16.708363 1223.438110
0.880000 7.080000 0.880000 -21.139357 -50.410362 2988.076904
0.880000 7.080000 0.920000 19.178947 -68.474571 5056.599121
0.880000 7.080000 0.960000 66.292870 -46.608707 6567.116211
0.880000 7.080000 1.000000 82.500237 8.502869 6878.587891
0.880000 7.080000 1.040000 50.258427 59.259911 6037.646484
0.880000 7.080000 1.080000 -8.912259 67.947830 4696.335938
0.880000 7.080000 1.120000 -51.265060 30.348352 3549.128906
0.880000 7.080000 1.160000 -48.881268 -20.694427 2817.637695
0.880000 7.080000 1.200000 -12.678057 -45.629379 2242.773438
0.880000 7.120000 0.800000 -14.246773 -10.586727 315.049316
0.880000 7.120000 0.840000 -9.410711 -26.487457 790.146851
0.880000 7.120000 0.880000 11.285465 -37.066620 1501.296021
0.880000 7.120000 0.920000 39.387085 -27.035789 2282.276367
0.880000 7.120000 0.960000 53.417961 5.845055 2887.643066
0.880000 7.120000 1.000000 36.594574 42.601345 3154.037598
0.880000 7.120000 1.040000 -4.892721 55.490280 3103.109863
0.880000 7.120000 1.080000 -42.921307 32.313736 2886.416016
0.880000 7.120000 1.120000 -50.055054 -10.695385 2619.899658
0.880000 7.120000 1.160000 -23.524067 -41.604984 2284.356445
0.880000 7.120000 1.200000 12.755198 -40.360283 1791.647461
0.880000 7.160000 0.800000 -2.341684 -17.904415 326.051575
0.880000 7.160000 0.840000 8.768820 -17.887177 396.843292
0.880000 7.160000 0.880000 19.867060 -10.014705 494.994385
0.880000 7.160000 0.920000 24.316889 6.189484 629.620789
0.880000 7.160000 0.960000 15.064095 24.237793 814.397522
0.880000 7.160000 1.000000 -7.383955 31.648247 1056.134277
0.880000 7.160000 1.040000 -30.868874 19.386059 1328.706543
0.880000 7.160000 1.080000 -38.618042 -8.009941 1555.512329
0.880000 7.160000 1.120000 -23.346781 -32.969868 1632.084351
0.880000 7.160000 1.160000 4.856031 -38.228306 1484.984375
0.880000 7.160000 1.200000 25.843637 -21.574484 1133.351929
0.880000 7.200000 0.800000 8.205207 -13.061537 237.929169
0.880000 7.200000 0.840000 11.110675 -2.481378 129.604340
0.880000 7.200000 0.880000 6.626813 6.555433 86.888351
0.880000 7.200000 0.920000 -2.152573 10.662498 118.322441
0.880000 7.200000 0.960000 -12.002375 8.723701 220.159958
0.880000 7.200000 1.000000 -19.596107 0.532004 384.290436
0.880000 7.200000 1.040000 -20.764118 -12.265295 581.586060
0.880000 7.200000 1.080000 -12.457653 -24.372038 749.189331
0.880000 7.200000 1.120000 3.271482 -28.292774 811.183655
0.880000 7.200000 1.160000 18.185055 -19.950508 728.718994
0.880000 7.200000 1.200000 22.881088 -3.466585 535.561401
0.920000 6.800000 0.800000 0.750160 46.274719 2141.912354
0.920000 6.800000 0.840000 -10.868410 30.444096 1044.965332
0.920000 6.800000 0.880000 -8.042603 16.710327 343.918518
0.920000 6.800000 0.920000 -0.684330 13.641369 186.555252
0.920000 6.800000 0.960000 0.717701 16.764645 281.568420
0.920000 6.800000 1.000000 -3.457136 16.103737 271.282135
0.920000 6.800000 1.040000 -4.075981 9.374672 104.498100
0.920000 6.800000 1.080000 3.823593 5.158607 41.231094
0.920000 6.800000 1.120000 13.001171 12.057974 314.425171
0.920000 6.800000 1.160000 11.050158 26.481897 823.396851
0.920000 6.800000 1.200000 -4.758914 34.109566 1186.109741
0.920000 6.840000 0.800000 -25.668016 30.462952 1586.838379
0.920000 6.840000 0.840000 -15.373775 23.554783 791.180786
0.920000 6.840000 0.880000 -11.559811 34.694412 1337.331543
0.920000 6.840000 0.920000 -28.813995 45.847023 2932.195801
0.920000 6.840000 0.960000 -56.472931 34.443001 4375.512207
0.920000 6.840000 1.000000 -67.335106 -0.576469 4534.349121
0.920000 6.840000 1.040000 -45.967354 -34.140114 3278.544922
0.920000 6.840000 1.080000 -6.836792 -38.646408 1540.286499
0.920000 6.840000 1.120000 18.030014 -12.014088 469.419739
0.920000 6.840000 1.160000 10.106795 19.438684 480.009766
0.920000 6.840000 1.200000 -17.820978 26.865355 1039.334473
0.920000 6.880000 0.800000 -30.007792 3.181576 910.589966
0.920000 6.880000 0.840000 -16.211775 22.354866 762.561646
0.920000 6.880000 0.880000 -37.942547 48.975807 3838.266602
0.920000 6.880000 0.920000 -86.651970 42.446377 9310.258789
0.920000 6.880000 0.960000 -118.737732 -11.061401 14221.003906
0.920000 6.880000 1.000000 -96.805115 -78.763062 15574.849609
0.920000 6.880000 1.040000 -28.938118 -108.555283 12621.664062
0.920000 6.880000 1.080000 35.435448 -78.108772 7356.651367
0.920000 6.880000 1.120000 50.708500 -16.384674 2839.809570
0.920000 6.880000 1.160000 16.439377 24.438452 867.491028
0.920000 6.880000 1.200000 -25.999163 17.961586 998.575073
0.920000 6.920000 0.800000 -14.663677 -13.652347 401.409973
0.920000 6.920000 0.840000 -23.391148 24.412395 1143.110840
0.920000 6.920000 0.880000 -77.296616 35.879181 7262.082031
0.920000 6.920000 0.920000 -131.034592 -14.553272 17381.861328
0.920000 6.920000 0.960000 -125.288605 -104.095177 26533.039062
0.920000 6.920000 1.000000 -46.347099 -165.405899 29507.164062
0.920000 6.920000 1.040000 54.764019 -147.410141 24728.847656
0.920000 6.920000 1.080000 105.961517 -64.064705 15332.128906
0.920000 6.920000 1.120000 78.948883 18.199196 6564.137207
0.920000 6.920000 1.160000 11.559126 41.963428 1894.542725
0.920000 6.920000 1.200000 -32.611458 8.107453 1129.238037
0.920000 6.960000 0.800000 2.095545 -11.587471 138.660797
0.920000 6.960000 0.840000 -37.576614 18.167408 1742.056641
0.920000 6.960000 0.880000 -99.818939 -9.919764 10062.221680
0.920000 6.960000 0.920000 -118.134407 -96.705238 23307.640625
0.920000 6.960000 0.960000 -52.692513 -180.147949 35229.785156
0.920000 6.960000 1.000000 64.046204 -187.512772 39262.953125
0.920000 6.960000 1.040000 149.935333 -104.224823 33343.417969
0.920000 6.960000 1.080000 145.650330 9.488916 21304.056641
0.920000 6.960000 1.120000 66.944885 72.361755 9717.841797
0.920000 6.960000 1.160000 -13.972816 53.776390 3087.139648
0.920000 6.960000 1.200000 -37.394547 -5.917851 1433.373047
0.920000 7.000000 0.800000 5.793565 -1.185129 34.969921
0.920000 7.000000 0.840000 -46.297852 -2.420204 2149.348389
0.920000 7.000000 0.880000 -81.475540 -64.103165 10747.479492
0.920000 7.000000 0.920000 -45.611401 -147.824005 23932.335938
0.920000 7.000000 0.960000 57.667767 -179.704742 35619.367188
0.920000 7.000000 1.000000 159.638214 -118.549370 39538.312500
0.920000 7.000000 1.040000 183.809479 0.730569 33786.460938
0.920000 7.000000 1.080000 114.884666 94.230370 22077.847656
0.920000 7.000000 1.120000 11.831024 102.711327 10689.588867
0.920000 7.000000 1.160000 -47.490685 40.715599 3913.125244
0.920000 7.000000 1.200000 -34.943420 -24.692501 1830.762207
0.920000 7.040000 0.800000 -0.922296 1.984106 4.787306
0.920000 7.040000 0.840000 -36.379723 -27.624924 2086.620605
0.920000 7.040000 0.880000 -28.591085 -90.285767 8968.969727
0.920000 7.040000 0.920000 40.802513 -131.824158 19042.455078
0.920000 7.040000 0.960000 131.964722 -101.651230 27747.660156
0.920000 7.040000 1.000000 174.764984 -4.706512 30564.949219
0.920000 7.040000 1.040000 131.083145 95.274200 26259.964844
0.920000 7.040000 1.080000 31.609468 129.009003 17642.480469
0.920000 7.040000 1.120000 -50.420593 81.905434 9250.736328
0.920000 7.040000 1.160000 -63.879555 3.415858 4092.265381
0.920000 7.040000 1.200000 -20.459551 -41.920341 2175.908203
0.920000 7.080000 0.800000 -4.386096 -5.531505 49.835392
0.920000 7.080000 0.840000 -9.609008 -38.973297 1611.250854
0.920000 7.080000 0.880000 24.450939 -71.717560 5741.256836
0.920000 7.080000 0.920000 85.187225 -64.454460 11411.240234
0.920000 7.080000 0.960000 126.962883 -4.197777 16137.194336
0.920000 7.080000 1.000000 109.032211 75.618141 17606.126953
0.920000 7.080000 1.040000 35.295845 118.632187 15319.392578
0.920000 7.080000 1.080000 -44.587387 94.082069 10839.470703
0.920000 7.080000 1.120000 -76.770966 24.320860 6485.285645
0.920000 7.080000 1.160000 -48.899178 -35.842819 3675.837402
0.920000 7.080000 1.200000 3.431041 -48.020287 2317.719971
0.920000 7.120000 0.800000 3.095429 -13.221790 184.397415
0.920000 7.120000 0.840000 16.107304 -27.428970 1011.793579
0.920000 7.120000 0.880000 44.173180 -26.508057 2653.946777
0.920000 7.120000 0.920000 68.505501 1.795509 4696.227051
0.920000 7.120000 0.960000 63.869026 47.368408 6323.018555
0.920000 7.120000 1.000000 22.594067 79.679962 6859.388184
0.920000 7.120000 1.040000 -33.133373 71.740601 6244.534180
0.920000 7.120000 1.080000 -66.119392 25.312218 5012.482422
0.920000 7.120000 1.120000 -55.025566 -27.923512 3807.535400
0.920000 7.120000 1.160000 -12.610462 -52.434059 2908.354248
0.920000 7.120000 1.200000 26.507065 -38.370186 2174.895508
0.920000 7.160000 0.800000 14.857956 -10.504151 331.096039
0.920000 7.160000 0.840000 22.913368 -3.541681 537.565979
0.920000 7.160000 0.880000 26.391384 9.054184 778.483398
0.920000 7.160000 0.920000 20.572340 24.547089 1025.780762
0.920000 7.160000 0.960000 2.778263 35.079605 1238.297485
0.920000 7.160000 1.000000 -21.691833 30.626097 1408.493408
0.920000 7.160000 1.040000 -38.963074 7.937592 1581.126465
0.920000 7.160000 1.080000 -35.638493 -22.932693 1796.010620
0.920000 7.160000 1.120000 -10.945971 -43.369827 2000.756226
0.920000 7.160000 1.160000 20.214624 -40.408974 2041.516113
0.920000 7.160000 1.200000 38.191769 -17.890423 1778.678467
0.920000 7.200000 0.800000 18.747395 0.494255 351.709106
0.920000 7.200000 0.840000 10.241506 12.012469 249.187866
0.920000 7.200000 0.880000 -3.006844 12.903259 175.535202
0.920000 7.200000 0.920000 -11.985388 4.940466 168.057724
0.920000 7.200000 0.960000 -13.773964 -5.452179 219.448334
0.920000 7.200000 1.000000 -10.648878 -14.292170 317.664734
0.920000 7.200000 1.040000 -4.467534 -21.461494 480.554596
0.920000 7.200000 1.080000 5.630609 -26.430172 730.257751
0.920000 7.200000 1.120000 19.511616 -25.440504 1027.922363
0.920000 7.200000 1.160000 32.041733 -14.924551 1249.414795
0.920000 7.200000 1.200000 35.313507 2.580322 1253.701904
0.960000 6.800000 0.800000 -35.636383 42.136574 3045.442627
0.960000 6.800000 0.840000 -34.572563 19.586615 1578.897583
0.960000 6.800000 0.880000 -22.916336 9.554430 616.445557
0.960000 6.800000 0.920000 -15.784031 11.266079 376.060181
0.960000 6.800000 0.960000 -17.957968 12.138733 469.837463
0.960000 6.800000 1.000000 -19.728125 4.182770 406.694489
0.960000 6.800000 1.040000 -10.231987 -5.380203 133.640137
0.960000 6.800000 1.080000 7.102531 -2.244548 55.483948
0.960000 6.800000 1.120000 15.640221 16.857330 528.786072
0.960000 6.800000 1.160000 3.371950 36.995159 1380.011841
0.960000 6.800000 1.200000 -21.965469 38.674103 1978.168091
0.960000 6.840000 0.800000 -50.640762 8.161326 2631.093994
0.960000 6.840000 0.840000 -34.700981 9.841663 1301.016357
0.960000 6.840000 0.880000 -40.409180 24.797403 2247.812988
0.960000 6.840000 0.920000 -68.322388 22.070908 5155.073730
0.960000 6.840000 0.960000 -88.441254 -13.634331 8007.750488
0.960000 6.840000 1.000000 -70.429977 -61.079681 8691.109375
0.960000 6.840000 1.040000 -17.851044 -80.079010 6731.307617
0.960000 6.840000 1.080000 30.821114 -51.655922 3618.275391
0.960000 6.840000 1.120000 37.865341 0.912907 1434.617432
0.960000 6.840000 1.160000 2.931311 33.154678 1107.825195
0.960000 6.840000 1.200000 -37.186485 21.922123 1863.414185
0.960000 6.880000 0.800000 -36.292030 -23.702341 1878.912354
0.960000 6.880000 0.840000 -35.207607 6.248013 1278.613281
0.960000 6.880000 0.880000 -77.534264 17.929928 6333.044434
0.960000 6.880000 0.920000 -123.877075 -25.938530 16018.336914
0.960000 6.880000 0.960000 -116.932510 -107.623924 25256.121094
0.960000 6.880000 1.000000 -40.924881 -163.611389 28443.533203
0.960000 6.880000 1.040000 56.137569 -143.450455 23729.460938
0.960000 6.880000 1.080000 103.548897 -60.027218 14325.640625
0.960000 6.880000 1.120000 73.133789 20.642086 5774.646973
0.960000 6.880000 1.160000 3.502329 40.810741 1677.782959
0.960000 6.880000 1.200000 -40.000912 2.166660 1604.767456
0.960000 6.920000 0.800000 -7.356876 -32.944229 1139.445923
0.960000 6.920000 0.840000 -41.788406 0.475822 1746.497314
0.960000 6.920000 0.880000 -105.434837 -26.013287 11793.196289
0.960000 6.920000 0.920000 -124.756531 -117.920425 29469.417969
0.960000 6.920000 0.960000 -52.712631 -208.517822 46258.304688
0.960000 6.920000 1.000000 77.016487 -216.005402 52589.871094
0.960000 6.920000 1.040000 173.065979 -122.410843 44936.250000
0.960000 6.920000 1.080000 168.169052 5.421825 28310.226562
0.960000 6.920000 1.120000 79.718811 75.788635 12099.005859
0.960000 6.920000 1.160000 -10.404860 54.150459 3040.533203
0.960000 6.920000 1.200000 -34.518044 -12.985374 1360.115356
0.960000 6.960000 0.800000 13.131748 -20.714787 601.545166
0.960000 6.960000 0.840000 -46.803032 -16.321882 2456.927490
0.960000 6.960000 0.880000 -90.989624 -88.206512 16059.500000
0.960000 6.960000 0.920000 -48.367149 -191.349304 38953.937500
0.960000 6.960000 0.960000 80.158760 -232.540985 60500.734375
0.960000 6.960000 1.000000 209.782654 -157.464447 68803.812500
0.960000 6.960000 1.040000 243.577805 -7.741444 59390.078125
0.960000 6.960000 1.080000 160.581482 111.926041 38313.851562
0.960000 6.960000 1.120000 33.496735 126.659439 17164.644531
0.960000 6.960000 1.160000 -40.654438 53.856781 4553.336426
0.960000 6.960000 1.200000 -26.932102 -23.324028 1269.348389
0.960000 7.000000 0.800000 15.577400 -4.772493 265.432098
0.960000 7.000000 0.840000 -36.481438 -39.434307 2885.959961
0.960000 7.000000 0.880000 -30.486916 -125.971802 16798.345703
0.960000 7.000000 0.920000 64.423180 -187.539520 39321.417969
0.960000 7.000000 0.960000 194.606781 -149.356018 60179.023438
0.960000 7.000000 1.000000 260.626923 -14.710424 68142.789062
0.960000 7.000000 1.040000 206.221039 128.777618 59110.792969
0.960000 7.000000 1.080000 71.325989 183.751770 38852.109375
0.960000 7.000000 1.120000 -43.927353 127.778290 18256.902344
0.960000 7.000000 1.160000 -68.879593 26.712629 5457.962891
0.960000 7.000000 1.200000 -18.247545 -32.731709 1404.337646
0.960000 7.040000 0.800000 9.312455 0.560913 87.036446
0.960000 7.040000 0.840000 -8.023739 -51.368118 2703.063965
0.960000 7.040000 0.880000 40.946983 -109.357033 13635.616211
0.960000 7.040000 0.920000 139.553787 -105.248993 30552.609375
0.960000 7.040000 0.960000 213.691116 -13.068985 45834.691406
0.960000 7.040000 1.000000 194.693695 116.578064 51496.082031
0.960000 7.040000 1.040000 84.584351 194.129822 44840.898438
0.960000 7.040000 1.080000 -41.522213 168.564850 30138.203125
0.960000 7.040000 1.120000 -100.457115 70.817497 15106.750000
0.960000 7.040000 1.160000 -71.263306 -18.179754 5408.961914
0.960000 7.040000 1.200000 -4.404787 -41.496986 1741.401978
0.960000 7.080000 0.800000 8.459306 -2.611834 78.381531
0.960000 7.080000 0.840000 22.966261 -38.822998 2034.674316
0.960000 7.080000 0.880000 76.956604 -49.693047 8391.717773
0.960000 7.080000 0.920000 132.703217 -3.591286 17623.041016
0.960000 7.080000 0.960000 136.456268 83.859238 25652.683594
0.960000 7.080000 1.000000 68.355637 154.341797 28493.882812
0.960000 7.080000 1.040000 -33.699394 154.504028 25007.142578
0.960000 7.080000 1.080000 -102.701675 83.415703 17505.812500
0.960000 7.080000 1.120000 -98.911179 -6.134439 9821.052734
0.960000 7.080000 1.160000 -40.935730 -54.232277 4616.874023
0.960000 7.080000 1.200000 16.539215 -43.492393 2165.133789
0.960000 7.120000 0.800000 15.542475 -2.315193 246.928650
0.960000 7.120000 0.840000 34.975399 -8.258812 1291.486572
0.960000 7.120000 0.880000 59.868767 8.999058 3665.252441
0.960000 7.120000 0.920000 65.346390 49.739468 6744.165527
0.960000 7.120000 0.960000 33.868084 90.049866 9256.025391
0.960000 7.120000 1.000000 -24.596985 97.511932 10113.588867
0.960000 7.120000 1.040000 -75.101196 59.242489 9149.862305
0.960000 7.120000 1.080000 -84.353325 -3.905308 7130.734863
0.960000 7.120000 1.120000 -48.423897 -52.319839 5082.239258
0.960000 7.120000 1.160000 4.420038 -59.527359 3563.043213
0.960000 7.120000 1.200000 38.557892 -31.858242 2501.658691
0.960000 7.160000 0.800000 20.800671 7.030290 482.092896
0.960000 7.160000 0.840000 21.345343 17.821989 773.246948
0.960000 7.160000 0.880000 14.606592 28.673538 1035.524414
0.960000 7.160000 0.920000 0.482948 35.322102 1247.884155
0.960000 7.160000 0.960000 -18.608139 32.404461 1396.311890
0.960000 7.160000 1.000000 -35.330383 15.943382 1502.427368
0.960000 7.160000 1.040000 -39.017948 -11.253540 1649.042480
0.960000 7.160000 1.080000 -23.045280 -37.335575 1925.030151
0.960000 7.160000 1.120000 7.645733 -47.431942 2308.246338
0.960000 7.160000 1.160000 37.354267 -34.863785 2610.824707
0.960000 7.160000 1.200000 50.303322 -7.439840 2585.775391
0.960000 7.200000 0.800000 15.996693 18.013002 580.362427
0.960000 7.200000 0.840000 -2.511415 21.624666 473.933411
0.960000 7.200000 0.880000 -16.558336 8.936942 354.047424
0.960000 7.200000 0.920000 -16.033634 -9.167068 341.112549
0.960000 7.200000 0.960000 -4.365833 -20.069889 421.860962
0.960000 7.200000 1.000000 8.021360 -20.977608 504.402252
0.960000 7.200000 1.040000 15.802994 -18.149681 579.145508
0.960000 7.200000 1.080000 22.462839 -16.509956 777.157776
0.960000 7.200000 1.120000 32.575222 -12.895006 1227.426270
0.960000 7.200000 1.160000 43.023254 -0.862709 1851.744629
0.960000 7.200000 1.200000 44.359264 19.189758 2335.991211
1.000000 6.800000 0.800000 -59.895737 14.227165 3789.911621
1.000000 6.800000 0.840000 -45.826813 -5.823696 2134.012207
1.000000 6.800000 0.880000 -29.541349 -8.926571 952.375000
1.000000 6.800000 0.920000 -23.599422 -4.650406 578.559021
1.000000 6.800000 0.960000 -24.403807 -6.607147 639.200195
1.000000 6.800000 1.000000 -18.481003 -15.404388 578.842651
1.000000 6.800000 1.040000 -0.925461 -17.298384 300.090546
1.000000 6.800000 1.080000 15.513565 -1.089184 241.857025
1.000000 6.800000 1.120000 12.545755 25.695480 817.653687
1.000000 6.800000 1.160000 -12.529202 40.910290 1830.632812
1.000000 6.800000 1.200000 -40.555199 29.704222 2527.064941
1.000000 6.840000 0.800000 -53.963726 -25.949511 3585.460938
1.000000 6.840000 0.840000 -40.778664 -16.125261 1922.923462
1.000000 6.840000 0.880000 -54.482704 -7.679531 3027.340088
1.000000 6.840000 0.920000 -76.589561 -28.561241 6681.705566
1.000000 6.840000 0.960000 -70.647415 -73.830711 10442.031250
1.000000 6.840000 1.000000 -22.499634 -105.120438 11556.540039
1.000000 6.840000 1.040000 39.205620 -87.794685 9244.987305
1.000000 6.840000 1.080000 66.749962 -28.480522 5266.697754
1.000000 6.840000 1.120000 39.321121 27.286064 2290.679688
1.000000 6.840000 1.160000 -15.754023 37.162605 1629.248413
1.000000 6.840000 1.200000 -49.155186 1.663101 2418.998047
1.000000 6.880000 0.800000 -21.956303 -48.414608 2826.053711
1.000000 6.880000 0.840000 -37.978409 -22.316862 1940.401855
1.000000 6.880000 0.880000 -81.668480 -38.507599 8152.576172
1.000000 6.880000 0.920000 -94.907562 -106.791145 20411.792969
1.000000 6.880000 0.960000 -36.672653 -176.124435 32364.699219
1.000000 6.880000 1.000000 68.364632 -179.066986 36738.710938
1.000000 6.880000 1.040000 145.236908 -99.068924 30908.410156
1.000000 6.880000 1.080000 136.892944 8.425964 18810.673828
1.000000 6.880000 1.120000 57.982807 65.061119 7594.955078
1.000000 6.880000 1.160000 -20.155054 40.999336 2087.171875
1.000000 6.880000 1.200000 -37.683372 -22.138672 1910.157471
1.000000 6.920000 0.800000 12.247391 -41.846558 1901.132935
1.000000 6.920000 0.840000 -36.776875 -33.009869 2442.189941
1.000000 6.920000 0.880000 -76.248672 -95.191872 14875.351562
1.000000 6.920000 0.920000 -36.397659 -189.302185 37160.105469
1.000000 6.920000 0.960000 85.129044 -226.623352 58605.097656
1.000000 6.920000 1.000000 208.330292 -153.343658 66915.789062
1.000000 6.920000 1.040000 239.292480 -8.444946 57332.207031
1.000000 6.920000 1.080000 157.207550 106.486069 36053.496094
1.000000 6.920000 1.120000 33.383881 118.305084 15110.576172
1.000000 6.920000 1.160000 -36.570286 44.915646 3354.801025
1.000000 6.920000 1.200000 -18.887037 -30.400814 1280.929688
1.000000 6.960000 0.800000 27.903662 -18.421093 1117.950928
1.000000 6.960000 0.840000 -26.709349 -49.407928 3154.532715
1.000000 6.960000 0.880000 -22.066189 -139.463379 19936.949219
1.000000 6.960000 0.920000 79.196388 -205.707138 48587.492188
1.000000 6.960000 0.960000 220.712769 -164.614838 75812.171875
1.000000 6.960000 1.000000 293.592316 -17.764872 86512.039062
1.000000 6.960000 1.040000 235.177811 139.578690 74790.812500
1.000000 6.960000 1.080000 88.729156 200.533325 48086.476562
1.000000 6.960000 1.120000 -35.955254 140.658463 21077.582031
1.000000 6.960000 1.160000 -61.923908 32.776054 4908.839844
1.000000 6.960000 1.200000 -6.750237 -28.091158 834.678833
1.000000 7.000000 0.800000 24.131027 1.063078 583.436584
1.000000 7.000000 0.840000 -1.278900 -59.210098 3507.471191
1.000000 7.000000 0.880000 55.752678 -131.857086 20494.652344
1.000000 7.000000 0.920000 177.625610 -129.632568 48355.460938
1.000000 7.000000 0.960000 272.198914 -17.145065 74386.203125
1.000000 7.000000 1.000000 252.461548 144.250565 84545.054688
1.000000 7.000000 1.040000 119.382881 243.428223 73509.570312
1.000000 7.000000 1.080000 -34.947842 216.825073 48234.464844
1.000000 7.000000 1.120000 -108.700684 102.186768 22257.974609
1.000000 7.000000 1.160000 -77.065002 -1.969044 5942.891602
1.000000 7.000000 1.200000 -2.068735 -27.941504 785.007263
1.000000 7.040000 0.800000 15.365078 7.355007 290.181763
1.000000 7.040000 0.840000 29.785887 -47.734543 3165.785645
1.000000 7.040000 0.880000 106.769318 -69.702438 16258.117188
1.000000 7.040000 0.920000 191.640945 -7.667393 36785.042969
1.000000 7.040000 0.960000 203.742416 118.301064 55506.113281
1.000000 7.040000 1.000000 111.688560 224.022827 62660.562500
1.000000 7.040000 1.040000 -31.671741 231.938370 54798.503906
1.000000 7.040000 1.080000 -131.867065 139.691071 36902.519531
1.000000 7.040000 1.120000 -133.652359 20.332623 18276.369141
1.000000 7.040000 1.160000 -63.067986 -44.780323 5982.848145
1.000000 7.040000 1.200000 6.261947 -34.060593 1199.335938
1.000000 7.080000 0.800000 13.206451 7.566518 231.662552
1.000000 7.080000 0.840000 45.665951 -15.463619 2324.502686
1.000000 7.080000 0.880000 98.158218 6.247723 9674.070312
1.000000 7.080000 0.920000 119.692612 78.410728 20474.562500
1.000000 7.080000 0.960000 72.857468 157.009308 29960.132812
1.000000 7.080000 1.000000 -26.738106 180.989822 33472.242188
1.000000 7.080000 1.040000 -117.512695 125.663567 29600.566406
1.000000 7.080000 1.080000 -142.118591 26.159210 20881.998047
1.000000 7.080000 1.120000 -94.570984 -52.276962 11676.551758
1.000000 7.080000 1.160000 -20.689255 -68.954697 5182.795410
1.000000 7.080000 1.200000 25.956259 -36.135475 1979.500000
1.000000 7.120000 0.800000 15.423559 12.341553 390.200104
1.000000 7.120000 0.840000 33.968075 18.051937 1479.702515
1.000000 7.120000 0.880000 43.904194 45.803131 4025.504883
1.000000 7.120000 0.920000 25.142365 81.700058 7307.038086
1.000000 7.120000 0.960000 -23.132294 97.203033 9983.533203
1.000000 7.120000 1.000000 -75.974274 71.981857 10953.478516
1.000000 7.120000 1.040000 -99.306343 13.520081 10044.542969
1.000000 7.120000 1.080000 -76.866196 -45.675316 7994.646484
1.000000 7.120000 1.120000 -23.554764 -72.479088 5808.044922
1.000000 7.120000 1.160000 27.027109 -57.947643 4088.394043
1.000000 7.120000 1.200000 49.289379 -20.929340 2867.480225
1.000000 7.160000 0.800000 12.526783 22.099609 645.312988
1.000000 7.160000 0.840000 4.525358 30.530148 952.568787
1.000000 7.160000 0.880000 -8.780682 32.428104 1128.682251
1.000000 7.160000 0.920000 -22.556393 25.993677 1184.462158
1.000000 7.160000 0.960000 -32.463783 11.771240 1192.459351
1.000000 7.160000 1.000000 -34.300869 -8.300117 1245.441528
1.000000 7.160000 1.040000 -23.991749 -29.487915 1445.141113
1.000000 7.160000 1.080000 -0.729538 -43.273571 1873.134155
1.000000 7.160000 1.120000 29.060448 -40.784412 2507.877930
1.000000 7.160000 1.160000 52.580719 -19.790342 3156.389648
1.000000 7.160000 1.200000 58.169582 11.244536 3510.139893
1.000000 7.200000 0.800000 1.796953 27.914522 782.449585
1.000000 7.200000 0.840000 -18.486553 17.973656 664.804932
1.000000 7.200000 0.880000 -22.739769 -5.825772 551.036743
1.000000 7.200000 0.920000 -6.968693 -24.416815 644.743530
1.000000 7.200000 0.960000 15.464465 -25.272545 877.851196
1.000000 7.200000 1.000000 28.808485 -13.148598 1002.814453
1.000000 7.200000 1.040000 30.516132 -1.941708 935.004517
1.000000 7.200000 1.080000 30.715565 1.954372 947.265503
1.000000 7.200000 1.120000 37.503082 5.842253 1440.613159
1.000000 7.200000 1.160000 45.641762 20.020166 2483.977539
1.000000 7.200000 1.200000 41.760498 43.155876 3606.368896
1.040000 6.800000 0.800000 -59.386196 -21.070883 3970.702393
1.040000 6.800000 0.840000 -37.417156 -32.658127 2466.596680
1.040000 6.800000 0.880000 -20.406910 -28.760361 1243.600342
1.040000 6.800000 0.920000 -14.678936 -22.344757 714.759338
1.040000 6.800000 0.960000 -11.837776 -22.674824 654.280579
1.040000 6.800000 1.000000 -1.368362 -24.379349 596.225098
1.040000 6.800000 1.040000 14.005219 -14.656448 410.957642
1.040000 6.800000 1.080000 18.718552 9.028824 431.903839
1.040000 6.800000 1.120000 1.627337 31.501266 994.978027
1.040000 6.800000 1.160000 -28.700199 33.031036 1914.750732
1.040000 6.800000 1.200000 -49.052769 10.237606 2510.982666
1.040000 6.840000 0.800000 -34.769283 -52.787865 3995.461670
1.040000 6.840000 0.840000 -27.509872 -41.272099 2460.179199
1.040000 6.840000 0.880000 -39.239250 -42.954941 3384.845703
1.040000 6.840000 0.920000 -42.489296 -69.965813 6700.555176
1.040000 6.840000 0.960000 -12.171989 -100.298141 10207.874023
1.040000 6.840000 1.000000 42.852371 -97.315720 11306.675781
1.040000 6.840000 1.040000 82.273842 -48.998741 9169.861328
1.040000 6.840000 1.080000 71.900589 14.461731 5378.836426
1.040000 6.840000 1.120000 18.871401 45.782360 2452.154297
1.040000 6.840000 1.160000 -32.717075 24.898668 1690.350586
1.040000 6.840000 1.200000 -42.877102 -22.366556 2338.708740
1.040000 6.880000 0.800000 4.015988 -57.486252 3320.797363
1.040000 6.880000 0.840000 -18.856434 -47.196335 2583.059326
1.040000 6.880000 0.880000 -41.148399 -82.457947 8492.503906
1.040000 6.880000 0.920000 -13.279984 -141.225754 20121.070312
1.040000 6.880000 0.960000 70.028717 -162.934723 31451.746094
1.040000 6.880000 1.000000 154.438904 -108.026535 35521.109375
1.040000 6.880000 1.040000 172.545425 -2.817276 29779.861328
1.040000 6.880000 1.080000 108.428680 79.017555 18000.552734
1.040000 6.880000 1.120000 14.811928 82.952179 7100.457031
1.040000 6.880000 1.160000 -35.744507 22.512417 1784.478760
1.040000 6.880000 1.200000 -16.988493 -37.672905 1707.856689
1.040000 6.920000 0.800000 31.942558 -36.113571 2324.517090
1.040000 6.920000 0.840000 -7.601048 -54.734245 3053.613525
1.040000 6.920000 0.880000 -3.288792 -122.609451 15043.893555
1.040000 6.920000 0.920000 78.799911 -173.458527 36297.289062
1.040000 6.920000 0.960000 194.382462 -137.074600 56573.988281
1.040000 6.920000 1.000000 252.929321 -13.187683 64147.156250
1.040000 6.920000 1.040000 201.198044 118.607162 54548.312500
1.040000 6.920000 1.080000 75.852036 167.596558 33842.136719
1.040000 6.920000 1.120000 -28.832405 113.326881 13674.290039
1.040000 6.920000 1.160000 -46.762806 19.658096 2573.200684
1.040000 6.920000 1.200000 5.405514 -30.133369 937.239563
1.040000 6.960000 0.800000 36.641380 -7.658438 1401.242310
1.040000 6.960000 0.840000 12.528450 -58.876396 3623.392090
1.040000 6.960000 0.880000 64.702545 -124.873520 19779.814453
1.040000 6.960000 0.920000 179.285309 -121.790619 46976.179688
1.040000 6.960000 0.960000 268.937805 -13.881999 72520.257812
1.040000 6.960000 1.000000 249.549744 140.999817 82156.023438
1.040000 6.960000 1.040000 121.624672 235.960205 70469.781250
1.040000 6.960000 1.080000 -25.790533 209.902496 44724.210938
1.040000 6.960000 1.120000 -94.459938 100.298264 18982.421875
1.040000 6.960000 1.160000 -61.848625 3.298843 3836.134766
1.040000 6.960000 1.200000 9.797575 -16.396761 364.846252
1.040000 7.000000 0.800000 25.645784 10.022669 758.160156
1.040000 7.000000 0.840000 38.110931 -48.287651 3784.140381
1.040000 7.000000 0.880000 120.748245 -73.339493 19958.820312
1.040000 7.000000 0.920000 214.573685 -6.467829 46083.699219
1.040000 7.000000 0.960000 229.706390 132.003830 70190.039062
1.040000 7.000000 1.000000 130.384308 249.502182 79251.406250
1.040000 7.000000 1.040000 -25.533428 260.446533 68484.351562
1.040000 7.000000 1.080000 -134.449127 162.693542 44545.757812
1.040000 7.000000 1.120000 -137.049347 36.810997 20137.572266
1.040000 7.000000 1.160000 -63.720108 -29.326290 4920.283691
1.040000 7.000000 1.200000 4.742167 -15.132476 251.479965
1.040000 7.040000 0.800000 14.370583 14.572376 418.867798
1.040000 7.040000 0.840000 53.802959 -19.233444 3264.683838
1.040000 7.040000 0.880000 124.237740 4.934231 15459.362305
1.040000 7.040000 0.920000 157.113983 97.899635 34269.140625
1.040000 7.040000 0.960000 100.868881 202.581039 51213.609375
1.040000 7.040000 1.000000 -25.386536 238.479538 57516.964844
1.040000 7.040000 1.040000 -142.051270 173.216843 50182.636719
1.040000 7.040000 1.080000 -176.198502 52.205704 33771.347656
1.040000 7.040000 1.120000 -122.038986 -42.238541 16677.607422
1.040000 7.040000 1.160000 -38.330902 -61.777634 5285.734375
1.040000 7.040000 1.200000 10.260363 -25.275494 744.125610
1.040000 7.080000 0.800000 9.715503 15.628769 338.649414
1.040000 7.080000 0.840000 45.483559 15.342669 2304.151611
1.040000 7.080000 0.880000 73.214752 59.257599 8871.863281
1.040000 7.080000 0.920000 51.599442 125.142365 18323.113281
1.040000 7.080000 0.960000 -24.676491 160.959106 26516.763672
1.040000 7.080000 1.000000 -113.226044 129.304092 29539.685547
1.040000 7.080000 1.040000 -156.403381 42.392365 26259.130859
1.040000 7.080000 1.080000 -129.030273 -46.385681 18800.441406
1.040000 7.080000 1.120000 -57.166676 -86.666481 10779.107422
1.040000 7.080000 1.160000 7.849463 -69.605011 4906.471680
1.040000 7.080000 1.200000 33.105213 -26.821711 1815.359253
1.040000 7.120000 0.800000 6.546524 20.448650 461.004272
1.040000 7.120000 0.840000 15.999104 34.083534 1417.658569
1.040000 7.120000 0.880000 7.695351 58.535515 3485.625000
1.040000 7.120000 0.920000 -24.690475 73.575401 6022.959473
1.040000 7.120000 0.960000 -67.054794 59.542068 8041.603027
1.040000 7.120000 1.000000 -92.713120 15.066742 8822.729492
1.040000 7.120000 1.040000 -82.356049 -38.979797 8301.943359
1.040000 7.120000 1.080000 -39.274872 -73.709496 6975.605469
1.040000 7.120000 1.120000 13.121773 -72.814468 5474.127930
1.040000 7.120000 1.160000 48.802505 -42.481735 4186.382324
1.040000 7.120000 1.200000 56.280708 -3.699027 3181.200928
1.040000 7.160000 0.800000 -1.883114 25.988354 678.940674
1.040000 7.160000 0.840000 -14.381107 26.571259 912.848022
1.040000 7.160000 0.880000 -25.739609 17.279713 961.115967
1.040000 7.160000 0.920000 -29.577938 1.982681 878.785461
1.040000 7.160000 0.960000 -24.882725 -13.358521 797.600037
1.040000 7.160000 1.000000 -13.829329 -25.438690 838.377319
1.040000 7.160000 1.040000 2.395775 -33.017845 1095.917847
1.040000 7.160000 1.080000 23.464157 -33.194065 1652.412598
1.040000 7.160000 1.120000 45.541725 -21.132032 2520.611572
1.040000 7.160000 1.160000 59.281567 4.474428 3534.324707
1.040000 7.160000 1.200000 55.041496 36.000816 4325.625000
1.040000 7.200000 0.800000 -13.891065 25.094297 822.685425
1.040000 7.200000 0.840000 -25.600220 3.901541 670.593323
1.040000 7.200000 0.880000 -14.353806 -20.828848 639.872681
1.040000 7.200000 0.920000 13.051540 -28.325100 972.653992
1.040000 7.200000 0.960000 35.813599 -13.746155 1471.570679
1.040000 7.200000 1.000000 40.168964 8.366386 1683.542114
1.040000 7.200000 1.040000 31.849045 20.855957 1449.332520
1.040000 7.200000 1.080000 26.893490 22.084787 1210.997559
1.040000 7.200000 1.120000 31.835524 25.546179 1666.107788
1.040000 7.200000 1.160000 35.724247 42.028786 3042.640625
1.040000 7.200000 1.200000 22.882027 64.809509 4723.859375
1.080000 6.800000 0.800000 -37.957123 -44.447376 3416.312500
1.080000 6.800000 0.840000 -14.353001 -46.375923 2356.734863
1.080000 6.800000 0.880000 0.767605 -36.490837 1332.170410
1.080000 6.800000 0.920000 5.724148 -26.413822 730.455872
1.080000 6.800000 0.960000 8.597565 -21.074627 518.057983
1.080000 6.800000 1.000000 14.992538 -14.570877 437.086670
1.080000 6.800000 1.040000 19.392067 0.182892 376.085693
1.080000 6.800000 1.080000 10.984779 19.299831 493.148865
1.080000 6.800000 1.120000 -11.984804 28.451822 953.141724
1.080000 6.800000 1.160000 -36.099854 17.179508 1598.334961
1.080000 6.800000 1.200000 -43.563477 -8.254522 1965.913574
1.080000 6.840000 0.800000 -5.942750 -60.034908 3639.506348
1.080000 6.840000 0.840000 -0.966972 -51.403770 2643.282715
1.080000 6.840000 0.880000 -2.823902 -56.201900 3166.627930
1.080000 6.840000 0.920000 9.784012 -71.780548 5248.174316
1.080000 6.840000 0.960000 43.535698 -74.706284 7476.385742
1.080000 6.840000 1.000000 77.601189 -45.737968 8113.906250
1.080000 6.840000 1.040000 80.923569 5.571869 6579.669922
1.080000 6.840000 1.080000 44.075634 44.509922 3923.794678
1.080000 6.840000 1.120000 -7.625111 42.399105 1855.826416
1.080000 6.840000 1.160000 -35.376740 4.556303 1272.273560
1.080000 6.840000 1.200000 -22.527065 -34.030617 1665.551514
1.080000 6.880000 0.800000 27.122574 -49.300205 3166.144287
1.080000 6.880000 0.840000 12.809321 -52.651680 2936.278076
1.080000 6.880000 0.880000 17.797443 -83.242851 7246.121094
1.080000 6.880000 0.920000 64.252617 -106.128830 15391.726562
1.080000 6.880000 0.960000 129.263000 -80.151085 23133.121094
1.080000 6.880000 1.000000 160.019287 -3.536079 25618.675781
1.080000 6.880000 1.040000 123.756805 76.422981 21156.218750
1.080000 6.880000 1.080000 42.633255 103.494827 12528.774414
1.080000 6.880000 1.120000 -23.617352 64.385284 4703.244141
1.080000 6.880000 1.160000 -31.743448 0.441875 1007.841736
1.080000 6.880000 1.200000 7.609223 -32.597908 1120.523926
1.080000 6.920000 0.800000 42.500816 -21.947237 2288.000488
1.080000 6.920000 0.840000 29.022800 -50.051647 3347.490479
1.080000 6.920000 0.880000 64.966270 -89.825790 12289.289062
1.080000 6.920000 0.920000 143.239288 -83.315643 27458.990234
1.080000 6.920000 0.960000 203.612610 -4.263660 41476.273438
1.080000 6.920000 1.000000 186.203156 107.006264 46121.953125
1.080000 6.920000 1.040000 91.251953 173.742859 38513.500000
1.080000 6.920000 1.080000 -16.199154 151.701508 23275.759766
1.080000 6.920000 1.120000 -63.806263 69.190506 8858.565430
1.080000 6.920000 1.160000 -35.558437 -1.494402 1266.635742
1.080000 6.920000 1.200000 20.358471 -11.733500 552.142334
1.080000 6.960000 0.800000 37.292900 3.392760 1402.271240
1.080000 6.960000 0.840000 46.985081 -38.391651 3681.516602
1.080000 6.960000 0.880000 112.528656 -55.280876 15718.673828
1.080000 6.960000 0.920000 187.326141 1.592994 35093.621094
1.080000 6.960000 0.960000 197.697800 116.560455 52670.761719
1.080000 6.960000 1.000000 113.908119 213.489899 58552.996094
1.080000 6.960000 1.040000 -15.824670 221.556747 49337.812500
1.080000 6.960000 1.080000 -105.023697 139.792358 30571.880859
1.080000 6.960000 1.120000 -104.979378 36.643036 12363.381836
1.080000 6.960000 1.160000 -43.142830 -14.194664 2062.792236
1.080000 6.960000 1.200000 10.935453 2.639114 126.549072
1.080000 7.000000 0.800000 22.873810 15.723883 770.451660
1.080000 7.000000 0.840000 58.182880 -14.194350 3586.727051
1.080000 7.000000 0.880000 124.014252 9.494455 15469.678711
1.080000 7.000000 0.920000 155.061981 98.775787 33800.875000
1.080000 7.000000 0.960000 101.262436 199.658157 50117.460938
1.080000 7.000000 1.000000 -19.344179 234.977432 55588.593750
1.080000 7.000000 1.040000 -130.394836 174.101791 47314.246094
1.080000 7.000000 1.080000 -162.735779 61.410583 30254.193359
1.080000 7.000000 1.120000 -112.708435 -24.353016 13296.260742
1.080000 7.000000 1.160000 -38.093430 -39.107536 2980.508789
1.080000 7.000000 1.200000 0.210123 -4.178545 17.504395
1.080000 7.040000 0.800000 11.238935 17.868044 445.580658
1.080000 7.040000 0.840000 51.714264 15.662359 2919.674561
1.080000 7.040000 0.880000 85.761055 65.280884 11616.552734
1.080000 7.040000 0.920000 63.700729 142.587936 24389.103516
1.080000 7.040000 0.960000 -22.188297 187.047958 35479.257812
1.080000 7.040000 1.000000 -123.350784 154.922119 39216.281250
1.080000 7.040000 1.040000 -173.879288 60.481911 33892.066406
1.080000 7.040000 1.080000 -146.518951 -35.263649 22711.328125
1.080000 7.040000 1.120000 -72.638153 -77.157524 11229.584961
1.080000 7.040000 1.160000 -9.551962 -59.030144 3575.797852
1.080000 7.040000 1.200000 10.079924 -18.821438 455.851379
1.080000 7.080000 0.800000 4.582591 18.415380 360.126404
1.080000 7.080000 0.840000 26.292149 35.302864 1937.569336
1.080000 7.080000 0.880000 22.493021 76.441360 6349.217773
1.080000 7.080000 0.920000 -22.707474 108.706787 12332.794922
1.080000 7.080000 0.960000 -88.930420 97.015175 17320.564453
1.080000 7.080000 1.000000 -133.008270 36.979202 19058.660156
1.080000 7.080000 1.040000 -124.503189 -38.719746 17000.261719
1.080000 7.080000 1.080000 -70.371452 -86.590912 12450.126953
1.080000 7.080000 1.120000 -6.822315 -86.359367 7504.484375
1.080000 7.080000 1.160000 31.783760 -52.219727 3737.107422
1.080000 7.080000 1.200000 37.090485 -14.515182 1586.394531
1.080000 7.120000 0.800000 -2.330429 20.581491 429.028687
1.080000 7.120000 0.840000 -4.606281 32.781624 1095.852661
1.080000 7.120000 0.880000 -22.317734 42.240036 2282.302002
1.080000 7.120000 0.920000 -48.921879 34.563873 3588.011719
1.080000 7.120000 0.960000 -67.379059 5.827904 4573.901855
1.080000 7.120000 1.000000 -62.801365 -32.672882 5011.528809
1.080000 7.120000 1.040000 -33.636292 -61.775375 4947.597168
1.080000 7.120000 1.080000 7.456528 -67.313019 4586.642090
1.080000 7.120000 1.120000 42.473259 -48.191124 4126.362305
1.080000 7.120000 1.160000 58.678242 -14.885805 3664.723145
1.080000 7.120000 1.200000 53.625271 18.195217 3206.735596
1.080000 7.160000 0.800000 -12.486894 20.360231 570.461548
1.080000 7.160000 0.840000 -22.393694 12.116405 648.284790
1.080000 7.160000 0.880000 -24.103706 -3.274408 591.710388
1.080000 7.160000 0.920000 -14.893569 -16.934052 508.580505
1.080000 7.160000 0.960000 -0.180531 -22.340816 499.144684
1.080000 7.160000 1.000000 13.275524 -20.468163 595.185242
1.080000 7.160000 1.040000 24.316635 -15.727325 838.647522
1.080000 7.160000 1.080000 35.954319 -8.355183 1362.522095
1.080000 7.160000 1.120000 47.508560 6.594450 2300.550049
1.080000 7.160000 1.160000 50.704739 31.401688 3557.036377
1.080000 7.160000 1.200000 36.310989 58.088989 4692.818359
1.080000 7.200000 0.800000 -22.128101 14.019569 686.201172
1.080000 7.200000 0.840000 -19.771868 -9.124188 474.177582
1.080000 7.200000 0.880000 3.229125 -23.393003 557.659851
1.080000 7.200000 0.920000 30.891129 -14.521416 1165.133301
1.080000 7.200000 0.960000 42.624489 11.199612 1942.278320
1.080000 7.200000 1.000000 33.544067 33.602783 2254.351562
1.080000 7.200000 1.040000 17.926270 39.712860 1898.462402
1.080000 7.200000 1.080000 12.116076 36.252426 1461.037720
1.080000 7.200000 1.120000 15.942625 39.930328 1848.598389
1.080000 7.200000 1.160000 13.353002 56.532677 3374.246338
1.080000 7.200000 1.200000 -8.345976 72.362221 5305.946289
1.120000 6.800000 0.800000 -11.406503 -46.848763 2324.915039
1.120000 6.800000 0.840000 9.057095 -41.087101 1770.180908
1.120000 6.800000 0.880000 19.930998 -26.665760 1108.307373
1.120000 6.800000 0.920000 20.928585 -12.948519 605.669800
1.120000 6.800000 0.960000 18.073692 -3.773758 340.899597
1.120000 6.800000 1.000000 15.181969 3.906185 245.750458
1.120000 6.800000 1.040000 9.550350 13.068672 261.999390
1.120000 6.800000 1.080000 -3.126328 20.170462 416.621460
1.120000 6.800000 1.120000 -20.580225 17.545584 731.393188
1.120000 6.800000 1.160000 -32.933475 2.612535 1091.439087
1.120000 6.800000 1.200000 -31.328796 -16.764143 1262.530029
1.120000 6.840000 0.800000 16.386204 -49.041199 2673.546631
1.120000 6.840000 0.840000 23.503933 -41.708168 2292.006104
1.120000 6.840000 0.880000 29.102627 -39.602192 2415.296387
1.120000 6.840000 0.920000 41.743710 -37.101646 3119.069336
1.120000 6.840000 0.960000 57.980934 -22.431362 3864.954834
1.120000 6.840000 1.000000 62.508095 6.633698 3951.267822
1.120000 6.840000 1.040000 43.582092 35.311649 3146.311523
1.120000 6.840000 1.080000 8.084045 42.887886 1904.722534
1.120000 6.840000 1.120000 -21.000912 22.746788 958.454712
1.120000 6.840000 1.160000 -24.322275 -9.328969 678.602722
1.120000 6.840000 1.200000 -4.010351 -28.417957 823.663208
1.120000 6.880000 0.800000 38.037025 -32.462307 2500.616699
1.120000 6.880000 0.840000 38.260273 -35.962219 2757.129883
1.120000 6.880000 0.880000 55.023540 -44.371445 4996.415039
1.120000 6.880000 0.920000 87.360435 -34.131996 8796.838867
1.120000 6.880000 0.960000 110.026985 6.715004 12151.028320
1.120000 6.880000 1.000000 96.024170 60.305977 12857.452148
1.120000 6.880000 1.040000 45.460758 90.558769 10267.571289
1.120000 6.880000 1.080000 -9.822319 75.800385 5842.176270
1.120000 6.880000 1.120000 -33.034988 30.213238 2004.150146
1.120000 6.880000 1.160000 -15.293676 -8.381296 304.142639
1.120000 6.880000 1.200000 17.944654 -13.070869 492.858246
1.120000 6.920000 0.800000 43.383675 -8.320592 1951.375488
1.120000 6.920000 0.840000 51.052891 -22.868317 3129.357666
1.120000 6.920000 0.880000 85.807625 -24.703739 7973.223145
1.120000 6.920000 0.920000 123.538490 12.405184 15415.647461
1.120000 6.920000 0.960000 124.132767 79.842453 21783.761719
1.120000 6.920000 1.000000 71.384346 134.725372 23246.650391
1.120000 6.920000 1.040000 -6.410408 136.734573 18737.437500
1.120000 6.920000 1.080000 -58.469116 86.047165 10822.751953
1.120000 6.920000 1.120000 -56.229050 24.072332 3741.183105
1.120000 6.920000 1.160000 -17.123180 -4.454262 313.043762
1.120000 6.920000 1.200000 15.355900 9.396876 324.104950
1.120000 6.960000 0.800000 34.662392 10.412190 1309.895142
1.120000 6.960000 0.840000 56.985497 -2.187482 3252.132080
1.120000 6.960000 0.880000 97.061676 18.636648 9768.292969
1.120000 6.960000 0.920000 113.159904 80.633003 19306.845703
1.120000 6.960000 0.960000 72.985062 148.259216 27307.613281
1.120000 6.960000 1.000000 -10.703856 170.546173 29200.570312
1.120000 6.960000 1.040000 -86.232635 127.874794 23788.031250
1.120000 6.960000 1.080000 -107.327621 51.383690 14159.501953
1.120000 6.960000 1.120000 -72.912231 -4.929262 5340.491211
1.120000 6.960000 1.160000 -23.977579 -11.908540 716.737671
1.120000 6.960000 1.200000 -2.595322 13.664732 193.460587
1.120000 7.000000 0.800000 21.267490 18.830580 806.896851
1.120000 7.000000 0.840000 49.981033 21.306988 2952.091553
1.120000 7.000000 0.880000 73.146194 62.333858 9235.875977
1.120000 7.000000 0.920000 52.732471 123.539177 18042.642578
1.120000 7.000000 0.960000 -16.856945 158.082397 25274.201172
1.120000 7.000000 1.000000 -97.304398 132.452148 27011.718750
1.120000 7.000000 1.040000 -137.306778 58.861492 22317.826172
1.120000 7.000000 1.080000 -116.852570 -14.322636 13859.661133
1.120000 7.000000 1.120000 -62.177254 -44.840576 5876.688477
1.120000 7.000000 1.160000 -18.480989 -30.292065 1259.156128
1.120000 7.000000 1.200000 -9.231304 -2.511405 91.524132
1.120000 7.040000 0.800000 10.043342 20.426245 518.100220
1.120000 7.040000 0.840000 29.017467 37.338547 2236.180664
1.120000 7.040000 0.880000 24.540192 77.429893 6597.609375
1.120000 7.040000 0.920000 -19.360916 109.532967 12372.315430
1.120000 7.040000 0.960000 -83.574867 99.951958 16975.152344
1.120000 7.040000 1.000000 -126.970901 44.672184 18117.212891
1.120000 7.040000 1.040000 -121.307281 -24.816364 15331.308594
1.120000 7.040000 1.080000 -74.643311 -67.946159 10188.304688
1.120000 7.040000 1.120000 -21.705105 -67.997620 5094.788086
1.120000 7.040000 1.160000 7.329781 -40.935802 1729.465576
1.120000 7.040000 1.200000 8.837683 -15.157035 307.840332
1.120000 7.080000 0.800000 1.200972 19.985292 400.854248
1.120000 7.080000 0.840000 2.516976 36.801994 1360.722046
1.120000 7.080000 0.880000 -17.788830 54.824810 3322.202148
1.120000 7.080000 0.920000 -54.367023 52.009151 5660.725098
1.120000 7.080000 0.960000 -83.955139 19.589493 7432.213379
1.120000 7.080000 1.000000 -84.520752 -28.207718 7939.432617
1.120000 7.080000 1.040000 -53.637432 -65.044365 7107.743652
1.120000 7.080000 1.080000 -9.397449 -73.112953 5433.815918
1.120000 7.080000 1.120000 25.242334 -54.545677 3612.406250
1.120000 7.080000 1.160000 38.830105 -25.325819 2149.174316
1.120000 7.080000 1.200000 34.781975 -0.623022 1210.173950
1.120000 7.120000 0.800000 -7.734430 18.033268 385.020172
1.120000 7.120000 0.840000 -15.829884 20.400229 666.754517
1.120000 7.120000 0.880000 -28.224606 14.420772 1004.587036
1.120000 7.120000 0.920000 -35.858582 -2.142021 1290.426147
1.120000 7.120000 0.960000 -31.072237 -23.065170 1497.485962
1.120000 7.120000 1.000000 -13.557510 -38.516411 1667.320068
1.120000 7.120000 1.040000 10.386055 -41.802727 1855.338135
1.120000 7.120000 1.080000 32.738625 -31.948296 2092.511230
1.120000 7.120000 1.120000 47.220535 -11.909242 2371.609131
1.120000 7.120000 1.160000 49.577892 13.326694 2635.568115
1.120000 7.120000 1.200000 37.803566 36.682430 2774.710449
1.120000 7.160000 0.800000 -16.420731 12.313094 421.252686
1.120000 7.160000 0.840000 -17.843380 -0.300121 318.476288
1.120000 7.160000 0.880000 -8.454653 -12.430929 226.009155
1.120000 7.160000 0.920000 7.698025 -15.104797 287.414490
1.120000 7.160000 0.960000 20.827427 -7.109673 484.329163
1.120000 7.160000 1.000000 25.509109 4.228029 668.590881
1.120000 7.160000 1.040000 25.587440 12.024389 799.303040
1.120000 7.160000 1.080000 27.804573 18.020590 1097.835938
1.120000 7.160000 1.120000 31.431160 29.739956 1872.382812
1.120000 7.160000 1.160000 26.781219 49.094833 3127.536377
1.120000 7.160000 1.200000 5.929603 65.843033 4370.465332
1.120000 7.200000 0.800000 -21.524151 2.758822 470.900177
1.120000 7.200000 0.840000 -7.985209 -12.163160 211.706024
1.120000 7.200000 0.880000 16.040211 -10.970779 377.646362
1.120000 7.200000 0.920000 32.441132 9.540720 1143.452393
1.120000 7.200000 0.960000 28.633408 35.179893 2057.496826
1.120000 7.200000 1.000000 10.262577 48.121292 2420.979248
1.120000 7.200000 1.040000 -5.283653 44.851212 2039.548218
1.120000 7.200000 1.080000 -7.939452 38.549343 1549.086792
1.120000 7.200000 1.120000 -5.674628 43.017838 1882.735718
1.120000 7.200000 1.160000 -14.694077 55.795181 3329.018066
1.120000 7.200000 1.200000 -39.621864 59.562782 5117.617188
1.160000 6.800000 0.800000 4.765759 -33.666351 1156.135742
1.160000 6.800000 0.840000 19.198519 -23.767040 933.455322
1.160000 6.800000 0.880000 23.793201 -7.940091 629.161499
1.160000 6.800000 0.920000 18.468224 5.443344 370.705292
1.160000 6.800000 0.960000 8.844049 11.870914 219.135818
1.160000 6.800000 1.000000 0.302942 12.866903 165.648972
1.160000 6.800000 1.040000 -6.312460 12.121410 186.775742
1.160000 6.800000 1.080000 -13.224621 10.446999 284.030365
1.160000 6.800000 1.120000 -20.793333 5.289406 460.340515
1.160000 6.800000 1.160000 -25.361359 -4.918118 667.386353
1.160000 6.800000 1.200000 -22.649021 -16.997173 801.882080
1.160000 6.840000 0.800000 23.561693 -31.244049 1531.343994
1.160000 6.840000 0.840000 32.250973 -21.177299 1488.603271
1.160000 6.840000 0.880000 35.728722 -9.889767 1374.348999
1.160000 6.840000 0.920000 35.558430 1.313969 1266.128540
1.160000 6.840000 0.960000 31.517136 12.752913 1155.966553
1.160000 6.840000 1.000000 21.636433 22.711945 983.967651
1.160000 6.840000 1.040000 6.196066 26.309046 730.557129
1.160000 6.840000 1.080000 -9.239340 19.463617 464.197815
1.160000 6.840000 1.120000 -16.459866 4.273044 289.186096
1.160000 6.840000 1.160000 -11.521527 -10.616635 245.458527
1.160000 6.840000 1.200000 0.965197 -16.384308 269.377167
1.160000 6.880000 0.800000 36.916145 -17.621197 1673.308350
1.160000 6.880000 0.840000 43.806107 -10.301065 2025.086914
1.160000 6.880000 0.880000 51.195419 0.385214 2621.119385
1.160000 6.880000 0.920000 54.846203 17.995459 3331.942383
1.160000 6.880000 0.960000 46.986008 39.411533 3760.953613
1.160000 6.880000 1.000000 25.163595 53.787663 3526.319092
1.160000 6.880000 1.040000 -1.936567 50.904484 2595.016602
1.160000 6.880000 1.080000 -19.304199 31.526634 1366.580811
1.160000 6.880000 1.120000 -18.001495 8.758780 400.770050
1.160000 6.880000 1.160000 -3.297054 -2.359771 16.439085
1.160000 6.880000 1.200000 10.003807 2.358459 105.638489
1.160000 6.920000 0.800000 39.654041 0.375728 1572.584106
1.160000 6.920000 0.840000 48.273872 7.497342 2386.576904
1.160000 6.920000 0.880000 57.288391 24.360928 3875.414551
1.160000 6.920000 0.920000 54.806137 51.282833 5633.641602
1.160000 6.920000 0.960000 32.418907 75.674400 6777.600586
1.160000 6.920000 1.000000 -3.447684 80.807602 6541.755371
1.160000 6.920000 1.040000 -33.637226 61.357330 4896.185059
1.160000 6.920000 1.080000 -41.649906 30.065418 2638.644043
1.160000 6.920000 1.120000 -27.991245 7.727315 843.221191
1.160000 6.920000 1.160000 -9.179848 5.397083 113.398117
1.160000 6.920000 1.200000 -2.173612 15.977049 259.990692
1.160000 6.960000 0.800000 32.791672 15.536661 1316.681519
1.160000 6.960000 0.840000 41.315121 26.669680 2418.210938
1.160000 6.960000 0.880000 43.401947 50.444210 4428.347656
1.160000 6.960000 0.920000 25.986275 77.967697 6754.248535
1.160000 6.960000 0.960000 -10.623005 90.311058 8268.935547
1.160000 6.960000 1.000000 -48.856266 75.320999 8060.187500
1.160000 6.960000 1.040000 -67.178894 40.287140 6136.057617
1.160000 6.960000 1.080000 -58.481815 7.017448 3469.367432
1.160000 6.960000 1.120000 -35.633507 -6.627692 1313.673096
1.160000 6.960000 1.160000 -18.850622 -0.976482 356.299469
1.160000 6.960000 1.200000 -17.580359 8.749829 385.628510
1.160000 7.000000 0.800000 20.753279 24.218479 1017.233276
1.160000 7.000000 0.840000 23.521105 38.880360 2064.924805
1.160000 7.000000 0.880000 12.980579 60.946297 3882.946533
1.160000 7.000000 0.920000 -16.236841 75.056938 5897.178711
1.160000 7.000000 0.960000 -52.809067 66.144470 7163.888672
1.160000 7.000000 1.000000 -76.121658 34.523243 6986.361328
1.160000 7.000000 1.040000 -73.604385 -2.609282 5424.414062
1.160000 7.000000 1.080000 -51.174538 -25.312258 3259.543701
1.160000 7.000000 1.120000 -26.876003 -26.926992 1447.382568
1.160000 7.000000 1.160000 -14.633163 -16.923527 500.535217
1.160000 7.000000 1.200000 -14.183362 -9.308321 287.812592
1.160000 7.040000 0.800000 7.647347 26.302965 750.327881
1.160000 7.040000 0.840000 1.980388 37.878273 1438.685425
1.160000 7.040000 0.880000 -16.228292 47.332489 2503.721924
1.160000 7.040000 0.920000 -42.380638 42.228848 3579.394043
1.160000 7.040000 0.960000 -61.929478 18.951296 4194.412109
1.160000 7.040000 1.000000 -62.535458 -12.384068 4064.048584
1.160000 7.040000 1.040000 -44.541435 -35.816879 3266.788330
1.160000 7.040000 1.080000 -19.826662 -42.214943 2175.197998
1.160000 7.040000 1.120000 -1.133374 -34.620430 1199.858765
1.160000 7.040000 1.160000 7.020503 -22.593885 559.771118
1.160000 7.040000 1.200000 8.131191 -12.945539 233.703262
1.160000 7.080000 0.800000 -4.073521 22.959465 543.730591
1.160000 7.080000 0.840000 -13.192883 24.591282 778.783325
1.160000 7.080000 0.880000 -26.031246 19.257992 1048.496094
1.160000 7.080000 0.920000 -35.056664 4.399334 1248.323730
1.160000 7.080000 0.960000 -33.240761 -14.787531 1323.619141
1.160000 7.080000 1.000000 -20.337585 -29.433067 1279.922852
1.160000 7.080000 1.040000 -2.455051 -34.004066 1162.303711
1.160000 7.080000 1.080000 13.518039 -29.026184 1025.256714
1.160000 7.080000 1.120000 24.050993 -18.134377 907.305908
1.160000 7.080000 1.160000 28.235811 -4.381237 816.456299
1.160000 7.080000 1.200000 25.243553 9.782487 732.934082
1.160000 7.120000 0.800000 -12.751897 15.414893 400.229797
1.160000 7.120000 0.840000 -15.900632 7.385923 307.381958
1.160000 7.120000 0.880000 -13.689577 -2.771963 195.088303
1.160000 7.120000 0.920000 -5.327482 -10.146955 131.342773
1.160000 7.120000 0.960000 5.291174 -11.221075 153.909058
1.160000 7.120000 1.000000 13.550278 -7.296038 236.842194
1.160000 7.120000 1.040000 18.762022 -2.041674 356.181885
1.160000 7.120000 1.080000 23.420715 3.788115 562.879700
1.160000 7.120000 1.120000 27.662794 13.299460 942.105835
1.160000 7.120000 1.160000 26.329254 27.950665 1474.469238
1.160000 7.120000 1.200000 13.757508 42.055805 1957.959839
1.160000 7.160000 0.800000 -16.931019 5.410127 315.928864
1.160000 7.160000 0.840000 -8.694981 -4.050773 92.011452
1.160000 7.160000 0.880000 5.857926 -5.369508 63.146912
1.160000 7.160000 0.920000 17.807873 4.432337 336.765930
1.160000 7.160000 0.960000 19.363144 18.992353 735.640869
1.160000 7.160000 1.000000 12.032322 28.345470 948.242432
1.160000 7.160000 1.040000 4.980642 29.372284 887.537903
1.160000 7.160000 1.080000 4.400982 29.064934 864.139038
1.160000 7.160000 1.120000 5.595867 35.877113 1318.480957
1.160000 7.160000 1.160000 -2.321635 48.208660 2329.464844
1.160000 7.160000 1.200000 -23.150030 53.563858 3405.010742
1.160000 7.200000 0.800000 -16.178850 -4.433708 281.412964
1.160000 7.200000 0.840000 -0.185442 -6.326305 40.056522
1.160000 7.200000 0.880000 14.361601 6.331640 246.345245
1.160000 7.200000 0.920000 15.119363 27.399719 979.339783
1.160000 7.200000 0.960000 0.614290 42.348991 1793.814331
1.160000 7.200000 1.000000 -17.440733 42.282440 2091.983887
1.160000 7.200000 1.040000 -25.968882 32.870880 1754.877563
1.160000 7.200000 1.080000 -24.273369 27.720573 1357.626587
1.160000 7.200000 1.120000 -24.368223 32.749275 1666.325317
1.160000 7.200000 1.160000 -36.750542 38.729897 2850.607178
1.160000 7.200000 1.200000 -56.973442 30.951242 4203.952637
1.200000 6.800000 0.800000 5.184815 -18.354061 363.753876
1.200000 6.800000 0.840000 12.875113 -9.043654 247.556213
1.200000 6.800000 0.880000 11.870636 3.313490 151.891220
1.200000 6.800000 0.920000 2.857621 11.146187 132.403473
1.200000 6.800000 0.960000 -7.725224 10.570169 171.407562
1.200000 6.800000 1.000000 -13.454861 4.528829 201.543579
1.200000 6.800000 1.040000 -13.636797 -0.667124 186.407288
1.200000 6.800000 1.080000 -12.999107 -2.021638 173.063812
1.200000 6.800000 1.120000 -15.700552 -2.666070 253.615265
1.200000 6.800000 1.160000 -20.060282 -7.765912 462.724304
1.200000 6.800000 1.200000 -19.894497 -17.872242 715.208008
1.200000 6.840000 0.800000 17.899040 -18.929077 678.685608
1.200000 6.840000 0.840000 24.040567 -6.071375 614.810425
1.200000 6.840000 0.880000 19.650051 7.085460 436.328247
1.200000 6.840000 0.920000 8.588654 12.809700 237.853378
1.200000 6.840000 0.960000 -1.127099 9.824949 97.799973
1.200000 6.840000 1.000000 -4.564883 3.453523 32.764977
1.200000 6.840000 1.040000 -3.478065 -0.381302 12.242328
1.200000 6.840000 1.080000 -2.922700 -0.862713 9.286448
1.200000 6.840000 1.120000 -5.002633 -1.863702 28.499722
1.200000 6.840000 1.160000 -6.651649 -6.408524 85.313599
1.200000 6.840000 1.200000 -3.599223 -12.441868 167.754486
1.200000 6.880000 0.800000 30.171265 -10.625206 1023.200256
1.200000 6.880000 0.840000 31.850294 5.911731 1049.389771
1.200000 6.880000 0.880000 22.691875 18.369337 852.353760
1.200000 6.880000 0.920000 9.895566 20.958229 537.169617
1.200000 6.880000 0.960000 1.580365 15.891674 255.042862
1.200000 6.880000 1.000000 0.104433 10.069945 101.414703
1.200000 6.880000 1.040000 1.576206 8.152317 68.944702
1.200000 6.880000 1.080000 1.191686 9.024979 82.870354
1.200000 6.880000 1.120000 -1.681347 8.643809 77.542366
1.200000 6.880000 1.160000 -3.773413 5.303527 42.366043
1.200000 6.880000 1.200000 -2.411133 1.468431 7.969855
1.200000 6.920000 0.800000 35.639400 4.999478 1295.161621
1.200000 6.920000 0.840000 29.545031 22.331953 1371.625000
1.200000 6.920000 0.880000 15.193892 30.789108 1178.823486
1.200000 6.920000 0.920000 1.847985 28.534454 817.630127
1.200000 6.920000 0.960000 -4.183130 21.299320 471.159607
1.200000 6.920000 1.000000 -3.907703 16.404009 284.361633
1.200000 6.920000 1.040000 -3.032926 16.340706 276.217316
1.200000 6.920000 1.080000 -5.667462 17.848742 350.697693
1.200000 6.920000 1.120000 -10.788036 16.488636 388.256836
1.200000 6.920000 1.160000 -14.337177 11.382253 335.110352
1.200000 6.920000 1.200000 -13.878905 5.535623 223.267120
1.200000 6.960000 0.800000 30.338055 21.871941 1398.779297
1.200000 6.960000 0.840000 16.029230 34.140251 1422.492920
1.200000 6.960000 0.880000 -0.826669 34.641800 1200.737671
1.200000 6.960000 0.920000 -11.440144 26.492470 832.727844
1.200000 6.960000 0.960000 -13.297539 17.872446 496.248840
1.200000 6.960000 1.000000 -11.175520 14.694508 340.820801
1.200000 6.960000 1.040000 -11.683996 16.030764 393.501160
1.200000 6.960000 1.080000 -16.881714 16.254709 549.207825
1.200000 6.960000 1.120000 -22.965206 11.249710 653.956665
1.200000 6.960000 1.160000 -24.653908 2.358105 613.375854
1.200000 6.960000 1.200000 -20.452290 -5.344700 446.861969
1.200000 7.000000 0.800000 15.707282 32.413597 1297.359985
1.200000 7.000000 0.840000 -2.095856 34.180115 1172.672852
1.200000 7.000000 0.880000 -15.369536 25.452019 884.027893
1.200000 7.000000 0.920000 -18.821396 13.537486 537.508484
1.200000 7.000000 0.960000 -15.107085 6.597095 271.745697
1.200000 7.000000 1.000000 -11.899052 6.717974 186.718597
1.200000 7.000000 1.040000 -14.444576 8.731014 284.876404
1.200000 7.000000 1.080000 -20.755997 5.926852 465.938965
1.200000 7.000000 1.120000 -24.036724 -3.036437 586.984070
1.200000 7.000000 1.160000 -19.774582 -12.815418 555.269043
1.200000 7.000000 1.200000 -10.242442 -16.738642 385.089752
1.200000 7.040000 0.800000 -1.795188 32.133289 1035.770996
1.200000 7.040000 0.840000 -14.863429 22.950521 747.647949
1.200000 7.040000 0.880000 -18.331753 9.135212 419.505249
1.200000 7.040000 0.920000 -12.629568 -0.576273 159.838089
1.200000 7.040000 0.960000 -5.097582 -1.480562 28.177404
1.200000 7.040000 1.000000 -3.453462 2.896513 20.316187
1.200000 7.040000 1.040000 -8.493526 4.360026 91.149826
1.200000 7.040000 1.080000 -13.473946 -1.615456 184.156906
1.200000 7.040000 1.120000 -11.141244 -11.119416 247.768738
1.200000 7.040000 1.160000 -1.477506 -15.663342 247.523300
1.200000 7.040000 1.200000 7.951235 -10.899632 182.024094
1.200000 7.080000 0.800000 -14.637968 22.385031 715.359741
1.200000 7.080000 0.840000 -16.519537 8.362624 342.828583
1.200000 7.080000 0.880000 -8.759308 -2.231693 81.705925
1.200000 7.080000 0.920000 2.507372 -3.211746 16.602228
1.200000 7.080000 0.960000 8.309021 3.938782 84.553833
1.200000 7.080000 1.000000 4.961237 10.788301 141.001328
1.200000 7.080000 1.040000 -2.170042 9.885235 102.426949
1.200000 7.080000 1.080000 -3.961990 2.371875 21.323160
1.200000 7.080000 1.120000 2.842149 -2.970345 16.900757
1.200000 7.080000 1.160000 11.713622 1.068711 138.351089
1.200000 7.080000 1.200000 12.755351 12.042120 307.711609
1.200000 7.120000 0.800000 -18.833862 9.001205 435.736053
1.200000 7.120000 0.840000 -9.672361 -0.768592 94.145309
1.200000 7.120000 0.880000 3.787731 -1.064094 15.479202
1.200000 7.120000 0.920000 12.539561 8.520205 229.834488
1.200000 7.120000 0.960000 10.602658 20.367470 527.250183
1.200000 7.120000 1.000000 1.134481 25.004374 626.505737
1.200000 7.120000 1.040000 -6.088726 20.226313 446.176331
1.200000 7.120000 1.080000 -4.430742 13.547264 203.159851
1.200000 7.120000 1.120000 2.340218 14.427706 213.635315
1.200000 7.120000 1.160000 3.616224 23.712309 575.350708
1.200000 7.120000 1.200000 -6.569603 31.736179 1050.344727
1.200000 7.160000 0.800000 -15.646114 -1.990542 248.763153
1.200000 7.160000 0.840000 -2.170034 -1.767123 7.831774
1.200000 7.160000 0.880000 7.901215 8.728771 138.620636
1.200000 7.160000 0.920000 7.155849 23.644257 610.257019
1.200000 7.160000 0.960000 -3.898575 32.760010 1088.417114
1.200000 7.160000 1.000000 -16.170099 30.696236 1203.730957
1.200000 7.160000 1.040000 -20.363071 22.458744 919.049866
1.200000 7.160000 1.080000 -16.475391 18.509468 614.038940
1.200000 7.160000 1.120000 -14.029313 23.498707 749.010864
1.200000 7.160000 1.160000 -21.729610 30.467962 1400.472656
1.200000 7.160000 1.200000 -37.053211 27.575336 2133.339600
1.200000 7.200000 0.800000 -9.356122 -8.019114 151.843216
1.200000 7.200000 0.840000 0.342170 0.798379 0.754490
1.200000 7.200000 0.880000 1.075100 15.610409 244.840698
1.200000 7.200000 0.920000 -9.496461 27.114449 825.376099
1.200000 7.200000 0.960000 -24.512871 27.553146 1360.056763
1.200000 7.200000 1.000000 -33.485180 18.546785 1465.240601
1.200000 7.200000 1.040000 -32.524418 9.887145 1155.593384
1.200000 7.200000 1.080000 -28.444042 9.431001 898.007324
1.200000 7.200000 1.120000 -31.376785 14.321006 1189.593872
1.200000 7.200000 1.160000 -43.090420 13.537399 2040.045532
1.200000 7.200000 1.200000 -53.656830 -0.039711 2879.056885
