#kx 	ky 	kz 	real 	imag 	intensity
0.800000 6.800000 0.983333 -109.536835 -57.762352 15334.807617
0.800000 6.800000 0.991667 69.913261 -69.558830 9726.294922
0.800000 6.800000 1.000000 -52.459095 81.212280 9347.390625
0.800000 6.800000 1.008333 -117.987686 -132.030441 31353.130859
0.800000 6.800000 1.016667 89.360077 -127.821136 24323.466797
0.800000 6.900000 0.983333 5.288888 -85.949173 7415.232422
0.800000 6.900000 0.991667 45.107040 -4.779144 2057.485352
0.800000 6.900000 1.000000 -42.537689 -50.702381 4380.186523
0.800000 6.900000 1.008333 64.809746 -121.394196 18936.853516
0.800000 6.900000 1.016667 132.208191 -19.124758 17844.761719
0.800000 7.000000 0.983333 4.440990 -26.242302 708.380798
0.800000 7.000000 0.991667 125.298126 -79.410019 22005.570312
0.800000 7.000000 1.000000 83.642288 105.853668 18201.031250
0.800000 7.000000 1.008333 42.660130 -30.283798 2736.995117
0.800000 7.000000 1.016667 121.595703 144.173386 35571.480469
0.800000 7.100000 0.983333 -11.726097 -41.453056 1855.857178
0.800000 7.100000 0.991667 191.178116 122.205200 51483.179688
0.800000 7.100000 1.000000 -183.914459 147.194351 55490.703125
0.800000 7.100000 1.008333 37.847092 -32.065323 2460.587402
0.800000 7.100000 1.016667 -167.613342 105.947937 39319.199219
0.800000 7.200000 0.983333 9.519550 -42.479820 1895.156982
0.800000 7.200000 0.991667 -10.037834 164.087509 27025.468750
0.800000 7.200000 1.000000 -148.218842 -100.141663 31997.175781
0.800000 7.200000 1.008333 30.054983 -12.230419 1052.885132
0.800000 7.200000 1.016667 -20.352684 -151.647079 23411.068359
0.900000 6.800000 0.983333 -6.431624 -51.298145 2672.865479
0.900000 6.800000 0.991667 45.611374 -65.432709 6361.836914
0.900000 6.800000 1.000000 -9.546027 63.350159 4104.369141
0.900000 6.800000 1.008333 -31.669529 -159.039612 26296.556641
0.900000 6.800000 1.016667 206.941467 27.631550 43588.273438
0.900000 6.900000 0.983333 330.069702 -734.148376 647919.812500
0.900000 6.900000 0.991667 52.342903 547.004089 301953.250000
0.900000 6.900000 1.000000 -602.905945 -331.779419 473573.187500
0.900000 6.900000 1.008333 -96.286758 -438.464935 201522.640625
0.900000 6.900000 1.016667 136.313843 -705.664917 516544.437500
0.900000 7.000000 0.983333 1181.910400 233.611664 1451486.625000
0.900000 7.000000 0.991667 -703.461731 171.580307 524298.187500
0.900000 7.000000 1.000000 339.463806 -860.590454 855851.625000
0.900000 7.000000 1.008333 560.629089 -383.242920 461180.125000
0.900000 7.000000 1.016667 1272.171387 33.499264 1619542.250000
0.900000 7.100000 0.983333 70.040680 728.678162 535877.562500
0.900000 7.100000 0.991667 -162.948074 -266.252197 97442.312500
0.900000 7.100000 1.000000 440.262634 114.993546 207054.703125
0.900000 7.100000 1.008333 302.773499 275.512756 167579.062500
0.900000 7.100000 1.016667 82.447220 784.572388 622351.375000
0.900000 7.200000 0.983333 57.838444 119.480499 17620.875000
0.900000 7.200000 0.991667 -194.825409 51.098991 40568.046875
0.900000 7.200000 1.000000 -18.336945 -136.103699 18860.460938
0.900000 7.200000 1.008333 0.863273 -28.199751 795.971191
0.900000 7.200000 1.016667 61.479305 -50.096397 6289.354004
1.000000 6.800000 0.983333 -62.864643 -58.240513 7343.920898
1.000000 6.800000 0.991667 113.303520 -71.283768 17919.062500
1.000000 6.800000 1.000000 -44.630035 63.291641 5997.671875
1.000000 6.800000 1.008333 44.405762 -148.402924 23995.298828
1.000000 6.800000 1.016667 133.545609 103.076782 28459.253906
1.000000 6.900000 0.983333 1296.845337 246.768433 1742702.500000
1.000000 6.900000 0.991667 -748.440918 209.023880 603854.812500
1.000000 6.900000 1.000000 363.589478 -997.535278 1127274.000000
1.000000 6.900000 1.008333 682.461426 -377.321045 608124.750000
1.000000 6.900000 1.016667 1294.574219 36.866196 1677281.500000
1.000000 7.000000 0.983333 -102.336182 1965.817139 3874909.750000
1.000000 7.000000 0.991667 -391.138489 -1127.700684 1424698.250000
1.000000 7.000000 1.000000 1516.173096 416.740906 2472453.750000
1.000000 7.000000 1.008333 716.422974 763.010132 1095446.250000
1.000000 7.000000 1.016667 395.377747 2054.402832 4376894.500000
1.000000 7.100000 0.983333 -1180.963379 198.696365 1434154.750000
1.000000 7.100000 0.991667 599.930542 -296.572876 447872.125000
1.000000 7.100000 1.000000 -191.494644 913.427307 871019.625000
1.000000 7.100000 1.008333 -351.879883 466.765991 341689.937500
1.000000 7.100000 1.016667 -1270.388672 447.324585 1813986.625000
1.000000 7.200000 0.983333 -121.353165 75.280212 20393.701172
1.000000 7.200000 0.991667 -68.475266 -82.245087 11453.116211
1.000000 7.200000 1.000000 32.797733 -95.036591 10107.644531
1.000000 7.200000 1.008333 70.834328 -17.278332 5316.042480
1.000000 7.200000 1.016667 56.560295 -38.342010 4669.176758
1.100000 6.800000 0.983333 51.594196 -120.407913 17160.027344
1.100000 6.800000 0.991667 111.608231 7.407635 12511.270508
1.100000 6.800000 1.000000 -17.083191 69.958549 5186.034180
1.100000 6.800000 1.008333 45.856743 -85.288628 9376.990234
1.100000 6.800000 1.016667 107.918167 153.558289 35226.480469
1.100000 6.900000 0.983333 2.101517 983.815247 967896.875000
1.100000 6.900000 0.991667 -215.247330 -419.613129 222406.593750
1.100000 6.900000 1.000000 615.166443 200.054123 418451.406250
1.100000 6.900000 1.008333 323.823059 358.873901 233651.843750
1.100000 6.900000 1.016667 85.703140 940.334961 891574.812500
1.100000 7.000000 0.983333 -1419.211304 96.635849 2023499.250000
1.100000 7.000000 0.991667 666.042053 -424.312134 623652.812500
1.100000 7.000000 1.000000 -172.225449 994.407837 1018508.562500
1.100000 7.000000 1.008333 -410.311920 460.713318 380612.625000
1.100000 7.000000 1.016667 -1257.793335 460.155029 1793786.750000
1.100000 7.100000 0.983333 -167.210907 -822.578674 704595.187500
1.100000 7.100000 0.991667 303.255829 380.586670 236810.312500
1.100000 7.100000 1.000000 -608.305237 -50.162357 372551.500000
1.100000 7.100000 1.008333 -273.220642 -185.317947 108992.257812
1.100000 7.100000 1.016667 -401.084625 -721.336853 681195.750000
1.100000 7.200000 0.983333 -34.583015 4.811261 1219.133179
1.100000 7.200000 0.991667 -22.364441 -22.694658 1015.215698
1.100000 7.200000 1.000000 52.879807 12.404007 2950.133301
1.100000 7.200000 1.008333 -15.116512 38.091385 1679.462524
1.100000 7.200000 1.016667 47.088425 35.027149 3444.220947
1.200000 6.800000 0.983333 88.037872 25.900990 8421.528320
1.200000 6.800000 0.991667 81.616562 19.132164 7027.302734
1.200000 6.800000 1.000000 -91.205269 62.576073 12234.166016
1.200000 6.800000 1.008333 86.189819 -107.765556 19042.099609
1.200000 6.800000 1.016667 -8.533751 174.490570 30519.783203
1.200000 6.900000 0.983333 -201.422119 34.119423 41735.007812
1.200000 6.900000 0.991667 10.083588 -31.699295 1106.524048
1.200000 6.900000 1.000000 -102.455750 -49.409718 12938.500977
1.200000 6.900000 1.008333 91.532684 -18.407219 8717.058594
1.200000 6.900000 1.016667 -118.826286 18.674006 14468.405273
1.200000 7.000000 0.983333 31.721615 -254.744690 65901.117188
1.200000 7.000000 0.991667 130.200684 -34.015251 18109.255859
1.200000 7.000000 1.000000 54.004700 -69.728439 7778.562500
1.200000 7.000000 1.008333 118.305199 27.071672 14728.995117
1.200000 7.000000 1.016667 25.037304 31.347298 1609.519653
1.200000 7.100000 0.983333 148.909180 90.174377 30305.361328
1.200000 7.100000 0.991667 45.035049 84.956635 9245.785156
1.200000 7.100000 1.000000 23.384008 85.907211 7926.860840
1.200000 7.100000 1.008333 -3.679546 77.938904 6088.011719
1.200000 7.100000 1.016667 -63.312443 77.314720 9986.031250
1.200000 7.200000 0.983333 -107.124588 41.500324 13197.955078
1.200000 7.200000 0.991667 -6.849293 -26.420177 744.938599
1.200000 7.200000 1.000000 -84.788345 -2.302177 7194.363281
1.200000 7.200000 1.008333 20.819580 -65.548233 4730.025879
1.200000 7.200000 1.016667 -33.711525 8.527586 1209.186646
