#kx 	ky 	kz 	real 	imag 	intensity
5.800000 1.800000 -6.200000 -24.195436 -5.206772 612.529602
5.800000 1.800000 -6.160000 -9.385479 -22.671982 602.105957
5.800000 1.800000 -6.120000 11.838472 -17.951700 462.412964
5.800000 1.800000 -6.080000 16.262253 2.318797 269.837708
5.800000 1.800000 -6.040000 -0.656841 14.426692 208.560883
5.800000 1.800000 -6.000000 -19.787075 3.645206 404.815887
5.800000 1.800000 -5.960000 -19.386662 -19.630459 761.197571
5.800000 1.800000 -5.920000 1.114497 -31.451839 990.460327
5.800000 1.800000 -5.880000 20.911175 -20.621454 862.521606
5.800000 1.800000 -5.840000 21.062311 -0.422092 443.799103
5.800000 1.800000 -5.800000 5.048670 6.863085 72.591003
5.800000 1.840000 -6.200000 -12.997605 -24.110064 750.232910
5.800000 1.840000 -6.160000 8.552944 -31.713818 1078.919067
5.800000 1.840000 -6.120000 26.247246 -19.545214 1070.933350
5.800000 1.840000 -6.080000 26.044773 -0.941429 679.216492
5.800000 1.840000 -6.040000 12.665039 6.242216 199.368469
5.800000 1.840000 -6.000000 3.022095 -1.874481 12.646736
5.800000 1.840000 -5.960000 7.390841 -12.788779 218.177399
5.800000 1.840000 -5.920000 19.294653 -12.870874 537.943054
5.800000 1.840000 -5.880000 24.551037 -2.480926 608.908386
5.800000 1.840000 -5.840000 18.206337 5.785118 364.938293
5.800000 1.840000 -5.800000 9.784284 2.816004 103.662086
5.800000 1.880000 -6.200000 5.156687 -26.384922 722.755554
5.800000 1.880000 -6.160000 25.786270 -24.602827 1270.230713
5.800000 1.880000 -6.120000 38.349060 -9.079521 1553.088135
5.800000 1.880000 -6.080000 36.477577 8.295527 1399.429443
5.800000 1.880000 -6.040000 25.840094 16.904766 953.481567
5.800000 1.880000 -6.000000 16.573484 15.906919 527.710449
5.800000 1.880000 -5.960000 13.377500 11.829645 318.898010
5.800000 1.880000 -5.920000 13.558916 9.892251 281.700836
5.800000 1.880000 -5.880000 13.229397 9.441404 264.157043
5.800000 1.880000 -5.840000 12.914213 7.662521 225.491135
5.800000 1.880000 -5.800000 15.781675 5.503128 279.345703
5.800000 1.920000 -6.200000 14.736020 -16.039263 474.408264
5.800000 1.920000 -6.160000 31.338318 -9.139704 1065.624390
5.800000 1.920000 -6.120000 39.688332 7.831610 1636.497803
5.800000 1.920000 -6.080000 35.285191 26.059002 1924.116211
5.800000 1.920000 -6.040000 21.262856 36.799820 1806.335815
5.800000 1.920000 -6.000000 5.326373 36.404949 1353.690552
5.800000 1.920000 -5.960000 -5.178573 27.225639 768.053040
5.800000 1.920000 -5.920000 -6.662645 15.265152 277.415710
5.800000 1.920000 -5.880000 -0.150352 6.910235 47.773960
5.800000 1.920000 -5.840000 9.669523 6.217840 132.161224
5.800000 1.920000 -5.800000 16.669647 13.176733 451.503418
5.800000 1.960000 -6.200000 12.085041 -6.319017 185.978195
5.800000 1.960000 -6.160000 25.254482 3.278894 648.540039
5.800000 1.960000 -6.120000 28.795685 21.583052 1295.019531
5.800000 1.960000 -6.080000 18.278566 38.916470 1848.597534
5.800000 1.960000 -6.040000 -1.846680 44.895069 2018.977539
5.800000 1.960000 -6.000000 -20.446238 35.682526 1691.291260
5.800000 1.960000 -5.960000 -26.984379 17.107538 1020.824585
5.800000 1.960000 -5.920000 -18.812712 0.955576 354.831238
5.800000 1.960000 -5.880000 -2.931584 -3.187658 18.755348
5.800000 1.960000 -5.840000 9.255855 5.576297 116.765930
5.800000 1.960000 -5.800000 10.167002 19.578226 486.674866
5.800000 2.000000 -6.200000 5.518664 -4.944477 54.903511
5.800000 2.000000 -6.160000 14.795488 7.525291 275.536499
5.800000 2.000000 -6.120000 11.065297 24.771088 736.047607
5.800000 2.000000 -6.080000 -5.615727 34.529251 1223.805542
5.800000 2.000000 -6.040000 -25.092228 28.803698 1459.272949
5.800000 2.000000 -6.000000 -34.370579 10.610505 1293.919434
5.800000 2.000000 -5.960000 -27.609562 -7.924335 825.083008
5.800000 2.000000 -5.920000 -10.500566 -14.821339 329.933960
5.800000 2.000000 -5.880000 4.535931 -7.109784 71.123688
5.800000 2.000000 -5.840000 8.039207 7.855912 126.344208
5.800000 2.000000 -5.800000 -0.139085 19.168058 367.433807
5.800000 2.040000 -6.200000 3.368665 -8.251036 79.427490
5.800000 2.040000 -6.160000 5.666581 5.607634 63.555702
5.800000 2.040000 -6.120000 -5.097130 15.548906 267.749237
5.800000 2.040000 -6.080000 -20.240103 12.245919 559.624329
5.800000 2.040000 -6.040000 -27.087683 -2.459521 739.791809
5.800000 2.040000 -6.000000 -19.908852 -17.284317 695.109985
5.800000 2.040000 -5.960000 -4.348998 -21.332340 473.982513
5.800000 2.040000 -5.920000 8.126846 -12.839336 230.894196
5.800000 2.040000 -5.880000 9.932789 0.728678 99.191261
5.800000 2.040000 -5.840000 2.302011 10.056749 106.437462
5.800000 2.040000 -5.800000 -7.919445 11.232659 188.890244
5.800000 2.080000 -6.200000 4.783319 -8.892529 101.957199
5.800000 2.080000 -6.160000 -1.436498 0.411408 2.232783
5.800000 2.080000 -6.120000 -12.339994 -2.498223 158.516586
5.800000 2.080000 -6.080000 -14.458258 -15.420318 446.827393
5.800000 2.080000 -6.040000 -3.056852 -25.509415 660.074585
5.800000 2.080000 -6.000000 13.191876 -22.215828 667.568604
5.800000 2.080000 -5.960000 21.013706 -7.457174 497.185272
5.800000 2.080000 -5.920000 15.266026 7.031301 282.490723
5.800000 2.080000 -5.880000 2.586180 11.511339 139.199249
5.800000 2.080000 -5.840000 -6.688797 6.494047 86.912659
5.800000 2.080000 -5.800000 -8.715812 -0.294026 76.051826
5.800000 2.120000 -6.200000 3.092265 -6.335513 49.700825
5.800000 2.120000 -6.160000 -6.729799 -8.477313 117.155029
5.800000 2.120000 -6.120000 -6.921432 -22.234558 542.281799
5.800000 2.120000 -6.080000 9.360827 -31.796001 1098.610840
5.800000 2.120000 -6.040000 30.667492 -22.862507 1463.189209
5.800000 2.120000 -6.000000 37.948544 1.512836 1442.380615
5.800000 2.120000 -5.960000 23.842644 22.929768 1094.245850
5.800000 2.120000 -5.920000 0.087892 25.541397 652.370728
5.800000 2.120000 -5.880000 -14.487981 10.957769 329.974304
5.800000 2.120000 -5.840000 -12.247342 -5.158560 176.608124
5.800000 2.120000 -5.800000 -2.092002 -10.067301 105.727020
5.800000 2.160000 -6.200000 -3.765081 -7.437106 69.486382
5.800000 2.160000 -6.160000 -6.945020 -21.821405 524.407043
5.800000 2.160000 -6.120000 9.953618 -35.487766 1358.456055
5.800000 2.160000 -6.080000 37.466274 -27.979996 2186.601807
5.800000 2.160000 -6.040000 50.994923 2.645102 2607.478760
5.800000 2.160000 -6.000000 35.191662 34.894531 2456.081299
5.800000 2.160000 -5.960000 0.496371 43.426804 1886.133667
5.800000 2.160000 -5.920000 -26.060204 23.384926 1225.989014
5.800000 2.160000 -5.880000 -26.524225 -5.716700 736.215210
5.800000 2.160000 -5.840000 -7.563873 -20.094944 461.018951
5.800000 2.160000 -5.800000 9.269928 -14.145842 286.036377
5.800000 2.200000 -6.200000 -9.025187 -17.054146 372.297913
5.800000 2.200000 -6.160000 2.470396 -35.505482 1266.742188
5.800000 2.200000 -6.120000 32.016087 -36.205536 2335.870605
5.800000 2.200000 -6.080000 55.018627 -8.101920 3092.690430
5.800000 2.200000 -6.040000 47.194534 31.991577 3250.784912
5.800000 2.200000 -6.000000 9.854122 52.655502 2869.705566
5.800000 2.200000 -5.960000 -29.123426 37.336693 2242.202637
5.800000 2.200000 -5.920000 -40.706234 0.173996 1657.027710
5.800000 2.200000 -5.880000 -21.006365 -28.036312 1227.302124
5.800000 2.200000 -5.840000 7.818024 -28.899246 896.287964
5.800000 2.200000 -5.800000 21.346519 -10.843981 573.265808
5.840000 1.800000 -6.200000 3.901015 -12.644475 175.100677
5.840000 1.800000 -6.160000 18.695257 -8.399801 420.069305
5.840000 1.800000 -6.120000 21.692795 8.575504 544.116577
5.840000 1.800000 -6.080000 6.772636 20.156197 452.140839
5.840000 1.800000 -6.040000 -11.785189 12.169945 286.998230
5.840000 1.800000 -6.000000 -14.088654 -8.744328 274.953430
5.840000 1.800000 -5.960000 3.138790 -21.195930 459.119446
5.840000 1.800000 -5.920000 21.986113 -12.199841 632.225281
5.840000 1.800000 -5.880000 22.408726 8.087337 567.556030
5.840000 1.800000 -5.840000 4.322826 16.901796 304.357544
5.840000 1.800000 -5.800000 -11.796714 3.688676 152.768784
5.840000 1.840000 -6.200000 14.444098 -12.399528 362.380249
5.840000 1.840000 -6.160000 28.489061 -4.738504 834.080017
5.840000 1.840000 -6.120000 31.536190 11.667810 1130.669067
5.840000 1.840000 -6.080000 21.701628 23.660885 1030.798096
5.840000 1.840000 -6.040000 9.049438 23.725510 644.792114
5.840000 1.840000 -6.000000 3.838280 16.869659 299.317810
5.840000 1.840000 -5.960000 5.752369 13.195016 207.198196
5.840000 1.840000 -5.920000 6.214486 15.491924 278.619568
5.840000 1.840000 -5.880000 0.359462 16.598623 275.643494
5.840000 1.840000 -5.840000 -5.963175 9.370211 123.360306
5.840000 1.840000 -5.800000 -2.847823 -2.829973 16.118845
5.840000 1.880000 -6.200000 18.330807 -3.766346 350.203827
5.840000 1.880000 -6.160000 32.437588 6.385831 1092.975952
5.840000 1.880000 -6.120000 36.428261 26.587898 2033.934570
5.840000 1.880000 -6.080000 25.382845 46.090889 2768.658936
5.840000 1.880000 -6.040000 4.148350 54.456047 2982.669922
5.840000 1.880000 -6.000000 -17.054777 48.362053 2629.753662
5.840000 1.880000 -5.960000 -29.599636 32.097252 1906.371948
5.840000 1.880000 -5.920000 -30.293001 13.384624 1096.814087
5.840000 1.880000 -5.880000 -20.965588 -0.802373 440.199677
5.840000 1.880000 -5.840000 -6.431504 -6.155288 79.251816
5.840000 1.880000 -5.800000 7.095791 -1.668315 53.133522
5.840000 1.920000 -6.200000 12.598236 2.514785 165.039688
5.840000 1.920000 -6.160000 27.221973 17.378880 1043.061279
5.840000 1.920000 -6.120000 26.672731 44.784863 2717.118652
5.840000 1.920000 -6.080000 3.419994 68.369743 4686.118164
5.840000 1.920000 -6.040000 -33.807816 70.325531 6088.648438
5.840000 1.920000 -6.000000 -64.455078 45.510666 6225.677734
5.840000 1.920000 -5.960000 -70.599457 6.581591 5027.600586
5.840000 1.920000 -5.920000 -50.010284 -24.577637 3105.088867
5.840000 1.920000 -5.880000 -17.273375 -32.376228 1346.589722
5.840000 1.920000 -5.840000 7.571282 -17.569611 366.015533
5.840000 1.920000 -5.800000 13.194198 5.560473 205.005722
5.840000 1.960000 -6.200000 5.276388 -0.253260 27.904408
5.840000 1.960000 -6.160000 16.645130 22.100954 765.512573
5.840000 1.960000 -6.120000 3.462400 52.606628 2779.445557
5.840000 1.960000 -6.080000 -35.214958 66.346077 5641.895020
5.840000 1.960000 -6.040000 -77.840416 45.776218 8154.592773
5.840000 1.960000 -6.000000 -95.132889 -2.377151 9055.916992
5.840000 1.960000 -5.960000 -73.567070 -49.729149 7885.102051
5.840000 1.960000 -5.920000 -26.990414 -67.649147 5304.889648
5.840000 1.960000 -5.880000 14.296827 -49.199215 2624.961914
5.840000 1.960000 -5.840000 27.386478 -12.689246 911.036194
5.840000 1.960000 -5.800000 12.592308 15.192279 389.371582
5.840000 2.000000 -6.200000 5.208441 -7.614058 85.101730
5.840000 2.000000 -6.160000 6.400487 20.119686 445.768005
5.840000 2.000000 -6.120000 -21.410439 42.149773 2235.010254
5.840000 2.000000 -6.080000 -64.029640 33.323006 5210.217773
5.840000 2.000000 -6.040000 -89.834000 -9.968344 8169.515137
5.840000 2.000000 -6.000000 -75.401794 -62.928539 9645.431641
5.840000 2.000000 -5.960000 -26.408579 -90.528580 8892.836914
5.840000 2.000000 -5.920000 25.791386 -75.684883 6393.397461
5.840000 2.000000 -5.880000 49.333305 -32.254448 3474.124268
5.840000 2.000000 -5.840000 36.181911 8.135329 1375.314331
5.840000 2.000000 -5.800000 4.682081 22.363106 522.030396
5.840000 2.040000 -6.200000 11.677734 -10.076405 237.903412
5.840000 2.040000 -6.160000 -0.976092 14.220194 203.166672
5.840000 2.040000 -6.120000 -34.207134 17.164707 1464.755249
5.840000 2.040000 -6.080000 -61.301216 -12.743003 3920.223145
5.840000 2.040000 -6.040000 -55.457527 -59.105835 6569.037109
5.840000 2.040000 -6.000000 -13.973967 -88.876541 8094.311523
5.840000 2.040000 -5.960000 37.664410 -79.504326 7739.545898
5.840000 2.040000 -5.920000 66.225250 -37.544212 5795.351562
5.840000 2.040000 -5.880000 57.186501 7.832067 3331.637207
5.840000 2.040000 -5.840000 23.737820 29.430969 1429.666016
5.840000 2.040000 -5.800000 -7.772312 21.860088 538.272278
5.840000 2.080000 -6.200000 15.751446 -4.811166 271.255371
5.840000 2.080000 -6.160000 -5.638176 5.878526 66.346100
5.840000 2.080000 -6.120000 -28.564489 -10.137919 918.707458
5.840000 2.080000 -6.080000 -28.071344 -43.838982 2709.856689
5.840000 2.080000 -6.040000 2.769970 -68.073631 4641.691895
5.840000 2.080000 -6.000000 45.120911 -60.783867 5730.575195
5.840000 2.080000 -5.960000 69.792946 -24.242065 5458.732910
5.840000 2.080000 -5.920000 61.482552 17.365242 4081.655762
5.840000 2.080000 -5.880000 29.575027 38.720585 2373.965820
5.840000 2.080000 -5.840000 -2.607279 32.583969 1068.512939
5.840000 2.080000 -5.800000 -17.881592 11.034334 441.507843
5.840000 2.120000 -6.200000 11.351666 0.851609 129.585571
5.840000 2.120000 -6.160000 -6.581048 -5.189175 70.237732
5.840000 2.120000 -6.120000 -8.406670 -27.561066 830.284485
5.840000 2.120000 -6.080000 14.061380 -44.166439 2148.396729
5.840000 2.120000 -6.040000 45.918110 -35.443920 3364.744385
5.840000 2.120000 -6.000000 62.014923 -3.035154 3855.062744
5.840000 2.120000 -5.960000 49.413345 31.490164 3433.309082
5.840000 2.120000 -5.920000 17.783615 45.897369 2422.825684
5.840000 2.120000 -5.880000 -11.036793 35.293617 1367.450195
5.840000 2.120000 -5.840000 -22.280767 12.553362 654.019470
5.840000 2.120000 -5.800000 -17.365919 -6.376158 342.230530
5.840000 2.160000 -6.200000 3.007760 -1.914364 12.711410
5.840000 2.160000 -6.160000 -0.717561 -17.273182 298.877716
5.840000 2.160000 -6.120000 16.177982 -29.558041 1135.404907
5.840000 2.160000 -6.080000 41.520897 -20.039211 2125.554932
5.840000 2.160000 -6.040000 51.656815 10.424248 2777.091553
5.840000 2.160000 -6.000000 34.196384 40.586109 2816.625000
5.840000 2.160000 -5.960000 0.083673 48.214256 2324.621582
5.840000 2.160000 -5.920000 -26.887085 29.924158 1618.370605
5.840000 2.160000 -5.880000 -31.648506 2.075868 1005.937134
5.840000 2.160000 -5.840000 -18.645948 -16.365292 615.494141
5.840000 2.160000 -5.800000 -2.911647 -20.071947 411.360748
5.840000 2.200000 -6.200000 1.166972 -12.718294 163.116821
5.840000 2.200000 -6.160000 13.049596 -24.650738 777.950806
5.840000 2.200000 -6.120000 35.362846 -18.296635 1585.297729
5.840000 2.200000 -6.080000 45.673500 9.222557 2171.124268
5.840000 2.200000 -6.040000 28.781639 38.726536 2328.127441
5.840000 2.200000 -6.000000 -6.888594 45.798622 2144.966309
5.840000 2.200000 -5.960000 -35.808678 23.812069 1849.276001
5.840000 2.200000 -5.920000 -38.525093 -10.169040 1587.592163
5.840000 2.200000 -5.880000 -17.993639 -32.027111 1349.506836
5.840000 2.200000 -5.840000 6.419349 -31.992611 1064.735229
5.840000 2.200000 -5.800000 19.000814 -19.478172 740.430176
5.880000 1.800000 -6.200000 26.292225 9.626068 783.942261
5.880000 1.800000 -6.160000 22.900135 27.107273 1259.220459
5.880000 1.800000 -6.120000 3.537964 37.150875 1392.704712
5.880000 1.800000 -6.080000 -18.305387 27.116520 1070.392822
5.880000 1.800000 -6.040000 -23.223038 3.226231 549.718079
5.880000 1.800000 -6.000000 -6.791378 -13.214741 220.752197
5.880000 1.800000 -5.960000 13.860649 -7.293297 245.309784
5.880000 1.800000 -5.920000 16.785929 12.965515 449.871979
5.880000 1.800000 -5.880000 -1.510572 23.883595 572.707886
5.880000 1.800000 -5.840000 -21.403950 10.791336 574.581970
5.880000 1.800000 -5.800000 -20.075569 -15.917757 656.403442
5.880000 1.840000 -6.200000 19.600838 19.566969 767.059082
5.880000 1.840000 -6.160000 17.307863 30.930836 1256.278809
5.880000 1.840000 -6.120000 6.790237 39.396206 1598.168335
5.880000 1.840000 -6.080000 -6.532921 39.357269 1591.673706
5.880000 1.840000 -6.040000 -15.498135 32.789528 1315.345337
5.880000 1.840000 -6.000000 -18.936356 26.077488 1038.620972
5.880000 1.840000 -5.960000 -21.631786 21.788300 942.664185
5.880000 1.840000 -5.920000 -26.574306 15.718884 953.277100
5.880000 1.840000 -5.880000 -29.275650 3.373155 868.441833
5.880000 1.840000 -5.840000 -21.972906 -11.840130 622.997253
5.880000 1.840000 -5.800000 -3.743685 -19.247768 384.491760
5.880000 1.880000 -6.200000 5.861540 21.189997 483.373596
5.880000 1.880000 -6.160000 10.283147 33.285637 1213.676758
5.880000 1.880000 -6.120000 2.820366 51.840942 2695.437744
5.880000 1.880000 -6.080000 -20.272472 64.377625 4555.451660
5.880000 1.880000 -6.040000 -50.907246 58.989273 6071.282227
5.880000 1.880000 -6.000000 -73.798126 33.732361 6584.035645
5.880000 1.880000 -5.960000 -76.675606 -1.224396 5880.647461
5.880000 1.880000 -5.920000 -58.261848 -29.982735 4293.407227
5.880000 1.880000 -5.880000 -28.573120 -40.759628 2477.770508
5.880000 1.880000 -5.840000 -2.105258 -32.264236 1045.413086
5.880000 1.880000 -5.800000 10.821715 -12.939466 284.539276
5.880000 1.920000 -6.200000 -4.573248 10.948370 140.781403
5.880000 1.920000 -6.160000 2.302866 32.973896 1092.581055
5.880000 1.920000 -6.120000 -16.892624 61.728996 4095.829834
5.880000 1.920000 -6.080000 -61.939224 69.935661 8727.463867
5.880000 1.920000 -6.040000 -107.850098 39.657043 13204.324219
5.880000 1.920000 -6.000000 -122.489395 -19.453754 15382.100586
5.880000 1.920000 -5.960000 -92.705551 -74.647270 14166.534180
5.880000 1.920000 -5.920000 -35.816559 -94.676147 10246.399414
5.880000 1.920000 -5.880000 13.968874 -73.315010 5570.220215
5.880000 1.920000 -5.840000 31.936295 -31.725023 2026.404053
5.880000 1.920000 -5.800000 19.109646 0.892820 365.975677
5.880000 1.960000 -6.200000 -2.614828 -3.468111 18.865120
5.880000 1.960000 -6.160000 -5.202066 29.574211 901.695496
5.880000 1.960000 -6.120000 -45.091797 53.884876 4936.850098
5.880000 1.960000 -6.080000 -102.942162 35.738731 11874.345703
5.880000 1.960000 -6.040000 -135.332108 -29.037386 19157.949219
5.880000 1.960000 -6.000000 -110.490639 -105.239563 23283.546875
5.880000 1.960000 -5.960000 -37.513680 -143.927139 22122.296875
5.880000 1.960000 -5.920000 38.852123 -121.986649 16390.230469
5.880000 1.960000 -5.880000 74.048325 -59.947380 9076.842773
5.880000 1.960000 -5.840000 57.769291 -2.637777 3344.248779
5.880000 1.960000 -5.800000 16.679993 18.205029 609.645264
5.880000 2.000000 -6.200000 9.795305 -9.744650 190.906204
5.880000 2.000000 -6.160000 -11.071907 23.629259 680.928955
5.880000 2.000000 -6.120000 -63.863804 25.622677 4735.106934
5.880000 2.000000 -6.080000 -108.531593 -24.696228 12389.009766
5.880000 2.000000 -6.040000 -100.376099 -104.188293 20930.562500
5.880000 2.000000 -6.000000 -31.095161 -159.094666 26278.021484
5.880000 2.000000 -5.960000 59.595329 -148.716293 25668.138672
5.880000 2.000000 -5.920000 114.720627 -79.982193 19557.972656
5.880000 2.000000 -5.880000 105.904167 -0.995318 11216.682617
5.880000 2.000000 -5.840000 52.913544 39.815887 4385.147949
5.880000 2.000000 -5.800000 1.369906 30.662024 942.036316
5.880000 2.040000 -6.200000 20.932972 -3.103421 447.820526
5.880000 2.040000 -6.160000 -14.728968 15.666991 462.397095
5.880000 2.040000 -6.120000 -59.907158 -9.840818 3685.709473
5.880000 2.040000 -6.080000 -69.481895 -74.129349 10322.894531
5.880000 2.040000 -6.040000 -19.950212 -132.902451 18061.072266
5.880000 2.040000 -6.000000 64.995979 -137.833862 23222.652344
5.880000 2.040000 -5.960000 130.318481 -78.666794 23171.371094
5.880000 2.040000 -5.920000 134.356689 6.730095 18097.015625
5.880000 2.040000 -5.880000 81.775528 63.939201 10775.458008
5.880000 2.040000 -5.840000 15.661447 65.621933 4551.519043
5.880000 2.040000 -5.800000 -21.167843 27.997650 1231.946045
5.880000 2.080000 -6.200000 20.827503 8.835980 511.859436
5.880000 2.080000 -6.160000 -15.191557 5.944231 266.117279
5.880000 2.080000 -6.120000 -35.232590 -34.124699 2405.830566
5.880000 2.080000 -6.080000 -10.005091 -83.452118 7064.357910
5.880000 2.080000 -6.040000 53.646461 -98.417595 12563.966797
5.880000 2.080000 -6.000000 113.782318 -57.857582 16293.916016
5.880000 2.080000 -5.960000 127.031784 16.410879 16406.390625
5.880000 2.080000 -5.920000 84.615242 76.608917 13028.666016
5.880000 2.080000 -5.880000 17.988708 87.941116 8057.233887
5.880000 2.080000 -5.840000 -29.400318 53.825485 3761.561523
5.880000 2.080000 -5.800000 -36.446468 6.821425 1374.876953
5.880000 2.120000 -6.200000 11.114371 13.957988 318.354675
5.880000 2.120000 -6.160000 -10.698844 -4.182175 131.955856
5.880000 2.120000 -6.120000 -4.200878 -37.674202 1436.992798
5.880000 2.120000 -6.080000 34.294899 -54.385410 4133.913086
5.880000 2.120000 -6.040000 78.419037 -31.572845 7146.390137
5.880000 2.120000 -6.000000 92.559982 21.922707 9047.956055
5.880000 2.120000 -5.960000 62.433922 71.308281 8982.865234
5.880000 2.120000 -5.920000 7.077045 84.413635 7175.746094
5.880000 2.120000 -5.880000 -37.977829 56.829819 4671.943848
5.880000 2.120000 -5.840000 -49.347370 11.751872 2573.269287
5.880000 2.120000 -5.800000 -30.239126 -22.128111 1404.057983
5.880000 2.160000 -6.200000 2.820611 8.008993 72.099823
5.880000 2.160000 -6.160000 -0.520191 -11.156364 124.735069
5.880000 2.160000 -6.120000 18.592642 -24.485493 945.225708
5.880000 2.160000 -6.080000 45.453606 -13.236767 2241.242188
5.880000 2.160000 -6.040000 54.776295 20.392385 3416.291748
5.880000 2.160000 -6.000000 33.501987 53.284145 3961.583496
5.880000 2.160000 -5.960000 -6.999619 60.887054 3756.228027
5.880000 2.160000 -5.920000 -40.626484 37.678230 3070.160156
5.880000 2.160000 -5.880000 -48.106361 -0.004826 2314.221924
5.880000 2.160000 -5.840000 -30.110107 -29.352093 1768.163940
5.880000 2.160000 -5.800000 -1.993415 -38.493427 1485.717651
5.880000 2.200000 -6.200000 4.549504 -1.543833 23.081409
5.880000 2.200000 -6.160000 12.564002 -10.807594 274.658234
5.880000 2.200000 -6.120000 27.539265 -5.608652 789.868042
5.880000 2.200000 -6.080000 32.202362 14.596348 1250.045410
5.880000 2.200000 -6.040000 16.339066 34.309151 1444.082886
5.880000 2.200000 -6.000000 -12.287148 35.545876 1414.483276
5.880000 2.200000 -5.960000 -34.009205 14.286020 1360.716309
5.880000 2.200000 -5.920000 -34.168900 -16.168232 1428.925415
5.880000 2.200000 -5.880000 -14.328147 -37.262863 1593.816772
5.880000 2.200000 -5.840000 11.728005 -39.887402 1728.550903
5.880000 2.200000 -5.800000 31.045702 -28.086437 1752.683594
5.920000 1.800000 -6.200000 19.552141 43.442993 2269.579834
5.920000 1.800000 -6.160000 -6.091228 54.194641 2974.162109
5.920000 1.800000 -6.120000 -35.014992 41.600082 2956.616699
5.920000 1.800000 -6.080000 -45.310783 10.771408 2169.090332
5.920000 1.800000 -6.040000 -28.967880 -15.201296 1070.217407
5.920000 1.800000 -6.000000 -2.126740 -16.439491 274.779877
5.920000 1.800000 -5.960000 9.319607 3.347061 98.057892
5.920000 1.800000 -5.920000 -4.455753 19.623253 404.925781
5.920000 1.800000 -5.880000 -26.694592 11.646498 848.242126
5.920000 1.800000 -5.840000 -30.771137 -15.981192 1202.261353
5.920000 1.800000 -5.800000 -7.443526 -37.440868 1457.224731
5.920000 1.840000 -6.200000 -5.543777 43.769413 1946.494995
5.920000 1.840000 -6.160000 -20.652582 44.953011 2447.302246
5.920000 1.840000 -6.120000 -34.811054 37.851471 2644.543457
5.920000 1.840000 -6.080000 -42.610607 25.536331 2467.768066
5.920000 1.840000 -6.040000 -43.816383 14.091255 2118.438965
5.920000 1.840000 -6.000000 -43.237930 6.015213 1905.701416
5.920000 1.840000 -5.960000 -44.168472 -2.392944 1956.580200
5.920000 1.840000 -5.920000 -43.052521 -15.592636 2096.649902
5.920000 1.840000 -5.880000 -32.630749 -31.059368 2029.450073
5.920000 1.840000 -5.840000 -11.250239 -38.843914 1635.417480
5.920000 1.840000 -5.800000 12.080362 -30.614037 1083.154419
5.920000 1.880000 -6.200000 -23.393339 25.530407 1199.050049
5.920000 1.880000 -6.160000 -26.718594 33.151375 1812.896973
5.920000 1.880000 -6.120000 -42.853008 41.926918 3594.246826
5.920000 1.880000 -6.080000 -70.497696 37.358147 6365.556641
5.920000 1.880000 -6.040000 -95.133255 10.850121 9168.061523
5.920000 1.880000 -6.000000 -99.046028 -30.928871 10766.709961
5.920000 1.880000 -5.960000 -75.261147 -68.840088 10403.197266
5.920000 1.880000 -5.920000 -33.669395 -84.350220 8248.587891
5.920000 1.880000 -5.880000 5.610292 -72.280014 5255.875977
5.920000 1.880000 -5.840000 26.043486 -43.294388 2552.667236
5.920000 1.880000 -5.800000 24.575665 -15.007858 829.199097
5.920000 1.920000 -6.200000 -21.784113 1.009697 475.567078
5.920000 1.920000 -6.160000 -27.357124 24.116158 1330.001221
5.920000 1.920000 -6.120000 -63.579807 37.986359 5485.355469
5.920000 1.920000 -6.080000 -112.170380 13.896320 12775.301758
5.920000 1.920000 -6.040000 -134.589340 -49.608841 20575.328125
5.920000 1.920000 -6.000000 -104.436447 -119.470367 25180.140625
5.920000 1.920000 -5.960000 -32.362526 -152.282440 24237.275391
5.920000 1.920000 -5.920000 40.374367 -129.230621 18330.642578
5.920000 1.920000 -5.880000 74.431953 -70.355385 10489.996094
5.920000 1.920000 -5.840000 61.765106 -16.083530 4073.608154
5.920000 1.920000 -5.800000 26.654110 5.833627 744.472778
5.920000 1.960000 -6.200000 -3.453409 -12.371136 164.971039
5.920000 1.960000 -6.160000 -27.167274 18.155655 1067.688599
5.920000 1.960000 -6.120000 -83.346298 13.987894 7142.266602
5.920000 1.960000 -6.080000 -127.624039 -46.558762 18455.613281
5.920000 1.960000 -6.040000 -111.678024 -136.202850 31023.199219
5.920000 1.960000 -6.000000 -28.696672 -194.922607 38818.324219
5.920000 1.960000 -5.960000 75.183296 -179.181717 37758.617188
5.920000 1.960000 -5.920000 136.678680 -99.333748 28548.255859
5.920000 1.960000 -5.880000 126.346634 -10.342875 16070.446289
5.920000 1.960000 -5.840000 68.528099 34.875210 5912.380859
5.920000 1.960000 -5.800000 14.426750 25.733496 870.343933
5.920000 2.000000 -6.200000 16.143391 -6.758604 306.287811
5.920000 2.000000 -6.160000 -27.791840 12.329206 924.395691
5.920000 2.000000 -6.120000 -83.028427 -23.742416 7457.421875
5.920000 2.000000 -6.080000 -92.139465 -108.727112 20311.265625
5.920000 2.000000 -6.040000 -24.484339 -185.747009 35101.437500
5.920000 2.000000 -6.000000 89.293251 -191.824493 44769.921875
5.920000 2.000000 -5.960000 177.112564 -113.431625 44235.593750
5.920000 2.000000 -5.920000 184.249268 -0.433105 33947.980469
5.920000 2.000000 -5.880000 117.245636 75.496201 19446.214844
5.920000 2.000000 -5.840000 33.428982 79.078743 7370.944336
5.920000 2.000000 -5.800000 -11.198896 33.242126 1230.454224
5.920000 2.040000 -6.200000 22.399862 10.097300 603.709290
5.920000 2.040000 -6.160000 -27.221403 4.611938 762.274719
5.920000 2.040000 -6.120000 -56.938160 -54.484867 6210.554688
5.920000 2.040000 -6.080000 -21.369091 -130.757416 17554.140625
5.920000 2.040000 -6.040000 74.717781 -159.536377 31034.601562
5.920000 2.040000 -6.000000 171.515884 -104.261147 40288.085938
5.920000 2.040000 -5.960000 201.120956 7.479967 40505.589844
5.920000 2.040000 -5.920000 144.632324 104.163475 31768.539062
5.920000 2.040000 -5.880000 46.483376 129.176849 18847.363281
5.920000 2.040000 -5.840000 -25.965223 83.991745 7728.806152
5.920000 2.040000 -5.800000 -37.870937 18.212585 1765.906128
5.920000 2.080000 -6.200000 13.673676 22.981575 715.122192
5.920000 2.080000 -6.160000 -22.674250 -3.669555 527.587219
5.920000 2.080000 -6.120000 -18.697704 -61.312607 4108.839844
5.920000 2.080000 -6.080000 41.940426 -101.070900 11974.326172
5.920000 2.080000 -6.040000 124.805542 -77.268860 21546.898438
5.920000 2.080000 -6.000000 168.214325 8.541523 28369.015625
5.920000 2.080000 -5.960000 135.245819 103.481148 28999.779297
5.920000 2.080000 -5.920000 46.215843 145.637344 23346.140625
5.920000 2.080000 -5.880000 -38.839016 114.314072 14576.175781
5.920000 2.080000 -5.840000 -70.403618 42.663448 6776.839355
5.920000 2.080000 -5.800000 -45.615295 -15.731234 2328.226807
5.920000 2.120000 -6.200000 0.710905 23.211214 539.265808
5.920000 2.120000 -6.160000 -13.844752 -8.929445 271.412170
5.920000 2.120000 -6.120000 10.993141 -44.877663 2134.853760
5.920000 2.120000 -6.080000 65.189491 -45.777168 6345.218750
5.920000 2.120000 -6.040000 107.022064 3.410786 11465.356445
5.920000 2.120000 -6.000000 97.291077 75.411888 15152.505859
5.920000 2.120000 -5.960000 34.746857 120.286819 15676.262695
5.920000 2.120000 -5.920000 -40.915890 106.615273 13040.926758
5.920000 2.120000 -5.880000 -81.680222 46.554104 8838.943359
5.920000 2.120000 -5.840000 -68.930695 -17.096075 5043.716309
5.920000 2.120000 -5.800000 -22.929142 -47.362579 2768.959473
5.920000 2.160000 -6.200000 -5.015311 14.986236 249.740616
5.920000 2.160000 -6.160000 -3.713070 -8.428533 84.827049
5.920000 2.160000 -6.120000 21.357462 -20.215185 864.794922
5.920000 2.160000 -6.080000 50.136177 -2.126720 2518.159180
5.920000 2.160000 -6.040000 53.745457 38.615482 4379.729492
5.920000 2.160000 -6.000000 20.818851 72.060219 5626.100098
5.920000 2.160000 -5.960000 -30.178116 70.107880 5825.833496
5.920000 2.160000 -5.920000 -65.014465 30.595268 5162.951172
5.920000 2.160000 -5.880000 -61.312393 -21.083801 4203.736328
5.920000 2.160000 -5.840000 -24.708757 -53.254723 3446.588135
5.920000 2.160000 -5.800000 19.196655 -51.682793 3039.622559
5.920000 2.200000 -6.200000 -1.914831 8.878080 82.486893
5.920000 2.200000 -6.160000 3.413852 -2.592283 18.374317
5.920000 2.200000 -6.120000 16.909491 -2.003006 289.942902
5.920000 2.200000 -6.080000 23.290112 13.055117 712.865356
5.920000 2.200000 -6.040000 11.577366 29.852192 1025.188721
5.920000 2.200000 -6.000000 -13.245087 30.943951 1132.960449
5.920000 2.200000 -5.960000 -32.965080 10.060425 1187.908691
5.920000 2.200000 -5.920000 -31.090076 -21.527111 1430.009277
5.920000 2.200000 -5.880000 -6.276245 -43.786079 1956.611938
5.920000 2.200000 -5.840000 27.391346 -43.320724 2626.970947
5.920000 2.200000 -5.800000 51.959625 -21.772739 3173.854980
5.960000 1.800000 -6.200000 -13.323828 59.108234 3671.307861
5.960000 1.800000 -6.160000 -47.826195 48.034115 4594.621094
5.960000 1.800000 -6.120000 -66.071518 12.789751 4529.022949
5.960000 1.800000 -6.080000 -53.136684 -24.640255 3430.649414
5.960000 1.800000 -6.040000 -19.682709 -38.106934 1839.547485
5.960000 1.800000 -6.000000 5.859964 -22.260231 529.857056
5.960000 1.800000 -5.960000 4.033995 1.531586 18.618868
5.960000 1.800000 -5.920000 -16.656708 6.024326 313.738434
5.960000 1.800000 -5.880000 -28.611206 -14.659988 1033.516357
5.960000 1.800000 -5.840000 -13.367716 -39.296478 1722.909058
5.960000 1.800000 -5.800000 19.595711 -41.316673 2091.059326
5.960000 1.840000 -6.200000 -41.475899 38.154148 3175.989258
5.960000 1.840000 -6.160000 -56.906860 23.551605 3793.068848
5.960000 1.840000 -6.120000 -62.453762 2.966017 3909.269775
5.960000 1.840000 -6.080000 -57.179905 -15.417137 3507.229492
5.960000 1.840000 -6.040000 -47.024754 -26.227921 2899.231201
5.960000 1.840000 -6.000000 -38.801216 -31.693718 2510.026123
5.960000 1.840000 -5.960000 -32.783478 -38.177162 2532.252197
5.960000 1.840000 -5.920000 -22.637611 -47.490719 2767.829834
5.960000 1.840000 -5.880000 -3.765739 -52.906826 2813.313232
5.960000 1.840000 -5.840000 18.890154 -45.335289 2412.126221
5.960000 1.840000 -5.800000 32.954914 -23.947741 1659.520630
5.960000 1.880000 -6.200000 -45.170414 4.187220 2057.899170
5.960000 1.880000 -6.160000 -50.998329 4.227728 2618.703369
5.960000 1.880000 -6.120000 -66.870743 -1.109187 4472.926758
5.960000 1.880000 -6.080000 -83.878769 -23.176926 7572.817871
5.960000 1.880000 -6.040000 -85.023285 -60.650551 10907.448242
5.960000 1.880000 -6.000000 -59.726883 -97.160271 13007.418945
5.960000 1.880000 -5.960000 -14.372902 -112.407501 12842.026367
5.960000 1.880000 -5.920000 30.721588 -97.511414 10452.291992
5.960000 1.880000 -5.880000 55.537979 -61.653378 6885.605957
5.960000 1.880000 -5.840000 53.867729 -24.780540 3515.807373
5.960000 1.880000 -5.800000 35.461655 -3.092033 1267.089600
5.960000 1.920000 -6.200000 -24.045502 -19.289036 950.253052
5.960000 1.920000 -6.160000 -40.778801 -4.203770 1680.582275
5.960000 1.920000 -6.120000 -78.405334 -15.369850 6383.628906
5.960000 1.920000 -6.080000 -103.033562 -66.672485 15061.134766
5.960000 1.920000 -6.040000 -80.153061 -134.964630 24639.964844
5.960000 1.920000 -6.000000 -8.215324 -174.589294 30548.914062
5.960000 1.920000 -5.960000 75.239807 -155.101608 29717.539062
5.960000 1.920000 -5.920000 122.408089 -87.649620 22666.195312
5.960000 1.920000 -5.880000 113.174805 -15.582170 13051.339844
5.960000 1.920000 -5.840000 68.039055 21.513206 5092.130859
5.960000 1.920000 -5.800000 26.321657 17.037876 983.118896
5.960000 1.960000 -6.200000 3.948846 -18.543844 359.467529
5.960000 1.960000 -6.160000 -34.469215 -6.415031 1229.279419
5.960000 1.960000 -6.120000 -80.248489 -45.184868 8481.492188
5.960000 1.960000 -6.080000 -79.925766 -126.314522 22343.486328
5.960000 1.960000 -6.040000 -7.793129 -194.608627 37933.253906
5.960000 1.960000 -6.000000 103.481720 -192.343567 47704.515625
5.960000 1.960000 -5.960000 184.760406 -111.018036 46461.410156
5.960000 1.960000 -5.920000 187.100739 -1.246975 35008.242188
5.960000 1.960000 -5.880000 121.064102 69.391235 19471.660156
5.960000 1.960000 -5.840000 43.125172 71.115479 6917.191406
5.960000 1.960000 -5.800000 4.621508 29.398094 885.606262
5.960000 2.000000 -6.200000 18.659126 0.518782 348.432129
5.960000 2.000000 -6.160000 -31.702595 -9.442465 1094.214600
5.960000 2.000000 -6.120000 -58.353886 -76.192078 9210.409180
5.960000 2.000000 -6.080000 -12.718149 -158.427048 25260.880859
5.960000 2.000000 -6.040000 97.471619 -185.042114 43741.304688
5.960000 2.000000 -6.000000 204.433243 -118.085342 55737.097656
5.960000 2.000000 -5.960000 234.024139 8.726570 54843.449219
5.960000 2.000000 -5.920000 168.738464 115.020485 41702.382812
5.960000 2.000000 -5.880000 60.960068 140.370850 23420.105469
5.960000 2.000000 -5.840000 -14.750481 90.663528 8437.452148
5.960000 2.000000 -5.800000 -23.645918 23.550524 1113.756592
5.960000 2.040000 -6.200000 13.841830 20.129486 596.792480
5.960000 2.040000 -6.160000 -27.254082 -14.686997 958.492859
5.960000 2.040000 -6.120000 -18.267136 -86.916451 7888.157227
5.960000 2.040000 -6.080000 61.511948 -135.683502 22193.734375
5.960000 2.040000 -6.040000 168.694336 -103.385880 39146.417969
5.960000 2.040000 -6.000000 224.980194 7.800802 50676.937500
5.960000 2.040000 -5.960000 183.672272 130.240021 50697.968750
5.960000 2.040000 -5.920000 71.475258 185.158752 39392.472656
5.960000 2.040000 -5.880000 -34.493870 147.485382 22941.763672
5.960000 2.040000 -5.840000 -72.330315 61.425682 9004.789062
5.960000 2.040000 -5.800000 -41.729195 -4.383989 1760.545044
5.960000 2.080000 -6.200000 -0.966769 27.117279 736.281433
5.960000 2.080000 -6.160000 -18.827274 -17.848076 673.020020
5.960000 2.080000 -6.120000 18.107096 -69.669991 5181.774414
5.960000 2.080000 -6.080000 98.859810 -72.680588 15055.729492
5.960000 2.080000 -6.040000 164.788788 -1.980698 27159.267578
5.960000 2.080000 -6.000000 156.888412 105.969910 35843.597656
5.960000 2.080000 -5.960000 69.564896 178.372070 36655.871094
5.960000 2.080000 -5.920000 -41.174362 166.510956 29421.226562
5.960000 2.080000 -5.880000 -104.216797 85.728775 18210.562500
5.960000 2.080000 -5.840000 -91.058167 -1.551349 8293.996094
5.960000 2.080000 -5.800000 -32.044739 -41.015400 2709.128418
5.960000 2.120000 -6.200000 -12.286686 22.123413 640.408081
5.960000 2.120000 -6.160000 -9.939512 -15.237270 330.968323
5.960000 2.120000 -6.120000 32.170334 -37.782509 2462.448242
5.960000 2.120000 -6.080000 86.221848 -11.583843 7568.392578
5.960000 2.120000 -6.040000 103.093887 58.578117 14059.745117
5.960000 2.120000 -6.000000 56.304737 125.720978 18975.988281
5.960000 2.120000 -5.960000 -30.244129 137.944336 19943.347656
5.960000 2.120000 -5.920000 -99.222397 83.284172 16781.337891
5.960000 2.120000 -5.880000 -107.090767 -0.016212 11468.432617
5.960000 2.120000 -5.840000 -57.899231 -56.874245 6587.000977
5.960000 2.120000 -5.800000 5.844037 -59.923542 3624.983643
5.960000 2.160000 -6.200000 -15.113374 14.659229 443.307068
5.960000 2.160000 -6.160000 -5.752034 -8.534603 105.925339
5.960000 2.160000 -6.120000 24.074177 -12.445604 734.459045
5.960000 2.160000 -6.080000 47.838932 15.878918 2540.703613
5.960000 2.160000 -6.040000 37.174255 59.300999 4898.533691
5.960000 2.160000 -6.000000 -9.776230 81.501465 6738.063477
5.960000 2.160000 -5.960000 -62.391842 58.478645 7312.494141
5.960000 2.160000 -5.920000 -81.767532 1.255707 6687.505859
5.960000 2.160000 -5.880000 -53.295181 -52.168697 5561.949219
5.960000 2.160000 -5.840000 2.337143 -68.098221 4642.830078
5.960000 2.160000 -5.800000 48.448940 -42.470726 4151.062500
5.960000 2.200000 -6.200000 -14.364872 11.419915 336.764008
5.960000 2.200000 -6.160000 -7.408466 -3.108447 64.547813
5.960000 2.200000 -6.120000 9.080585 -3.995049 98.417442
5.960000 2.200000 -6.080000 17.768532 11.575964 449.723694
5.960000 2.200000 -6.040000 6.330139 28.864357 873.221802
5.960000 2.200000 -6.000000 -18.644730 28.011208 1132.253662
5.960000 2.200000 -5.960000 -35.316654 3.276611 1258.002319
5.960000 2.200000 -5.920000 -25.524815 -29.697773 1533.473877
5.960000 2.200000 -5.880000 8.689167 -46.143173 2204.694092
5.960000 2.200000 -5.840000 46.256779 -32.594795 3202.110352
5.960000 2.200000 -5.800000 64.261177 3.101522 4139.118652
6.000000 1.800000 -6.200000 -45.998772 43.401321 3999.561523
6.000000 1.800000 -6.160000 -70.041916 11.988699 5049.599121
6.000000 1.800000 -6.120000 -65.180603 -30.941006 5205.856934
6.000000 1.800000 -6.080000 -31.399601 -57.590881 4302.644531
6.000000 1.800000 -6.040000 7.153366 -51.376659 2690.731689
6.000000 1.800000 -6.000000 22.963316 -23.368256 1073.389282
6.000000 1.800000 -5.960000 10.754204 -2.232735 120.638008
6.000000 1.800000 -5.920000 -8.234173 -6.559972 110.834839
6.000000 1.800000 -5.880000 -8.266960 -27.237535 810.226013
6.000000 1.800000 -5.840000 14.820179 -37.902550 1656.240967
6.000000 1.800000 -5.800000 40.063301 -22.480623 2110.446533
6.000000 1.840000 -6.200000 -59.435829 7.094086 3582.943848
6.000000 1.840000 -6.160000 -63.928719 -17.436235 4390.903320
6.000000 1.840000 -6.120000 -54.275795 -41.536140 4671.112793
6.000000 1.840000 -6.080000 -34.373787 -55.725636 4286.903809
6.000000 1.840000 -6.040000 -14.109809 -57.232639 3474.661621
6.000000 1.840000 -6.000000 -0.710129 -52.049858 2709.692139
6.000000 1.840000 -5.960000 7.346985 -48.036259 2361.460449
6.000000 1.840000 -5.920000 16.871269 -46.221066 2421.026611
6.000000 1.840000 -5.880000 30.471943 -40.099762 2536.530273
6.000000 1.840000 -5.840000 41.749588 -24.204473 2328.884766
6.000000 1.840000 -5.800000 41.198685 -2.489477 1703.529175
6.000000 1.880000 -6.200000 -42.273499 -25.589334 2441.862793
6.000000 1.880000 -6.160000 -45.291405 -32.046906 3078.315430
6.000000 1.880000 -6.120000 -50.763123 -47.667072 4849.044434
6.000000 1.880000 -6.080000 -46.126244 -74.199005 7633.122559
6.000000 1.880000 -6.040000 -21.452698 -100.174538 10495.156250
6.000000 1.880000 -6.000000 19.658272 -108.519424 12162.913086
6.000000 1.880000 -5.960000 60.342827 -90.322479 11799.407227
6.000000 1.880000 -5.920000 82.107544 -52.651932 9513.875000
6.000000 1.880000 -5.880000 77.931381 -13.748184 6262.312988
6.000000 1.880000 -5.840000 56.102535 9.972412 3246.943359
6.000000 1.880000 -5.800000 32.565666 14.209211 1262.424316
6.000000 1.920000 -6.200000 -9.905550 -33.558014 1224.260132
6.000000 1.920000 -6.160000 -29.424465 -32.360825 1913.022217
6.000000 1.920000 -6.120000 -49.405029 -62.432568 6338.682617
6.000000 1.920000 -6.080000 -36.466099 -114.451813 14428.994141
6.000000 1.920000 -6.040000 21.438778 -150.993164 23258.556641
6.000000 1.920000 -6.000000 98.489708 -137.344025 28563.603516
6.000000 1.920000 -5.960000 148.869797 -73.346710 27541.957031
6.000000 1.920000 -5.920000 144.067307 4.208439 20773.099609
6.000000 1.920000 -5.880000 95.404427 51.433273 11747.386719
6.000000 1.920000 -5.840000 41.859634 51.840187 4439.633789
6.000000 1.920000 -5.800000 16.102068 24.720436 870.376587
6.000000 1.960000 -6.200000 13.516816 -16.965332 470.526794
6.000000 1.960000 -6.160000 -22.048996 -28.844757 1318.178223
6.000000 1.960000 -6.120000 -34.814575 -84.226334 8306.129883
6.000000 1.960000 -6.080000 12.046867 -146.224976 21526.871094
6.000000 1.960000 -6.040000 107.056320 -157.292786 36202.074219
6.000000 1.960000 -6.000000 191.761322 -91.390663 45124.660156
6.000000 1.960000 -5.960000 207.714142 18.141033 43474.261719
6.000000 1.960000 -5.920000 146.548981 103.738113 32238.199219
6.000000 1.960000 -5.880000 56.017105 119.540245 17427.785156
6.000000 1.960000 -5.840000 -2.847775 76.135185 5804.676270
6.000000 1.960000 -5.800000 -6.024090 23.920959 608.501953
6.000000 2.000000 -6.200000 15.608150 6.653513 287.883606
6.000000 2.000000 -6.160000 -17.915693 -28.508770 1133.722046
6.000000 2.000000 -6.120000 -1.728054 -95.589874 9140.410156
6.000000 2.000000 -6.080000 80.284973 -135.064407 24688.070312
6.000000 2.000000 -6.040000 182.659668 -94.469505 42289.042969
6.000000 2.000000 -6.000000 230.142578 18.706701 53315.546875
6.000000 2.000000 -5.960000 182.509125 135.926895 51785.703125
6.000000 2.000000 -5.920000 71.323494 183.199402 38649.062500
6.000000 2.000000 -5.880000 -27.163649 142.412018 21019.046875
6.000000 2.000000 -5.840000 -57.156174 61.430786 7040.569336
6.000000 2.000000 -5.800000 -25.087097 6.417620 670.548279
6.000000 2.040000 -6.200000 2.539040 20.153753 412.620483
6.000000 2.040000 -6.160000 -10.979225 -28.824879 951.417053
6.000000 2.040000 -6.120000 35.108902 -81.496170 7874.260742
6.000000 2.040000 -6.080000 125.799652 -77.641510 21853.757812
6.000000 2.040000 -6.040000 195.212128 6.658001 38152.101562
6.000000 2.040000 -6.000000 180.537781 127.621834 48881.222656
6.000000 2.040000 -5.960000 80.229195 204.565140 48283.617188
6.000000 2.040000 -5.920000 -40.655285 187.601410 36847.140625
6.000000 2.040000 -5.880000 -105.050995 98.997665 20836.250000
6.000000 2.040000 -5.840000 -87.230942 9.801683 7705.310547
6.000000 2.040000 -5.800000 -26.401672 -23.732603 1260.284668
6.000000 2.080000 -6.200000 -11.501427 19.997326 532.175842
6.000000 2.080000 -6.160000 -2.924833 -24.014458 585.248779
6.000000 2.080000 -6.120000 53.221939 -46.837955 5026.369141
6.000000 2.080000 -6.080000 120.834465 -7.803703 14661.865234
6.000000 2.080000 -6.040000 138.731308 84.631393 26408.847656
6.000000 2.080000 -6.000000 76.011742 170.059570 34698.042969
6.000000 2.080000 -5.960000 -34.529945 184.401398 35196.191406
6.000000 2.080000 -5.920000 -120.187744 115.906395 27879.386719
6.000000 2.080000 -5.880000 -129.087616 15.373848 16899.968750
6.000000 2.080000 -5.840000 -71.033165 -49.002903 7446.995117
6.000000 2.080000 -5.800000 -1.846807 -48.245258 2331.015625
6.000000 2.120000 -6.200000 -18.743792 13.876797 543.895203
6.000000 2.120000 -6.160000 -0.544786 -14.473736 209.785828
6.000000 2.120000 -6.120000 43.974556 -13.648193 2120.034668
6.000000 2.120000 -6.080000 76.659760 33.242290 6981.768555
6.000000 2.120000 -6.040000 57.565769 100.181023 13350.054688
6.000000 2.120000 -6.000000 -14.505386 134.384537 18269.609375
6.000000 2.120000 -5.960000 -94.165543 102.083702 19288.230469
6.000000 2.120000 -5.920000 -125.525414 20.729988 16186.362305
6.000000 2.120000 -5.880000 -89.522728 -54.417915 10975.628906
6.000000 2.120000 -5.840000 -18.004145 -77.063904 6262.994629
6.000000 2.120000 -5.800000 37.164803 -45.699497 3469.666504
6.000000 2.160000 -6.200000 -21.653036 8.882312 547.749451
6.000000 2.160000 -6.160000 -6.371908 -7.668066 99.400452
6.000000 2.160000 -6.120000 20.439547 -0.835945 418.473846
6.000000 2.160000 -6.080000 30.518848 32.120457 1963.123779
6.000000 2.160000 -6.040000 4.424866 65.372231 4293.107910
6.000000 2.160000 -6.000000 -45.461296 65.144760 6310.569336
6.000000 2.160000 -5.960000 -81.312218 22.003975 7095.851562
6.000000 2.160000 -5.920000 -72.102287 -37.202423 6582.759766
6.000000 2.160000 -5.880000 -21.457050 -70.855873 5480.959473
6.000000 2.160000 -5.840000 35.612442 -57.535744 4578.607910
6.000000 2.160000 -5.800000 63.140354 -11.638697 4122.163574
6.000000 2.200000 -6.200000 -25.148409 4.398019 651.785034
6.000000 2.200000 -6.160000 -14.356073 -9.829534 302.716583
6.000000 2.200000 -6.120000 3.768675 -7.878707 76.276932
6.000000 2.200000 -6.080000 10.462044 9.405221 197.912537
6.000000 2.200000 -6.040000 -3.415997 23.818398 578.985046
6.000000 2.200000 -6.000000 -25.770870 16.934006 950.898315
6.000000 2.200000 -5.960000 -32.881927 -10.404846 1189.482056
6.000000 2.200000 -5.920000 -11.866528 -36.448753 1469.326050
6.000000 2.200000 -5.880000 26.009869 -37.331333 2070.141602
6.000000 2.200000 -5.840000 54.382080 -8.298555 3026.276611
6.000000 2.200000 -5.800000 54.114700 32.713226 3998.556152
6.040000 1.800000 -6.200000 -54.046066 10.864509 3039.014893
6.040000 1.800000 -6.160000 -57.930271 -25.812340 4022.193115
6.040000 1.800000 -6.120000 -33.170792 -58.824104 4560.576660
6.040000 1.800000 -6.080000 8.456483 -65.384781 4346.681641
6.040000 1.800000 -6.040000 39.945198 -41.769978 3340.350098
6.040000 1.800000 -6.000000 42.600788 -8.414888 1885.637451
6.040000 1.800000 -5.960000 23.061974 8.386378 602.185974
6.040000 1.800000 -5.920000 6.006317 0.819342 36.747166
6.040000 1.800000 -5.880000 9.428804 -14.551750 300.655792
6.040000 1.800000 -5.840000 27.500998 -15.210326 987.658875
6.040000 1.800000 -5.800000 38.246445 3.815546 1477.348877
6.040000 1.840000 -6.200000 -47.881310 -23.844263 2861.168701
6.040000 1.840000 -6.160000 -39.348068 -47.150715 3771.460449
6.040000 1.840000 -6.120000 -17.030821 -63.961807 4381.161621
6.040000 1.840000 -6.080000 11.454117 -65.088608 4367.723633
6.040000 1.840000 -6.040000 33.346340 -50.855919 3698.302734
6.040000 1.840000 -6.000000 41.349297 -31.435938 2697.982422
6.040000 1.840000 -5.960000 39.252224 -17.521048 1847.724121
6.040000 1.840000 -5.920000 36.488007 -10.933887 1450.924561
6.040000 1.840000 -5.880000 37.497009 -5.124420 1432.285400
6.040000 1.840000 -5.840000 37.648235 5.293856 1445.414551
6.040000 1.840000 -5.800000 30.085129 16.989780 1193.767578
6.040000 1.880000 -6.200000 -19.540932 -40.976151 2060.893066
6.040000 1.880000 -6.160000 -16.921597 -50.128689 2799.225830
6.040000 1.880000 -6.120000 -7.844946 -65.581520 4362.478516
6.040000 1.880000 -6.080000 14.957447 -78.842957 6439.937012
6.040000 1.880000 -6.040000 47.889648 -77.127914 8242.133789
6.040000 1.880000 -6.000000 77.065552 -54.795361 8941.630859
6.040000 1.880000 -5.960000 88.357094 -19.253242 8177.663574
6.040000 1.880000 -5.920000 77.883514 13.919949 6259.606934
6.040000 1.880000 -5.880000 54.103500 31.958447 3948.531006
6.040000 1.880000 -5.840000 30.731552 32.590401 2006.562500
6.040000 1.880000 -5.800000 17.318375 23.154499 836.056885
6.040000 1.920000 -6.200000 8.455749 -32.258286 1112.096558
6.040000 1.920000 -6.160000 -3.439257 -42.526802 1820.357422
6.040000 1.920000 -6.120000 1.609676 -72.499542 5258.774414
6.040000 1.920000 -6.080000 39.368763 -97.923065 11138.826172
6.040000 1.920000 -6.040000 96.710709 -88.722504 17224.644531
6.040000 1.920000 -6.000000 138.312729 -37.456036 20533.365234
6.040000 1.920000 -5.960000 135.454163 30.675907 19288.841797
6.040000 1.920000 -5.920000 90.645439 76.937218 14135.931641
6.040000 1.920000 -5.880000 35.257904 80.172218 7670.704102
6.040000 1.920000 -5.840000 2.834032 51.731491 2684.178955
6.040000 1.920000 -5.800000 3.103266 22.031282 495.007660
6.040000 1.960000 -6.200000 18.617062 -9.980854 446.212402
6.040000 1.960000 -6.160000 1.706584 -35.662415 1274.720337
6.040000 1.960000 -6.120000 22.000063 -78.642914 6668.710938
6.040000 1.960000 -6.080000 85.386383 -95.582504 16426.849609
6.040000 1.960000 -6.040000 154.842926 -53.789303 26869.621094
6.040000 1.960000 -6.000000 177.793411 34.274883 32785.265625
6.040000 1.960000 -5.960000 132.105957 116.090919 30929.085938
6.040000 1.960000 -5.920000 47.167053 141.810486 22334.945312
6.040000 1.960000 -5.880000 -20.800953 105.453873 11553.199219
6.040000 1.960000 -5.840000 -36.095760 46.506832 3465.789551
6.040000 1.960000 -5.800000 -9.486163 12.195219 238.710663
6.040000 2.000000 -6.200000 11.163385 7.768054 184.963837
6.040000 2.000000 -6.160000 6.174595 -31.817234 1050.462036
6.040000 2.000000 -6.120000 50.286121 -69.123947 7306.814453
6.040000 2.000000 -6.080000 126.045654 -55.503796 18968.177734
6.040000 2.000000 -6.040000 176.624115 23.296101 31738.787109
6.040000 2.000000 -6.000000 153.393066 125.323212 39235.339844
6.040000 2.000000 -5.960000 62.090408 182.940277 37322.363281
6.040000 2.000000 -5.920000 -38.348038 160.103973 27103.855469
6.040000 2.000000 -5.880000 -85.273163 82.570625 14089.419922
6.040000 2.000000 -5.840000 -63.962982 12.655880 4251.434570
6.040000 2.000000 -5.800000 -13.642151 -6.210016 224.672577
6.040000 2.040000 -6.200000 -1.866720 13.241791 178.829666
6.040000 2.040000 -6.160000 12.139177 -25.276995 786.286072
6.040000 2.040000 -6.120000 68.492973 -39.169460 6225.534180
6.040000 2.040000 -6.080000 129.528671 6.783636 16823.693359
6.040000 2.040000 -6.040000 137.874435 99.113632 28832.871094
6.040000 2.040000 -6.000000 69.431000 177.432281 36302.878906
6.040000 2.040000 -5.960000 -38.681488 183.432281 35143.660156
6.040000 2.040000 -5.920000 -115.837112 112.627075 26103.093750
6.040000 2.040000 -5.880000 -117.469543 18.711740 14149.222656
6.040000 2.040000 -5.840000 -60.445427 -34.185642 4822.307617
6.040000 2.040000 -5.800000 -1.980196 -25.366335 647.372131
6.040000 2.080000 -6.200000 -11.231352 11.001168 247.168976
6.040000 2.080000 -6.160000 13.310863 -13.555569 360.932556
6.040000 2.080000 -6.120000 61.275055 -3.750151 3768.696045
6.040000 2.080000 -6.080000 90.298813 53.975090 11067.185547
6.040000 2.080000 -6.040000 60.474854 127.239586 19847.121094
6.040000 2.080000 -6.000000 -23.719208 158.936417 25823.386719
6.040000 2.080000 -5.960000 -109.543259 117.427055 25788.839844
6.040000 2.080000 -5.920000 -138.518204 27.696585 19954.394531
6.040000 2.080000 -5.880000 -96.582314 -48.537403 11684.023438
6.040000 2.080000 -5.840000 -23.943640 -65.850739 4909.617676
6.040000 2.080000 -5.800000 23.782906 -30.711807 1508.841675
6.040000 2.120000 -6.200000 -17.191372 7.472151 351.376312
6.040000 2.120000 -6.160000 4.391172 -3.689112 32.891937
6.040000 2.120000 -6.120000 33.248547 14.410910 1313.140137
6.040000 2.120000 -6.080000 36.004616 59.812183 4873.829590
6.040000 2.120000 -6.040000 -5.983742 98.228828 9684.707031
6.040000 2.120000 -6.000000 -72.087875 90.744568 13431.238281
6.040000 2.120000 -5.960000 -114.682266 31.728168 14158.699219
6.040000 2.120000 -5.920000 -100.011810 -41.492912 11724.024414
6.040000 2.120000 -5.880000 -38.775314 -79.210632 7777.849121
6.040000 2.120000 -5.840000 23.729498 -61.665054 4365.667969
6.040000 2.120000 -5.800000 48.020592 -12.709919 2467.519287
6.040000 2.160000 -6.200000 -23.401230 2.477170 553.753906
6.040000 2.160000 -6.160000 -9.498692 -5.314054 118.464317
6.040000 2.160000 -6.120000 6.439636 6.479433 83.451965
6.040000 2.160000 -6.080000 2.554104 31.625134 1006.672485
6.040000 2.160000 -6.040000 -27.167248 44.603188 2727.503662
6.040000 2.160000 -6.000000 -61.538193 24.678635 4395.984375
6.040000 2.160000 -5.960000 -68.716652 -20.862732 5157.231445
6.040000 2.160000 -5.920000 -36.158234 -59.442127 4840.784180
6.040000 2.160000 -5.880000 15.929024 -61.209915 4000.387695
6.040000 2.160000 -5.840000 51.722836 -25.352341 3317.992920
6.040000 2.160000 -5.800000 50.716690 20.842432 3006.589600
6.040000 2.200000 -6.200000 -28.197290 -7.882134 857.215210
6.040000 2.200000 -6.160000 -15.805256 -18.664368 598.164734
6.040000 2.200000 -6.120000 -0.260525 -14.208845 201.959152
6.040000 2.200000 -6.080000 2.831503 0.426420 8.199243
6.040000 2.200000 -6.040000 -9.340589 8.096790 152.804611
6.040000 2.200000 -6.000000 -22.015617 -2.364254 490.277100
6.040000 2.200000 -5.960000 -17.077209 -22.869820 814.659668
6.040000 2.200000 -5.920000 7.829342 -32.355164 1108.155151
6.040000 2.200000 -5.880000 35.258907 -16.885654 1528.315918
6.040000 2.200000 -5.840000 43.405289 16.642124 2160.979248
6.040000 2.200000 -5.800000 25.412159 46.768711 2833.090088
6.080000 1.800000 -6.200000 -36.664688 -11.727597 1481.835815
6.080000 1.800000 -6.160000 -26.018703 -38.778400 2180.737305
6.080000 1.800000 -6.120000 5.016931 -54.189697 2961.692871
6.080000 1.800000 -6.080000 40.930824 -43.143730 3536.713867
6.080000 1.800000 -6.040000 58.551147 -10.107242 3530.393066
6.080000 1.800000 -6.000000 47.685802 22.484055 2779.468506
6.080000 1.800000 -5.960000 20.977627 33.530392 1564.347900
6.080000 1.800000 -5.920000 2.021830 22.042110 489.942444
6.080000 1.800000 -5.880000 3.102501 6.348452 49.928349
6.080000 1.800000 -5.840000 14.940703 4.548256 243.911255
6.080000 1.800000 -5.800000 18.616087 16.500261 618.817322
6.080000 1.840000 -6.200000 -21.167191 -32.519009 1505.535889
6.080000 1.840000 -6.160000 -6.137770 -47.382648 2282.787598
6.080000 1.840000 -6.120000 20.269472 -51.928455 3107.416016
6.080000 1.840000 -6.080000 46.831318 -37.764278 3619.312988
6.080000 1.840000 -6.040000 58.469116 -9.691635 3512.565186
6.080000 1.840000 -6.000000 49.937439 16.542437 2767.399902
6.080000 1.840000 -5.960000 30.771627 27.758015 1717.400391
6.080000 1.840000 -5.920000 15.956486 24.381527 849.068298
6.080000 1.840000 -5.880000 12.000681 17.721006 458.050415
6.080000 1.840000 -5.840000 12.979399 16.933029 455.192261
6.080000 1.840000 -5.800000 9.914331 20.120478 503.127594
6.080000 1.880000 -6.200000 2.700590 -34.215080 1177.964966
6.080000 1.880000 -6.160000 10.563316 -42.023582 1877.565063
6.080000 1.880000 -6.120000 29.107843 -47.407516 3094.739258
6.080000 1.880000 -6.080000 53.921963 -39.074104 4434.363770
6.080000 1.880000 -6.040000 71.464478 -14.065113 5304.999023
6.080000 1.880000 -6.000000 70.410927 17.798885 5274.499023
6.080000 1.880000 -5.960000 51.391899 41.277813 4344.984863
6.080000 1.880000 -5.920000 26.040152 47.523613 2936.583496
6.080000 1.880000 -5.880000 7.204891 39.396275 1603.976807
6.080000 1.880000 -5.840000 0.122622 26.696205 712.702393
6.080000 1.880000 -5.800000 1.713287 17.606518 312.924835
6.080000 1.920000 -6.200000 17.722448 -20.035149 715.492310
6.080000 1.920000 -6.160000 18.359913 -32.373703 1385.143066
6.080000 1.920000 -6.120000 38.441666 -45.208832 3521.600098
6.080000 1.920000 -6.080000 72.653275 -37.810249 6708.113281
6.080000 1.920000 -6.040000 98.186432 -2.160255 9645.242188
6.080000 1.920000 -6.000000 93.308456 46.626968 10880.541992
6.080000 1.920000 -5.960000 56.872089 80.659233 9740.346680
6.080000 1.920000 -5.920000 10.479980 81.673431 6780.379395
6.080000 1.920000 -5.880000 -18.887535 55.294003 3414.165771
6.080000 1.920000 -5.840000 -19.909706 24.782469 1010.567139
6.080000 1.920000 -5.800000 -3.275734 11.069817 133.271271
6.080000 1.960000 -6.200000 18.216335 -3.487960 344.000732
6.080000 1.960000 -6.160000 21.805496 -24.730118 1087.058350
6.080000 1.960000 -6.120000 53.275253 -38.175388 4295.612793
6.080000 1.960000 -6.080000 96.276031 -17.649685 9580.585938
6.080000 1.960000 -6.040000 115.709984 38.092133 14839.811523
6.080000 1.960000 -6.000000 88.005295 98.349152 17417.488281
6.080000 1.960000 -5.960000 24.566183 123.591156 15878.270508
6.080000 1.960000 -5.920000 -35.182625 98.936104 11026.169922
6.080000 1.960000 -5.880000 -56.203533 46.851799 5353.928223
6.080000 1.960000 -5.840000 -36.115429 6.998260 1353.299805
6.080000 1.960000 -5.800000 -3.740401 2.325035 19.396389
6.080000 2.000000 -6.200000 10.592667 6.118177 149.636688
6.080000 2.000000 -6.160000 25.221605 -16.537762 909.626953
6.080000 2.000000 -6.120000 65.725487 -17.645206 4631.193359
6.080000 2.000000 -6.080000 102.681091 23.066538 11075.471680
6.080000 2.000000 -6.040000 97.734657 90.498627 17742.064453
6.080000 2.000000 -6.000000 39.977356 140.095016 21224.802734
6.080000 2.000000 -5.960000 -38.820576 134.347534 19556.296875
6.080000 2.000000 -5.920000 -88.057411 76.806915 13653.410156
6.080000 2.000000 -5.880000 -80.964249 10.258191 6660.439941
6.080000 2.000000 -5.840000 -36.165413 -20.484163 1727.538086
6.080000 2.000000 -5.800000 1.978822 -6.193202 42.271488
6.080000 2.040000 -6.200000 2.464316 9.405686 94.539787
6.080000 2.040000 -6.160000 24.949894 -4.098318 639.293396
6.080000 2.040000 -6.120000 61.037853 11.645950 3861.247803
6.080000 2.040000 -6.080000 76.510765 62.832870 9801.867188
6.080000 2.040000 -6.040000 43.134361 119.957123 16250.284180
6.080000 2.040000 -6.000000 -29.975523 137.849457 19901.003906
6.080000 2.040000 -5.960000 -97.243256 96.050682 18681.984375
6.080000 2.040000 -5.920000 -113.558014 20.547947 13317.640625
6.080000 2.040000 -5.880000 -73.677139 -36.683800 6774.021973
6.080000 2.040000 -5.840000 -15.862496 -42.555664 2062.603271
6.080000 2.040000 -5.800000 14.074103 -9.463800 287.643921
6.080000 2.080000 -6.200000 -5.194788 10.270885 132.476883
6.080000 2.080000 -6.160000 14.563979 7.910155 274.680054
6.080000 2.080000 -6.120000 35.144157 31.139929 2204.807129
6.080000 2.080000 -6.080000 28.359592 73.907455 6266.578613
6.080000 2.080000 -6.040000 -17.722610 103.708771 11069.599609
6.080000 2.080000 -6.000000 -79.774620 88.283417 14157.952148
6.080000 2.080000 -5.960000 -113.924820 28.335974 13781.791992
6.080000 2.080000 -5.920000 -93.906258 -37.883949 10253.578125
6.080000 2.080000 -5.880000 -35.947136 -66.129929 5665.364258
6.080000 2.080000 -5.840000 15.395839 -44.625755 2228.489746
6.080000 2.080000 -5.800000 27.410904 -2.035938 755.502686
6.080000 2.120000 -6.200000 -14.588270 7.837259 274.240265
6.080000 2.120000 -6.160000 -3.726948 8.616749 88.138496
6.080000 2.120000 -6.120000 3.428780 25.531265 663.602051
6.080000 2.120000 -6.080000 -11.078331 48.808578 2505.006836
6.080000 2.120000 -6.040000 -47.597359 53.430626 5120.340332
6.080000 2.120000 -6.000000 -81.381760 23.516636 7176.022949
6.080000 2.120000 -5.960000 -82.122742 -27.551704 7503.241211
6.080000 2.120000 -5.920000 -43.246490 -64.614944 6045.349609
6.080000 2.120000 -5.880000 9.243235 -61.302326 3843.412598
6.080000 2.120000 -5.840000 39.117405 -23.923428 2102.501709
6.080000 2.120000 -5.800000 31.992311 15.562366 1265.695312
6.080000 2.160000 -6.200000 -23.056515 -2.105723 536.036926
6.080000 2.160000 -6.160000 -16.772778 -6.358434 321.755768
6.080000 2.160000 -6.120000 -11.245272 -0.378703 126.599556
6.080000 2.160000 -6.080000 -17.871771 8.734316 395.688477
6.080000 2.160000 -6.040000 -34.413715 5.422081 1213.702759
6.080000 2.160000 -6.000000 -43.482956 -16.247429 2154.746338
6.080000 2.160000 -5.960000 -29.293589 -42.381756 2654.327637
6.080000 2.160000 -5.920000 4.313549 -50.006905 2519.297119
6.080000 2.160000 -5.880000 34.650265 -29.137442 2049.631348
6.080000 2.160000 -5.840000 40.348228 6.766832 1673.769531
6.080000 2.160000 -5.800000 20.570284 33.201393 1525.469116
6.080000 2.200000 -6.200000 -22.540470 -18.530388 851.448059
6.080000 2.200000 -6.160000 -12.283318 -26.782284 868.170593
6.080000 2.200000 -6.120000 -0.146305 -24.289257 589.989441
6.080000 2.200000 -6.080000 4.097779 -15.655451 261.884949
6.080000 2.200000 -6.040000 0.643198 -11.432957 131.126190
6.080000 2.200000 -6.000000 -0.671230 -15.508205 240.954987
6.080000 2.200000 -5.960000 7.907795 -19.916088 459.183807
6.080000 2.200000 -5.920000 22.087357 -13.331347 665.576111
6.080000 2.200000 -5.880000 28.762112 6.001022 863.271362
6.080000 2.200000 -5.840000 19.108791 27.209473 1105.501343
6.080000 2.200000 -5.800000 -2.659575 36.831589 1363.639282
6.120000 1.800000 -6.200000 -14.364747 -10.670681 320.209412
6.120000 1.800000 -6.160000 -2.334746 -24.733353 617.189758
6.120000 1.800000 -6.120000 22.995863 -27.311478 1274.726562
6.120000 1.800000 -6.080000 46.925522 -7.866132 2263.880615
6.120000 1.800000 -6.040000 49.980858 26.026506 3175.465332
6.120000 1.800000 -6.000000 27.006388 52.068073 3440.429199
6.120000 1.800000 -5.960000 -5.892007 52.665901 2808.413086
6.120000 1.800000 -5.920000 -25.231375 31.280781 1615.109497
6.120000 1.800000 -5.880000 -21.593212 8.513620 538.748535
6.120000 1.800000 -5.840000 -6.746921 1.602771 48.089817
6.120000 1.800000 -5.800000 0.562958 8.609831 74.446114
6.120000 1.840000 -6.200000 -3.526022 -19.212702 381.560730
6.120000 1.840000 -6.160000 10.014579 -26.558102 805.624573
6.120000 1.840000 -6.120000 32.410294 -21.338142 1505.743408
6.120000 1.840000 -6.080000 48.349831 2.512593 2344.019287
6.120000 1.840000 -6.040000 42.686081 33.769344 2962.470215
6.120000 1.840000 -6.000000 16.445662 52.008842 2975.379395
6.120000 1.840000 -5.960000 -12.442940 46.277164 2296.402588
6.120000 1.840000 -5.920000 -25.321459 25.046101 1268.483398
6.120000 1.840000 -5.880000 -19.322582 7.091079 423.645599
6.120000 1.840000 -5.840000 -7.332130 3.163122 63.765469
6.120000 1.840000 -5.800000 -2.534159 7.819141 67.560936
6.120000 1.880000 -6.200000 8.600953 -17.155991 368.304382
6.120000 1.880000 -6.160000 19.148621 -21.409660 825.043213
6.120000 1.880000 -6.120000 36.923958 -14.430955 1571.631104
6.120000 1.880000 -6.080000 47.990124 8.089670 2368.494873
6.120000 1.880000 -6.040000 40.098000 35.542007 2871.083984
6.120000 1.880000 -6.000000 15.244894 50.832603 2816.360352
6.120000 1.880000 -5.960000 -11.352350 45.559654 2204.558105
6.120000 1.880000 -5.920000 -24.618149 26.748796 1321.551270
6.120000 1.880000 -5.880000 -21.645409 9.148463 552.218079
6.120000 1.880000 -5.840000 -11.176296 2.043086 129.083801
6.120000 1.880000 -5.800000 -3.099559 3.878576 24.650616
6.120000 1.920000 -6.200000 15.174719 -9.047621 312.131531
6.120000 1.920000 -6.160000 24.387577 -14.271342 798.425110
6.120000 1.920000 -6.120000 41.365730 -7.780321 1771.657104
6.120000 1.920000 -6.080000 51.932636 14.820795 2916.654785
6.120000 1.920000 -6.040000 43.203693 43.344234 3745.281738
6.120000 1.920000 -6.000000 15.782290 60.162712 3868.632812
6.120000 1.920000 -5.960000 -15.532391 54.589596 3221.279053
6.120000 1.920000 -5.920000 -33.188564 31.528269 2095.512695
6.120000 1.920000 -5.880000 -30.239658 7.074280 964.482361
6.120000 1.920000 -5.840000 -14.226667 -4.293556 220.832703
6.120000 1.920000 -5.800000 0.377448 0.386675 0.291984
6.120000 1.960000 -6.200000 16.229458 -0.350788 263.518341
6.120000 1.960000 -6.160000 27.800465 -5.416179 802.200867
6.120000 1.960000 -6.120000 45.844582 4.041359 2118.058105
6.120000 1.960000 -6.080000 54.110130 31.000154 3888.915771
6.120000 1.960000 -6.040000 38.791962 62.203091 5374.041016
6.120000 1.960000 -6.000000 2.439606 76.345520 5834.589844
6.120000 1.960000 -5.960000 -35.010136 61.508354 5008.987305
6.120000 1.960000 -5.920000 -50.900391 26.481981 3292.145264
6.120000 1.960000 -5.880000 -38.269772 -5.114607 1490.734619
6.120000 1.960000 -5.840000 -11.525970 -13.794190 323.127686
6.120000 1.960000 -5.800000 5.988933 0.341838 35.984165
6.120000 2.000000 -6.200000 13.877540 7.668447 251.391190
6.120000 2.000000 -6.160000 27.076227 7.194257 784.879395
6.120000 2.000000 -6.120000 41.911400 22.568863 2265.918945
6.120000 2.000000 -6.080000 41.388916 52.592201 4478.981934
6.120000 2.000000 -6.040000 14.702776 79.423447 6524.255371
6.120000 2.000000 -6.000000 -28.801069 80.585678 7323.553223
6.120000 2.000000 -5.960000 -62.749840 49.415077 6379.392578
6.120000 2.000000 -5.920000 -64.497040 4.349931 4178.790039
6.120000 2.000000 -5.880000 -35.558487 -24.456772 1862.539673
6.120000 2.000000 -5.840000 -1.426054 -20.682938 429.817535
6.120000 2.000000 -5.800000 10.662224 4.091618 130.424347
6.120000 2.040000 -6.200000 7.362115 14.988184 278.846405
6.120000 2.040000 -6.160000 16.589109 20.094240 678.977051
6.120000 2.040000 -6.120000 22.348774 37.609680 1913.955811
6.120000 2.040000 -6.080000 10.646109 62.129616 3973.428711
6.120000 2.040000 -6.040000 -22.568659 74.580994 6071.668945
6.120000 2.040000 -6.000000 -61.047234 57.686699 7054.519531
6.120000 2.040000 -5.960000 -77.752960 15.136953 6274.650391
6.120000 2.040000 -5.920000 -58.704521 -26.622969 4155.002930
6.120000 2.040000 -5.880000 -18.109896 -39.542637 1891.588379
6.120000 2.040000 -5.840000 12.441380 -19.390156 530.766052
6.120000 2.040000 -5.800000 12.378292 10.125652 255.750946
6.120000 2.080000 -6.200000 -4.642865 17.902536 342.057007
6.120000 2.080000 -6.160000 -3.423597 23.094223 545.064148
6.120000 2.080000 -6.120000 -6.285482 34.286976 1215.104004
6.120000 2.080000 -6.080000 -22.031506 45.361374 2543.041504
6.120000 2.080000 -6.040000 -48.866844 41.441334 4105.352539
6.120000 2.080000 -6.000000 -69.371552 14.396212 5019.663086
6.120000 2.080000 -5.960000 -63.916660 -23.811390 4652.321777
6.120000 2.080000 -5.920000 -31.142950 -47.291870 3206.404297
6.120000 2.080000 -5.880000 6.824780 -39.160988 1580.160645
6.120000 2.080000 -5.840000 22.904747 -8.681703 599.999390
6.120000 2.080000 -5.800000 10.312534 16.552422 380.331024
6.120000 2.120000 -6.200000 -17.945137 10.760878 437.824432
6.120000 2.120000 -6.160000 -21.536722 9.107026 546.768311
6.120000 2.120000 -6.120000 -24.759483 9.443653 702.214600
6.120000 2.120000 -6.080000 -32.994812 8.639854 1163.304688
6.120000 2.120000 -6.040000 -43.550129 -1.695356 1899.488037
6.120000 2.120000 -6.000000 -44.363907 -22.892809 2492.236816
6.120000 2.120000 -5.960000 -26.401451 -42.405689 2495.279053
6.120000 2.120000 -5.920000 3.409870 -43.277580 1884.576172
6.120000 2.120000 -5.880000 25.033192 -21.698301 1097.477051
6.120000 2.120000 -5.840000 23.565002 6.805244 601.620667
6.120000 2.120000 -5.800000 4.218500 21.185089 466.603760
6.120000 2.160000 -6.200000 -22.675152 -6.119666 551.612854
6.120000 2.160000 -6.160000 -22.984678 -15.267509 761.392273
6.120000 2.160000 -6.120000 -18.076391 -20.978836 766.867493
6.120000 2.160000 -6.080000 -13.536064 -23.083794 716.086548
6.120000 2.160000 -6.040000 -9.975332 -25.996010 775.299805
6.120000 2.160000 -6.000000 -2.522590 -30.265621 922.371277
6.120000 2.160000 -5.960000 10.990055 -29.449970 988.082031
6.120000 2.160000 -5.920000 23.907722 -17.363489 873.069946
6.120000 2.160000 -5.880000 25.640104 2.680313 664.599060
6.120000 2.160000 -5.840000 13.077140 18.615793 517.559326
6.120000 2.160000 -5.800000 -4.827691 21.019896 465.142609
6.120000 2.200000 -6.200000 -12.092733 -22.409027 648.398682
6.120000 2.200000 -6.160000 -4.567821 -32.052864 1048.251099
6.120000 2.200000 -6.120000 8.627090 -34.189091 1243.320557
6.120000 2.200000 -6.080000 20.222000 -27.922695 1188.606201
6.120000 2.200000 -6.040000 26.224689 -17.542847 995.485779
6.120000 2.200000 -6.000000 27.346848 -6.938774 795.996704
6.120000 2.200000 -5.960000 25.187149 3.092064 643.953308
6.120000 2.200000 -5.920000 19.333851 12.455399 528.934753
6.120000 2.200000 -5.880000 9.111267 18.864624 438.889252
6.120000 2.200000 -5.840000 -3.164254 19.229839 379.799225
6.120000 2.200000 -5.800000 -12.839289 13.638996 350.869568
6.160000 1.800000 -6.200000 -7.358576 4.691505 76.158859
6.160000 1.800000 -6.160000 -2.133777 -4.080613 21.204407
6.160000 1.800000 -6.120000 14.900824 -3.467885 234.060776
6.160000 1.800000 -6.080000 28.396925 16.210735 1069.173340
6.160000 1.800000 -6.040000 20.087730 44.751225 2406.188965
6.160000 1.800000 -6.000000 -10.750525 58.779732 3570.630615
6.160000 1.800000 -5.960000 -43.326015 44.181469 3829.145996
6.160000 1.800000 -5.920000 -53.801704 11.013189 3015.913574
6.160000 1.800000 -5.880000 -37.763512 -15.591891 1669.189819
6.160000 1.800000 -5.840000 -13.199973 -19.539396 556.027283
6.160000 1.800000 -5.800000 -1.032043 -7.680686 60.058044
6.160000 1.840000 -6.200000 -6.202325 -2.614338 45.303600
6.160000 1.840000 -6.160000 3.029829 -8.308466 78.210472
6.160000 1.840000 -6.120000 18.606504 0.372006 346.340393
6.160000 1.840000 -6.080000 22.117901 24.531757 1091.008667
6.160000 1.840000 -6.040000 2.480743 46.615295 2179.139893
6.160000 1.840000 -6.000000 -30.115864 46.351753 3055.450439
6.160000 1.840000 -5.960000 -51.944687 21.341290 3153.701172
6.160000 1.840000 -5.920000 -47.968475 -9.695198 2394.971436
6.160000 1.840000 -5.880000 -25.481140 -24.839550 1266.291748
6.160000 1.840000 -5.840000 -5.144156 -19.162525 393.664703
6.160000 1.840000 -5.800000 0.268489 -6.307312 39.854279
6.160000 1.880000 -6.200000 -0.248108 -7.322256 53.676991
6.160000 1.880000 -6.160000 10.329901 -8.315120 175.848068
6.160000 1.880000 -6.120000 20.083118 5.029342 428.625916
6.160000 1.880000 -6.080000 14.359753 26.085281 886.644409
6.160000 1.880000 -6.040000 -8.584129 37.345776 1468.394165
6.160000 1.880000 -6.000000 -33.957779 27.353348 1901.336426
6.160000 1.880000 -5.960000 -43.654850 2.295073 1911.013306
6.160000 1.880000 -5.920000 -32.786282 -19.744614 1464.790039
6.160000 1.880000 -5.880000 -12.762853 -25.566605 816.541626
6.160000 1.880000 -5.840000 1.142558 -17.166645 295.999146
6.160000 1.880000 -5.800000 3.695810 -6.176331 51.806076
6.160000 1.920000 -6.200000 8.568042 -6.613573 117.150688
6.160000 1.920000 -6.160000 17.640203 -2.550630 317.682495
6.160000 1.920000 -6.120000 20.619896 11.318340 553.284912
6.160000 1.920000 -6.080000 10.240851 25.719400 766.362610
6.160000 1.920000 -6.040000 -9.552689 28.758341 918.296021
6.160000 1.920000 -6.000000 -26.414202 16.633064 974.368896
6.160000 1.920000 -5.960000 -29.962425 -3.103460 907.378418
6.160000 1.920000 -5.920000 -19.769047 -18.220636 722.806763
6.160000 1.920000 -5.880000 -4.258880 -21.364187 474.566559
6.160000 1.920000 -5.840000 6.929732 -13.987717 243.677399
6.160000 1.920000 -5.800000 9.315814 -2.815723 94.712685
6.160000 1.960000 -6.200000 15.831772 1.557889 253.072021
6.160000 1.960000 -6.160000 20.162853 9.678478 500.213593
6.160000 1.960000 -6.120000 17.087276 20.928026 729.957275
6.160000 1.960000 -6.080000 5.751989 28.714638 857.615784
6.160000 1.960000 -6.040000 -9.510624 27.584877 851.377380
6.160000 1.960000 -6.000000 -21.449196 16.576988 734.864502
6.160000 1.960000 -5.960000 -23.778606 0.209822 565.466125
6.160000 1.960000 -5.920000 -14.944983 -13.385309 402.519043
6.160000 1.960000 -5.880000 0.100402 -16.802990 282.350555
6.160000 1.960000 -5.840000 11.894813 -8.365141 211.462158
6.160000 1.960000 -5.800000 12.301573 5.594745 182.629852
6.160000 2.000000 -6.200000 15.109056 15.010740 453.605896
6.160000 2.000000 -6.160000 11.892948 23.757587 705.865173
6.160000 2.000000 -6.120000 4.170011 29.505907 887.987549
6.160000 2.000000 -6.080000 -6.124249 31.017220 999.574341
6.160000 2.000000 -6.040000 -17.395988 26.895710 1025.999634
6.160000 2.000000 -6.000000 -25.982159 15.651714 920.048706
6.160000 2.000000 -5.960000 -25.932102 -0.484161 672.708374
6.160000 2.000000 -5.920000 -14.247805 -13.303705 379.988525
6.160000 2.000000 -5.880000 3.255888 -13.543573 194.029175
6.160000 2.000000 -5.840000 13.759403 -0.335094 189.433472
6.160000 2.000000 -5.800000 8.258810 14.991611 292.956329
6.160000 2.040000 -6.200000 3.092201 25.545145 662.116150
6.160000 2.040000 -6.160000 -7.527054 29.300560 915.179382
6.160000 2.040000 -6.120000 -16.653793 26.758997 993.392822
6.160000 2.040000 -6.080000 -23.139549 21.809961 1011.113159
6.160000 2.040000 -6.040000 -28.640471 14.681714 1035.829346
6.160000 2.040000 -6.000000 -31.170773 3.117870 981.338196
6.160000 2.040000 -5.960000 -25.097866 -10.579195 741.822266
6.160000 2.040000 -5.920000 -9.248489 -17.364780 387.070160
6.160000 2.040000 -5.880000 7.197479 -9.789509 147.638184
6.160000 2.040000 -5.840000 10.907502 7.517933 175.492920
6.160000 2.040000 -5.800000 -1.473187 18.926846 360.395782
6.160000 2.080000 -6.200000 -14.845202 23.763371 785.077759
6.160000 2.080000 -6.160000 -28.037752 17.919937 1107.239746
6.160000 2.080000 -6.120000 -32.891628 6.680222 1126.484619
6.160000 2.080000 -6.080000 -31.256678 -2.694164 984.238464
6.160000 2.080000 -6.040000 -27.723425 -9.578470 860.335388
6.160000 2.080000 -6.000000 -22.116432 -16.403223 758.202271
6.160000 2.080000 -5.960000 -11.273860 -21.064186 570.799866
6.160000 2.080000 -5.920000 2.772225 -17.131865 301.186035
6.160000 2.080000 -5.880000 10.568029 -2.983266 120.583115
6.160000 2.080000 -5.840000 4.456643 12.068592 165.512573
6.160000 2.080000 -5.800000 -10.582416 14.878315 333.351776
6.160000 2.120000 -6.200000 -26.154013 8.100010 749.642578
6.160000 2.120000 -6.160000 -34.523869 -6.842214 1238.713379
6.160000 2.120000 -6.120000 -29.762045 -22.408001 1387.897827
6.160000 2.120000 -6.080000 -17.523388 -30.096731 1212.882324
6.160000 2.120000 -6.040000 -5.353969 -29.803757 916.928894
6.160000 2.120000 -6.000000 4.151978 -25.172932 650.915405
6.160000 2.120000 -5.960000 11.434004 -17.323830 430.851532
6.160000 2.120000 -5.920000 14.537615 -5.628968 243.027527
6.160000 2.120000 -5.880000 9.535148 6.726767 136.168427
6.160000 2.120000 -5.840000 -2.768506 12.155315 155.416321
6.160000 2.120000 -5.800000 -13.639515 6.429914 227.380157
6.160000 2.160000 -6.200000 -21.120365 -11.090319 569.065002
6.160000 2.160000 -6.160000 -20.076221 -28.896151 1238.042236
6.160000 2.160000 -6.120000 -5.227087 -41.121975 1718.339233
6.160000 2.160000 -6.080000 14.324758 -39.986916 1804.152100
6.160000 2.160000 -6.040000 28.326384 -27.275043 1546.312012
6.160000 2.160000 -6.000000 32.090546 -10.098076 1131.774292
6.160000 2.160000 -5.960000 26.494728 5.017558 727.146545
6.160000 2.160000 -5.920000 14.791070 14.109253 417.846771
6.160000 2.160000 -5.880000 1.279839 15.106771 229.852524
6.160000 2.160000 -5.840000 -8.596318 8.529581 146.650452
6.160000 2.160000 -5.800000 -10.467579 -0.736226 110.112236
6.160000 2.200000 -6.200000 -2.789701 -18.665567 356.185852
6.160000 2.200000 -6.160000 5.551968 -31.972187 1053.045166
6.160000 2.200000 -6.120000 24.736801 -35.424995 1866.839600
6.160000 2.200000 -6.080000 43.520935 -23.156021 2430.272949
6.160000 2.200000 -6.040000 50.185280 0.028860 2518.562988
6.160000 2.200000 -6.000000 40.534081 22.471979 2148.001465
6.160000 2.200000 -5.960000 19.900629 33.517838 1519.480469
6.160000 2.200000 -5.920000 -0.933157 29.682705 881.933777
6.160000 2.200000 -5.880000 -12.471506 15.927593 409.226685
6.160000 2.200000 -5.840000 -11.944250 1.996310 146.650375
6.160000 2.200000 -5.800000 -4.569705 -4.024412 37.078094
6.200000 1.800000 -6.200000 -17.694824 14.677463 528.534729
6.200000 1.800000 -6.160000 -16.994614 2.138807 293.391388
6.200000 1.800000 -6.120000 -3.323824 0.533664 11.332601
6.200000 1.800000 -6.080000 4.336524 17.279600 317.390045
6.200000 1.800000 -6.040000 -10.436378 37.223396 1494.499146
6.200000 1.800000 -6.000000 -41.463181 36.688248 3065.222656
6.200000 1.800000 -5.960000 -63.360016 8.726062 4090.635742
6.200000 1.800000 -5.920000 -56.209724 -27.743359 3929.227051
6.200000 1.800000 -5.880000 -25.685427 -45.686676 2747.013672
6.200000 1.800000 -5.840000 3.058238 -36.118855 1313.924438
6.200000 1.800000 -5.800000 10.957695 -15.039646 346.262054
6.200000 1.840000 -6.200000 -20.153782 0.217810 406.222382
6.200000 1.840000 -6.160000 -12.034199 -8.216409 212.331314
6.200000 1.840000 -6.120000 -0.715106 -0.827622 1.196335
6.200000 1.840000 -6.080000 -4.518856 16.988974 309.045288
6.200000 1.840000 -6.040000 -27.129286 24.803984 1351.235840
6.200000 1.840000 -6.000000 -51.074997 8.526430 2681.355225
6.200000 1.840000 -5.960000 -54.136860 -23.421232 3479.353760
6.200000 1.840000 -5.920000 -31.798264 -47.122917 3231.698975
6.200000 1.840000 -5.880000 -1.722818 -46.362705 2152.468506
6.200000 1.840000 -5.840000 14.325710 -27.385418 955.187134
6.200000 1.840000 -5.800000 11.394386 -10.082347 231.485764
6.200000 1.880000 -6.200000 -10.014816 -11.347067 229.052460
6.200000 1.880000 -6.160000 -0.321517 -10.816931 117.109360
6.200000 1.880000 -6.120000 2.117845 0.873587 5.248419
6.200000 1.880000 -6.080000 -10.492149 10.590923 222.252853
6.200000 1.880000 -6.040000 -29.612122 4.241827 894.870850
6.200000 1.880000 -6.000000 -37.696644 -17.785557 1737.363037
6.200000 1.880000 -5.960000 -25.588099 -39.769623 2236.373779
6.200000 1.880000 -5.920000 -1.633849 -45.564316 2078.776367
6.200000 1.880000 -5.880000 16.864052 -33.519161 1407.930420
6.200000 1.880000 -5.840000 20.237110 -16.143255 670.145264
6.200000 1.880000 -5.800000 13.522055 -6.064566 219.624924
6.200000 1.920000 -6.200000 6.377558 -10.049754 141.670807
6.200000 1.920000 -6.160000 9.546767 -1.790854 94.347923
6.200000 1.920000 -6.120000 2.039595 6.161709 42.126602
6.200000 1.920000 -6.080000 -11.196709 3.722894 139.226227
6.200000 1.920000 -6.040000 -18.447014 -10.131960 442.948944
6.200000 1.920000 -6.000000 -12.385448 -25.906160 824.528503
6.200000 1.920000 -5.960000 3.252238 -32.412079 1061.119873
6.200000 1.920000 -5.920000 17.839497 -26.540281 1022.634155
6.200000 1.920000 -5.880000 23.691616 -14.390049 768.366211
6.200000 1.920000 -5.840000 21.269974 -3.989008 468.323975
6.200000 1.920000 -5.800000 15.607248 1.662382 246.349716
6.200000 1.960000 -6.200000 15.836229 5.217141 278.004730
6.200000 1.960000 -6.160000 7.669748 13.927437 252.798538
6.200000 1.960000 -6.120000 -4.905661 11.680687 160.503952
6.200000 1.960000 -6.080000 -10.815325 -0.283617 117.051689
6.200000 1.960000 -6.040000 -5.404164 -12.392672 182.783295
6.200000 1.960000 -6.000000 6.293144 -16.320047 305.947601
6.200000 1.960000 -5.960000 15.877204 -11.758877 390.356781
6.200000 1.960000 -5.920000 19.525936 -4.157803 398.549500
6.200000 1.960000 -5.880000 19.053463 2.304891 368.346985
6.200000 1.960000 -5.840000 16.711700 7.618807 337.327148
6.200000 1.960000 -5.800000 11.659082 12.279717 286.725647
6.200000 2.000000 -6.200000 8.825169 23.579124 633.858704
6.200000 2.000000 -6.160000 -8.518238 23.867331 642.209839
6.200000 2.000000 -6.120000 -18.322914 9.976585 435.261444
6.200000 2.000000 -6.080000 -13.147032 -5.207303 199.960449
6.200000 2.000000 -6.040000 0.354569 -9.845929 97.068039
6.200000 2.000000 -6.000000 10.330175 -3.789252 121.070953
6.200000 2.000000 -5.960000 12.021154 4.454410 164.349915
6.200000 2.000000 -5.920000 9.776386 8.882832 174.482422
6.200000 2.000000 -5.880000 8.459778 11.268230 198.540863
6.200000 2.000000 -5.840000 6.511250 15.259408 275.245911
6.200000 2.000000 -5.800000 -0.341384 18.428476 339.725281
6.200000 2.040000 -6.200000 -11.184658 29.944916 1021.794556
6.200000 2.040000 -6.160000 -29.635988 17.184723 1173.606445
6.200000 2.040000 -6.120000 -29.963753 -4.458969 917.708862
6.200000 2.040000 -6.080000 -14.232867 -16.678387 480.743103
6.200000 2.040000 -6.040000 2.450634 -12.598053 164.716537
6.200000 2.040000 -6.000000 8.463729 -0.468426 71.854126
6.200000 2.040000 -5.960000 5.187708 8.291256 95.657242
6.200000 2.040000 -5.920000 0.764895 11.079004 123.329407
6.200000 2.040000 -5.880000 -1.655442 12.771643 165.855347
6.200000 2.040000 -5.840000 -5.943032 15.372799 271.642578
6.200000 2.040000 -5.800000 -13.921128 13.715235 381.905457
6.200000 2.080000 -6.200000 -29.153500 18.155151 1179.536011
6.200000 2.080000 -6.160000 -39.927002 -5.100739 1620.183105
6.200000 2.080000 -6.120000 -28.141460 -27.532009 1549.953369
6.200000 2.080000 -6.080000 -4.841066 -32.376675 1071.684937
6.200000 2.080000 -6.040000 11.972221 -19.836462 536.819336
6.200000 2.080000 -6.000000 14.147855 -2.856344 208.320496
6.200000 2.080000 -5.960000 6.876084 7.669261 106.098106
6.200000 2.080000 -5.920000 -1.412829 10.919252 121.226158
6.200000 2.080000 -5.880000 -8.200346 10.914447 186.370819
6.200000 2.080000 -5.840000 -14.865728 8.200442 288.237122
6.200000 2.080000 -5.800000 -19.229404 0.453822 369.975952
6.200000 2.120000 -6.200000 -31.018013 -2.684652 969.324463
6.200000 2.120000 -6.160000 -30.100204 -28.788967 1734.826904
6.200000 2.120000 -6.120000 -8.375062 -45.261585 2118.752686
6.200000 2.120000 -6.080000 18.213886 -40.173141 1945.626953
6.200000 2.120000 -6.040000 32.305527 -19.008694 1404.977539
6.200000 2.120000 -6.000000 28.620878 3.266918 829.827393
6.200000 2.120000 -5.960000 14.049547 15.607295 440.977417
6.200000 2.120000 -5.920000 -1.646496 16.376759 270.909149
6.200000 2.120000 -5.880000 -12.669668 9.307827 247.156128
6.200000 2.120000 -5.840000 -16.709616 -1.467073 281.363556
6.200000 2.120000 -5.800000 -12.648808 -11.451278 291.124084
6.200000 2.160000 -6.200000 -16.373104 -15.550651 509.901306
6.200000 2.160000 -6.160000 -6.312637 -37.160763 1420.771606
6.200000 2.160000 -6.120000 19.802029 -44.079922 2335.159912
6.200000 2.160000 -6.080000 44.510395 -28.716814 2805.830566
6.200000 2.160000 -6.040000 51.613945 0.102527 2664.009766
6.200000 2.160000 -6.000000 37.781235 25.326054 2068.830811
6.200000 2.160000 -5.960000 12.729856 34.309826 1339.213379
6.200000 2.160000 -5.920000 -9.256148 25.661915 744.210144
6.200000 2.160000 -5.880000 -18.297853 7.558973 391.949524
6.200000 2.160000 -5.840000 -13.108344 -8.448039 243.198059
6.200000 2.160000 -5.800000 -0.318144 -13.723293 188.429993
6.200000 2.200000 -6.200000 0.819081 -10.592931 112.881073
6.200000 2.200000 -6.160000 13.868735 -25.222111 828.496643
6.200000 2.200000 -6.120000 38.449806 -23.418987 2026.836548
6.200000 2.200000 -6.080000 56.501133 -0.482638 3192.610840
6.200000 2.200000 -6.040000 52.687469 31.648846 3777.618896
6.200000 2.200000 -6.000000 26.712856 53.090889 3532.219238
6.200000 2.200000 -5.960000 -6.232488 50.900391 2629.693848
6.200000 2.200000 -5.920000 -26.790466 28.343861 1521.103516
6.200000 2.200000 -5.880000 -25.368288 1.799852 646.789490
6.200000 2.200000 -5.840000 -8.239449 -11.763596 206.270691
6.200000 2.200000 -5.800000 8.353803 -7.027099 119.166138
