#kx 	ky 	kz 	real 	imag 	intensity
0.800000 -7.200000 -5.200000 -58.814747 -0.013684 3459.174805
0.800000 -7.200000 -5.160000 -42.113335 -26.545366 2478.189453
0.800000 -7.200000 -5.120000 -14.050820 -25.993893 873.107971
0.800000 -7.200000 -5.080000 -3.242096 -3.396567 22.047853
0.800000 -7.200000 -5.040000 -18.645248 14.678674 563.108765
0.800000 -7.200000 -5.000000 -41.884407 8.591018 1828.109131
0.800000 -7.200000 -4.960000 -48.128960 -14.965434 2540.360840
0.800000 -7.200000 -4.920000 -31.973171 -32.112347 2053.486328
0.800000 -7.200000 -4.880000 -11.014828 -27.781776 893.153503
0.800000 -7.200000 -4.840000 -5.448198 -10.018730 130.057816
0.800000 -7.200000 -4.800000 -17.297157 1.138699 300.488281
0.800000 -7.160000 -5.200000 -42.528755 -37.213120 3193.511230
0.800000 -7.160000 -5.160000 -13.432158 -46.882111 2378.355225
0.800000 -7.160000 -5.120000 7.670518 -29.834457 948.931702
0.800000 -7.160000 -5.080000 3.187909 -6.689571 54.913128
0.800000 -7.160000 -5.040000 -17.824852 -1.760886 320.826050
0.800000 -7.160000 -5.000000 -30.978909 -18.564486 1304.332886
0.800000 -7.160000 -4.960000 -22.439472 -38.359756 1975.000854
0.800000 -7.160000 -4.920000 -1.672538 -41.353058 1712.872803
0.800000 -7.160000 -4.880000 10.821684 -26.680101 828.936646
0.800000 -7.160000 -4.840000 5.440086 -10.706979 144.233932
0.800000 -7.160000 -4.800000 -8.710326 -8.067560 140.955307
0.800000 -7.120000 -5.200000 -3.089716 -48.727997 2383.964111
0.800000 -7.120000 -5.160000 21.541218 -37.606270 1878.255615
0.800000 -7.120000 -5.120000 25.664577 -14.381945 865.510864
0.800000 -7.120000 -5.080000 10.455587 -1.717062 112.267609
0.800000 -7.120000 -5.040000 -4.872133 -9.084153 106.259521
0.800000 -7.120000 -5.000000 -4.000064 -24.900356 636.028259
0.800000 -7.120000 -4.960000 10.530815 -30.687252 1052.605469
0.800000 -7.120000 -4.920000 22.313332 -20.722124 927.291199
0.800000 -7.120000 -4.880000 19.670614 -6.208531 425.478943
0.800000 -7.120000 -4.840000 6.906754 -1.452793 49.813850
0.800000 -7.120000 -4.800000 -2.657511 -8.846708 85.326607
0.800000 -7.080000 -5.200000 29.343155 -26.937759 1586.663574
0.800000 -7.080000 -5.160000 36.469971 -5.810417 1363.819702
0.800000 -7.080000 -5.120000 25.490974 9.760501 745.057190
0.800000 -7.080000 -5.080000 10.432472 8.855056 187.248489
0.800000 -7.080000 -5.040000 6.423428 -1.907043 44.897232
0.800000 -7.080000 -5.000000 14.291636 -7.331351 257.999573
0.800000 -7.080000 -4.960000 21.597313 -0.678317 466.904053
0.800000 -7.080000 -4.920000 17.613636 9.998575 410.211670
0.800000 -7.080000 -4.880000 4.994601 12.064211 170.491211
0.800000 -7.080000 -4.840000 -4.206972 2.490781 23.902603
0.800000 -7.080000 -4.800000 -2.365380 -9.821739 102.061584
0.800000 -7.040000 -5.200000 32.734856 7.755496 1131.718506
0.800000 -7.040000 -5.160000 23.042181 23.398121 1078.414062
0.800000 -7.040000 -5.120000 7.874613 25.008703 687.444763
0.800000 -7.040000 -5.080000 0.916869 16.492161 272.832001
0.800000 -7.040000 -5.040000 4.609786 10.819210 138.305435
0.800000 -7.040000 -5.000000 8.780887 15.062556 303.984558
0.800000 -7.040000 -4.960000 3.199718 22.774670 528.923828
0.800000 -7.040000 -4.920000 -10.303312 21.795616 581.207153
0.800000 -7.040000 -4.880000 -19.605783 8.362527 454.318604
0.800000 -7.040000 -4.840000 -15.528854 -8.414488 311.948914
0.800000 -7.040000 -4.800000 -1.526288 -16.295237 267.864288
0.800000 -7.000000 -5.200000 12.164104 27.962772 929.882080
0.800000 -7.000000 -5.160000 -3.407005 30.854250 963.592407
0.800000 -7.000000 -5.120000 -13.210666 22.666256 688.280823
0.800000 -7.000000 -5.080000 -12.385555 14.458316 362.444885
0.800000 -7.000000 -5.040000 -8.488762 14.825579 291.856873
0.800000 -7.000000 -5.000000 -12.191751 20.203354 556.814270
0.800000 -7.000000 -4.960000 -24.427284 18.930695 955.063354
0.800000 -7.000000 -4.920000 -34.298481 4.700381 1198.479370
0.800000 -7.000000 -4.880000 -30.271290 -15.439458 1154.727905
0.800000 -7.000000 -4.840000 -12.502489 -27.415476 907.920593
0.800000 -7.000000 -4.800000 7.042233 -23.945068 622.959351
0.800000 -6.960000 -5.200000 -9.074477 25.081926 711.449158
0.800000 -6.960000 -5.160000 -21.284187 19.147453 819.641602
0.800000 -6.960000 -5.120000 -24.501148 8.658311 675.272644
0.800000 -6.960000 -5.080000 -20.942657 3.120991 448.335480
0.800000 -6.960000 -5.040000 -19.779440 4.282820 409.568817
0.800000 -6.960000 -5.000000 -26.116539 4.185204 699.589539
0.800000 -6.960000 -4.960000 -34.177738 -5.641354 1199.942627
0.800000 -6.960000 -4.920000 -32.607117 -23.643032 1622.217041
0.800000 -6.960000 -4.880000 -16.576572 -38.112793 1727.367676
0.800000 -6.960000 -4.840000 6.211658 -38.023148 1484.344482
0.800000 -6.960000 -4.800000 22.190811 -23.577686 1048.339355
0.800000 -6.920000 -5.200000 -14.966035 13.360079 402.473877
0.800000 -6.920000 -5.160000 -23.517387 5.230615 580.426819
0.800000 -6.920000 -5.120000 -24.166628 -5.238073 611.463318
0.800000 -6.920000 -5.080000 -19.862026 -11.265780 521.417908
0.800000 -6.920000 -5.040000 -17.337608 -12.843658 465.552216
0.800000 -6.920000 -5.000000 -18.705900 -16.118843 609.727783
0.800000 -6.920000 -4.960000 -18.376980 -25.386002 982.162476
0.800000 -6.920000 -4.920000 -9.138695 -36.648052 1426.595459
0.800000 -6.920000 -4.880000 9.014430 -40.266018 1702.612061
0.800000 -6.920000 -4.840000 27.039879 -30.394634 1654.988770
0.800000 -6.920000 -4.800000 34.428818 -11.287547 1312.752197
0.800000 -6.880000 -5.200000 -11.057249 10.269180 227.718811
0.800000 -6.880000 -5.160000 -20.157145 0.197476 406.349487
0.800000 -6.880000 -5.120000 -19.129528 -13.458792 547.077881
0.800000 -6.880000 -5.080000 -10.175379 -21.691193 574.046143
0.800000 -6.880000 -5.040000 -1.231076 -22.245218 496.365265
0.800000 -6.880000 -5.000000 3.005836 -20.443840 426.985626
0.800000 -6.880000 -4.960000 5.570581 -21.744513 503.855194
0.800000 -6.880000 -4.920000 12.486307 -24.724863 767.226685
0.800000 -6.880000 -4.880000 24.464733 -22.429571 1101.608887
0.800000 -6.880000 -4.840000 34.594589 -10.558204 1308.261353
0.800000 -6.880000 -4.800000 34.711342 6.754932 1250.506348
0.800000 -6.840000 -5.200000 -13.694371 16.360794 455.211365
0.800000 -6.840000 -5.160000 -22.517319 -0.878117 507.800720
0.800000 -6.840000 -5.120000 -14.475993 -18.905727 566.980896
0.800000 -6.840000 -5.080000 3.374480 -24.272657 600.549072
0.800000 -6.840000 -5.040000 16.868721 -15.951092 538.991089
0.800000 -6.840000 -5.000000 18.698431 -4.550319 370.336731
0.800000 -6.840000 -4.960000 14.130486 -0.209233 199.714432
0.800000 -6.840000 -4.920000 13.316836 -2.477771 183.477478
0.800000 -6.840000 -4.880000 19.456732 -2.473774 384.683990
0.800000 -6.840000 -4.840000 25.599962 6.086093 692.398621
0.800000 -6.840000 -4.800000 22.774145 19.445583 896.792358
0.800000 -6.800000 -5.200000 -28.295189 16.516996 1073.428955
0.800000 -6.800000 -5.160000 -28.567648 -9.230290 901.308777
0.800000 -6.800000 -5.120000 -8.219082 -24.979601 691.533752
0.800000 -6.800000 -5.080000 15.490694 -18.841747 594.973022
0.800000 -6.800000 -5.040000 24.083673 1.348849 581.842712
0.800000 -6.800000 -5.000000 14.708457 17.052891 507.139801
0.800000 -6.800000 -4.960000 0.636822 17.398594 303.116608
0.800000 -6.800000 -4.920000 -3.711730 8.085952 79.159554
0.800000 -6.800000 -4.880000 3.092045 3.070148 18.986553
0.800000 -6.800000 -4.840000 10.111538 9.214087 187.142593
0.800000 -6.800000 -4.800000 6.986936 20.105875 453.063477
0.840000 -7.200000 -5.200000 -48.465576 -35.128899 3582.951660
0.840000 -7.200000 -5.160000 -17.253830 -43.711113 2208.355957
0.840000 -7.200000 -5.120000 2.745836 -24.024141 584.698975
0.840000 -7.200000 -5.080000 -5.928771 -1.190795 36.568317
0.840000 -7.200000 -5.040000 -29.487860 -1.582262 872.037415
0.840000 -7.200000 -5.000000 -38.940102 -24.969511 2139.808105
0.840000 -7.200000 -4.960000 -21.598753 -45.978798 2580.555908
0.840000 -7.200000 -4.920000 6.109714 -42.182476 1816.689941
0.840000 -7.200000 -4.880000 17.367355 -17.642937 612.898254
0.840000 -7.200000 -4.840000 3.514575 2.923409 20.898552
0.840000 -7.200000 -4.800000 -18.541363 1.253870 345.354340
0.840000 -7.160000 -5.200000 -13.197975 -56.570908 3374.454102
0.840000 -7.160000 -5.160000 16.720528 -44.717216 2279.205566
0.840000 -7.160000 -5.120000 22.515486 -18.088951 834.157227
0.840000 -7.160000 -5.080000 5.736248 -4.004351 48.939365
0.840000 -7.160000 -5.040000 -10.140829 -13.312246 280.052307
0.840000 -7.160000 -5.000000 -5.964304 -30.910156 991.010681
0.840000 -7.160000 -4.960000 13.417156 -34.131355 1344.969482
0.840000 -7.160000 -4.920000 26.410553 -17.630022 1008.335022
0.840000 -7.160000 -4.880000 19.167145 2.234588 372.372803
0.840000 -7.160000 -4.840000 -0.296216 6.555550 43.062977
0.840000 -7.160000 -4.800000 -12.676578 -5.988261 196.554886
0.840000 -7.120000 -5.200000 26.688421 -43.289345 2586.239258
0.840000 -7.120000 -5.160000 41.478630 -18.961910 2080.030762
0.840000 -7.120000 -5.120000 33.923336 3.256284 1161.396118
0.840000 -7.120000 -5.080000 17.904127 8.502616 392.852234
0.840000 -7.120000 -5.040000 10.833342 1.513068 119.650665
0.840000 -7.120000 -5.000000 15.385838 -2.052814 240.938049
0.840000 -7.120000 -4.960000 19.359272 5.326036 403.148071
0.840000 -7.120000 -4.920000 11.987369 15.345707 379.187744
0.840000 -7.120000 -4.880000 -3.037122 15.026176 235.010086
0.840000 -7.120000 -4.840000 -12.291284 2.498733 157.319321
0.840000 -7.120000 -4.800000 -8.474209 -11.027832 193.425293
0.840000 -7.080000 -5.200000 41.280731 -6.132662 1741.708252
0.840000 -7.080000 -5.160000 39.200706 15.951021 1791.130493
0.840000 -7.080000 -5.120000 26.605354 28.563190 1523.700684
0.840000 -7.080000 -5.080000 14.706684 31.426569 1203.915771
0.840000 -7.080000 -5.040000 6.943878 32.170525 1083.160034
0.840000 -7.080000 -5.000000 -2.010790 34.304516 1180.843140
0.840000 -7.080000 -4.960000 -15.948806 32.367012 1301.987793
0.840000 -7.080000 -4.920000 -29.173651 19.857441 1245.419800
0.840000 -7.080000 -4.880000 -31.308605 -0.199923 980.268738
0.840000 -7.080000 -4.840000 -19.530407 -15.752960 629.592529
0.840000 -7.080000 -4.800000 -3.326927 -17.733730 325.553650
0.840000 -7.040000 -5.200000 23.750565 24.462513 1162.503906
0.840000 -7.040000 -5.160000 14.359996 35.812973 1488.778564
0.840000 -7.040000 -5.120000 3.554586 42.167553 1790.737671
0.840000 -7.040000 -5.080000 -8.665846 46.972694 2281.531006
0.840000 -7.040000 -5.040000 -26.187481 48.490562 3037.118896
0.840000 -7.040000 -5.000000 -47.753410 39.131824 3811.687988
0.840000 -7.040000 -4.960000 -62.770439 14.783899 4158.691406
0.840000 -7.040000 -4.920000 -59.211483 -16.463871 3777.058838
0.840000 -7.040000 -4.880000 -36.459667 -37.922432 2767.418213
0.840000 -7.040000 -4.840000 -8.556724 -38.617226 1564.507690
0.840000 -7.040000 -4.800000 7.460269 -23.828863 623.470337
0.840000 -7.000000 -5.200000 -4.776114 27.873508 799.743774
0.840000 -7.000000 -5.160000 -11.793019 31.570877 1135.795532
0.840000 -7.000000 -5.120000 -21.342728 37.032967 1826.952637
0.840000 -7.000000 -5.080000 -39.347977 40.038891 3151.375977
0.840000 -7.000000 -5.040000 -63.933338 29.836248 4977.673340
0.840000 -7.000000 -5.000000 -81.549194 0.598892 6650.629883
0.840000 -7.000000 -4.960000 -76.564903 -38.419861 7338.270508
0.840000 -7.000000 -4.920000 -46.533634 -66.667610 6609.949219
0.840000 -7.000000 -4.880000 -7.243130 -68.667107 4767.634277
0.840000 -7.000000 -4.840000 19.305447 -47.680428 2646.123291
0.840000 -7.000000 -4.800000 23.330059 -22.525814 1051.703857
0.840000 -6.960000 -5.200000 -18.185314 11.393965 460.528076
0.840000 -6.960000 -5.160000 -22.285601 15.041979 722.909119
0.840000 -6.960000 -5.120000 -35.156982 19.208399 1604.976074
0.840000 -6.960000 -5.080000 -56.820435 12.230288 3378.141602
0.840000 -6.960000 -5.040000 -74.536682 -14.044345 5752.960449
0.840000 -6.960000 -5.000000 -71.188934 -52.837257 7859.640137
0.840000 -6.960000 -4.960000 -40.969093 -83.882851 8714.798828
0.840000 -6.960000 -4.920000 2.841723 -88.668381 7870.156738
0.840000 -6.960000 -4.880000 36.989552 -66.056938 5731.746094
0.840000 -6.960000 -4.840000 46.769196 -33.126854 3284.746094
0.840000 -6.960000 -4.800000 36.691475 -10.058795 1447.443604
0.840000 -6.920000 -5.200000 -11.343514 -1.054076 129.786407
0.840000 -6.920000 -5.160000 -18.805946 3.881073 368.726318
0.840000 -6.920000 -5.120000 -35.133060 0.559933 1234.645386
0.840000 -6.920000 -5.080000 -50.024040 -19.164818 2869.694824
0.840000 -6.920000 -5.040000 -48.306145 -51.073650 4942.001465
0.840000 -6.920000 -5.000000 -23.094330 -78.561020 6705.182129
0.840000 -6.920000 -4.960000 16.372835 -84.422028 7395.148438
0.840000 -6.920000 -4.920000 50.315876 -64.642227 6710.305176
0.840000 -6.920000 -4.880000 63.316154 -31.626789 5009.188965
0.840000 -6.920000 -4.840000 55.286461 -3.777184 3070.859863
0.840000 -6.920000 -4.800000 38.953758 8.986332 1598.149414
0.840000 -6.880000 -5.200000 -1.982812 3.891130 19.072437
0.840000 -6.880000 -5.160000 -15.349810 3.052484 244.934311
0.840000 -6.880000 -5.120000 -27.237558 -11.615561 876.805847
0.840000 -6.880000 -5.080000 -25.544689 -35.632774 1922.225708
0.840000 -6.880000 -5.040000 -5.767534 -55.626198 3127.538330
0.840000 -6.880000 -5.000000 24.419949 -58.899254 4065.456055
0.840000 -6.880000 -4.960000 50.318405 -42.893265 4371.773926
0.840000 -6.880000 -4.920000 60.741547 -16.544262 3963.248047
0.840000 -6.880000 -4.880000 55.043625 7.120977 3080.508789
0.840000 -6.880000 -4.840000 41.312622 20.381123 2122.123047
0.840000 -6.880000 -4.800000 28.397137 24.351086 1399.372803
0.840000 -6.840000 -5.200000 -8.113087 15.637568 310.355713
0.840000 -6.840000 -5.160000 -19.939983 2.562668 404.170197
0.840000 -6.840000 -5.120000 -17.710918 -17.647028 625.094238
0.840000 -6.840000 -5.080000 -0.420572 -31.423027 987.583496
0.840000 -6.840000 -5.040000 21.984570 -29.840004 1373.747070
0.840000 -6.840000 -5.000000 37.148605 -15.036192 1606.105957
0.840000 -6.840000 -4.960000 39.708111 3.206387 1587.014893
0.840000 -6.840000 -4.920000 33.322018 16.318630 1376.654541
0.840000 -6.840000 -4.880000 24.981697 22.622145 1135.846680
0.840000 -6.840000 -4.840000 18.297348 25.625038 991.435547
0.840000 -6.840000 -4.800000 11.995235 28.304825 945.048767
0.840000 -6.800000 -5.200000 -26.734684 13.629466 900.505676
0.840000 -6.800000 -5.160000 -25.422855 -7.640878 704.704590
0.840000 -6.800000 -5.120000 -7.876938 -20.186583 469.544250
0.840000 -6.800000 -5.080000 12.166146 -15.027891 373.852631
0.840000 -6.800000 -5.040000 20.322620 1.686908 415.854584
0.840000 -6.800000 -5.000000 14.110223 15.746674 447.056122
0.840000 -6.800000 -4.960000 3.161828 18.561323 354.519867
0.840000 -6.800000 -4.920000 -1.830209 13.697174 190.962250
0.840000 -6.800000 -4.880000 0.659613 10.822513 117.561867
0.840000 -6.800000 -4.840000 3.414297 14.804734 230.837585
0.840000 -6.800000 -4.800000 -0.454445 21.383562 457.463226
0.880000 -7.200000 -5.200000 -17.820438 -54.085999 3242.863281
0.880000 -7.200000 -5.160000 11.208034 -39.322464 1671.876221
0.880000 -7.200000 -5.120000 11.962691 -11.367960 272.336487
0.880000 -7.200000 -5.080000 -10.820982 -1.884703 120.645752
0.880000 -7.200000 -5.040000 -27.115782 -20.979557 1175.407471
0.880000 -7.200000 -5.000000 -14.440044 -46.486919 2369.548584
0.880000 -7.200000 -4.960000 17.627182 -48.208572 2634.783936
0.880000 -7.200000 -4.920000 37.736721 -20.624607 1849.434448
0.880000 -7.200000 -4.880000 26.231461 11.321807 816.272827
0.880000 -7.200000 -4.840000 -4.665888 18.910625 379.382263
0.880000 -7.200000 -4.800000 -25.021280 -0.843155 626.775391
0.880000 -7.160000 -5.200000 20.441946 -51.680321 3088.728516
0.880000 -7.160000 -5.160000 36.637375 -23.751785 1906.444580
0.880000 -7.160000 -5.120000 25.391884 0.246696 644.808594
0.880000 -7.160000 -5.080000 5.524272 1.054277 31.629082
0.880000 -7.160000 -5.040000 1.248924 -13.751501 190.663589
0.880000 -7.160000 -5.000000 15.958385 -20.285067 666.153992
0.880000 -7.160000 -4.960000 29.934601 -5.865290 930.481934
0.880000 -7.160000 -4.920000 23.493958 17.078773 843.650574
0.880000 -7.160000 -4.880000 -0.834233 25.360449 643.848267
0.880000 -7.160000 -4.840000 -21.384121 10.714417 572.079346
0.880000 -7.160000 -4.800000 -21.230574 -11.878256 591.830200
0.880000 -7.120000 -5.200000 44.372532 -20.837580 2403.126465
0.880000 -7.120000 -5.160000 44.684277 7.406901 2051.546631
0.880000 -7.120000 -5.120000 29.184132 24.183954 1436.577148
0.880000 -7.120000 -5.080000 13.967821 26.228283 883.022888
0.880000 -7.120000 -5.040000 7.072666 24.182821 634.831421
0.880000 -7.120000 -5.000000 2.308727 26.937138 730.939575
0.880000 -7.120000 -4.960000 -9.477257 30.489342 1019.418396
0.880000 -7.120000 -4.920000 -26.373158 23.979813 1270.574951
0.880000 -7.120000 -4.880000 -35.780617 4.907383 1304.334961
0.880000 -7.120000 -4.840000 -28.858513 -15.311844 1067.266357
0.880000 -7.120000 -4.800000 -11.764561 -22.637089 650.842712
0.880000 -7.080000 -5.200000 36.923714 15.000479 1588.375000
0.880000 -7.080000 -5.160000 28.933781 35.225563 2078.003906
0.880000 -7.080000 -5.120000 13.553474 49.282997 2612.510498
0.880000 -7.080000 -5.080000 -6.572266 57.166634 3311.218506
0.880000 -7.080000 -5.040000 -31.470024 56.689644 4204.078125
0.880000 -7.080000 -5.000000 -57.245403 42.284374 5065.004395
0.880000 -7.080000 -4.960000 -72.804214 12.553871 5458.053223
0.880000 -7.080000 -4.920000 -67.188995 -22.425982 5017.286133
0.880000 -7.080000 -4.880000 -41.517624 -45.127029 3760.161865
0.880000 -7.080000 -4.840000 -11.593290 -44.874874 2148.158691
0.880000 -7.080000 -4.800000 4.317741 -28.307734 819.970642
0.880000 -7.040000 -5.200000 8.739222 29.079182 921.972778
0.880000 -7.040000 -5.160000 1.083894 43.414280 1885.974487
0.880000 -7.040000 -5.120000 -17.889240 58.952591 3795.432861
0.880000 -7.040000 -5.080000 -52.372879 63.798904 6813.218750
0.880000 -7.040000 -5.040000 -92.195862 42.947708 10344.583008
0.880000 -7.040000 -5.000000 -114.173172 -5.270142 13063.288086
0.880000 -7.040000 -4.960000 -99.571785 -60.760643 13606.395508
0.880000 -7.040000 -4.920000 -52.687546 -93.458908 11510.544922
0.880000 -7.040000 -4.880000 -0.913565 -87.381226 7636.312988
0.880000 -7.040000 -4.840000 26.624435 -54.459503 3674.697998
0.880000 -7.040000 -4.800000 22.868702 -23.741667 1086.644287
0.880000 -7.000000 -5.200000 -12.818926 16.831493 447.624023
0.880000 -7.000000 -5.160000 -19.792801 32.328709 1436.900391
0.880000 -7.000000 -5.120000 -48.746559 45.432213 4440.312988
0.880000 -7.000000 -5.080000 -93.654762 31.534008 9765.608398
0.880000 -7.000000 -5.040000 -125.159828 -20.160461 16071.426758
0.880000 -7.000000 -5.000000 -112.880348 -89.361450 20727.441406
0.880000 -7.000000 -4.960000 -54.389103 -135.676422 21366.265625
0.880000 -7.000000 -4.920000 18.166124 -131.163818 17533.955078
0.880000 -7.000000 -4.880000 62.926254 -84.436172 11089.180664
0.880000 -7.000000 -4.840000 62.598465 -32.643814 4984.186523
0.880000 -7.000000 -4.800000 35.947937 -8.473475 1364.053955
0.880000 -6.960000 -5.200000 -11.307959 -1.388168 129.796936
0.880000 -6.960000 -5.160000 -24.642551 16.641293 884.187988
0.880000 -6.960000 -5.120000 -62.738602 16.824022 4219.179688
0.880000 -6.960000 -5.080000 -100.021332 -22.591326 10514.634766
0.880000 -6.960000 -5.040000 -98.868759 -90.811096 18021.687500
0.880000 -6.960000 -5.000000 -44.679295 -146.525452 23465.947266
0.880000 -6.960000 -4.960000 36.297234 -150.823975 24065.359375
0.880000 -6.960000 -4.920000 96.047569 -101.237137 19474.093750
0.880000 -6.960000 -4.880000 104.465317 -33.974979 12067.300781
0.880000 -6.960000 -4.840000 72.418327 8.160361 5311.005371
0.880000 -6.960000 -4.800000 37.201462 11.388863 1513.654907
0.880000 -6.920000 -5.200000 3.421892 -3.096171 21.295624
0.880000 -6.920000 -5.160000 -20.660784 9.431011 515.811951
0.880000 -6.920000 -5.120000 -56.344307 -10.145615 3277.614502
0.880000 -6.920000 -5.080000 -67.676392 -63.708740 8638.897461
0.880000 -6.920000 -5.040000 -30.385933 -118.848831 15048.349609
0.880000 -6.920000 -5.000000 42.099041 -133.712280 19651.304688
0.880000 -6.920000 -4.960000 106.281448 -93.736145 20082.210938
0.880000 -6.920000 -4.920000 124.488464 -25.165926 16130.702148
0.880000 -6.920000 -4.880000 95.545044 27.998373 9912.764648
0.880000 -6.920000 -4.840000 51.728615 41.393860 4389.301270
0.880000 -6.920000 -4.800000 26.776260 26.708204 1430.296387
0.880000 -6.880000 -5.200000 8.008815 12.497128 220.319336
0.880000 -6.880000 -5.160000 -20.528790 9.733601 516.174194
0.880000 -6.880000 -5.120000 -39.190250 -24.027428 2113.192871
0.880000 -6.880000 -5.080000 -21.684925 -69.223793 5262.169434
0.880000 -6.880000 -5.040000 30.549240 -90.189407 9067.385742
0.880000 -6.880000 -5.000000 86.055046 -66.322037 11804.083984
0.880000 -6.880000 -4.960000 109.101532 -11.026279 12024.723633
0.880000 -6.880000 -4.920000 89.553284 39.895294 9611.424805
0.880000 -6.880000 -4.880000 48.952923 59.109730 5890.348633
0.880000 -6.880000 -4.840000 18.469212 48.486153 2692.018799
0.880000 -6.880000 -4.800000 11.342136 31.541632 1123.518555
0.880000 -6.840000 -5.200000 -7.843410 24.893372 681.199036
0.880000 -6.840000 -5.160000 -27.104429 6.522928 777.198669
0.880000 -6.840000 -5.120000 -23.272488 -25.428377 1188.211060
0.880000 -6.840000 -5.080000 7.688713 -45.737701 2151.053467
0.880000 -6.840000 -5.040000 46.549767 -35.825748 3450.365234
0.880000 -6.840000 -5.000000 66.668503 -0.558952 4445.001953
0.880000 -6.840000 -4.960000 56.619915 36.225838 4518.125977
0.880000 -6.840000 -4.920000 28.318584 52.732193 3582.626221
0.880000 -6.840000 -4.880000 4.053917 46.534340 2181.879150
0.880000 -6.840000 -4.840000 -3.788776 32.708298 1084.187622
0.880000 -6.840000 -4.800000 -0.894590 26.779949 717.965942
0.880000 -6.800000 -5.200000 -29.811546 15.846821 1139.849976
0.880000 -6.800000 -5.160000 -30.589436 -6.174798 973.841675
0.880000 -6.800000 -5.120000 -13.131008 -21.578972 638.075439
0.880000 -6.800000 -5.080000 10.009642 -18.192184 431.148499
0.880000 -6.800000 -5.040000 21.945011 0.564945 481.902679
0.880000 -6.800000 -5.000000 16.293272 19.562115 648.147034
0.880000 -6.800000 -4.960000 1.402512 26.168053 686.734009
0.880000 -6.800000 -4.920000 -9.184093 20.624720 509.726624
0.880000 -6.800000 -4.880000 -9.613934 13.246134 267.887787
0.880000 -6.800000 -4.840000 -5.408209 12.801015 193.114700
0.880000 -6.800000 -4.800000 -5.780108 18.322084 369.108459
0.920000 -7.200000 -5.200000 14.898962 -47.965702 2522.687500
0.920000 -7.200000 -5.160000 26.468098 -19.303635 1073.190430
0.920000 -7.200000 -5.120000 8.940382 0.957329 80.846909
0.920000 -7.200000 -5.080000 -13.860762 -7.890896 254.386948
0.920000 -7.200000 -5.040000 -12.419430 -33.968815 1308.122559
0.920000 -7.200000 -5.000000 16.118408 -45.068581 2290.979980
0.920000 -7.200000 -4.960000 43.871998 -23.404835 2472.538574
0.920000 -7.200000 -4.920000 41.355640 14.531448 1921.451904
0.920000 -7.200000 -4.880000 8.696977 34.594532 1272.419067
0.920000 -7.200000 -4.840000 -24.539438 20.210308 1010.640564
0.920000 -7.200000 -4.800000 -30.190598 -11.533887 1044.502686
0.920000 -7.160000 -5.200000 40.036446 -28.374292 2408.017578
0.920000 -7.160000 -5.160000 37.183590 1.315063 1384.348755
0.920000 -7.160000 -5.120000 16.575272 13.505745 457.144775
0.920000 -7.160000 -5.080000 2.268898 4.800915 28.196680
0.920000 -7.160000 -5.040000 7.097389 -5.795072 83.955788
0.920000 -7.160000 -5.000000 19.416439 0.480812 377.229279
0.920000 -7.160000 -4.960000 17.428936 20.465538 722.606079
0.920000 -7.160000 -4.920000 -5.247411 32.423470 1078.816650
0.920000 -7.160000 -4.880000 -31.347368 20.403446 1398.958130
0.920000 -7.160000 -4.840000 -38.153908 -7.614109 1513.695312
0.920000 -7.160000 -4.800000 -21.764622 -27.898783 1252.040894
0.920000 -7.120000 -5.200000 43.212814 3.678497 1880.878662
0.920000 -7.120000 -5.160000 32.249374 27.180475 1778.800293
0.920000 -7.120000 -5.120000 12.947799 37.922157 1605.735474
0.920000 -7.120000 -5.080000 -4.318180 38.528938 1503.125854
0.920000 -7.120000 -5.040000 -18.354076 35.890724 1625.016113
0.920000 -7.120000 -5.000000 -33.520367 30.508316 2054.372314
0.920000 -7.120000 -4.960000 -49.039696 16.557686 2679.048828
0.920000 -7.120000 -4.920000 -55.707584 -7.699577 3162.618408
0.920000 -7.120000 -4.880000 -45.303570 -32.713951 3122.615967
0.920000 -7.120000 -4.840000 -21.969952 -44.116684 2428.960693
0.920000 -7.120000 -4.800000 -1.234811 -37.049850 1374.216187
0.920000 -7.080000 -5.200000 23.368908 25.427843 1192.681030
0.920000 -7.080000 -5.160000 11.369213 44.765968 2133.250977
0.920000 -7.080000 -5.120000 -12.878998 59.593193 3717.217285
0.920000 -7.080000 -5.080000 -48.372356 60.589619 6010.986328
0.920000 -7.080000 -5.040000 -84.894928 38.388187 8680.801758
0.920000 -7.080000 -5.000000 -104.225639 -6.209991 10901.548828
0.920000 -7.080000 -4.960000 -92.033966 -56.485058 11660.812500
0.920000 -7.080000 -4.920000 -51.584549 -87.869621 10382.036133
0.920000 -7.080000 -4.880000 -4.918781 -86.005577 7421.153809
0.920000 -7.080000 -4.840000 22.699459 -58.919548 3986.778564
0.920000 -7.080000 -4.800000 22.554680 -30.638088 1447.406006
0.920000 -7.040000 -5.200000 -0.657026 23.748024 564.400330
0.920000 -7.040000 -5.160000 -14.314505 45.068069 2236.035889
0.920000 -7.040000 -5.120000 -53.142769 58.282738 6221.031250
0.920000 -7.040000 -5.080000 -106.114784 37.709663 12682.366211
0.920000 -7.040000 -5.040000 -139.460510 -24.370953 20043.177734
0.920000 -7.040000 -5.000000 -122.018044 -102.236015 25340.605469
0.920000 -7.040000 -4.960000 -54.812916 -151.282730 25890.919922
0.920000 -7.040000 -4.920000 24.760349 -143.301727 21148.458984
0.920000 -7.040000 -4.880000 71.362457 -90.460785 13275.753906
0.920000 -7.040000 -4.840000 68.072502 -34.483398 5822.970703
0.920000 -7.040000 -4.800000 37.047997 -10.507183 1482.954956
0.920000 -7.000000 -5.200000 -8.368568 7.931989 132.949387
0.920000 -7.000000 -5.160000 -31.108923 31.662878 1970.302979
0.920000 -7.000000 -5.120000 -84.441833 28.363348 7934.902832
0.920000 -7.000000 -5.080000 -132.619202 -27.687359 18354.443359
0.920000 -7.000000 -5.040000 -127.168213 -118.665909 30253.351562
0.920000 -7.000000 -5.000000 -52.554966 -188.749847 38388.527344
0.920000 -7.000000 -4.960000 53.110634 -188.829529 38477.328125
0.920000 -7.000000 -4.920000 126.051483 -119.891144 30262.863281
0.920000 -7.000000 -4.880000 129.593750 -32.767532 17868.250000
0.920000 -7.000000 -4.840000 82.290314 16.405077 7040.822266
0.920000 -7.000000 -4.800000 35.730202 12.612908 1435.732788
0.920000 -6.960000 -5.200000 1.948531 -0.280666 3.875547
0.920000 -6.960000 -5.160000 -34.637913 16.891901 1485.121338
0.920000 -6.960000 -5.120000 -87.791641 -13.753353 7896.526855
0.920000 -6.960000 -5.080000 -103.546783 -94.815979 19712.007812
0.920000 -6.960000 -5.040000 -45.669983 -176.700546 33308.832031
0.920000 -6.960000 -5.000000 64.040977 -195.721741 42408.246094
0.920000 -6.960000 -4.960000 157.766052 -131.221466 42109.199219
0.920000 -6.960000 -4.920000 178.214478 -26.239305 32448.902344
0.920000 -6.960000 -4.880000 126.603081 49.710571 18499.480469
0.920000 -6.960000 -4.840000 56.628960 60.271217 6839.458984
0.920000 -6.960000 -4.800000 22.338482 27.541082 1257.519043
0.920000 -6.920000 -5.200000 12.195629 10.308019 254.988617
0.920000 -6.920000 -5.160000 -32.258465 9.513714 1131.119263
0.920000 -6.920000 -5.120000 -65.293182 -43.557545 6160.459473
0.920000 -6.920000 -5.080000 -38.808556 -120.048927 15917.849609
0.920000 -6.920000 -5.040000 49.569763 -157.752136 27342.898438
0.920000 -6.920000 -5.000000 146.210419 -116.676804 34990.960938
0.920000 -6.920000 -4.960000 185.199615 -18.216135 34630.726562
0.920000 -6.920000 -4.920000 145.667877 71.773323 26370.541016
0.920000 -6.920000 -4.880000 67.610168 100.508308 14673.054688
0.920000 -6.920000 -4.840000 12.123825 70.938919 5179.317383
0.920000 -6.920000 -4.800000 6.584310 30.381401 966.382690
0.920000 -6.880000 -5.200000 4.350124 28.486387 830.397827
0.920000 -6.880000 -5.160000 -33.369820 6.924367 1161.491821
0.920000 -6.880000 -5.120000 -36.450455 -49.508858 3779.762695
0.920000 -6.880000 -5.080000 16.082901 -95.136292 9309.574219
0.920000 -6.880000 -5.040000 95.176056 -83.857620 16090.582031
0.920000 -6.880000 -5.000000 143.524658 -13.655552 20785.802734
0.920000 -6.880000 -4.960000 126.137421 68.813171 20645.900391
0.920000 -6.880000 -4.920000 60.849632 109.186386 15624.344727
0.920000 -6.880000 -4.880000 -0.418346 92.210739 8502.995117
0.920000 -6.880000 -4.840000 -19.851082 49.751095 2869.236816
0.920000 -6.880000 -4.800000 -3.802273 25.273245 653.194153
0.920000 -6.840000 -5.200000 -19.639608 32.704655 1455.308716
0.920000 -6.840000 -5.160000 -38.305962 0.326530 1467.453247
0.920000 -6.840000 -5.120000 -18.948463 -39.925713 1953.106812
0.920000 -6.840000 -5.080000 31.206524 -50.384796 3512.474854
0.920000 -6.840000 -5.040000 74.794960 -15.689812 5840.456543
0.920000 -6.840000 -5.000000 77.426422 41.203819 7692.605957
0.920000 -6.840000 -4.960000 38.719265 79.308426 7789.008301
0.920000 -6.840000 -4.920000 -8.957474 76.275352 5898.165527
0.920000 -6.840000 -4.880000 -31.722895 45.799973 3103.979492
0.920000 -6.840000 -4.840000 -23.800097 20.392551 982.300720
0.920000 -6.840000 -4.800000 -7.552068 18.993196 417.775238
0.920000 -6.800000 -5.200000 -39.210262 14.393379 1744.614014
0.920000 -6.800000 -5.160000 -38.357773 -13.072519 1642.209473
0.920000 -6.800000 -5.120000 -14.516733 -30.394405 1134.555420
0.920000 -6.800000 -5.080000 14.416338 -22.346519 707.197754
0.920000 -6.800000 -5.040000 25.841232 4.410294 687.219971
0.920000 -6.800000 -5.000000 13.140614 27.902519 951.226318
0.920000 -6.800000 -4.960000 -9.575012 31.598524 1090.147583
0.920000 -6.800000 -4.920000 -22.461571 18.546726 848.503174
0.920000 -6.800000 -4.880000 -18.801544 5.671177 385.660339
0.920000 -6.800000 -4.840000 -9.106125 5.648369 114.825577
0.920000 -6.800000 -4.800000 -8.092592 15.243358 297.850006
0.960000 -7.200000 -5.200000 31.751713 -24.740231 1620.250244
0.960000 -7.200000 -5.160000 23.651720 0.373730 559.543518
0.960000 -7.200000 -5.120000 0.573107 3.758936 14.458051
0.960000 -7.200000 -5.080000 -9.658960 -15.854973 344.675659
0.960000 -7.200000 -5.040000 7.201942 -33.692558 1187.056396
0.960000 -7.200000 -5.000000 35.190918 -24.854656 1856.154663
0.960000 -7.200000 -4.960000 43.680046 8.183014 1974.908081
0.960000 -7.200000 -4.920000 19.572815 36.470974 1713.227051
0.960000 -7.200000 -4.880000 -18.094280 33.750534 1466.501465
0.960000 -7.200000 -4.840000 -37.044811 3.292778 1383.160400
0.960000 -7.200000 -4.800000 -24.212349 -26.001177 1262.299072
0.960000 -7.160000 -5.200000 39.141342 -3.433712 1543.835083
0.960000 -7.160000 -5.160000 24.478670 15.725302 846.490356
0.960000 -7.160000 -5.120000 5.476896 16.164433 291.285278
0.960000 -7.160000 -5.080000 -1.085617 6.049585 37.776051
0.960000 -7.160000 -5.040000 4.415180 2.946857 28.177784
0.960000 -7.160000 -5.000000 6.002529 13.042648 206.141022
0.960000 -7.160000 -4.960000 -8.438417 23.484810 622.743225
0.960000 -7.160000 -4.920000 -31.629316 16.767815 1281.573242
0.960000 -7.160000 -4.880000 -43.171486 -8.612964 1937.960327
0.960000 -7.160000 -4.840000 -31.257505 -34.529533 2169.320312
0.960000 -7.160000 -4.800000 -5.958345 -41.246273 1736.756836
0.960000 -7.120000 -5.200000 30.418770 17.303394 1224.708984
0.960000 -7.120000 -5.160000 15.256333 33.448486 1351.557007
0.960000 -7.120000 -5.120000 -5.972015 39.530891 1598.356323
0.960000 -7.120000 -5.080000 -27.745697 35.567329 2034.858643
0.960000 -7.120000 -5.040000 -46.973633 22.440094 2710.080078
0.960000 -7.120000 -5.000000 -59.905182 0.218628 3588.678711
0.960000 -7.120000 -4.960000 -60.409500 -28.275673 4448.821289
0.960000 -7.120000 -4.920000 -44.365818 -54.032753 4887.864258
0.960000 -7.120000 -4.880000 -16.373913 -65.368134 4541.097656
0.960000 -7.120000 -4.840000 10.014261 -57.421635 3397.529541
0.960000 -7.120000 -4.800000 21.698870 -38.129501 1924.699829
0.960000 -7.080000 -5.200000 12.252490 25.055893 777.921326
0.960000 -7.080000 -5.160000 -5.414395 44.267582 1988.934448
0.960000 -7.080000 -5.120000 -41.704346 51.756245 4417.960938
0.960000 -7.080000 -5.080000 -84.895401 30.966064 8166.125977
0.960000 -7.080000 -5.040000 -110.004608 -20.377357 12516.250000
0.960000 -7.080000 -5.000000 -96.038506 -82.051956 15955.917969
0.960000 -7.080000 -4.960000 -44.673599 -122.012527 16882.787109
0.960000 -7.080000 -4.920000 17.472672 -119.709381 14635.629883
0.960000 -7.080000 -4.880000 57.494453 -82.292351 10077.642578
0.960000 -7.080000 -4.840000 60.807285 -38.566692 5184.915527
0.960000 -7.080000 -4.800000 40.190392 -15.428697 1853.312256
0.960000 -7.040000 -5.200000 -0.930598 18.733110 351.795441
0.960000 -7.040000 -5.160000 -29.463266 40.419678 2501.834473
0.960000 -7.040000 -5.120000 -83.924667 31.955931 8064.531250
0.960000 -7.040000 -5.080000 -128.505951 -26.804062 17232.236328
0.960000 -7.040000 -5.040000 -119.480019 -115.385315 27589.246094
0.960000 -7.040000 -5.000000 -45.785973 -180.816315 34790.894531
0.960000 -7.040000 -4.960000 54.882172 -179.150192 35106.843750
0.960000 -7.040000 -4.920000 123.345078 -113.356117 28063.617188
0.960000 -7.040000 -4.880000 126.648529 -31.254490 17016.693359
0.960000 -7.040000 -4.840000 82.391937 15.402717 7025.674805
0.960000 -7.040000 -4.800000 38.082703 12.526312 1607.200684
0.960000 -7.000000 -5.200000 -0.873507 10.245333 105.729858
0.960000 -7.000000 -5.160000 -45.058292 24.117035 2611.881104
0.960000 -7.000000 -5.120000 -102.494629 -15.644899 10749.912109
0.960000 -7.000000 -5.080000 -114.999100 -107.782639 24841.890625
0.960000 -7.000000 -5.040000 -46.488701 -196.246796 40674.003906
0.960000 -7.000000 -5.000000 75.809807 -212.884583 51066.968750
0.960000 -7.000000 -4.960000 176.839844 -138.318085 50404.222656
0.960000 -7.000000 -4.920000 195.572403 -22.005047 38732.789062
0.960000 -7.000000 -4.880000 135.712524 59.724842 21984.945312
0.960000 -7.000000 -4.840000 57.442993 68.268005 7960.217773
0.960000 -7.000000 -4.800000 20.122107 29.084509 1250.807861
0.960000 -6.960000 -5.200000 5.809438 12.546346 191.160370
0.960000 -6.960000 -5.160000 -47.409546 6.205894 2286.178223
0.960000 -6.960000 -5.120000 -83.507339 -62.287724 10853.236328
0.960000 -6.960000 -5.080000 -45.385338 -156.059525 26414.404297
0.960000 -6.960000 -5.040000 67.489342 -198.665283 44022.707031
0.960000 -6.960000 -5.000000 187.160889 -142.428680 55315.128906
0.960000 -6.960000 -4.960000 231.812927 -16.311197 54003.289062
0.960000 -6.960000 -4.920000 177.084137 95.900566 40555.710938
0.960000 -6.960000 -4.880000 75.326591 128.035553 22067.199219
0.960000 -6.960000 -4.840000 4.990826 85.189804 7282.210938
0.960000 -6.960000 -4.800000 1.009178 29.040758 844.384094
0.960000 -6.920000 -5.200000 4.188000 25.602173 673.010620
0.960000 -6.920000 -5.160000 -42.625904 -4.385249 1836.198120
0.960000 -6.920000 -5.120000 -42.855602 -80.507484 8318.057617
0.960000 -6.920000 -5.080000 32.926445 -140.754227 20895.902344
0.960000 -6.920000 -5.040000 144.706024 -120.658379 35498.277344
0.960000 -6.920000 -5.000000 211.281067 -17.035725 44929.902344
0.960000 -6.920000 -4.960000 182.003601 103.043991 43743.375000
0.960000 -6.920000 -4.920000 82.650398 159.875198 32391.166016
0.960000 -6.920000 -4.880000 -9.723053 130.210175 17049.226562
0.960000 -6.920000 -4.840000 -37.372849 61.406086 5167.437012
0.960000 -6.920000 -4.800000 -8.450751 20.235895 480.906647
0.960000 -6.880000 -5.200000 -12.952871 35.394489 1420.546753
0.960000 -6.880000 -5.160000 -39.956726 -8.874787 1675.301758
0.960000 -6.880000 -5.120000 -10.335651 -68.431412 4789.683594
0.960000 -6.880000 -5.080000 69.473427 -83.086823 11729.976562
0.960000 -6.880000 -5.040000 140.692688 -23.730476 20357.566406
0.960000 -6.880000 -5.000000 143.571747 74.971970 26233.642578
0.960000 -6.880000 -4.960000 73.169113 142.755112 25732.740234
0.960000 -6.880000 -4.920000 -16.001404 136.612549 18919.033203
0.960000 -6.880000 -4.880000 -60.976997 76.871758 9627.460938
0.960000 -6.880000 -4.840000 -45.944855 22.558380 2619.810303
0.960000 -6.880000 -4.800000 -8.892915 13.529449 262.129944
0.960000 -6.840000 -5.200000 -36.217861 27.935564 2092.129395
0.960000 -6.840000 -5.160000 -41.109756 -15.165079 1919.991699
0.960000 -6.840000 -5.120000 -1.550419 -47.676582 2275.460205
0.960000 -6.840000 -5.080000 54.881886 -32.834194 4090.105469
0.960000 -6.840000 -5.040000 79.932014 25.391136 7033.836914
0.960000 -6.840000 -5.000000 50.111481 83.203743 9434.023438
0.960000 -6.840000 -4.960000 -10.884140 97.055984 9538.329102
0.960000 -6.840000 -4.920000 -55.188763 63.154373 7034.274414
0.960000 -6.840000 -4.880000 -55.604851 17.585323 3401.143066
0.960000 -6.840000 -4.840000 -27.452618 -1.037704 754.723083
0.960000 -6.840000 -4.800000 -7.973798 12.647609 223.543457
0.960000 -6.800000 -5.200000 -47.822075 4.225343 2304.804443
0.960000 -6.800000 -5.160000 -39.046585 -26.792248 2242.460449
0.960000 -6.800000 -5.120000 -7.060272 -38.909588 1563.803467
0.960000 -6.800000 -5.080000 22.103588 -20.509556 909.210449
0.960000 -6.800000 -5.040000 24.768044 12.511490 769.993408
0.960000 -6.800000 -5.000000 1.837051 32.358208 1050.428345
0.960000 -6.800000 -4.960000 -23.702583 25.943687 1234.887329
0.960000 -6.800000 -4.920000 -30.460209 5.512917 958.216614
0.960000 -6.800000 -4.880000 -18.656460 -6.261284 387.267181
0.960000 -6.800000 -4.840000 -6.843378 0.178272 46.863605
0.960000 -6.800000 -4.800000 -10.791148 13.393709 295.840332
1.000000 -7.200000 -5.200000 27.954536 -2.165405 786.145081
1.000000 -7.200000 -5.160000 12.039683 7.786722 205.587021
1.000000 -7.200000 -5.120000 -2.337572 -1.403208 7.433236
1.000000 -7.200000 -5.080000 1.660194 -17.921871 323.949738
1.000000 -7.200000 -5.040000 21.240726 -20.305153 863.467651
1.000000 -7.200000 -5.000000 34.974255 -0.484520 1223.433228
1.000000 -7.200000 -4.960000 24.434168 25.791077 1262.208252
1.000000 -7.200000 -4.920000 -5.634144 33.546196 1157.090820
1.000000 -7.200000 -4.880000 -30.538776 13.907790 1126.043457
1.000000 -7.200000 -4.840000 -29.811728 -16.341145 1155.772095
1.000000 -7.200000 -4.800000 -7.314314 -31.403458 1039.676270
1.000000 -7.160000 -5.200000 26.151299 9.380730 771.888550
1.000000 -7.160000 -5.160000 12.343404 16.680920 430.612701
1.000000 -7.160000 -5.120000 0.594465 13.160604 173.554901
1.000000 -7.160000 -5.080000 -2.977505 7.141973 59.873322
1.000000 -7.160000 -5.040000 -3.412390 6.669048 56.120605
1.000000 -7.160000 -5.000000 -9.819189 9.381233 184.424011
1.000000 -7.160000 -4.960000 -22.887840 4.873688 547.606018
1.000000 -7.160000 -4.920000 -31.718117 -12.388922 1159.524292
1.000000 -7.160000 -4.880000 -24.756584 -34.191917 1781.975586
1.000000 -7.160000 -4.840000 -3.357615 -44.787994 2017.238037
1.000000 -7.160000 -4.800000 17.441418 -36.606705 1644.253906
1.000000 -7.120000 -5.200000 18.682316 18.746346 700.454407
1.000000 -7.120000 -5.160000 3.930092 30.728622 959.693848
1.000000 -7.120000 -5.120000 -19.414423 32.608780 1440.252319
1.000000 -7.120000 -5.080000 -43.333389 19.081360 2241.880859
1.000000 -7.120000 -5.040000 -57.090042 -8.504837 3331.605225
1.000000 -7.120000 -5.000000 -52.672333 -41.318668 4481.606934
1.000000 -7.120000 -4.960000 -29.814026 -66.478935 5308.324707
1.000000 -7.120000 -4.920000 2.598492 -73.679604 5435.436035
1.000000 -7.120000 -4.880000 30.655449 -61.419197 4712.074219
1.000000 -7.120000 -4.840000 43.395641 -38.405487 3358.163086
1.000000 -7.120000 -4.800000 39.612206 -18.145071 1898.370361
1.000000 -7.080000 -5.200000 8.558626 22.444853 577.021484
1.000000 -7.080000 -5.160000 -17.210798 38.566505 1783.586914
1.000000 -7.080000 -5.120000 -59.717995 29.323818 4426.125000
1.000000 -7.080000 -5.080000 -91.732147 -16.294346 8680.292969
1.000000 -7.080000 -5.040000 -84.049973 -81.182266 13654.958984
1.000000 -7.080000 -5.000000 -31.275013 -128.481857 17485.714844
1.000000 -7.080000 -4.960000 40.113159 -129.250183 18314.675781
1.000000 -7.080000 -4.920000 90.622818 -85.643188 15547.250977
1.000000 -7.080000 -4.880000 97.818344 -28.607019 10386.790039
1.000000 -7.080000 -4.840000 71.289360 7.720320 5141.776367
1.000000 -7.080000 -4.800000 40.477512 11.751483 1776.526367
1.000000 -7.040000 -5.200000 0.825984 21.074612 444.821503
1.000000 -7.040000 -5.160000 -41.760403 29.730141 2627.812500
1.000000 -7.040000 -5.120000 -91.225616 -9.505779 8412.472656
1.000000 -7.040000 -5.080000 -98.599167 -91.092690 18019.673828
1.000000 -7.040000 -5.040000 -36.931602 -165.778320 28846.394531
1.000000 -7.040000 -5.000000 67.887840 -177.854950 36241.140625
1.000000 -7.040000 -4.960000 152.819595 -113.774467 36298.457031
1.000000 -7.040000 -4.920000 168.589172 -15.800777 28671.972656
1.000000 -7.040000 -4.880000 119.164017 53.448223 17056.775391
1.000000 -7.040000 -4.840000 53.662987 62.546589 6791.791992
1.000000 -7.040000 -4.800000 20.365452 31.425087 1402.287720
1.000000 -7.000000 -5.200000 -2.475819 19.599623 390.274872
1.000000 -7.000000 -5.160000 -54.740082 6.940395 3044.645752
1.000000 -7.000000 -5.120000 -85.236008 -64.006226 11361.974609
1.000000 -7.000000 -5.080000 -42.375858 -154.375702 25627.570312
1.000000 -7.000000 -5.040000 69.983482 -191.362244 41517.195312
1.000000 -7.000000 -5.000000 184.757355 -132.634369 51727.156250
1.000000 -7.000000 -4.960000 224.856964 -8.949707 50640.753906
1.000000 -7.000000 -4.920000 169.432983 98.878662 38484.523438
1.000000 -7.000000 -4.880000 69.902458 128.654663 21438.375000
1.000000 -7.000000 -4.840000 1.188625 86.141296 7421.735352
1.000000 -7.000000 -4.800000 -3.442037 30.224613 925.374817
1.000000 -6.960000 -5.200000 -5.284194 22.238276 522.463623
1.000000 -6.960000 -5.160000 -50.451031 -15.431827 2783.447754
1.000000 -6.960000 -5.120000 -42.990269 -97.624680 11378.741211
1.000000 -6.960000 -5.080000 44.338612 -157.558472 26790.583984
1.000000 -6.960000 -5.040000 165.735580 -128.851028 44070.871094
1.000000 -6.960000 -5.000000 234.022888 -11.650542 54902.445312
1.000000 -6.960000 -4.960000 196.933136 119.775223 53128.765625
1.000000 -6.960000 -4.920000 84.723541 179.518890 39405.109375
1.000000 -6.960000 -4.880000 -17.935244 143.658951 20959.568359
1.000000 -6.960000 -4.840000 -48.079704 64.738266 6502.701172
1.000000 -6.960000 -4.800000 -14.493790 16.283680 475.228180
1.000000 -6.920000 -5.200000 -13.882132 26.802048 911.063354
1.000000 -6.920000 -5.160000 -37.863396 -25.686857 2093.451416
1.000000 -6.920000 -5.120000 4.201385 -91.512695 8392.224609
1.000000 -6.920000 -5.080000 102.246468 -100.781624 20611.275391
1.000000 -6.920000 -5.040000 185.202179 -21.303383 34753.683594
1.000000 -6.920000 -5.000000 182.057861 102.855904 43724.402344
1.000000 -6.920000 -4.960000 88.750473 185.300049 42212.757812
1.000000 -6.920000 -4.920000 -26.114391 173.579285 30811.728516
1.000000 -6.920000 -4.880000 -83.489670 93.684998 15747.404297
1.000000 -6.920000 -4.840000 -62.835274 20.399246 4364.400879
1.000000 -6.920000 -4.800000 -11.567917 5.562466 164.757721
1.000000 -6.880000 -5.200000 -29.362328 25.327833 1503.645508
1.000000 -6.880000 -5.160000 -30.212902 -25.996731 1588.649414
1.000000 -6.880000 -5.120000 25.143265 -61.251469 4383.926270
1.000000 -6.880000 -5.080000 99.599121 -32.117561 10951.523438
1.000000 -6.880000 -5.040000 127.346451 54.973503 19239.203125
1.000000 -6.880000 -5.000000 76.192711 138.055054 24864.527344
1.000000 -6.880000 -4.960000 -19.322403 154.551361 24259.478516
1.000000 -6.880000 -4.920000 -88.649971 98.450073 17551.234375
1.000000 -6.880000 -4.880000 -89.742783 23.074738 8586.210938
1.000000 -6.880000 -4.840000 -43.445763 -11.872347 2028.486938
1.000000 -6.880000 -4.800000 -6.085882 5.436232 66.590576
1.000000 -6.840000 -5.200000 -44.230991 11.746589 2094.363037
1.000000 -6.840000 -5.160000 -30.543350 -28.019751 1718.002686
1.000000 -6.840000 -5.120000 17.354294 -38.713951 1799.941528
1.000000 -6.840000 -5.080000 58.043709 -0.728508 3369.602783
1.000000 -6.840000 -5.040000 51.227112 59.418930 6154.826172
1.000000 -6.840000 -5.000000 -1.969559 92.138405 8493.364258
1.000000 -6.840000 -4.960000 -59.007687 71.762688 8631.790039
1.000000 -6.840000 -4.920000 -76.582603 19.992321 6264.587891
1.000000 -6.840000 -4.880000 -50.604225 -17.345795 2861.664062
1.000000 -6.840000 -4.840000 -15.781723 -15.210146 480.411316
1.000000 -6.840000 -4.800000 -7.809038 9.896595 158.923660
1.000000 -6.800000 -5.200000 -47.866478 -10.739004 2406.525879
1.000000 -6.800000 -5.160000 -29.526749 -38.201702 2331.198730
1.000000 -6.800000 -5.120000 4.674291 -39.468811 1579.635986
1.000000 -6.800000 -5.080000 25.446007 -12.981918 816.029480
1.000000 -6.800000 -5.040000 16.451859 17.285614 569.456055
1.000000 -6.800000 -5.000000 -10.579239 25.877460 781.563232
1.000000 -6.800000 -4.960000 -29.267082 10.228836 961.191162
1.000000 -6.800000 -4.920000 -25.577885 -9.414963 742.869751
1.000000 -6.800000 -4.880000 -10.031166 -12.866543 266.172211
1.000000 -6.800000 -4.840000 -3.810034 -0.561100 14.831191
1.000000 -6.800000 -4.800000 -15.239733 9.179445 316.511658
1.040000 -7.200000 -5.200000 13.603434 6.451499 226.675247
1.040000 -7.200000 -5.160000 4.862545 4.034864 39.924469
1.040000 -7.200000 -5.120000 3.575556 -4.686164 34.744732
1.040000 -7.200000 -5.080000 12.314474 -9.266129 237.507416
1.040000 -7.200000 -5.040000 22.247593 -1.581818 497.457520
1.040000 -7.200000 -5.000000 20.709682 14.282753 632.888000
1.040000 -7.200000 -4.960000 4.491829 24.077850 599.919373
1.040000 -7.200000 -4.920000 -15.073277 16.857368 511.374512
1.040000 -7.200000 -4.880000 -21.896492 -3.362459 490.762482
1.040000 -7.200000 -4.840000 -10.665554 -20.403431 530.054016
1.040000 -7.200000 -4.800000 7.695415 -21.200712 508.689606
1.040000 -7.160000 -5.200000 14.903195 8.986481 302.862061
1.040000 -7.160000 -5.160000 8.903625 13.025299 248.932953
1.040000 -7.160000 -5.120000 1.264877 13.204727 175.964737
1.040000 -7.160000 -5.080000 -5.613207 10.016045 131.829239
1.040000 -7.160000 -5.040000 -11.189223 4.522331 145.650192
1.040000 -7.160000 -5.000000 -15.228985 -3.665157 245.355362
1.040000 -7.160000 -4.960000 -15.395679 -15.036577 463.125610
1.040000 -7.160000 -4.920000 -8.262669 -26.804579 786.757141
1.040000 -7.160000 -4.880000 6.140541 -32.633820 1102.672485
1.040000 -7.160000 -4.840000 21.514076 -27.607489 1225.028809
1.040000 -7.160000 -4.800000 28.933811 -14.063399 1034.944580
1.040000 -7.120000 -5.200000 14.414585 16.339460 474.758240
1.040000 -7.120000 -5.160000 -0.710253 28.013899 785.282959
1.040000 -7.120000 -5.120000 -26.015957 24.205013 1262.712646
1.040000 -7.120000 -5.080000 -45.337631 -0.340275 2055.616455
1.040000 -7.120000 -5.040000 -43.316643 -35.538681 3139.329346
1.040000 -7.120000 -5.000000 -17.700443 -62.411182 4208.461426
1.040000 -7.120000 -4.960000 18.677521 -66.786888 4809.337891
1.040000 -7.120000 -4.920000 47.435760 -48.795593 4631.161133
1.040000 -7.120000 -4.880000 57.250774 -21.106743 3723.145752
1.040000 -7.120000 -4.840000 49.661339 1.255777 2467.825439
1.040000 -7.120000 -4.800000 35.067356 10.608155 1342.252441
1.040000 -7.080000 -5.200000 7.470134 24.483456 655.242493
1.040000 -7.080000 -5.160000 -25.126060 31.910767 1649.615967
1.040000 -7.080000 -5.120000 -61.388306 4.081465 3785.182617
1.040000 -7.080000 -5.080000 -67.157631 -52.710926 7288.588867
1.040000 -7.080000 -5.040000 -25.859303 -103.817314 11446.738281
1.040000 -7.080000 -5.000000 43.733948 -112.848480 14647.437500
1.040000 -7.080000 -4.960000 100.349899 -72.131943 15273.119141
1.040000 -7.080000 -4.920000 112.951447 -9.006100 12839.138672
1.040000 -7.080000 -4.880000 83.873032 37.475697 8439.113281
1.040000 -7.080000 -4.840000 42.586205 47.463959 4066.412109
1.040000 -7.080000 -4.800000 18.277344 31.412495 1320.806152
1.040000 -7.040000 -5.200000 -4.341431 27.247269 761.261658
1.040000 -7.040000 -5.160000 -48.372963 14.546331 2551.539307
1.040000 -7.040000 -5.120000 -71.695450 -44.115704 7086.432617
1.040000 -7.040000 -5.080000 -36.114101 -115.281784 14594.118164
1.040000 -7.040000 -5.040000 52.083168 -142.714737 23080.152344
1.040000 -7.040000 -5.000000 140.007401 -96.381958 28891.554688
1.040000 -7.040000 -4.960000 170.042877 -1.658779 28917.332031
1.040000 -7.040000 -4.920000 128.026031 80.406128 22855.808594
1.040000 -7.040000 -4.880000 52.784409 104.077080 13618.232422
1.040000 -7.040000 -4.840000 -0.576092 73.617882 5419.924316
1.040000 -7.040000 -4.800000 -7.303553 31.442587 1041.978149
1.040000 -7.000000 -5.200000 -14.985044 23.222422 763.832397
1.040000 -7.000000 -5.160000 -52.573071 -14.875420 2985.205811
1.040000 -7.000000 -5.120000 -41.032089 -87.866516 9404.156250
1.040000 -7.000000 -5.080000 38.583229 -136.954468 20245.191406
1.040000 -7.000000 -5.040000 143.678726 -107.848465 32274.867188
1.040000 -7.000000 -5.000000 199.913162 -4.338199 39984.093750
1.040000 -7.000000 -4.960000 165.215164 108.648636 39100.578125
1.040000 -7.000000 -4.920000 67.316658 158.845108 29763.300781
1.040000 -7.000000 -4.880000 -21.675974 127.211716 16652.667969
1.040000 -7.000000 -4.840000 -48.849243 58.407425 5797.675781
1.040000 -7.000000 -4.800000 -21.115467 14.237230 648.561646
1.040000 -6.960000 -5.200000 -20.956619 16.760967 720.109924
1.040000 -6.960000 -5.160000 -36.484764 -35.969193 2624.920898
1.040000 -6.960000 -5.120000 10.711571 -95.011276 9141.879883
1.040000 -6.960000 -5.080000 106.389221 -96.423668 20616.189453
1.040000 -6.960000 -5.040000 182.210449 -14.347016 33406.484375
1.040000 -6.960000 -5.000000 173.434937 106.249840 41368.707031
1.040000 -6.960000 -4.960000 79.514076 183.354721 39941.441406
1.040000 -6.960000 -4.920000 -32.815910 168.925644 29612.757812
1.040000 -6.960000 -4.880000 -88.486671 89.072525 15763.805664
1.040000 -6.960000 -4.840000 -68.145126 15.406898 4881.130859
1.040000 -6.960000 -4.800000 -16.610527 -2.093586 280.292725
1.040000 -6.920000 -5.200000 -24.840458 11.948268 759.809448
1.040000 -6.920000 -5.160000 -16.700653 -37.759087 1704.660400
1.040000 -6.920000 -5.120000 45.595306 -65.214828 6331.905273
1.040000 -6.920000 -5.080000 120.984879 -24.620846 15243.527344
1.040000 -6.920000 -5.040000 142.223785 72.861938 25536.468750
1.040000 -6.920000 -5.000000 79.228088 160.471252 32028.113281
1.040000 -6.920000 -4.960000 -28.431393 173.292435 30838.611328
1.040000 -6.920000 -4.920000 -104.686134 107.092079 22427.900391
1.040000 -6.920000 -4.880000 -104.724472 20.407475 11383.679688
1.040000 -6.920000 -4.840000 -51.169296 -21.525032 3081.623779
1.040000 -6.920000 -4.800000 -5.325257 -4.561494 49.165592
1.040000 -6.880000 -5.200000 -30.938038 6.955837 1005.545837
1.040000 -6.880000 -5.160000 -9.786066 -29.195709 948.156555
1.040000 -6.880000 -5.120000 44.141769 -29.561502 2822.378418
1.040000 -6.880000 -5.080000 82.951660 24.054764 7459.609863
1.040000 -6.880000 -5.040000 62.450104 97.461746 13398.807617
1.040000 -6.880000 -5.000000 -12.059952 131.559387 17453.316406
1.040000 -6.880000 -4.960000 -86.698814 97.533188 17029.406250
1.040000 -6.880000 -4.920000 -107.880798 24.420441 12234.625000
1.040000 -6.880000 -4.880000 -70.880646 -29.081171 5869.780273
1.040000 -6.880000 -4.840000 -19.985065 -29.837357 1289.670654
1.040000 -6.880000 -4.800000 -2.198506 2.869129 13.065332
1.040000 -6.840000 -5.200000 -38.082180 -3.882659 1465.327515
1.040000 -6.840000 -5.160000 -14.878627 -28.008038 1005.823730
1.040000 -6.840000 -5.120000 22.379444 -18.571606 845.744019
1.040000 -6.840000 -5.080000 35.956249 22.696947 1808.003174
1.040000 -6.840000 -5.040000 7.374451 60.672165 3735.494141
1.040000 -6.840000 -5.000000 -42.216171 60.363205 5425.921875
1.040000 -6.840000 -4.960000 -71.675995 21.537735 5601.322266
1.040000 -6.840000 -4.920000 -59.776054 -21.461021 4033.752197
1.040000 -6.840000 -4.880000 -24.319685 -34.261414 1765.291504
1.040000 -6.840000 -4.840000 -1.708529 -15.232397 234.944992
1.040000 -6.840000 -4.800000 -9.578633 6.620763 135.584717
1.040000 -6.800000 -5.200000 -38.658577 -22.048862 1980.637939
1.040000 -6.800000 -5.160000 -15.855841 -40.306358 1876.010254
1.040000 -6.800000 -5.120000 12.202274 -32.604603 1211.955688
1.040000 -6.800000 -5.080000 21.637550 -6.957471 516.590027
1.040000 -6.800000 -5.040000 7.390221 12.814011 218.814224
1.040000 -6.800000 -5.000000 -13.407042 11.335052 308.232178
1.040000 -6.800000 -4.960000 -20.608387 -4.345535 443.589294
1.040000 -6.800000 -4.920000 -11.525993 -14.837662 353.004730
1.040000 -6.800000 -4.880000 -1.241966 -10.277588 107.171295
1.040000 -6.800000 -4.840000 -3.983343 0.074936 15.872638
1.040000 -6.800000 -4.800000 -16.977871 -0.105600 288.259247
1.080000 -7.200000 -5.200000 3.421477 1.444601 13.793379
1.080000 -7.200000 -5.160000 7.105627 -0.570261 50.815136
1.080000 -7.200000 -5.120000 11.170107 1.095283 125.970932
1.080000 -7.200000 -5.080000 13.048405 5.891922 204.975616
1.080000 -7.200000 -5.040000 10.792876 11.722036 253.892319
1.080000 -7.200000 -5.000000 4.213091 15.165773 247.750824
1.080000 -7.200000 -4.960000 -3.952003 13.112671 187.560471
1.080000 -7.200000 -4.920000 -8.789513 5.534541 107.886673
1.080000 -7.200000 -4.880000 -6.724630 -3.263956 55.874062
1.080000 -7.200000 -4.840000 0.883031 -7.266565 53.582714
1.080000 -7.200000 -4.800000 7.994573 -3.895763 79.090164
1.080000 -7.160000 -5.200000 12.451519 4.517761 175.450500
1.080000 -7.160000 -5.160000 10.656572 14.226558 315.957458
1.080000 -7.160000 -5.120000 -0.163483 18.747726 351.503967
1.080000 -7.160000 -5.080000 -11.968034 12.548149 300.689880
1.080000 -7.160000 -5.040000 -15.906090 -1.083969 254.178680
1.080000 -7.160000 -5.000000 -9.470802 -13.679032 276.812012
1.080000 -7.160000 -4.960000 2.836468 -18.725243 358.680267
1.080000 -7.160000 -4.920000 14.318222 -15.482903 444.731750
1.080000 -7.160000 -4.880000 20.832371 -7.386009 488.540802
1.080000 -7.160000 -4.840000 21.703541 1.564974 473.492828
1.080000 -7.160000 -4.800000 18.090105 8.563527 400.585876
1.080000 -7.120000 -5.200000 13.946400 17.744486 509.368835
1.080000 -7.120000 -5.160000 -4.903206 28.928949 860.925537
1.080000 -7.120000 -5.120000 -29.742638 17.687401 1197.468628
1.080000 -7.120000 -5.080000 -38.271431 -13.346592 1642.833862
1.080000 -7.120000 -5.040000 -19.401962 -43.564041 2274.261719
1.080000 -7.120000 -5.000000 16.648129 -51.580193 2937.676514
1.080000 -7.120000 -4.960000 47.159184 -32.749992 3296.550537
1.080000 -7.120000 -4.920000 55.600925 -1.344410 3093.270264
1.080000 -7.120000 -4.880000 42.967777 22.966732 2373.700684
1.080000 -7.120000 -4.840000 23.159639 30.467497 1464.637207
1.080000 -7.120000 -4.800000 9.392046 25.352896 730.979858
1.080000 -7.080000 -5.200000 1.628179 29.248970 858.153198
1.080000 -7.080000 -5.160000 -31.639797 24.522190 1602.414551
1.080000 -7.080000 -5.120000 -51.629734 -13.481011 2847.367188
1.080000 -7.080000 -5.080000 -32.060341 -61.340233 4790.489746
1.080000 -7.080000 -5.040000 22.586090 -81.520302 7155.690918
1.080000 -7.080000 -5.000000 77.900459 -54.842766 9076.210938
1.080000 -7.080000 -4.960000 97.696518 2.412575 9550.429688
1.080000 -7.080000 -4.920000 73.480713 52.653584 8171.814941
1.080000 -7.080000 -4.880000 28.578659 68.443604 5501.266602
1.080000 -7.080000 -4.840000 -4.746679 52.016518 2728.249023
1.080000 -7.080000 -4.800000 -11.928659 27.164764 880.217346
1.080000 -7.040000 -5.200000 -16.899300 27.435452 1038.290283
1.080000 -7.040000 -5.160000 -47.391548 -1.739372 2248.984131
1.080000 -7.040000 -5.120000 -40.245117 -56.370659 4797.320312
1.080000 -7.040000 -5.080000 16.364803 -92.761398 8872.483398
1.080000 -7.040000 -5.040000 90.496155 -73.120392 13536.146484
1.080000 -7.040000 -5.000000 129.870407 -1.586029 16868.837891
1.080000 -7.040000 -4.960000 106.238129 76.191460 17091.679688
1.080000 -7.040000 -4.920000 39.229389 110.979050 13855.294922
1.080000 -7.040000 -4.880000 -22.361082 90.085831 8615.474609
1.080000 -7.040000 -4.840000 -42.993195 43.048111 3701.554688
1.080000 -7.040000 -4.800000 -26.324791 10.556719 804.438965
1.080000 -7.000000 -5.200000 -27.802563 13.325377 950.548157
1.080000 -7.000000 -5.160000 -37.863544 -31.236877 2409.390381
1.080000 -7.000000 -5.120000 1.952800 -77.132629 5953.255859
1.080000 -7.000000 -5.080000 77.084076 -76.063034 11727.539062
1.080000 -7.000000 -5.040000 134.239441 -11.260748 18147.031250
1.080000 -7.000000 -5.000000 125.765343 81.029549 22382.708984
1.080000 -7.000000 -4.960000 53.152596 138.884323 22114.054688
1.080000 -7.000000 -4.920000 -32.771126 127.141312 17238.859375
1.080000 -7.000000 -4.880000 -75.975121 65.668732 10084.601562
1.080000 -7.000000 -4.840000 -61.629333 7.623436 3856.291504
1.080000 -7.000000 -4.800000 -21.913191 -9.310852 566.879883
1.080000 -6.960000 -5.200000 -25.632265 -0.814930 657.677124
1.080000 -6.960000 -5.160000 -12.027586 -41.834957 1894.826538
1.080000 -6.960000 -5.120000 43.739311 -59.289684 5428.394043
1.080000 -6.960000 -5.080000 105.068214 -19.513113 11420.091797
1.080000 -6.960000 -5.040000 118.046097 64.269867 18065.496094
1.080000 -6.960000 -5.000000 61.263863 136.070663 22268.484375
1.080000 -6.960000 -4.960000 -30.569897 143.940613 21653.417969
1.080000 -6.960000 -4.920000 -94.686523 85.988113 16359.494141
1.080000 -6.960000 -4.880000 -94.514404 10.883442 9051.421875
1.080000 -6.960000 -4.840000 -48.276100 -27.324238 3077.195801
1.080000 -6.960000 -4.800000 -6.124458 -15.598428 280.819946
1.080000 -6.920000 -5.200000 -18.568939 -5.302300 372.919891
1.080000 -6.920000 -5.160000 6.709535 -30.423645 970.616089
1.080000 -6.920000 -5.120000 54.416534 -20.853260 3396.017578
1.080000 -6.920000 -5.080000 82.311310 33.943642 7927.322754
1.080000 -6.920000 -5.040000 55.032455 100.509628 13130.756836
1.080000 -6.920000 -5.000000 -18.602726 126.852898 16437.718750
1.080000 -6.920000 -4.960000 -88.519562 89.802231 15900.153320
1.080000 -6.920000 -4.920000 -106.738312 17.674736 11705.463867
1.080000 -6.920000 -4.880000 -69.679901 -35.331841 6103.627441
1.080000 -6.920000 -4.840000 -18.121201 -38.141220 1783.130615
1.080000 -6.920000 -4.800000 3.815760 -7.194992 66.327934
1.080000 -6.880000 -5.200000 -18.126661 -3.802484 343.034729
1.080000 -6.880000 -5.160000 4.939728 -15.657127 269.546570
1.080000 -6.880000 -5.120000 33.646130 3.275692 1142.792114
1.080000 -6.880000 -5.080000 34.798676 46.553558 3378.181641
1.080000 -6.880000 -5.040000 -4.339134 79.087486 6273.658691
1.080000 -6.880000 -5.000000 -59.142277 69.170761 8282.403320
1.080000 -6.880000 -4.960000 -87.879028 20.376202 8137.913086
1.080000 -6.880000 -4.920000 -70.537361 -30.052998 5878.702148
1.080000 -6.880000 -4.880000 -27.104263 -45.914822 2842.812012
1.080000 -6.880000 -4.840000 3.163960 -25.084841 639.259827
1.080000 -6.880000 -4.800000 -0.082554 2.059380 4.247859
1.080000 -6.840000 -5.200000 -24.800652 -8.541567 688.030701
1.080000 -6.840000 -5.160000 -6.858671 -17.344316 347.866699
1.080000 -6.840000 -5.120000 10.460588 -3.868481 124.389053
1.080000 -6.840000 -5.080000 6.362755 20.406853 456.924286
1.080000 -6.840000 -5.040000 -19.130978 30.642769 1304.973633
1.080000 -6.840000 -5.000000 -43.699001 14.194592 2111.089111
1.080000 -6.840000 -4.960000 -44.920898 -15.756607 2266.157715
1.080000 -6.840000 -4.920000 -22.975811 -33.381447 1642.208984
1.080000 -6.840000 -4.880000 0.199097 -26.410116 697.533875
1.080000 -6.840000 -4.840000 4.176702 -7.623291 75.559410
1.080000 -6.840000 -4.800000 -9.289568 0.096697 86.305428
1.080000 -6.800000 -5.200000 -26.254147 -24.838730 1306.242676
1.080000 -6.800000 -5.160000 -6.320190 -34.501278 1230.282959
1.080000 -6.800000 -5.120000 12.401768 -25.524326 805.295044
1.080000 -6.800000 -5.080000 16.195869 -8.053486 327.164825
1.080000 -6.800000 -5.040000 6.717817 2.323402 50.527267
1.080000 -6.800000 -5.000000 -3.141835 0.179207 9.903243
1.080000 -6.800000 -4.960000 -4.156960 -6.522053 59.817482
1.080000 -6.800000 -4.920000 0.383400 -7.722685 59.786858
1.080000 -6.800000 -4.880000 0.952169 -3.307274 11.844687
1.080000 -6.800000 -4.840000 -5.271065 -2.182327 32.546677
1.080000 -6.800000 -4.800000 -10.273001 -10.223773 210.060089
1.120000 -7.200000 -5.200000 4.200499 -6.478988 59.621468
1.120000 -7.200000 -5.160000 12.852325 1.938443 168.939835
1.120000 -7.200000 -5.120000 10.857853 12.756593 280.623627
1.120000 -7.200000 -5.080000 2.042703 16.840324 287.769165
1.120000 -7.200000 -5.040000 -4.950174 12.996488 193.412918
1.120000 -7.200000 -5.000000 -5.585585 7.204158 83.098656
1.120000 -7.200000 -4.960000 -2.573050 5.178370 33.436100
1.120000 -7.200000 -4.920000 -1.166531 6.888000 48.805344
1.120000 -7.200000 -4.880000 -2.982507 8.299685 77.780113
1.120000 -7.200000 -4.840000 -5.265475 7.017155 76.965691
1.120000 -7.200000 -4.800000 -5.356091 4.752922 51.277985
1.120000 -7.160000 -5.200000 15.119030 4.649602 250.203857
1.120000 -7.160000 -5.160000 8.827713 20.670734 505.207794
1.120000 -7.160000 -5.120000 -8.663458 23.560459 630.150696
1.120000 -7.160000 -5.080000 -20.993336 10.165699 544.061584
1.120000 -7.160000 -5.040000 -17.187632 -7.641937 353.813873
1.120000 -7.160000 -5.000000 -1.234268 -14.973982 225.743561
1.120000 -7.160000 -4.960000 13.180237 -7.474028 229.579727
1.120000 -7.160000 -4.920000 16.037176 6.579700 300.483459
1.120000 -7.160000 -4.880000 8.694079 15.962416 330.385742
1.120000 -7.160000 -4.840000 -0.342730 16.679588 278.326141
1.120000 -7.160000 -4.800000 -4.994652 12.901095 191.384811
1.120000 -7.120000 -5.200000 10.147570 22.404572 604.937988
1.120000 -7.120000 -5.160000 -13.193529 29.163692 1024.590088
1.120000 -7.120000 -5.120000 -33.547813 11.077188 1248.159912
1.120000 -7.120000 -5.080000 -30.348703 -18.766823 1273.237427
1.120000 -7.120000 -5.040000 -3.248436 -35.615433 1279.011475
1.120000 -7.120000 -5.000000 27.535774 -25.395630 1403.156860
1.120000 -7.120000 -4.960000 39.655212 3.544090 1585.096436
1.120000 -7.120000 -4.920000 27.467991 29.533712 1626.730713
1.120000 -7.120000 -4.880000 4.067232 37.118187 1394.302124
1.120000 -7.120000 -4.840000 -13.059105 27.965708 952.621033
1.120000 -7.120000 -4.800000 -16.952583 14.843164 507.709595
1.120000 -7.080000 -5.200000 -9.717752 29.090462 940.689636
1.120000 -7.080000 -5.160000 -36.365532 14.503501 1532.803467
1.120000 -7.080000 -5.120000 -39.713982 -21.187164 2026.096191
1.120000 -7.080000 -5.080000 -9.634966 -49.006073 2494.427734
1.120000 -7.080000 -5.040000 34.721737 -43.138905 3066.563965
1.120000 -7.080000 -5.000000 60.498428 -4.487446 3680.197021
1.120000 -7.080000 -4.960000 49.399429 39.888199 4031.372070
1.120000 -7.080000 -4.920000 12.171057 60.435585 3800.594482
1.120000 -7.080000 -4.880000 -23.103483 49.101631 2944.741211
1.120000 -7.080000 -4.840000 -35.916950 22.129761 1779.753662
1.120000 -7.080000 -4.800000 -27.674053 1.992630 769.823792
1.120000 -7.040000 -5.200000 -27.870785 16.492933 1048.797485
1.120000 -7.040000 -5.160000 -39.391315 -14.869518 1772.778320
1.120000 -7.040000 -5.120000 -16.387817 -48.794315 2649.445801
1.120000 -7.040000 -5.080000 31.495197 -52.750668 3774.580322
1.120000 -7.040000 -5.040000 69.653648 -15.359642 5087.549316
1.120000 -7.040000 -5.000000 67.364304 40.849411 6206.623535
1.120000 -7.040000 -4.960000 24.739012 77.223793 6575.532715
1.120000 -7.040000 -4.920000 -27.586617 71.360268 5853.309082
1.120000 -7.040000 -4.880000 -55.276588 34.145691 4221.429688
1.120000 -7.040000 -4.840000 -48.039734 -3.072799 2317.258057
1.120000 -7.040000 -4.800000 -23.432304 -16.966635 836.939575
1.120000 -7.000000 -5.200000 -28.700539 -4.716232 845.963806
1.120000 -7.000000 -5.160000 -18.358173 -35.240761 1578.933838
1.120000 -7.000000 -5.120000 20.527060 -48.125854 2737.458008
1.120000 -7.000000 -5.080000 62.342514 -22.309647 4384.309570
1.120000 -7.000000 -5.040000 71.973396 32.392059 6229.415527
1.120000 -7.000000 -5.000000 36.020622 79.446968 7609.306152
1.120000 -7.000000 -4.960000 -23.266708 85.364197 7828.385742
1.120000 -7.000000 -4.920000 -65.760384 48.186317 6646.349609
1.120000 -7.000000 -4.880000 -67.064011 -1.935365 4501.327148
1.120000 -7.000000 -4.840000 -36.794479 -30.121834 2261.158691
1.120000 -7.000000 -4.800000 -5.831463 -25.638315 691.329163
1.120000 -6.960000 -5.200000 -14.124022 -15.769415 448.162476
1.120000 -6.960000 -5.160000 7.873740 -30.850712 1013.762207
1.120000 -6.960000 -5.120000 41.526581 -20.152409 2130.576416
1.120000 -6.960000 -5.080000 58.574600 19.887068 3826.479248
1.120000 -6.960000 -5.040000 37.578312 65.417633 5691.596191
1.120000 -6.960000 -5.000000 -13.946985 82.326889 6972.235352
1.120000 -6.960000 -4.960000 -62.340225 55.878231 7008.680664
1.120000 -6.960000 -4.920000 -75.360428 4.840187 5702.621094
1.120000 -6.960000 -4.880000 -49.413887 -34.388676 3624.313232
1.120000 -6.960000 -4.840000 -10.751879 -39.161049 1649.190674
1.120000 -6.960000 -4.800000 9.884251 -17.853664 416.451721
1.120000 -6.920000 -5.200000 -1.455623 -9.910817 100.343132
1.120000 -6.920000 -5.160000 16.239090 -10.336074 370.542480
1.120000 -6.920000 -5.120000 31.852974 9.127601 1097.925049
1.120000 -6.920000 -5.080000 25.883406 40.630291 2320.771240
1.120000 -6.920000 -5.040000 -6.615910 60.432644 3695.874756
1.120000 -6.920000 -5.000000 -47.074959 48.958683 4613.004395
1.120000 -6.920000 -4.960000 -66.885757 10.326941 4580.350098
1.120000 -6.920000 -4.920000 -52.419113 -28.924425 3584.385742
1.120000 -6.920000 -4.880000 -17.522186 -42.542301 2116.874512
1.120000 -6.920000 -4.840000 9.424747 -27.343079 836.469788
1.120000 -6.920000 -4.800000 11.504312 -3.967450 148.089844
1.120000 -6.880000 -5.200000 -4.044762 0.250750 16.422972
1.120000 -6.880000 -5.160000 3.440821 2.055111 16.062729
1.120000 -6.880000 -5.120000 6.347445 13.903074 233.585526
1.120000 -6.880000 -5.080000 -4.765728 27.031681 753.423950
1.120000 -6.880000 -5.040000 -26.580572 26.797020 1424.607056
1.120000 -6.880000 -5.000000 -43.049934 7.658630 1911.951538
1.120000 -6.880000 -4.960000 -39.624214 -18.989408 1930.676025
1.120000 -6.880000 -4.920000 -17.923553 -33.818909 1464.972412
1.120000 -6.880000 -4.880000 4.747856 -27.565746 782.412476
1.120000 -6.880000 -4.840000 11.695628 -9.772686 232.293121
1.120000 -6.880000 -4.800000 2.602226 1.173784 8.149351
1.120000 -6.840000 -5.200000 -15.728260 -2.850674 255.504501
1.120000 -6.840000 -5.160000 -10.422450 -7.633328 166.895172
1.120000 -6.840000 -5.120000 -5.542404 -5.572632 61.772476
1.120000 -6.840000 -5.080000 -6.794373 -1.608059 48.749352
1.120000 -6.840000 -5.040000 -11.936130 -2.930668 151.059998
1.120000 -6.840000 -5.000000 -13.273019 -10.355850 283.416687
1.120000 -6.840000 -4.960000 -6.740414 -16.897284 330.951355
1.120000 -6.840000 -4.920000 2.848551 -15.598892 251.439682
1.120000 -6.840000 -4.880000 6.822689 -7.854870 108.248062
1.120000 -6.840000 -4.840000 2.632311 -2.366669 12.530182
1.120000 -6.840000 -4.800000 -2.675089 -5.321382 35.473206
1.120000 -6.800000 -5.200000 -16.940136 -20.835945 721.104797
1.120000 -6.800000 -5.160000 -3.483114 -27.373360 761.432922
1.120000 -6.800000 -5.120000 9.939904 -23.486691 650.426331
1.120000 -6.800000 -5.080000 16.725353 -13.529758 462.791809
1.120000 -6.800000 -5.040000 16.350281 -3.940012 282.855377
1.120000 -6.800000 -5.000000 12.262297 2.048792 154.561478
1.120000 -6.800000 -4.960000 7.234554 4.745662 74.860077
1.120000 -6.800000 -4.920000 1.942177 4.664675 25.531242
1.120000 -6.800000 -4.880000 -2.522954 0.946806 7.261738
1.120000 -6.800000 -4.840000 -2.881886 -6.085835 45.342655
1.120000 -6.800000 -4.800000 3.585082 -12.126412 159.902695
1.160000 -7.200000 -5.200000 11.093186 -7.701336 182.369354
1.160000 -7.200000 -5.160000 13.442556 9.780905 276.368408
1.160000 -7.200000 -5.120000 1.040892 20.226973 410.213898
1.160000 -7.200000 -5.080000 -12.628080 15.835319 410.225708
1.160000 -7.200000 -5.040000 -15.132147 4.026394 245.193726
1.160000 -7.200000 -5.000000 -7.135308 -1.814969 54.206738
1.160000 -7.200000 -4.960000 0.007243 3.396050 11.533211
1.160000 -7.200000 -4.920000 -2.650584 12.252102 157.139603
1.160000 -7.200000 -4.880000 -12.546874 14.158062 357.874756
1.160000 -7.200000 -4.840000 -19.698641 6.921040 435.937225
1.160000 -7.200000 -4.800000 -18.226524 -1.989868 336.165741
1.160000 -7.160000 -5.200000 15.096545 9.604711 320.156128
1.160000 -7.160000 -5.160000 0.176947 24.756376 612.909485
1.160000 -7.160000 -5.120000 -20.238724 20.236486 819.121338
1.160000 -7.160000 -5.080000 -27.157124 1.284865 739.160217
1.160000 -7.160000 -5.040000 -15.505165 -13.768450 429.980347
1.160000 -7.160000 -5.000000 2.159712 -11.783434 143.513672
1.160000 -7.160000 -4.960000 9.125616 3.381840 94.713715
1.160000 -7.160000 -4.920000 0.568013 16.579128 275.190125
1.160000 -7.160000 -4.880000 -13.874325 17.064102 483.680481
1.160000 -7.160000 -4.840000 -21.733404 7.488218 528.414246
1.160000 -7.160000 -4.800000 -19.854025 -1.680258 397.005585
1.160000 -7.120000 -5.200000 1.352997 23.739246 565.382446
1.160000 -7.120000 -5.160000 -22.615025 22.978096 1039.432251
1.160000 -7.120000 -5.120000 -35.623009 1.727155 1271.981812
1.160000 -7.120000 -5.080000 -25.258423 -21.432693 1097.348267
1.160000 -7.120000 -5.040000 -0.476065 -26.172411 685.221741
1.160000 -7.120000 -5.000000 17.261171 -9.082021 380.431122
1.160000 -7.120000 -4.960000 13.953394 14.373691 401.300171
1.160000 -7.120000 -4.920000 -5.496535 25.270956 668.833130
1.160000 -7.120000 -4.880000 -24.244917 17.861286 906.841553
1.160000 -7.120000 -4.840000 -29.965723 1.805099 901.202942
1.160000 -7.120000 -4.800000 -23.979065 -9.706143 669.204773
1.160000 -7.080000 -5.200000 -19.433311 19.808256 770.020630
1.160000 -7.080000 -5.160000 -36.174744 2.138217 1313.184082
1.160000 -7.080000 -5.120000 -30.958698 -23.792801 1524.538330
1.160000 -7.080000 -5.080000 -5.649504 -35.680977 1305.048950
1.160000 -7.080000 -5.040000 19.794800 -22.369556 892.231201
1.160000 -7.080000 -5.000000 24.834431 5.966743 652.351013
1.160000 -7.080000 -4.960000 6.120578 27.098331 771.781067
1.160000 -7.080000 -4.920000 -20.810753 26.148727 1116.843384
1.160000 -7.080000 -4.880000 -36.346714 6.903940 1368.748047
1.160000 -7.080000 -4.840000 -33.087269 -14.246412 1297.727539
1.160000 -7.080000 -4.800000 -19.069859 -23.913437 935.511963
1.160000 -7.040000 -5.200000 -27.883963 -0.221844 777.564575
1.160000 -7.040000 -5.160000 -27.528313 -21.920536 1238.317871
1.160000 -7.040000 -5.120000 -7.846904 -36.593307 1400.644043
1.160000 -7.040000 -5.080000 18.102385 -29.914543 1222.576172
1.160000 -7.040000 -5.040000 30.022388 -4.273524 919.606812
1.160000 -7.040000 -5.000000 17.555790 21.941063 789.615967
1.160000 -7.040000 -4.960000 -10.578054 29.279842 969.204346
1.160000 -7.040000 -4.920000 -33.895615 13.196087 1323.049438
1.160000 -7.040000 -4.880000 -37.184502 -13.178213 1556.352417
1.160000 -7.040000 -4.840000 -21.851894 -31.203690 1451.175537
1.160000 -7.040000 -4.800000 -2.248430 -32.002331 1029.204590
1.160000 -7.000000 -5.200000 -15.845172 -17.825008 568.800415
1.160000 -7.000000 -5.160000 -3.681239 -28.789734 842.400269
1.160000 -7.000000 -5.120000 15.430674 -26.557018 943.380859
1.160000 -7.000000 -5.080000 27.945751 -8.826439 858.871033
1.160000 -7.000000 -5.040000 22.658882 14.193079 714.868408
1.160000 -7.000000 -5.000000 0.751351 26.178562 685.881653
1.160000 -7.000000 -4.960000 -23.463346 17.501518 856.831787
1.160000 -7.000000 -4.920000 -33.167213 -6.348470 1140.367188
1.160000 -7.000000 -4.880000 -22.439955 -28.740330 1329.558105
1.160000 -7.000000 -4.840000 -0.651007 -35.351219 1250.132568
1.160000 -7.000000 -4.800000 16.079994 -25.264763 896.874451
1.160000 -6.960000 -5.200000 4.125754 -16.576107 291.789185
1.160000 -6.960000 -5.160000 13.612752 -13.875781 377.844299
1.160000 -6.960000 -5.120000 19.907631 -3.967350 412.053650
1.160000 -6.960000 -5.080000 17.503834 9.487975 396.405853
1.160000 -6.960000 -5.040000 4.919433 18.598888 370.119446
1.160000 -6.960000 -5.000000 -12.086319 15.800522 395.735596
1.160000 -6.960000 -4.960000 -22.629742 0.473646 512.329590
1.160000 -6.960000 -4.920000 -18.577450 -18.536751 688.732788
1.160000 -6.960000 -4.880000 -1.928658 -28.603125 821.858459
1.160000 -6.960000 -4.840000 15.773743 -23.506237 801.354126
1.160000 -6.960000 -4.800000 22.797480 -8.845175 597.962219
1.160000 -6.920000 -5.200000 11.430147 0.087042 130.655853
1.160000 -6.920000 -5.160000 9.353209 5.977351 123.211243
1.160000 -6.920000 -5.120000 4.493739 9.261875 105.976028
1.160000 -6.920000 -5.080000 -1.275479 9.588530 93.566750
1.160000 -6.920000 -5.040000 -7.002796 6.755778 94.679695
1.160000 -6.920000 -5.000000 -10.852644 0.137548 117.798805
1.160000 -6.920000 -4.960000 -9.563496 -8.970681 171.933563
1.160000 -6.920000 -4.920000 -1.515697 -15.816124 252.447113
1.160000 -6.920000 -4.880000 9.806912 -15.159920 325.998688
1.160000 -6.920000 -4.840000 17.204647 -6.722607 341.193329
1.160000 -6.920000 -4.800000 16.065794 3.289694 268.931824
1.160000 -6.880000 -5.200000 -0.228008 12.035674 144.909439
1.160000 -6.880000 -5.160000 -8.740828 9.327066 163.396240
1.160000 -6.880000 -5.120000 -12.167807 1.067807 149.195724
1.160000 -6.880000 -5.080000 -8.705330 -6.446542 117.340668
1.160000 -6.880000 -5.040000 -2.205750 -8.955355 85.063713
1.160000 -6.880000 -5.000000 2.723885 -7.331631 61.172356
1.160000 -6.880000 -4.960000 4.979538 -4.875363 48.564964
1.160000 -6.880000 -4.920000 6.237788 -3.116108 48.620132
1.160000 -6.880000 -4.880000 7.517996 -1.230872 58.035305
1.160000 -6.880000 -4.840000 7.965920 1.311364 65.175560
1.160000 -6.880000 -4.800000 7.002541 3.299545 59.922569
1.160000 -6.840000 -5.200000 -15.173195 4.500940 250.484314
1.160000 -6.840000 -5.160000 -17.684906 -6.906427 360.454620
1.160000 -6.840000 -5.120000 -10.159983 -17.894264 423.429932
1.160000 -6.840000 -5.080000 3.662720 -20.322226 426.408386
1.160000 -6.840000 -5.040000 14.868280 -12.458976 376.291840
1.160000 -6.840000 -5.000000 16.962252 -0.277813 287.795166
1.160000 -6.840000 -4.960000 10.761794 8.009986 179.976089
1.160000 -6.840000 -4.920000 2.629106 8.471431 78.677338
1.160000 -6.840000 -4.880000 -1.221399 3.404007 13.079079
1.160000 -6.840000 -4.840000 1.066711 -1.707759 4.054316
1.160000 -6.840000 -4.800000 6.918383 -2.468687 53.958435
1.160000 -6.800000 -5.200000 -12.485425 -14.475685 365.431274
1.160000 -6.800000 -5.160000 -3.835150 -22.972010 542.421631
1.160000 -6.800000 -5.120000 10.658447 -24.323196 705.220337
1.160000 -6.800000 -5.080000 24.002258 -15.063837 803.027588
1.160000 -6.800000 -5.040000 28.120506 1.318419 792.501099
1.160000 -6.800000 -5.000000 20.258226 15.754119 658.588013
1.160000 -6.800000 -4.960000 5.759162 19.957266 431.460388
1.160000 -6.800000 -4.920000 -5.435481 12.683222 190.408569
1.160000 -6.800000 -4.880000 -6.034578 0.786374 37.034515
1.160000 -6.800000 -4.840000 3.286372 -5.830752 44.797913
1.160000 -6.800000 -4.800000 14.459092 -1.511088 211.348724
1.200000 -7.200000 -5.200000 14.965136 -2.103975 228.381989
1.200000 -7.200000 -5.160000 7.172773 14.900752 273.481079
1.200000 -7.200000 -5.120000 -10.109450 17.251087 399.800995
1.200000 -7.200000 -5.080000 -20.042067 5.238762 429.129028
1.200000 -7.200000 -5.040000 -15.172558 -7.084308 280.393921
1.200000 -7.200000 -5.000000 -3.927726 -7.305716 68.800514
1.200000 -7.200000 -4.960000 -0.418842 2.836525 8.221302
1.200000 -7.200000 -4.920000 -9.227533 10.581929 197.124603
1.200000 -7.200000 -4.880000 -21.446962 6.508119 502.327820
1.200000 -7.200000 -4.840000 -25.235233 -5.908214 671.723999
1.200000 -7.200000 -4.800000 -18.444300 -15.253321 572.855957
1.200000 -7.160000 -5.200000 9.745320 12.952377 262.735352
1.200000 -7.160000 -5.160000 -9.373847 20.516396 508.791504
1.200000 -7.160000 -5.120000 -25.831638 9.085222 749.814819
1.200000 -7.160000 -5.080000 -25.524389 -9.643570 744.492920
1.200000 -7.160000 -5.040000 -11.186802 -18.320127 460.771606
1.200000 -7.160000 -5.000000 1.617637 -10.889719 121.202728
1.200000 -7.160000 -4.960000 0.639210 2.782218 8.149326
1.200000 -7.160000 -4.920000 -11.784733 8.221846 206.478668
1.200000 -7.160000 -4.880000 -23.007792 0.757407 529.932129
1.200000 -7.160000 -4.840000 -23.809259 -11.695940 703.675903
1.200000 -7.160000 -4.800000 -16.470383 -18.688580 620.536499
1.200000 -7.120000 -5.200000 -6.632764 17.533018 351.400299
1.200000 -7.120000 -5.160000 -25.883192 10.967229 790.219727
1.200000 -7.120000 -5.120000 -32.121078 -8.684466 1107.183594
1.200000 -7.120000 -5.080000 -20.645332 -24.861591 1044.328369
1.200000 -7.120000 -5.040000 -2.551713 -24.993982 631.210388
1.200000 -7.120000 -5.000000 6.262896 -11.570395 173.097885
1.200000 -7.120000 -4.960000 -0.275651 1.466031 2.225231
1.200000 -7.120000 -4.920000 -14.253576 2.420905 209.025223
1.200000 -7.120000 -4.880000 -22.827374 -8.310147 590.147522
1.200000 -7.120000 -4.840000 -20.233822 -20.894482 845.986938
1.200000 -7.120000 -4.800000 -11.035860 -26.677475 833.477905
1.200000 -7.080000 -5.200000 -19.758591 5.813054 424.193512
1.200000 -7.080000 -5.160000 -29.104828 -8.547727 920.154663
1.200000 -7.080000 -5.120000 -24.100077 -25.960115 1254.741333
1.200000 -7.080000 -5.080000 -7.890073 -33.656975 1195.045288
1.200000 -7.080000 -5.040000 7.269335 -26.752731 768.551880
1.200000 -7.080000 -5.000000 10.443585 -12.304746 260.475250
1.200000 -7.080000 -4.960000 1.091333 -2.925987 9.752410
1.200000 -7.080000 -4.920000 -11.233744 -5.981546 161.975891
1.200000 -7.080000 -4.880000 -15.713746 -18.121454 575.308960
1.200000 -7.080000 -4.840000 -9.117209 -29.389477 946.864868
1.200000 -7.080000 -4.800000 2.891691 -32.208145 1045.726440
1.200000 -7.040000 -5.200000 -16.291588 -11.882035 406.598572
1.200000 -7.040000 -5.160000 -15.638428 -22.730587 761.239990
1.200000 -7.040000 -5.120000 -7.019431 -31.683008 1053.085449
1.200000 -7.040000 -5.080000 6.172156 -32.738064 1109.876221
1.200000 -7.040000 -5.040000 16.244396 -24.460909 862.216431
1.200000 -7.040000 -5.000000 16.717369 -12.505368 435.854675
1.200000 -7.040000 -4.960000 8.236550 -6.044375 104.375229
1.200000 -7.040000 -4.920000 -1.039582 -10.179161 104.696053
1.200000 -7.040000 -4.880000 -2.002729 -21.088413 448.732086
1.200000 -7.040000 -4.840000 7.419942 -28.991142 895.541870
1.200000 -7.040000 -4.800000 20.319510 -26.688900 1125.179810
1.200000 -7.000000 -5.200000 1.313828 -17.807358 318.828125
1.200000 -7.000000 -5.160000 2.756280 -19.691078 395.335632
1.200000 -7.000000 -5.120000 6.402390 -23.387960 587.987305
1.200000 -7.000000 -5.080000 14.477251 -24.741364 821.725891
1.200000 -7.000000 -5.040000 22.951527 -19.222200 896.265564
1.200000 -7.000000 -5.000000 24.752277 -8.862269 691.215027
1.200000 -7.000000 -4.960000 18.135139 -1.927991 332.600433
1.200000 -7.000000 -4.920000 10.161322 -4.482653 123.346634
1.200000 -7.000000 -4.880000 10.183497 -13.044122 273.852722
1.200000 -7.000000 -4.840000 19.731548 -17.225576 686.054443
1.200000 -7.000000 -4.800000 30.132944 -10.409794 1016.358154
1.200000 -6.960000 -5.200000 15.650259 -5.109814 271.040802
1.200000 -6.960000 -5.160000 9.115152 -3.406223 94.688362
1.200000 -6.960000 -5.120000 6.708305 -10.555881 156.427979
1.200000 -6.960000 -5.080000 14.683402 -16.972631 503.672516
1.200000 -6.960000 -5.040000 26.594191 -12.896828 873.579163
1.200000 -6.960000 -5.000000 30.620159 -0.136368 937.612732
1.200000 -6.960000 -4.960000 23.269941 9.720098 635.970459
1.200000 -6.960000 -4.920000 13.438691 8.534147 253.430084
1.200000 -6.960000 -4.880000 12.173809 0.800051 148.841705
1.200000 -6.960000 -4.840000 20.025372 -1.717527 403.965393
1.200000 -6.960000 -4.800000 26.597416 6.344099 747.670166
1.200000 -6.920000 -5.200000 11.893953 13.870049 333.844360
1.200000 -6.920000 -5.160000 -1.771114 9.015993 84.424980
1.200000 -6.920000 -5.120000 -2.882679 -6.454748 49.973610
1.200000 -6.920000 -5.080000 11.664637 -15.470069 375.386780
1.200000 -6.920000 -5.040000 28.163065 -7.426119 848.305420
1.200000 -6.920000 -5.000000 31.070934 10.653974 1078.910156
1.200000 -6.920000 -4.960000 19.313686 22.368773 873.380493
1.200000 -6.920000 -4.920000 6.128335 19.617035 422.384552
1.200000 -6.920000 -4.880000 3.776127 9.973788 113.735588
1.200000 -6.920000 -4.840000 10.827555 6.634644 161.254425
1.200000 -6.920000 -4.800000 15.650872 13.390875 424.265320
1.200000 -6.880000 -5.200000 -5.932487 19.820740 428.056122
1.200000 -6.880000 -5.160000 -17.154354 4.511346 314.624084
1.200000 -6.880000 -5.120000 -8.904368 -14.815549 298.788269
1.200000 -6.880000 -5.080000 13.335367 -18.824846 532.206848
1.200000 -6.880000 -5.040000 29.918947 -2.637234 902.098450
1.200000 -6.880000 -5.000000 26.947445 19.499359 1106.389771
1.200000 -6.880000 -4.960000 9.433184 29.185095 940.754761
1.200000 -6.880000 -4.920000 -5.432718 21.837154 506.375732
1.200000 -6.880000 -4.880000 -6.289152 9.046431 121.391342
1.200000 -6.880000 -4.840000 2.584707 4.678626 28.570253
1.200000 -6.880000 -4.800000 8.574500 11.015711 194.867935
1.200000 -6.840000 -5.200000 -18.399200 7.363248 392.747986
1.200000 -6.840000 -5.160000 -19.074379 -11.538509 496.969116
1.200000 -6.840000 -5.120000 -1.421998 -24.976406 625.842957
1.200000 -6.840000 -5.080000 22.110744 -18.634827 836.141785
1.200000 -6.840000 -5.040000 32.205524 4.241062 1055.182373
1.200000 -6.840000 -5.000000 21.288067 25.549484 1105.957886
1.200000 -6.840000 -4.960000 0.258849 29.602863 876.396545
1.200000 -6.840000 -4.920000 -12.799765 17.156898 458.193115
1.200000 -6.840000 -4.880000 -9.610679 2.793760 100.170242
1.200000 -6.840000 -4.840000 2.455817 -0.137512 6.049948
1.200000 -6.840000 -4.800000 9.702250 8.904631 173.426117
1.200000 -6.800000 -5.200000 -11.594005 -8.093767 199.930008
1.200000 -6.800000 -5.160000 -4.047631 -19.895725 412.223175
1.200000 -6.800000 -5.120000 14.211861 -22.250191 697.047974
1.200000 -6.800000 -5.080000 30.587688 -8.146278 1001.968567
1.200000 -6.800000 -5.040000 31.302052 14.924660 1202.563843
1.200000 -6.800000 -5.000000 14.940710 30.580051 1158.364380
1.200000 -6.800000 -4.960000 -5.506717 28.345036 833.764954
1.200000 -6.800000 -4.920000 -14.288462 13.108376 375.989655
1.200000 -6.800000 -4.880000 -6.911066 0.210728 47.807240
1.200000 -6.800000 -4.840000 6.674485 1.305084 46.251995
1.200000 -6.800000 -4.800000 11.947099 14.483877 352.515869
