#kx 	ky 	kz 	real 	imag 	intensity
0.800000 6.800000 -7.200000 -5.313468 -46.910049 2228.785645
0.800000 6.800000 -7.160000 16.272610 -46.068008 2387.059326
0.800000 6.800000 -7.120000 30.061790 -32.579632 1965.143555
0.800000 6.800000 -7.080000 31.512882 -17.278000 1291.591064
0.800000 6.800000 -7.040000 25.622023 -8.528185 729.217957
0.800000 6.800000 -7.000000 20.110134 -7.123080 455.155762
0.800000 6.800000 -6.960000 19.048523 -8.711021 438.728119
0.800000 6.800000 -6.920000 21.849327 -8.920753 556.972900
0.800000 6.800000 -6.880000 25.915646 -5.814428 705.428223
0.800000 6.800000 -6.840000 28.709270 0.590343 824.570740
0.800000 6.800000 -6.800000 28.170830 9.022629 875.003479
0.800000 6.840000 -7.200000 17.570498 -39.198082 1845.212036
0.800000 6.840000 -7.160000 33.738304 -32.035667 2164.557129
0.800000 6.840000 -7.120000 40.666245 -18.482878 1995.360107
0.800000 6.840000 -7.080000 39.163315 -7.188008 1585.432739
0.800000 6.840000 -7.040000 35.140785 -1.432388 1236.926514
0.800000 6.840000 -7.000000 33.004406 1.098404 1090.497314
0.800000 6.840000 -6.960000 33.017662 3.866426 1105.115234
0.800000 6.840000 -6.920000 33.346558 8.300752 1180.895386
0.800000 6.840000 -6.880000 32.493637 14.153220 1256.150024
0.800000 6.840000 -6.840000 29.470264 20.795818 1300.962524
0.800000 6.840000 -6.800000 23.288441 26.921612 1267.124634
0.800000 6.880000 -7.200000 27.465832 -19.123680 1120.087036
0.800000 6.880000 -7.160000 36.756279 -11.202104 1476.511230
0.800000 6.880000 -7.120000 39.688148 -1.042041 1576.234985
0.800000 6.880000 -7.080000 38.327026 7.038430 1518.500488
0.800000 6.880000 -7.040000 35.991226 12.530892 1452.391724
0.800000 6.880000 -7.000000 34.067608 17.073994 1452.123169
0.800000 6.880000 -6.960000 32.094437 21.899368 1509.635254
0.800000 6.880000 -6.920000 29.208179 27.238087 1595.031128
0.800000 6.880000 -6.880000 24.566559 32.849327 1682.593994
0.800000 6.880000 -6.840000 17.152149 37.727501 1717.560547
0.800000 6.880000 -6.800000 6.833121 39.437260 1601.989014
0.800000 6.920000 -7.200000 20.729168 -1.269355 431.309662
0.800000 6.920000 -7.160000 26.151775 3.503735 696.191528
0.800000 6.920000 -7.120000 28.542511 10.439236 923.652588
0.800000 6.920000 -7.080000 27.843502 17.326162 1075.456543
0.800000 6.920000 -7.040000 25.246227 22.852604 1159.613525
0.800000 6.920000 -7.000000 22.204967 27.051634 1224.851440
0.800000 6.920000 -6.960000 19.325809 31.115047 1341.633057
0.800000 6.920000 -6.920000 15.478493 36.227909 1552.045166
0.800000 6.920000 -6.880000 8.336999 41.642715 1803.621338
0.800000 6.920000 -6.840000 -3.069921 43.875046 1934.444092
0.800000 6.920000 -6.800000 -15.725278 38.975662 1766.386719
0.800000 6.960000 -7.200000 6.739276 3.701380 59.118050
0.800000 6.960000 -7.160000 12.185685 5.725148 181.268250
0.800000 6.960000 -7.120000 14.924517 11.571191 356.633667
0.800000 6.960000 -7.080000 13.531502 17.514507 489.859497
0.800000 6.960000 -7.040000 10.412063 20.859707 543.538452
0.800000 6.960000 -7.000000 8.684227 22.814919 595.936279
0.800000 6.960000 -6.960000 7.974627 26.907299 787.597412
0.800000 6.960000 -6.920000 3.945372 34.101059 1178.448120
0.800000 6.960000 -6.880000 -7.062496 39.839054 1637.029175
0.800000 6.960000 -6.840000 -22.556713 37.088089 1884.331665
0.800000 6.960000 -6.800000 -33.801613 23.468590 1693.323730
0.800000 7.000000 -7.200000 -1.748481 -2.319359 8.436611
0.800000 7.000000 -7.160000 4.487999 -0.114871 20.155334
0.800000 7.000000 -7.120000 5.964720 5.215274 62.776962
0.800000 7.000000 -7.080000 3.796951 8.050495 79.227310
0.800000 7.000000 -7.040000 3.311911 7.778045 71.466728
0.800000 7.000000 -7.000000 6.569468 9.698190 137.212799
0.800000 7.000000 -6.960000 8.284440 18.150829 398.084564
0.800000 7.000000 -6.920000 0.775428 29.366461 862.990356
0.800000 7.000000 -6.880000 -16.570553 32.862053 1354.497803
0.800000 7.000000 -6.840000 -33.718864 21.389683 1594.480347
0.800000 7.000000 -6.800000 -37.520531 -0.262501 1407.859131
0.800000 7.040000 -7.200000 -0.488289 -8.780861 77.341942
0.800000 7.040000 -7.160000 3.910242 -5.288816 43.261574
0.800000 7.040000 -7.120000 3.353325 -2.852043 19.378937
0.800000 7.040000 -7.080000 3.675819 -4.816488 36.710205
0.800000 7.040000 -7.040000 10.007822 -5.926909 135.284760
0.800000 7.040000 -7.000000 18.327341 1.769299 339.021851
0.800000 7.040000 -6.960000 17.577648 17.872852 628.412598
0.800000 7.040000 -6.920000 1.676289 30.457518 930.470337
0.800000 7.040000 -6.880000 -21.301800 26.200783 1140.247681
0.800000 7.040000 -6.840000 -33.941658 4.492784 1172.221191
0.800000 7.040000 -6.800000 -25.188850 -19.491753 1014.406616
0.800000 7.080000 -7.200000 4.000450 -8.196013 83.178238
0.800000 7.080000 -7.160000 4.425755 -6.282227 59.053677
0.800000 7.080000 -7.120000 4.709054 -9.399335 110.522690
0.800000 7.080000 -7.080000 12.209102 -13.767464 338.605225
0.800000 7.080000 -7.040000 25.799643 -9.148073 749.308838
0.800000 7.080000 -7.000000 33.404346 8.833765 1193.885742
0.800000 7.080000 -6.960000 23.177803 30.176632 1447.839600
0.800000 7.080000 -6.920000 -2.361204 37.089355 1381.195557
0.800000 7.080000 -6.880000 -25.110022 21.043444 1073.339722
0.800000 7.080000 -6.840000 -26.622013 -6.921582 756.639893
0.800000 7.080000 -6.800000 -5.661987 -24.493603 631.994690
0.800000 7.120000 -7.200000 3.272942 -3.216922 21.060734
0.800000 7.120000 -7.160000 1.863891 -7.037601 53.001926
0.800000 7.120000 -7.120000 8.173365 -14.517656 277.566223
0.800000 7.120000 -7.080000 24.207767 -14.719044 802.666260
0.800000 7.120000 -7.040000 39.296494 1.119378 1545.467407
0.800000 7.120000 -7.000000 37.759319 27.601093 2187.586670
0.800000 7.120000 -6.960000 14.893350 46.165333 2353.049805
0.800000 7.120000 -6.920000 -15.161727 40.935570 1905.598755
0.800000 7.120000 -6.880000 -29.802322 14.787058 1106.835449
0.800000 7.120000 -6.840000 -18.227720 -11.255582 458.937927
0.800000 7.120000 -6.800000 8.160323 -16.265154 331.146118
0.800000 7.160000 -7.200000 -3.310099 -2.127142 15.481493
0.800000 7.160000 -7.160000 -0.879616 -12.243601 150.679489
0.800000 7.160000 -7.120000 14.152951 -18.188986 531.145264
0.800000 7.160000 -7.080000 33.870724 -8.077850 1212.477661
0.800000 7.160000 -7.040000 41.513012 18.155840 2052.964844
0.800000 7.160000 -7.000000 26.106697 44.885971 2696.310059
0.800000 7.160000 -6.960000 -5.314561 52.272541 2760.663086
0.800000 7.160000 -6.920000 -31.168701 34.104958 2134.635986
0.800000 7.160000 -6.880000 -33.285580 4.833477 1131.292358
0.800000 7.160000 -6.840000 -13.054688 -12.254522 320.598206
0.800000 7.160000 -6.800000 9.992453 -5.350044 128.472076
0.800000 7.200000 -7.200000 -8.406287 -8.655648 145.585907
0.800000 7.200000 -7.160000 2.130658 -20.253189 414.731384
0.800000 7.200000 -7.120000 22.637705 -18.170071 842.617188
0.800000 7.200000 -7.080000 37.503864 2.610896 1413.356567
0.800000 7.200000 -7.040000 32.012394 31.554096 2020.454346
0.800000 7.200000 -7.000000 5.698545 49.087460 2442.052002
0.800000 7.200000 -6.960000 -25.242846 42.360577 2431.619629
0.800000 7.200000 -6.920000 -40.282009 16.747700 1903.125732
0.800000 7.200000 -6.880000 -31.506258 -8.085291 1058.016235
0.800000 7.200000 -6.840000 -9.875780 -14.648150 312.099365
0.800000 7.200000 -6.800000 5.050070 -1.851818 28.932440
0.840000 6.800000 -7.200000 41.248383 -40.414009 3334.721191
0.840000 6.800000 -7.160000 56.810024 -20.525597 3648.678955
0.840000 6.800000 -7.120000 54.927650 2.586048 3023.734619
0.840000 6.800000 -7.080000 41.572254 15.650026 1973.175659
0.840000 6.800000 -7.040000 28.965002 16.723846 1118.658447
0.840000 6.800000 -7.000000 23.620716 13.341980 735.946655
0.840000 6.800000 -6.960000 22.918613 12.608657 684.241028
0.840000 6.800000 -6.920000 21.389404 14.900299 679.525513
0.840000 6.800000 -6.880000 17.633682 16.519239 583.832031
0.840000 6.800000 -6.840000 14.344442 15.913000 458.986603
0.840000 6.800000 -6.800000 13.267754 15.356518 411.855896
0.840000 6.840000 -7.200000 49.143322 -9.132223 2498.463623
0.840000 6.840000 -7.160000 54.078167 7.797060 2985.242432
0.840000 6.840000 -7.120000 49.120186 23.117954 2947.232422
0.840000 6.840000 -7.080000 39.616714 32.444584 2622.135010
0.840000 6.840000 -7.040000 29.963009 37.147427 2277.713135
0.840000 6.840000 -7.000000 20.449398 39.410255 1971.346069
0.840000 6.840000 -6.960000 10.427277 38.542496 1594.252075
0.840000 6.840000 -6.920000 2.111593 33.121292 1101.478882
0.840000 6.840000 -6.880000 -0.840336 25.186615 635.071777
0.840000 6.840000 -6.840000 1.780828 19.975307 402.184265
0.840000 6.840000 -6.800000 5.139199 20.666050 453.497009
0.840000 6.880000 -7.200000 32.264381 16.006498 1297.198364
0.840000 6.880000 -7.160000 34.133694 25.079445 1794.087646
0.840000 6.880000 -7.120000 32.073868 36.069740 2329.759277
0.840000 6.880000 -7.080000 24.427444 47.193497 2823.926270
0.840000 6.880000 -7.040000 10.401867 54.537373 3082.523682
0.840000 6.880000 -7.000000 -6.944901 53.211906 2879.738770
0.840000 6.880000 -6.960000 -20.338680 41.942184 2172.808838
0.840000 6.880000 -6.920000 -23.215033 26.319849 1231.672119
0.840000 6.880000 -6.880000 -16.028397 15.722809 504.116211
0.840000 6.880000 -6.840000 -6.876796 15.395439 284.309875
0.840000 6.880000 -6.800000 -4.429747 21.524498 482.926666
0.840000 6.920000 -7.200000 5.852999 18.670671 382.851562
0.840000 6.920000 -7.160000 11.906130 23.467129 692.462036
0.840000 6.920000 -7.120000 12.283621 36.063896 1451.491943
0.840000 6.920000 -7.080000 0.803079 48.866562 2388.585938
0.840000 6.920000 -7.040000 -19.642002 51.034801 2990.359375
0.840000 6.920000 -7.000000 -37.454376 38.014172 2847.907715
0.840000 6.920000 -6.960000 -41.311531 16.914528 1992.743896
0.840000 6.920000 -6.920000 -30.276424 1.525689 918.989563
0.840000 6.920000 -6.880000 -15.074736 0.538032 227.537125
0.840000 6.920000 -6.840000 -8.460737 9.992350 171.431122
0.840000 6.920000 -6.800000 -13.628209 17.678059 498.241852
0.840000 6.960000 -7.200000 -8.776140 2.378550 82.678139
0.840000 6.960000 -7.160000 1.461980 10.370855 109.692024
0.840000 6.960000 -7.120000 -1.288882 26.100533 682.898987
0.840000 6.960000 -7.080000 -18.839705 34.405815 1538.694580
0.840000 6.960000 -7.040000 -38.726158 24.979401 2123.685791
0.840000 6.960000 -7.000000 -44.838711 2.821029 2018.468262
0.840000 6.960000 -6.960000 -32.375744 -15.492208 1288.197388
0.840000 6.960000 -6.920000 -12.598585 -16.863121 443.089172
0.840000 6.960000 -6.880000 -2.237190 -3.677927 18.532166
0.840000 6.960000 -6.840000 -7.756059 9.190845 144.628082
0.840000 6.960000 -6.800000 -20.075020 9.332579 490.103424
0.840000 7.000000 -7.200000 -3.692756 -14.169563 214.412964
0.840000 7.000000 -7.160000 3.887319 0.072778 15.116543
0.840000 7.000000 -7.120000 -5.922513 13.747174 224.060959
0.840000 7.000000 -7.080000 -24.265675 11.514223 721.400269
0.840000 7.000000 -7.040000 -32.883278 -6.826020 1127.904541
0.840000 7.000000 -7.000000 -22.022308 -25.283958 1124.260620
0.840000 7.000000 -6.960000 -0.528572 -26.994690 728.992615
0.840000 7.000000 -6.920000 12.483425 -10.856810 273.706238
0.840000 7.000000 -6.880000 6.363585 7.401936 95.283867
0.840000 7.000000 -6.840000 -10.874698 10.981470 238.851746
0.840000 7.000000 -6.800000 -21.210377 -1.468326 452.036072
0.840000 7.040000 -7.200000 9.977659 -15.879704 351.718658
0.840000 7.040000 -7.160000 8.689583 -0.587834 75.854401
0.840000 7.040000 -7.120000 -4.991282 3.991120 40.841934
0.840000 7.040000 -7.080000 -14.717382 -7.720228 276.203278
0.840000 7.040000 -7.040000 -7.285579 -23.627110 611.319946
0.840000 7.040000 -7.000000 12.921396 -25.582943 821.449463
0.840000 7.040000 -6.960000 27.191055 -8.262510 807.622559
0.840000 7.040000 -6.920000 21.047138 14.346436 648.802246
0.840000 7.040000 -6.880000 -0.724310 22.230026 494.698700
0.840000 7.040000 -6.840000 -18.333855 9.239309 421.495056
0.840000 7.040000 -6.800000 -16.547997 -10.830011 391.125336
0.840000 7.080000 -7.200000 15.189943 -5.039211 256.128021
0.840000 7.080000 -7.160000 6.590621 2.488719 49.630005
0.840000 7.080000 -7.120000 -2.156629 -3.479069 16.754972
0.840000 7.080000 -7.080000 2.251911 -15.655441 250.163940
0.840000 7.080000 -7.040000 19.567366 -17.621750 693.407837
0.840000 7.080000 -7.000000 33.991924 -0.985276 1156.421753
0.840000 7.080000 -6.960000 29.047979 23.990364 1419.322754
0.840000 7.080000 -6.920000 4.992723 36.565239 1361.943970
0.840000 7.080000 -6.880000 -19.602638 25.499346 1034.479980
0.840000 7.080000 -6.840000 -24.925686 0.722793 621.812195
0.840000 7.080000 -6.800000 -8.864020 -15.734124 326.133514
0.840000 7.120000 -7.200000 6.632635 3.349852 55.213348
0.840000 7.120000 -7.160000 -0.384136 -0.684677 0.616343
0.840000 7.120000 -7.120000 2.829145 -10.405302 116.274368
0.840000 7.120000 -7.080000 17.738726 -12.513283 471.244629
0.840000 7.120000 -7.040000 32.097149 2.185575 1035.003662
0.840000 7.120000 -7.000000 29.732843 27.406487 1635.157471
0.840000 7.120000 -6.960000 6.732625 44.291008 2007.021606
0.840000 7.120000 -6.920000 -22.319700 38.005554 1942.591064
0.840000 7.120000 -6.880000 -35.956802 12.467764 1448.336670
0.840000 7.120000 -6.840000 -25.215794 -11.968637 779.084473
0.840000 7.120000 -6.800000 -1.916377 -16.728539 283.516510
0.840000 7.160000 -7.200000 -5.250710 -1.425862 29.603045
0.840000 7.160000 -7.160000 -2.133795 -11.750991 142.638870
0.840000 7.160000 -7.120000 11.972039 -15.157753 373.087219
0.840000 7.160000 -7.080000 27.019032 -3.176162 740.116089
0.840000 7.160000 -7.040000 28.413616 20.631954 1233.011108
0.840000 7.160000 -7.000000 9.637470 40.707638 1749.992676
0.840000 7.160000 -6.960000 -19.908726 41.129951 2088.030273
0.840000 7.160000 -6.920000 -40.638779 19.770447 2042.380981
0.840000 7.160000 -6.880000 -38.710258 -8.435330 1569.638916
0.840000 7.160000 -6.840000 -17.992729 -23.420483 872.257324
0.840000 7.160000 -6.800000 3.420713 -16.857666 295.882172
0.840000 7.200000 -7.200000 -6.877464 -14.932911 270.291321
0.840000 7.200000 -7.160000 7.164529 -21.651421 520.114502
0.840000 7.200000 -7.120000 23.796757 -13.410955 746.139404
0.840000 7.200000 -7.080000 29.720623 7.689034 942.436646
0.840000 7.200000 -7.040000 17.295301 29.294767 1157.310791
0.840000 7.200000 -7.000000 -8.733953 36.557800 1412.754761
0.840000 7.200000 -6.960000 -33.145264 23.155241 1634.773682
0.840000 7.200000 -6.920000 -40.778900 -3.018608 1672.030640
0.840000 7.200000 -6.880000 -28.055161 -25.036091 1413.897949
0.840000 7.200000 -6.840000 -5.767040 -29.683640 914.377197
0.840000 7.200000 -6.800000 9.729903 -17.267914 392.851868
0.880000 6.800000 -7.200000 69.556305 5.332134 4866.511230
0.880000 6.800000 -7.160000 64.294502 34.811844 5345.647461
0.880000 6.800000 -7.120000 41.481358 51.756866 4399.476074
0.880000 6.800000 -7.080000 18.100231 49.425415 2770.489990
0.880000 6.800000 -7.040000 7.181637 37.513260 1458.820557
0.880000 6.800000 -7.000000 7.018013 29.673298 929.757080
0.880000 6.800000 -6.960000 6.930882 29.490561 917.730286
0.880000 6.800000 -6.920000 1.073875 29.729412 884.991150
0.880000 6.800000 -6.880000 -5.790863 23.556110 588.424438
0.880000 6.800000 -6.840000 -5.799242 13.544209 217.076828
0.880000 6.800000 -6.800000 1.441387 8.310811 71.147179
0.880000 6.840000 -7.200000 43.878284 39.904095 3517.640625
0.880000 6.840000 -7.160000 32.999073 54.100105 4015.760254
0.880000 6.840000 -7.120000 17.934551 60.722839 4008.911377
0.880000 6.840000 -7.080000 3.747684 61.568916 3804.776611
0.880000 6.840000 -7.040000 -9.652460 59.626102 3648.441895
0.880000 6.840000 -7.000000 -23.993616 53.541588 3442.395264
0.880000 6.840000 -6.960000 -36.323467 39.647171 2891.292480
0.880000 6.840000 -6.920000 -39.143692 19.319466 1905.470459
0.880000 6.840000 -6.880000 -28.410618 1.819921 810.475342
0.880000 6.840000 -6.840000 -10.272144 -2.666146 112.625290
0.880000 6.840000 -6.800000 2.408245 6.750177 51.364540
0.880000 6.880000 -7.200000 2.598545 42.800247 1838.613647
0.880000 6.880000 -7.160000 0.307606 46.545490 2166.577393
0.880000 6.880000 -7.120000 -5.473749 55.394444 3098.506348
0.880000 6.880000 -7.080000 -21.640274 64.083206 4574.958496
0.880000 6.880000 -7.040000 -47.298782 61.128124 5973.822266
0.880000 6.880000 -7.000000 -70.028633 39.006443 6425.511719
0.880000 6.880000 -6.960000 -73.780205 4.113899 5460.442871
0.880000 6.880000 -6.920000 -53.176903 -24.838823 3444.750000
0.880000 6.880000 -6.880000 -20.561737 -31.022268 1385.166138
0.880000 6.880000 -6.840000 2.744020 -14.065305 205.362442
0.880000 6.880000 -6.800000 4.050494 9.442182 105.561295
0.880000 6.920000 -7.200000 -22.896227 15.070776 751.365479
0.880000 6.920000 -7.160000 -13.750819 22.409178 691.256226
0.880000 6.920000 -7.120000 -20.213676 40.225739 2026.702637
0.880000 6.920000 -7.080000 -47.468887 48.379196 4593.841797
0.880000 6.920000 -7.040000 -79.572220 29.464977 7199.923340
0.880000 6.920000 -7.000000 -90.473663 -12.862564 8350.929688
0.880000 6.920000 -6.960000 -66.948730 -53.353710 7328.750977
0.880000 6.920000 -6.920000 -22.161701 -65.172073 4738.540039
0.880000 6.920000 -6.880000 14.114891 -42.937458 2042.855347
0.880000 6.920000 -6.840000 20.536270 -7.056431 471.531616
0.880000 6.920000 -6.800000 1.176166 14.924125 224.112854
0.880000 6.960000 -7.200000 -16.316734 -17.113712 559.114990
0.880000 6.960000 -7.160000 -6.485835 2.886415 50.397449
0.880000 6.960000 -7.120000 -24.277197 23.621201 1147.343384
0.880000 6.960000 -7.080000 -59.091549 18.112789 3819.884277
0.880000 6.960000 -7.040000 -80.009567 -19.802052 6793.651855
0.880000 6.960000 -7.000000 -63.115982 -66.204819 8366.705078
0.880000 6.960000 -6.960000 -14.850870 -86.178528 7647.287109
0.880000 6.960000 -6.920000 31.802742 -64.615982 5186.639648
0.880000 6.960000 -6.880000 45.770779 -19.603617 2479.265869
0.880000 6.960000 -6.840000 24.234299 14.459473 796.377563
0.880000 6.960000 -6.800000 -7.790098 17.458744 365.493378
0.880000 7.000000 -7.200000 9.784162 -27.061396 828.048950
0.880000 7.000000 -7.160000 6.932991 0.513424 48.329967
0.880000 7.000000 -7.120000 -22.000071 11.041100 605.908997
0.880000 7.000000 -7.080000 -49.945019 -12.540703 2651.774170
0.880000 7.000000 -7.040000 -45.977745 -55.562378 5201.130859
0.880000 7.000000 -7.000000 -5.251027 -82.205109 6785.252930
0.880000 7.000000 -6.960000 44.136471 -67.659393 6525.821289
0.880000 7.000000 -6.920000 65.429596 -21.374899 4737.918457
0.880000 7.000000 -6.880000 45.944645 21.468456 2571.804932
0.880000 7.000000 -6.840000 6.831078 32.007904 1071.169556
0.880000 7.000000 -6.800000 -18.702625 12.016418 494.182495
0.880000 7.040000 -7.200000 27.892712 -11.602000 912.609741
0.880000 7.040000 -7.160000 9.796854 8.966171 176.370575
0.880000 7.040000 -7.120000 -18.248369 1.888662 336.570038
0.880000 7.040000 -7.080000 -26.411535 -29.940544 1594.005371
0.880000 7.040000 -7.040000 -0.389019 -57.943115 3357.555908
0.880000 7.040000 -7.000000 42.581409 -53.166500 4639.853027
0.880000 7.040000 -6.960000 67.578117 -14.169092 4767.564941
0.880000 7.040000 -6.920000 53.803295 30.295044 3812.584473
0.880000 7.040000 -6.880000 13.559447 47.310619 2422.153320
0.880000 7.040000 -6.840000 -20.140827 29.346455 1266.867310
0.880000 7.040000 -6.800000 -24.664944 -1.365604 610.224304
0.880000 7.080000 -7.200000 22.510695 8.738741 583.096924
0.880000 7.080000 -7.160000 0.287243 11.970048 143.364548
0.880000 7.080000 -7.120000 -13.301830 -6.936800 225.057877
0.880000 7.080000 -7.080000 -1.467306 -30.445141 929.059631
0.880000 7.080000 -7.040000 29.452337 -33.103470 1963.279907
0.880000 7.080000 -7.000000 52.910568 -5.966265 2835.124512
0.880000 7.080000 -6.960000 45.791748 32.714565 3167.126953
0.880000 7.080000 -6.920000 10.654207 52.706566 2891.494385
0.880000 7.080000 -6.880000 -25.777496 39.339485 2212.074463
0.880000 7.080000 -6.840000 -37.132381 6.507297 1421.158691
0.880000 7.080000 -6.800000 -20.914438 -17.551224 745.459167
0.880000 7.120000 -7.200000 3.173533 12.167370 158.116211
0.880000 7.120000 -7.160000 -8.417429 1.326726 72.613312
0.880000 7.120000 -7.120000 -3.985832 -15.160933 245.740753
0.880000 7.120000 -7.080000 15.630867 -20.067709 647.036987
0.880000 7.120000 -7.040000 33.909576 -3.443723 1161.718628
0.880000 7.120000 -7.000000 31.598927 25.737030 1660.886963
0.880000 7.120000 -6.960000 4.986821 44.832226 2034.796875
0.880000 7.120000 -6.920000 -28.481030 37.047184 2183.663086
0.880000 7.120000 -6.880000 -44.428223 7.284657 2026.933105
0.880000 7.120000 -6.840000 -33.087906 -21.675005 1564.615479
0.880000 7.120000 -6.800000 -7.412855 -29.688465 936.355408
0.880000 7.160000 -7.200000 -8.165606 -3.163921 76.687515
0.880000 7.160000 -7.160000 -3.465778 -14.769855 230.160217
0.880000 7.160000 -7.120000 10.469892 -17.913202 430.501434
0.880000 7.160000 -7.080000 23.640678 -6.724143 604.095764
0.880000 7.160000 -7.040000 23.455915 14.217597 752.320068
0.880000 7.160000 -7.000000 5.054844 30.462721 953.528809
0.880000 7.160000 -6.960000 -22.226067 27.824341 1268.192017
0.880000 7.160000 -6.920000 -40.027519 4.909974 1626.310059
0.880000 7.160000 -6.880000 -35.456394 -23.833925 1825.211914
0.880000 7.160000 -6.840000 -12.341645 -39.075806 1679.234741
0.880000 7.160000 -6.800000 11.793268 -32.537132 1197.746094
0.880000 7.200000 -7.200000 -0.475321 -20.056484 402.488495
0.880000 7.200000 -7.160000 13.680731 -21.146341 634.330139
0.880000 7.200000 -7.120000 24.806124 -10.904193 734.245178
0.880000 7.200000 -7.080000 25.432770 5.817245 680.666138
0.880000 7.200000 -7.040000 12.867719 19.808842 557.968384
0.880000 7.200000 -7.000000 -8.098555 21.414764 524.178711
0.880000 7.200000 -6.960000 -25.882198 6.764306 715.644043
0.880000 7.200000 -6.920000 -28.514004 -17.615097 1123.340088
0.880000 7.200000 -6.880000 -12.688328 -37.267151 1549.834229
0.880000 7.200000 -6.840000 12.255190 -39.657684 1722.921631
0.880000 7.200000 -6.800000 30.428383 -23.982216 1501.033203
0.920000 6.800000 -7.200000 53.269127 61.475616 6616.851562
0.920000 6.800000 -7.160000 24.179504 81.960373 7302.151367
0.920000 6.800000 -7.120000 -10.398694 76.820503 6009.522461
0.920000 6.800000 -7.080000 -29.012939 53.192467 3671.189209
0.920000 6.800000 -7.040000 -26.864647 31.441269 1710.262695
0.920000 6.800000 -7.000000 -17.520557 24.188114 892.034790
0.920000 6.800000 -6.960000 -15.899952 25.770393 916.921631
0.920000 6.800000 -6.920000 -22.279167 22.306499 993.941223
0.920000 6.800000 -6.880000 -24.545614 9.383995 690.546570
0.920000 6.800000 -6.840000 -14.465061 -2.976292 218.096298
0.920000 6.800000 -6.800000 1.585878 -2.818693 10.460039
0.920000 6.840000 -7.200000 -0.503458 69.701508 4858.553711
0.920000 6.840000 -7.160000 -20.416496 69.432648 5237.726074
0.920000 6.840000 -7.120000 -36.156769 61.359215 5072.265137
0.920000 6.840000 -7.080000 -46.969193 51.230507 4830.669922
0.920000 6.840000 -7.040000 -56.763416 40.115005 4831.298828
0.920000 6.840000 -7.000000 -65.780708 23.403526 4874.826660
0.920000 6.840000 -6.960000 -66.631165 -1.004150 4440.720215
0.920000 6.840000 -6.920000 -51.375217 -25.091070 3268.974854
0.920000 6.840000 -6.880000 -22.861172 -34.611385 1720.581177
0.920000 6.840000 -6.840000 3.412472 -22.545429 519.941345
0.920000 6.840000 -6.800000 11.369013 1.860882 132.717331
0.920000 6.880000 -7.200000 -40.505825 34.685837 2843.829102
0.920000 6.880000 -7.160000 -40.263958 32.499039 2677.373779
0.920000 6.880000 -7.120000 -47.473198 37.863922 3687.381348
0.920000 6.880000 -7.080000 -68.817238 37.353550 6131.099609
0.920000 6.880000 -7.040000 -94.097160 15.648663 9099.156250
0.920000 6.880000 -7.000000 -101.070549 -27.050219 10946.970703
0.920000 6.880000 -6.960000 -74.887535 -69.481216 10435.783203
0.920000 6.880000 -6.920000 -24.650883 -84.151154 7689.082520
0.920000 6.880000 -6.880000 20.398510 -60.984314 4135.186035
0.920000 6.880000 -6.840000 33.906960 -17.513643 1456.409546
0.920000 6.880000 -6.800000 14.132496 15.176088 430.041077
0.920000 6.920000 -7.200000 -38.195000 -14.811321 1678.233276
0.920000 6.920000 -7.160000 -28.158175 -0.250687 792.945679
0.920000 6.920000 -7.120000 -45.717762 17.373089 2391.937988
0.920000 6.920000 -7.080000 -82.555672 7.912613 6878.048340
0.920000 6.920000 -7.040000 -104.916550 -38.673550 12503.125977
0.920000 6.920000 -7.000000 -82.709251 -97.332359 16314.408203
0.920000 6.920000 -6.960000 -19.453358 -125.697090 16178.192383
0.920000 6.920000 -6.920000 46.562672 -100.607819 12290.015625
0.920000 6.920000 -6.880000 73.283951 -39.448120 6926.691895
0.920000 6.920000 -6.840000 49.995132 14.414432 2707.289062
0.920000 6.920000 -6.800000 4.045551 28.672352 838.470215
0.920000 6.960000 -7.200000 -1.250643 -39.570419 1567.382202
0.920000 6.960000 -7.160000 -2.625795 -7.832947 68.249855
0.920000 6.960000 -7.120000 -38.692379 4.661988 1518.834351
0.920000 6.960000 -7.080000 -76.286217 -28.059135 6606.901855
0.920000 6.960000 -7.040000 -71.852539 -90.634186 13377.343750
0.920000 6.960000 -7.000000 -13.121567 -134.656952 18304.669922
0.920000 6.960000 -6.960000 65.146118 -120.327225 18722.656250
0.920000 6.960000 -6.920000 108.838913 -53.150631 14670.898438
0.920000 6.960000 -6.880000 90.959412 19.802567 8665.755859
0.920000 6.960000 -6.840000 33.311256 50.931038 3703.610352
0.920000 6.960000 -6.800000 -16.070286 31.388739 1243.507080
0.920000 7.000000 -7.200000 34.810902 -24.951286 1834.365479
0.920000 7.000000 -7.160000 10.696499 5.870359 148.876205
0.920000 7.000000 -7.120000 -32.692963 -3.263747 1079.481934
0.920000 7.000000 -7.080000 -49.665527 -54.245926 5409.285156
0.920000 7.000000 -7.040000 -11.620451 -106.555649 11489.141602
0.920000 7.000000 -7.000000 62.350861 -110.765427 16156.609375
0.920000 7.000000 -6.960000 118.309677 -54.128361 16927.058594
0.920000 7.000000 -6.920000 114.105545 25.725605 13681.881836
0.920000 7.000000 -6.880000 56.167717 73.256454 8521.320312
0.920000 7.000000 -6.840000 -8.375747 62.975151 4036.022705
0.920000 7.000000 -6.800000 -35.337845 17.543346 1556.532349
0.920000 7.040000 -7.200000 40.359196 8.297247 1697.708984
0.920000 7.040000 -7.160000 2.782042 18.877304 364.092346
0.920000 7.040000 -7.120000 -27.430649 -11.608743 887.203369
0.920000 7.040000 -7.080000 -15.109722 -59.895054 3815.721191
0.920000 7.040000 -7.040000 39.541149 -80.308289 8012.923828
0.920000 7.040000 -7.000000 95.984093 -45.958084 11325.091797
0.920000 7.040000 -6.960000 107.179886 24.069180 12066.853516
0.920000 7.040000 -6.920000 61.807365 79.373993 10120.380859
0.920000 7.040000 -6.880000 -5.657211 82.263077 6799.217773
0.920000 7.040000 -6.840000 -46.714581 39.332611 3729.306152
0.920000 7.040000 -6.800000 -41.207787 -8.759884 1774.817261
0.920000 7.080000 -7.200000 17.391457 26.708809 1015.823242
0.920000 7.080000 -7.160000 -12.757743 14.060528 360.458435
0.920000 7.080000 -7.120000 -18.179913 -21.043074 773.320190
0.920000 7.080000 -7.080000 12.353487 -47.368057 2396.341553
0.920000 7.080000 -7.040000 57.347244 -35.646839 4559.403809
0.920000 7.080000 -7.000000 77.849236 12.714655 6222.166016
0.920000 7.080000 -6.960000 51.840576 63.180580 6679.230957
0.920000 7.080000 -6.920000 -4.519066 76.987335 5947.471680
0.920000 7.080000 -6.880000 -50.344147 45.218609 4579.255859
0.920000 7.080000 -6.840000 -56.033325 -4.596411 3160.860596
0.920000 7.080000 -6.800000 -27.312412 -35.126053 1979.807373
0.920000 7.120000 -7.200000 -6.711463 16.265079 309.596558
0.920000 7.120000 -7.160000 -15.775847 -4.921914 273.102600
0.920000 7.120000 -7.120000 -2.477418 -26.374992 701.777771
0.920000 7.120000 -7.080000 26.086166 -27.616701 1443.170288
0.920000 7.120000 -7.040000 46.432060 -1.701950 2158.833008
0.920000 7.120000 -7.000000 37.309723 34.701878 2596.235840
0.920000 7.120000 -6.960000 0.064426 52.542568 2760.725586
0.920000 7.120000 -6.920000 -39.694283 35.264576 2819.226562
0.920000 7.120000 -6.880000 -53.065010 -5.734568 2848.780518
0.920000 7.120000 -6.840000 -32.685493 -40.700424 2724.865967
0.920000 7.120000 -6.800000 2.267249 -47.621803 2272.976562
0.920000 7.160000 -7.200000 -8.531175 -7.619746 130.841476
0.920000 7.160000 -7.160000 -0.290209 -19.513525 380.861877
0.920000 7.160000 -7.120000 15.537285 -21.747099 714.343506
0.920000 7.160000 -7.080000 29.230738 -9.605766 946.706787
0.920000 7.160000 -7.040000 28.501123 11.705772 949.339111
0.920000 7.160000 -7.000000 8.969669 26.931194 805.744202
0.920000 7.160000 -6.960000 -18.627987 21.367683 803.579773
0.920000 7.160000 -6.920000 -34.124928 -5.414129 1193.823364
0.920000 7.160000 -6.880000 -24.139936 -36.477371 1913.335205
0.920000 7.160000 -6.840000 5.655704 -50.266548 2558.712891
0.920000 7.160000 -6.800000 34.711189 -38.517426 2688.458740
0.920000 7.200000 -7.200000 9.840832 -19.585772 480.444427
0.920000 7.200000 -7.160000 20.884573 -16.125446 696.195435
0.920000 7.200000 -7.120000 27.490583 -7.074944 805.786987
0.920000 7.200000 -7.080000 27.181709 4.934991 763.199463
0.920000 7.200000 -7.040000 17.772028 15.094470 543.687988
0.920000 7.200000 -7.000000 1.335468 15.750502 249.861786
0.920000 7.200000 -6.960000 -12.573372 1.977558 162.000412
0.920000 7.200000 -6.920000 -11.622221 -20.936632 573.418579
0.920000 7.200000 -6.880000 8.327297 -37.785320 1497.074341
0.920000 7.200000 -6.840000 36.756760 -34.495132 2540.973633
0.920000 7.200000 -6.800000 54.951996 -10.736634 3134.997314
0.960000 6.800000 -7.200000 0.128155 89.214325 7959.212402
0.960000 6.800000 -7.160000 -40.667320 85.171318 8907.984375
0.960000 6.800000 -7.120000 -67.733971 53.628529 7463.909668
0.960000 6.800000 -7.080000 -65.699631 16.391045 4585.107910
0.960000 6.800000 -7.040000 -44.271339 -3.045856 1969.228760
0.960000 6.800000 -7.000000 -26.344091 -1.334213 695.791321
0.960000 6.800000 -6.960000 -23.971897 5.103165 600.694153
0.960000 6.800000 -6.920000 -28.343346 0.727415 803.874329
0.960000 6.800000 -6.880000 -23.325874 -11.953167 686.974609
0.960000 6.800000 -6.840000 -5.844901 -17.241093 331.418152
0.960000 6.800000 -6.800000 10.303429 -6.164503 144.161743
0.960000 6.840000 -7.200000 -53.695030 56.222443 6044.119141
0.960000 6.840000 -7.160000 -69.405289 38.858761 6327.097656
0.960000 6.840000 -7.120000 -74.552750 18.989733 5918.722168
0.960000 6.840000 -7.080000 -73.612892 2.603483 5425.636230
0.960000 6.840000 -7.040000 -71.880264 -12.373058 5319.865234
0.960000 6.840000 -7.000000 -67.026154 -31.116791 5460.759766
0.960000 6.840000 -6.960000 -50.857845 -51.471313 5235.816406
0.960000 6.840000 -6.920000 -20.927620 -61.333302 4199.739258
0.960000 6.840000 -6.880000 11.226088 -49.463058 2572.619385
0.960000 6.840000 -6.840000 26.766172 -19.406902 1093.055908
0.960000 6.840000 -6.800000 16.727238 9.606590 372.087036
0.960000 6.880000 -7.200000 -62.706718 -5.399027 3961.281982
0.960000 6.880000 -7.160000 -56.195145 -8.634727 3232.452881
0.960000 6.880000 -7.120000 -62.459126 -6.678715 3945.747559
0.960000 6.880000 -7.080000 -80.367218 -18.525425 6802.081055
0.960000 6.880000 -7.040000 -89.474792 -53.719849 10891.560547
0.960000 6.880000 -7.000000 -67.357651 -97.545746 14052.226562
0.960000 6.880000 -6.960000 -13.462002 -118.937820 14327.430664
0.960000 6.880000 -6.920000 44.531414 -97.046692 11401.107422
0.960000 6.880000 -6.880000 71.000717 -42.199585 6821.907227
0.960000 6.880000 -6.840000 52.359901 9.979427 2841.148193
0.960000 6.880000 -6.800000 8.797501 27.649797 841.907288
0.960000 6.920000 -7.200000 -22.600788 -48.330013 2846.585938
0.960000 6.920000 -7.160000 -18.580545 -25.857018 1013.822021
0.960000 6.920000 -7.120000 -45.818428 -16.954575 2386.785889
0.960000 6.920000 -7.080000 -76.280762 -48.075722 8130.029297
0.960000 6.920000 -7.040000 -68.343300 -107.841660 16300.629883
0.960000 6.920000 -7.000000 -7.398682 -150.664642 22754.574219
0.960000 6.920000 -6.960000 74.728882 -135.447525 23930.437500
0.960000 6.920000 -6.920000 123.281258 -64.314484 19334.621094
0.960000 6.920000 -6.880000 107.120224 16.306099 11740.630859
0.960000 6.920000 -6.840000 45.068398 54.654060 5018.226562
0.960000 6.920000 -6.800000 -12.429169 36.410702 1480.223511
0.960000 6.960000 -7.200000 30.529640 -42.789268 2762.980469
0.960000 6.960000 -7.160000 9.564716 -9.766153 186.861542
0.960000 6.960000 -7.120000 -35.520428 -18.724144 1612.294434
0.960000 6.960000 -7.080000 -53.496193 -75.746078 8599.310547
0.960000 6.960000 -7.040000 -8.639181 -136.848663 18802.191406
0.960000 6.960000 -7.000000 80.639336 -143.462830 27084.287109
0.960000 6.960000 -6.960000 152.086121 -76.504448 28983.117188
0.960000 6.960000 -6.920000 152.556595 22.911327 23798.443359
0.960000 6.960000 -6.880000 84.529976 87.610245 14820.872070
0.960000 6.960000 -6.840000 2.270586 81.697205 6679.588867
0.960000 6.960000 -6.800000 -37.519188 27.323940 2154.287109
0.960000 7.000000 -7.200000 53.665085 -1.651194 2882.667969
0.960000 7.000000 -7.160000 8.822147 14.953770 301.445526
0.960000 7.000000 -7.120000 -30.888748 -22.258055 1449.535767
0.960000 7.000000 -7.080000 -16.414745 -86.799500 7803.597168
0.960000 7.000000 -7.040000 57.117771 -118.077103 17204.642578
0.960000 7.000000 -7.000000 138.630035 -75.573746 24929.677734
0.960000 7.000000 -6.960000 162.692291 20.699524 26897.251953
0.960000 7.000000 -6.920000 107.561813 104.317825 22451.753906
0.960000 7.000000 -6.880000 14.429529 119.567917 14504.697266
0.960000 7.000000 -6.840000 -50.239815 67.816689 7123.142090
0.960000 7.000000 -6.800000 -52.295307 0.378860 2734.942627
0.960000 7.040000 -7.200000 34.897270 34.672272 2419.985840
0.960000 7.040000 -7.160000 -10.902294 21.416636 577.532288
0.960000 7.040000 -7.120000 -23.737957 -30.350239 1484.627686
0.960000 7.040000 -7.080000 19.586622 -75.166527 6033.642578
0.960000 7.040000 -7.040000 91.801208 -64.487518 12586.101562
0.960000 7.040000 -7.000000 133.527161 6.798616 17875.722656
0.960000 7.040000 -6.960000 104.925323 90.733437 19241.878906
0.960000 7.040000 -6.920000 22.516438 125.978333 16377.530273
0.960000 7.040000 -6.880000 -54.795601 90.724808 11233.548828
0.960000 7.040000 -6.840000 -77.421913 18.960297 6353.645508
0.960000 7.040000 -6.800000 -45.045639 -33.756229 3168.592773
0.960000 7.080000 -7.200000 -0.090111 37.097733 1376.249878
0.960000 7.080000 -7.160000 -23.918995 5.077372 597.898071
0.960000 7.080000 -7.120000 -8.755159 -36.650780 1419.932495
0.960000 7.080000 -7.080000 40.434345 -48.822014 4018.525391
0.960000 7.080000 -7.040000 84.870491 -11.384848 7332.615234
0.960000 7.080000 -7.000000 82.889107 53.722015 9756.659180
0.960000 7.080000 -6.960000 28.051060 97.346855 10263.272461
0.960000 7.080000 -6.920000 -42.466515 84.850349 9002.987305
0.960000 7.080000 -6.880000 -79.118362 26.216137 6947.000977
0.960000 7.080000 -6.840000 -62.008369 -34.162113 5012.087891
0.960000 7.080000 -6.800000 -14.243927 -57.482090 3507.080078
0.960000 7.120000 -7.200000 -16.657776 11.959970 420.522400
0.960000 7.120000 -7.160000 -15.030420 -15.597975 469.210327
0.960000 7.120000 -7.120000 10.534020 -33.191475 1212.639526
0.960000 7.120000 -7.080000 43.818649 -21.950754 2401.909668
0.960000 7.120000 -7.040000 56.457546 15.850510 3438.693359
0.960000 7.120000 -7.000000 31.989408 53.232986 3857.072998
0.960000 7.120000 -6.960000 -16.458107 58.694229 3715.881836
0.960000 7.120000 -6.920000 -54.071274 23.889658 3494.418457
0.960000 7.120000 -6.880000 -53.079987 -27.601580 3579.332031
0.960000 7.120000 -6.840000 -16.096275 -60.033249 3863.081055
0.960000 7.120000 -6.800000 28.006912 -55.536701 3868.712402
0.960000 7.160000 -7.200000 -4.212313 -10.930097 137.210587
0.960000 7.160000 -7.160000 7.723516 -20.043724 461.403595
0.960000 7.160000 -7.120000 25.032915 -18.576859 971.746521
0.960000 7.160000 -7.080000 37.519310 -2.820756 1415.655273
0.960000 7.160000 -7.040000 32.963264 19.846380 1480.455566
0.960000 7.160000 -7.000000 9.488773 32.031647 1116.063232
0.960000 7.160000 -6.960000 -17.954466 19.865568 717.003662
0.960000 7.160000 -6.920000 -26.945959 -12.427677 880.531860
0.960000 7.160000 -6.880000 -6.744306 -42.723763 1870.805420
0.960000 7.160000 -6.840000 30.886114 -48.337761 3290.491211
0.960000 7.160000 -6.800000 60.768932 -25.119225 4323.838379
0.960000 7.200000 -7.200000 18.480820 -10.485942 451.495697
0.960000 7.200000 -7.160000 24.143686 -5.418712 612.280029
0.960000 7.200000 -7.120000 28.077848 0.718677 788.882080
0.960000 7.200000 -7.080000 28.975498 9.829893 936.206299
0.960000 7.200000 -7.040000 22.075153 19.264078 858.417114
0.960000 7.200000 -7.000000 7.658697 20.152077 464.761841
0.960000 7.200000 -6.960000 -3.671195 6.438065 54.926350
0.960000 7.200000 -6.920000 1.755218 -14.908827 225.353912
0.960000 7.200000 -6.880000 26.272621 -25.913036 1361.736084
0.960000 7.200000 -6.840000 54.889183 -12.762486 3175.703613
0.960000 7.200000 -6.800000 66.146362 20.244181 4785.167969
1.000000 6.800000 -7.200000 -54.956707 71.787933 8173.747070
1.000000 6.800000 -7.160000 -87.502914 41.234177 9357.017578
1.000000 6.800000 -7.120000 -90.008400 -5.155040 8128.086426
1.000000 6.800000 -7.080000 -61.765705 -37.918808 5252.838379
1.000000 6.800000 -7.040000 -26.284607 -40.753941 2351.764160
1.000000 6.800000 -7.000000 -7.924866 -24.033913 640.432495
1.000000 6.800000 -6.960000 -9.504829 -11.113258 213.846283
1.000000 6.800000 -6.920000 -13.973244 -13.240744 370.568848
1.000000 6.800000 -6.880000 -6.403133 -20.372650 456.044983
1.000000 6.800000 -6.840000 9.147055 -16.237553 347.326721
1.000000 6.800000 -6.800000 16.087629 0.975642 259.763702
1.000000 6.840000 -7.200000 -79.336708 9.946750 6393.251465
1.000000 6.840000 -7.160000 -80.250992 -16.777525 6721.707031
1.000000 6.840000 -7.120000 -68.957275 -38.076008 6204.888184
1.000000 6.840000 -7.080000 -53.775814 -50.330696 5425.017090
1.000000 6.840000 -7.040000 -39.826462 -58.119083 4963.975098
1.000000 6.840000 -7.000000 -23.870995 -65.664673 4881.673340
1.000000 6.840000 -6.960000 -0.694191 -68.586914 4704.646484
1.000000 6.840000 -6.920000 25.967144 -57.165451 3942.181152
1.000000 6.840000 -6.880000 41.958000 -29.096012 2607.051758
1.000000 6.840000 -6.840000 35.094437 2.708834 1238.957275
1.000000 6.840000 -6.800000 9.415165 18.347160 425.263611
1.000000 6.880000 -7.200000 -47.505104 -47.644711 4526.753418
1.000000 6.880000 -7.160000 -36.544823 -46.744316 3520.555176
1.000000 6.880000 -7.120000 -39.862782 -46.833496 3782.417969
1.000000 6.880000 -7.080000 -46.489937 -64.147507 6276.216797
1.000000 6.880000 -7.040000 -33.759090 -95.910339 10338.468750
1.000000 6.880000 -7.000000 9.039742 -117.332611 13848.658203
1.000000 6.880000 -6.960000 64.644608 -102.240784 14632.103516
1.000000 6.880000 -6.920000 97.921463 -49.541317 12042.955078
1.000000 6.880000 -6.880000 85.527634 10.921139 7434.247559
1.000000 6.880000 -6.840000 37.860218 41.308720 3139.806396
1.000000 6.880000 -6.800000 -8.528309 27.528708 830.561768
1.000000 6.920000 -7.200000 13.951456 -58.175194 3578.996338
1.000000 6.920000 -7.160000 6.468391 -34.165489 1209.120728
1.000000 6.920000 -7.120000 -22.046535 -39.280476 2029.005493
1.000000 6.920000 -7.080000 -31.754589 -81.697838 7682.890625
1.000000 6.920000 -7.040000 7.983278 -127.974022 16441.083984
1.000000 6.920000 -7.000000 84.163208 -129.605011 23880.904297
1.000000 6.920000 -6.960000 145.223099 -68.864273 25832.035156
1.000000 6.920000 -6.920000 144.555878 20.420712 21313.408203
1.000000 6.920000 -6.880000 82.480789 79.318359 13094.482422
1.000000 6.920000 -6.840000 6.484690 73.979309 5514.989258
1.000000 6.920000 -6.800000 -30.631851 22.579458 1448.142212
1.000000 6.960000 -7.200000 55.702446 -19.502665 3483.116455
1.000000 6.960000 -7.160000 18.052294 -0.358730 326.014008
1.000000 6.960000 -7.120000 -18.233528 -32.751198 1405.102539
1.000000 6.960000 -7.080000 -3.335001 -93.594681 8771.085938
1.000000 6.960000 -7.040000 70.380272 -123.089432 20104.390625
1.000000 6.960000 -7.000000 153.287521 -78.796738 29705.990234
1.000000 6.960000 -6.960000 178.552002 21.119102 32326.833984
1.000000 6.960000 -6.920000 121.952850 109.364380 26833.066406
1.000000 6.960000 -6.880000 24.407074 127.112183 16753.212891
1.000000 6.960000 -6.840000 -44.587391 73.671196 7415.480469
1.000000 6.960000 -6.800000 -47.060116 2.109394 2219.104004
1.000000 7.000000 -7.200000 49.799515 30.438232 3406.477783
1.000000 7.000000 -7.160000 -0.686802 20.395752 416.458405
1.000000 7.000000 -7.120000 -16.610397 -35.897274 1564.519531
1.000000 7.000000 -7.080000 32.181953 -87.220917 8643.166016
1.000000 7.000000 -7.040000 116.686111 -75.488747 19314.199219
1.000000 7.000000 -7.000000 167.786774 8.143806 28218.724609
1.000000 7.000000 -6.960000 136.695755 109.215477 30613.750000
1.000000 7.000000 -6.920000 40.259377 154.945831 25629.027344
1.000000 7.000000 -6.880000 -53.020016 117.185959 16543.671875
1.000000 7.000000 -6.840000 -83.111725 33.988541 8062.779297
1.000000 7.000000 -6.800000 -47.161575 -28.772455 3052.068359
1.000000 7.040000 -7.200000 11.545727 50.499130 2683.465820
1.000000 7.040000 -7.160000 -22.877007 12.717916 685.102844
1.000000 7.040000 -7.120000 -6.172577 -42.409393 1836.657349
1.000000 7.040000 -7.080000 58.616096 -60.769592 7128.790039
1.000000 7.040000 -7.040000 120.417587 -12.180529 14648.760742
1.000000 7.040000 -7.000000 121.624451 76.490097 20643.242188
1.000000 7.040000 -6.960000 50.710957 139.722626 22094.013672
1.000000 7.040000 -6.920000 -44.723816 129.312103 18721.839844
1.000000 7.040000 -6.880000 -98.591232 55.796028 12833.427734
1.000000 7.040000 -6.840000 -82.422523 -23.565565 7348.808105
1.000000 7.040000 -6.800000 -24.383354 -56.959442 3838.925781
1.000000 7.080000 -7.200000 -19.849377 32.460953 1447.711182
1.000000 7.080000 -7.160000 -24.409779 -9.598347 687.965515
1.000000 7.080000 -7.120000 11.817427 -40.558697 1784.659546
1.000000 7.080000 -7.080000 64.580688 -26.727036 4885.000000
1.000000 7.080000 -7.040000 87.884338 31.125019 8692.423828
1.000000 7.080000 -7.000000 53.772697 91.855530 11328.941406
1.000000 7.080000 -6.960000 -19.616714 106.293739 11683.174805
1.000000 7.080000 -6.920000 -80.550903 59.986572 10086.836914
1.000000 7.080000 -6.880000 -87.179344 -13.950485 7794.854492
1.000000 7.080000 -6.840000 -41.605133 -64.311958 5867.014648
1.000000 7.080000 -6.800000 16.597754 -65.062019 4508.551758
1.000000 7.120000 -7.200000 -19.913387 2.632658 403.473877
1.000000 7.120000 -7.160000 -5.412090 -21.637516 497.472809
1.000000 7.120000 -7.120000 26.635139 -26.303377 1401.298340
1.000000 7.120000 -7.080000 53.219128 -0.739697 2832.822754
1.000000 7.120000 -7.040000 48.773590 40.780632 4041.922852
1.000000 7.120000 -7.000000 9.381100 65.787704 4416.026855
1.000000 7.120000 -6.960000 -39.080769 50.067738 4034.084961
1.000000 7.120000 -6.920000 -59.963409 0.395363 3595.766602
1.000000 7.120000 -6.880000 -36.534958 -49.137794 3749.326172
1.000000 7.120000 -6.840000 14.193618 -65.274361 4462.201172
1.000000 7.120000 -6.800000 57.371834 -42.079201 5062.186523
1.000000 7.160000 -7.200000 1.856990 -8.584846 77.147980
1.000000 7.160000 -7.160000 14.470316 -12.652658 369.479797
1.000000 7.160000 -7.120000 29.688791 -6.481625 923.435791
1.000000 7.160000 -7.080000 36.986153 11.720382 1505.342773
1.000000 7.160000 -7.040000 26.252871 31.725143 1695.697998
1.000000 7.160000 -7.000000 0.654375 35.987663 1295.540161
1.000000 7.160000 -6.960000 -20.858604 15.607182 678.665527
1.000000 7.160000 -6.920000 -17.695421 -17.938377 634.913330
1.000000 7.160000 -6.880000 13.270126 -39.278732 1718.915039
1.000000 7.160000 -6.840000 52.713921 -29.973297 3677.155762
1.000000 7.160000 -6.800000 74.178818 5.666396 5534.604980
1.000000 7.200000 -7.200000 17.899872 4.111473 337.309631
1.000000 7.200000 -7.160000 18.325073 6.548601 378.692505
1.000000 7.200000 -7.120000 21.755302 8.936884 553.161072
1.000000 7.200000 -7.080000 24.302198 16.533175 863.942749
1.000000 7.200000 -7.040000 18.542778 25.717842 1005.242065
1.000000 7.200000 -7.000000 5.562037 25.767803 694.915955
1.000000 7.200000 -6.960000 -1.885028 11.958855 146.567535
1.000000 7.200000 -6.920000 8.780985 -5.072847 102.839478
1.000000 7.200000 -6.880000 34.753769 -6.352636 1248.180420
1.000000 7.200000 -6.840000 56.582306 17.262810 3499.562012
1.000000 7.200000 -6.800000 54.199562 54.292023 5885.216309
1.040000 6.800000 -7.200000 -79.501816 25.792353 6985.784180
1.040000 6.800000 -7.160000 -88.652290 -18.502693 8201.578125
1.040000 6.800000 -7.120000 -63.171444 -59.237686 7499.734863
1.040000 6.800000 -7.080000 -18.395046 -70.547112 5315.272949
1.040000 6.800000 -7.040000 16.154549 -50.445366 2805.704346
1.040000 6.800000 -7.000000 23.564587 -20.860962 990.469482
1.040000 6.800000 -6.960000 12.388542 -4.978106 178.257523
1.040000 6.800000 -6.920000 3.552864 -6.149731 50.442032
1.040000 6.800000 -6.880000 7.136319 -9.640339 143.863190
1.040000 6.800000 -6.840000 14.304905 -2.809847 212.525543
1.040000 6.800000 -6.800000 11.344310 10.118576 231.078949
1.040000 6.840000 -7.200000 -65.443985 -35.503304 5543.399414
1.040000 6.840000 -7.160000 -49.909027 -59.297596 6007.115723
1.040000 6.840000 -7.120000 -25.490208 -70.573669 5630.393066
1.040000 6.840000 -7.080000 -2.512757 -69.176971 4791.767578
1.040000 6.840000 -7.040000 14.428457 -61.722298 4017.822510
1.040000 6.840000 -7.000000 28.103096 -52.579643 3554.402832
1.040000 6.840000 -6.960000 41.038052 -39.207520 3221.351318
1.040000 6.840000 -6.920000 48.492706 -17.959602 2674.089844
1.040000 6.840000 -6.880000 41.892498 6.566605 1798.101685
1.040000 6.840000 -6.840000 20.208178 21.114145 854.177612
1.040000 6.840000 -6.800000 -3.998701 15.432196 254.142273
1.040000 6.880000 -7.200000 -9.771001 -63.028725 4068.092529
1.040000 6.880000 -7.160000 1.109379 -56.778385 3225.015625
1.040000 6.880000 -7.120000 1.552351 -56.347656 3177.468262
1.040000 6.880000 -7.080000 6.499076 -68.882553 4787.043945
1.040000 6.880000 -7.040000 30.748241 -82.264648 7712.926758
1.040000 6.880000 -7.000000 70.074188 -74.124390 10404.817383
1.040000 6.880000 -6.960000 99.536224 -34.755081 11115.375977
1.040000 6.880000 -6.920000 94.031219 18.638660 9189.269531
1.040000 6.880000 -6.880000 52.887070 52.794250 5584.275391
1.040000 6.880000 -6.840000 3.943214 46.551441 2182.585449
1.040000 6.880000 -6.800000 -18.843071 10.117805 457.431305
1.040000 6.920000 -7.200000 43.379036 -38.082790 3332.039551
1.040000 6.920000 -7.160000 26.474640 -21.655458 1169.865479
1.040000 6.920000 -7.120000 6.843418 -37.726158 1470.095459
1.040000 6.920000 -7.080000 19.164873 -73.463638 5764.198730
1.040000 6.920000 -7.040000 70.662560 -88.376938 12803.679688
1.040000 6.920000 -7.000000 127.554565 -51.971039 18971.156250
1.040000 6.920000 -6.960000 141.929352 23.356289 20689.457031
1.040000 6.920000 -6.920000 95.854919 88.321274 16988.812500
1.040000 6.920000 -6.880000 20.171413 98.693176 10147.228516
1.040000 6.920000 -6.840000 -31.406002 54.089737 3912.036621
1.040000 6.920000 -6.800000 -28.770664 -3.210739 838.059937
1.040000 6.960000 -7.200000 54.896484 14.040757 3210.766846
1.040000 6.960000 -7.160000 15.122046 11.116762 352.258667
1.040000 6.960000 -7.120000 1.512686 -32.001316 1026.372437
1.040000 6.960000 -7.080000 42.116016 -72.789383 7072.053223
1.040000 6.960000 -7.040000 113.677628 -60.418316 16572.974609
1.040000 6.960000 -7.000000 156.372864 14.007771 24648.689453
1.040000 6.960000 -6.960000 126.931244 103.187881 26759.281250
1.040000 6.960000 -6.920000 40.106796 142.547241 21928.271484
1.040000 6.960000 -6.880000 -42.560673 107.020706 13264.842773
1.040000 6.960000 -6.840000 -66.736931 31.633329 5454.485352
1.040000 6.960000 -6.800000 -30.472614 -22.663290 1442.204834
1.040000 7.000000 -7.200000 24.155323 49.299000 3013.871094
1.040000 7.000000 -7.160000 -11.518042 16.079952 391.230133
1.040000 7.000000 -7.120000 3.032484 -37.247917 1396.603271
1.040000 7.000000 -7.080000 67.004807 -55.214096 7538.240234
1.040000 7.000000 -7.040000 129.096130 -5.517293 16696.251953
1.040000 7.000000 -7.000000 129.915649 85.377106 24167.326172
1.040000 7.000000 -6.960000 57.072933 150.448456 25892.058594
1.040000 7.000000 -6.920000 -40.633411 140.105286 21280.564453
1.040000 7.000000 -6.880000 -95.180290 65.511086 13350.990234
1.040000 7.000000 -6.840000 -77.762283 -13.761937 6236.363770
1.040000 7.000000 -6.800000 -18.671528 -44.242233 2306.001221
1.040000 7.040000 -7.200000 -15.104638 45.106926 2262.784912
1.040000 7.040000 -7.160000 -24.142553 -2.130880 587.403503
1.040000 7.040000 -7.120000 16.083878 -38.763012 1761.262207
1.040000 7.040000 -7.080000 77.503235 -22.904829 6531.382812
1.040000 7.040000 -7.040000 104.856964 45.513622 13066.472656
1.040000 7.040000 -7.000000 64.529274 117.728745 18024.085938
1.040000 7.040000 -6.960000 -21.926020 135.687286 18891.789062
1.040000 7.040000 -6.920000 -93.692848 82.994080 15666.367188
1.040000 7.040000 -6.880000 -102.672241 -1.032907 10542.656250
1.040000 7.040000 -6.840000 -52.682842 -57.246887 6052.687988
1.040000 7.040000 -6.800000 9.751415 -57.187599 3365.511475
1.040000 7.080000 -7.200000 -29.528748 16.529144 1145.159546
1.040000 7.080000 -7.160000 -13.497372 -19.020773 543.968872
1.040000 7.080000 -7.120000 29.969784 -27.203913 1638.240723
1.040000 7.080000 -7.080000 66.393654 8.038723 4472.738281
1.040000 7.080000 -7.040000 59.220711 65.446182 7790.294922
1.040000 7.080000 -7.000000 4.367958 99.399521 9899.343750
1.040000 7.080000 -6.960000 -61.627937 78.312775 9930.893555
1.040000 7.080000 -6.920000 -90.564476 13.378645 8380.912109
1.040000 7.080000 -6.880000 -63.026501 -50.274059 6499.820801
1.040000 7.080000 -6.840000 -2.797305 -71.983078 5189.388184
1.040000 7.080000 -6.800000 46.939110 -47.317299 4442.207031
1.040000 7.120000 -7.200000 -15.636066 -4.230609 262.384613
1.040000 7.120000 -7.160000 5.339463 -17.164883 323.143066
1.040000 7.120000 -7.120000 32.403015 -7.957184 1113.272217
1.040000 7.120000 -7.080000 43.160019 22.973724 2390.579102
1.040000 7.120000 -7.040000 22.797146 54.147919 3451.707031
1.040000 7.120000 -7.000000 -18.911095 57.905319 3710.655273
1.040000 7.120000 -6.960000 -51.352676 25.013641 3262.779785
1.040000 7.120000 -6.920000 -47.399857 -24.398056 2842.011475
1.040000 7.120000 -6.880000 -6.782089 -55.775280 3156.878662
1.040000 7.120000 -6.840000 43.557068 -48.200005 4220.458496
1.040000 7.120000 -6.800000 72.333984 -9.805729 5328.357422
1.040000 7.160000 -7.200000 3.314485 -0.934385 11.858884
1.040000 7.160000 -7.160000 12.597591 -1.280386 160.338699
1.040000 7.160000 -7.120000 22.550480 6.490431 550.649841
1.040000 7.160000 -7.080000 23.704903 22.077126 1049.321899
1.040000 7.160000 -7.040000 10.035013 34.337685 1279.778076
1.040000 7.160000 -7.000000 -10.782076 29.516886 987.499695
1.040000 7.160000 -6.960000 -20.155907 6.133812 443.884216
1.040000 7.160000 -6.920000 -4.656960 -19.400925 398.083160
1.040000 7.160000 -6.880000 29.719036 -24.623291 1489.527588
1.040000 7.160000 -6.840000 60.153664 -0.438537 3618.655518
1.040000 7.160000 -6.800000 65.235336 40.436943 5890.795410
1.040000 7.200000 -7.200000 5.437684 14.674170 244.899658
1.040000 7.200000 -7.160000 4.148356 11.142075 141.354691
1.040000 7.200000 -7.120000 9.799751 10.133165 198.716156
1.040000 7.200000 -7.080000 14.465096 17.064857 500.448334
1.040000 7.200000 -7.040000 10.063517 25.696228 761.570496
1.040000 7.200000 -7.000000 0.027591 25.076546 628.833862
1.040000 7.200000 -6.960000 -2.456545 13.827208 197.226273
1.040000 7.200000 -6.920000 10.904015 4.954571 143.445312
1.040000 7.200000 -6.880000 31.820478 14.137019 1212.398193
1.040000 7.200000 -6.840000 40.446014 42.901054 3476.380615
1.040000 7.200000 -6.800000 23.277279 74.461067 6086.282227
1.080000 6.800000 -7.200000 -67.581894 -16.374506 4835.437012
1.080000 6.800000 -7.160000 -51.900246 -55.450512 5768.394531
1.080000 6.800000 -7.120000 -10.561896 -74.317200 5634.600098
1.080000 6.800000 -7.080000 31.864681 -59.618851 4569.765625
1.080000 6.800000 -7.040000 50.265251 -23.374622 3072.968506
1.080000 6.800000 -7.000000 40.077415 8.468973 1677.922729
1.080000 6.800000 -6.960000 18.167698 19.316645 703.197998
1.080000 6.800000 -6.920000 4.191653 13.641586 203.662842
1.080000 6.800000 -6.880000 2.797970 7.100485 58.245522
1.080000 6.800000 -6.840000 4.234659 8.039783 82.570450
1.080000 6.800000 -6.800000 -0.249790 10.813110 116.985748
1.080000 6.840000 -7.200000 -30.493500 -53.601353 3802.958496
1.080000 6.840000 -7.160000 -5.442952 -65.394249 4306.033203
1.080000 6.840000 -7.120000 21.823582 -61.102119 4209.737793
1.080000 6.840000 -7.080000 40.767265 -44.434265 3636.374023
1.080000 6.840000 -7.040000 48.018291 -24.271236 2894.849121
1.080000 6.840000 -7.000000 46.965942 -6.614149 2249.546875
1.080000 6.840000 -6.960000 41.168907 8.021893 1759.229614
1.080000 6.840000 -6.920000 30.338409 19.842735 1314.153198
1.080000 6.840000 -6.880000 13.925140 25.017132 819.766418
1.080000 6.840000 -6.840000 -2.808256 18.347258 344.508148
1.080000 6.840000 -6.800000 -9.482214 1.272427 91.531456
1.080000 6.880000 -7.200000 20.551832 -48.208939 2746.479492
1.080000 6.880000 -7.160000 28.489429 -38.959328 2329.476807
1.080000 6.880000 -7.120000 31.342033 -35.289375 2227.663086
1.080000 6.880000 -7.080000 39.913406 -36.622955 2934.320801
1.080000 6.880000 -7.040000 58.080650 -31.109079 4341.136719
1.080000 6.880000 -7.000000 74.805298 -8.194004 5662.974121
1.080000 6.880000 -6.960000 72.202736 26.947842 5939.420898
1.080000 6.880000 -6.920000 43.827606 53.391426 4771.503418
1.080000 6.880000 -6.880000 4.875134 51.705063 2697.180420
1.080000 6.880000 -6.840000 -18.015625 23.026073 854.762817
1.080000 6.880000 -6.800000 -9.573453 -9.395818 179.932404
1.080000 6.920000 -7.200000 46.153805 -7.685468 2189.239990
1.080000 6.920000 -7.160000 28.696299 -2.725662 830.906799
1.080000 6.920000 -7.120000 22.162519 -19.964745 889.768311
1.080000 6.920000 -7.080000 43.902008 -37.149902 3307.501465
1.080000 6.920000 -7.040000 82.036461 -25.208899 7365.469727
1.080000 6.920000 -7.000000 102.159470 21.354298 10892.563477
1.080000 6.920000 -6.960000 78.894531 74.146545 11722.056641
1.080000 6.920000 -6.920000 22.361446 93.810677 9300.477539
1.080000 6.920000 -6.880000 -27.800358 65.918556 5118.115723
1.080000 6.920000 -6.840000 -36.906620 15.118023 1590.653198
1.080000 6.920000 -6.800000 -5.654440 -16.832840 315.317200
1.080000 6.960000 -7.200000 31.330421 32.583843 2043.302124
1.080000 6.960000 -7.160000 5.366953 13.755184 218.009277
1.080000 6.960000 -7.120000 13.817488 -21.397940 648.794800
1.080000 6.960000 -7.080000 57.994637 -32.593765 4425.731445
1.080000 6.960000 -7.040000 101.113426 4.781866 10246.791016
1.080000 6.960000 -7.000000 99.222824 71.732445 14990.712891
1.080000 6.960000 -6.960000 43.238205 118.309082 15866.581055
1.080000 6.960000 -6.920000 -29.417374 107.668137 12457.809570
1.080000 6.960000 -6.880000 -66.858276 49.787743 6948.848633
1.080000 6.960000 -6.840000 -48.388237 -7.953805 2404.684326
1.080000 6.960000 -6.800000 -0.308151 -23.969738 574.643311
1.080000 7.000000 -7.200000 -3.979589 42.887184 1855.147705
1.080000 7.000000 -7.160000 -14.158943 4.554269 221.217041
1.080000 7.000000 -7.120000 18.513874 -26.536182 1046.932495
1.080000 7.000000 -7.080000 70.579262 -12.779778 5144.754883
1.080000 7.000000 -7.040000 93.541672 46.789635 10939.314453
1.080000 7.000000 -7.000000 57.619812 109.538223 15318.665039
1.080000 7.000000 -6.960000 -17.962292 124.505325 15824.219727
1.080000 7.000000 -6.920000 -79.339050 78.108887 12395.683594
1.080000 7.000000 -6.880000 -84.895370 6.374932 7247.863770
1.080000 7.000000 -6.840000 -40.212734 -38.080528 3067.190430
1.080000 7.000000 -6.800000 11.261745 -31.907368 1144.907104
1.080000 7.040000 -7.200000 -27.356606 24.149384 1331.576660
1.080000 7.040000 -7.160000 -13.474014 -12.056412 326.906128
1.080000 7.040000 -7.120000 29.755680 -20.788956 1317.581177
1.080000 7.040000 -7.080000 66.221344 15.276924 4618.650879
1.080000 7.040000 -7.040000 57.937336 73.897568 8817.585938
1.080000 7.040000 -7.000000 1.393408 107.997925 11665.493164
1.080000 7.040000 -6.960000 -65.266327 86.259125 11700.330078
1.080000 7.040000 -6.920000 -93.626740 21.766314 9239.739258
1.080000 7.040000 -6.880000 -66.343353 -39.199482 5938.040039
1.080000 7.040000 -6.840000 -9.668869 -57.524498 3402.554932
1.080000 7.040000 -6.800000 33.085621 -32.234341 2133.710938
1.080000 7.080000 -7.200000 -24.809387 1.429655 617.549561
1.080000 7.080000 -7.160000 -0.005300 -16.067406 258.161560
1.080000 7.080000 -7.120000 32.666538 -4.622375 1088.468994
1.080000 7.080000 -7.080000 43.820778 33.505318 3042.866943
1.080000 7.080000 -7.040000 16.754604 69.917267 5169.141113
1.080000 7.080000 -7.000000 -33.878311 71.925659 6321.040039
1.080000 7.080000 -6.960000 -70.993652 31.837929 6053.752441
1.080000 7.080000 -6.920000 -65.681870 -24.348810 4906.972656
1.080000 7.080000 -6.880000 -21.523115 -58.142059 3843.743408
1.080000 7.080000 -6.840000 29.876738 -50.174683 3410.118164
1.080000 7.080000 -6.800000 56.830688 -13.083536 3400.906006
1.080000 7.120000 -7.200000 -9.584048 -4.075872 108.466721
1.080000 7.120000 -7.160000 7.705821 -5.716681 92.060120
1.080000 7.120000 -7.120000 22.018270 8.681246 560.168274
1.080000 7.120000 -7.080000 18.743488 31.854816 1366.047607
1.080000 7.120000 -7.040000 -4.946220 44.727825 2025.043457
1.080000 7.120000 -7.000000 -33.237648 32.073757 2133.467285
1.080000 7.120000 -6.960000 -42.292412 -1.910923 1792.299683
1.080000 7.120000 -6.920000 -20.453236 -34.137253 1583.686890
1.080000 7.120000 -6.880000 20.650105 -40.529099 2069.034668
1.080000 7.120000 -6.840000 54.993076 -15.403316 3261.500732
1.080000 7.120000 -6.800000 62.814510 25.228081 4582.118652
1.080000 7.160000 -7.200000 -3.283792 5.524359 41.301834
1.080000 7.160000 -7.160000 1.501263 4.620629 23.604006
1.080000 7.160000 -7.120000 7.280317 9.237792 138.339813
1.080000 7.160000 -7.080000 6.671875 18.333260 380.622314
1.080000 7.160000 -7.040000 -2.900693 22.885611 532.165161
1.080000 7.160000 -7.000000 -13.117469 14.918991 394.644287
1.080000 7.160000 -6.960000 -10.727493 -1.881947 118.620834
1.080000 7.160000 -6.920000 9.044846 -12.295767 232.995117
1.080000 7.160000 -6.880000 35.263626 -2.159966 1248.188721
1.080000 7.160000 -6.840000 48.589745 28.177786 3154.950928
1.080000 7.160000 -6.800000 36.961792 62.748875 5303.595703
1.080000 7.200000 -7.200000 -11.995672 12.017510 288.316711
1.080000 7.200000 -7.160000 -9.558249 2.971649 100.190826
1.080000 7.200000 -7.120000 0.642560 1.085804 1.591854
1.080000 7.200000 -7.080000 7.886599 8.994735 143.103683
1.080000 7.200000 -7.040000 5.615589 18.204863 362.951874
1.080000 7.200000 -7.000000 -0.872108 19.479492 380.211182
1.080000 7.200000 -6.960000 -0.597858 14.380294 207.150284
1.080000 7.200000 -6.920000 9.615364 14.697540 308.472900
1.080000 7.200000 -6.880000 19.393677 29.667068 1256.249634
1.080000 7.200000 -6.840000 13.744801 54.479671 3156.954102
1.080000 7.200000 -6.800000 -12.135426 72.514442 5405.612793
1.120000 6.800000 -7.200000 -38.279377 -33.743649 2603.944336
1.120000 6.800000 -7.160000 -9.463715 -54.266960 3034.465088
1.120000 6.800000 -7.120000 28.815758 -49.023254 3233.627441
1.120000 6.800000 -7.080000 53.395309 -18.523411 3194.175781
1.120000 6.800000 -7.040000 50.408337 18.387409 2879.097412
1.120000 6.800000 -7.000000 26.037205 40.093285 2285.407471
1.120000 6.800000 -6.960000 -0.638561 39.104782 1529.591675
1.120000 6.800000 -6.920000 -14.657358 24.768112 828.297485
1.120000 6.800000 -6.880000 -15.258957 11.256983 359.555420
1.120000 6.800000 -6.840000 -11.052736 4.568054 143.030090
1.120000 6.800000 -6.800000 -8.047231 1.146467 66.072304
1.120000 6.840000 -7.200000 -2.454190 -44.316734 1969.995972
1.120000 6.840000 -7.160000 21.929878 -42.596855 2295.411621
1.120000 6.840000 -7.120000 41.388168 -26.055618 2391.875732
1.120000 6.840000 -7.080000 47.280823 -1.968610 2239.351807
1.120000 6.840000 -7.040000 39.118767 19.120173 1895.858887
1.120000 6.840000 -7.000000 23.085520 30.539104 1465.578125
1.120000 6.840000 -6.960000 6.274865 31.671749 1042.473633
1.120000 6.840000 -6.920000 -6.972408 24.952440 671.238770
1.120000 6.840000 -6.880000 -14.103989 12.875528 364.701721
1.120000 6.840000 -6.840000 -12.514922 -1.330485 158.393463
1.120000 6.840000 -6.800000 -1.060940 -11.682273 137.601089
1.120000 6.880000 -7.200000 26.606022 -24.056286 1286.585205
1.120000 6.880000 -7.160000 31.719816 -14.379072 1212.904419
1.120000 6.880000 -7.120000 33.733101 -6.615660 1181.689087
1.120000 6.880000 -7.080000 36.506325 0.674917 1333.167358
1.120000 6.880000 -7.040000 38.856064 12.025351 1654.402710
1.120000 6.880000 -7.000000 34.144775 27.629602 1929.260742
1.120000 6.880000 -6.960000 17.864464 39.381126 1870.012207
1.120000 6.880000 -6.920000 -4.280758 36.683933 1364.035767
1.120000 6.880000 -6.880000 -17.780666 17.850679 634.798828
1.120000 6.880000 -6.840000 -11.281725 -4.731323 149.662735
1.120000 6.880000 -6.800000 11.610449 -12.893149 301.035828
1.120000 6.920000 -7.200000 28.410954 7.814018 868.241150
1.120000 6.920000 -7.160000 18.503571 6.119536 379.830841
1.120000 6.920000 -7.120000 20.330715 -3.383253 424.784393
1.120000 6.920000 -7.080000 35.940346 -4.394586 1311.020874
1.120000 6.920000 -7.040000 50.373421 13.939281 2731.784912
1.120000 6.920000 -7.000000 44.630318 43.223030 3860.095703
1.120000 6.920000 -6.960000 15.598715 60.610016 3916.893799
1.120000 6.920000 -6.920000 -17.629780 49.833622 2794.198975
1.120000 6.920000 -6.880000 -29.489695 18.346914 1206.251343
1.120000 6.920000 -6.840000 -11.721337 -7.491775 193.516449
1.120000 6.920000 -6.800000 18.062881 -5.858807 360.593323
1.120000 6.960000 -7.200000 7.637078 25.555971 711.432617
1.120000 6.960000 -7.160000 0.419327 6.683659 44.847126
1.120000 6.960000 -7.120000 16.995237 -9.696441 382.859070
1.120000 6.960000 -7.080000 45.216560 -1.473047 2046.707275
1.120000 6.960000 -7.040000 57.219730 32.880234 4355.207520
1.120000 6.960000 -7.000000 35.265854 68.756744 5971.169922
1.120000 6.960000 -6.960000 -9.102022 75.998947 5858.686523
1.120000 6.960000 -6.920000 -43.129021 47.224545 4090.270020
1.120000 6.960000 -6.880000 -42.104778 5.908119 1807.718262
1.120000 6.960000 -6.840000 -11.860159 -14.649757 355.278748
1.120000 6.960000 -6.800000 17.445415 -1.459740 306.473358
1.120000 7.000000 -7.200000 -13.771114 20.457821 608.166016
1.120000 7.000000 -7.160000 -5.491723 -3.959007 45.832760
1.120000 7.000000 -7.120000 23.831263 -10.172950 671.417969
1.120000 7.000000 -7.080000 49.292614 14.961994 2653.623047
1.120000 7.000000 -7.040000 43.673031 56.481400 5097.481934
1.120000 7.000000 -7.000000 3.983947 81.059105 6586.450684
1.120000 7.000000 -6.960000 -42.668396 66.377190 6226.523438
1.120000 7.000000 -6.920000 -61.786293 22.281466 4314.009766
1.120000 7.000000 -6.880000 -41.971584 -17.420765 2065.096924
1.120000 7.000000 -6.840000 -4.032499 -25.209379 651.773865
1.120000 7.000000 -6.800000 19.573774 -3.015321 392.224792
1.120000 7.040000 -7.200000 -19.526989 5.265189 409.025482
1.120000 7.040000 -7.160000 0.512930 -9.302589 86.801270
1.120000 7.040000 -7.120000 27.544632 0.426130 758.888306
1.120000 7.040000 -7.080000 36.567902 32.715950 2407.544922
1.120000 7.040000 -7.040000 13.518066 63.532749 4219.148438
1.120000 7.040000 -7.000000 -28.984989 65.583443 5141.317383
1.120000 7.040000 -6.960000 -59.891235 33.129868 4684.547852
1.120000 7.040000 -6.920000 -56.041145 -11.488800 3272.602295
1.120000 7.040000 -6.880000 -22.013420 -36.792831 1838.303101
1.120000 7.040000 -6.840000 15.142653 -28.855768 1061.955322
1.120000 7.040000 -6.800000 30.547670 -0.734152 933.699158
1.120000 7.080000 -7.200000 -12.803773 -2.587004 170.629196
1.120000 7.080000 -7.160000 5.129992 -3.938731 41.830421
1.120000 7.080000 -7.120000 18.739103 11.791177 490.185852
1.120000 7.080000 -7.080000 13.298065 35.243851 1418.967529
1.120000 7.080000 -7.040000 -12.015651 46.563133 2312.501465
1.120000 7.080000 -7.000000 -39.893051 32.311539 2635.491211
1.120000 7.080000 -6.960000 -47.806873 -0.996357 2286.489746
1.120000 7.080000 -6.920000 -27.255604 -30.578632 1677.920654
1.120000 7.080000 -6.880000 8.664135 -35.841118 1359.652954
1.120000 7.080000 -6.840000 36.452030 -14.756693 1546.510498
1.120000 7.080000 -6.800000 41.369156 16.575682 1986.160400
1.120000 7.120000 -7.200000 -8.315624 0.565047 69.468880
1.120000 7.120000 -7.160000 -0.455841 2.518587 6.551073
1.120000 7.120000 -7.120000 3.444614 11.164131 136.503189
1.120000 7.120000 -7.080000 -2.462193 20.439251 423.825378
1.120000 7.120000 -7.040000 -15.712259 20.305084 659.171509
1.120000 7.120000 -7.000000 -24.848923 6.585899 660.843018
1.120000 7.120000 -6.960000 -18.445606 -12.775831 503.462250
1.120000 7.120000 -6.920000 3.962545 -22.437492 519.142822
1.120000 7.120000 -6.880000 29.759205 -11.975448 1029.021606
1.120000 7.120000 -6.840000 42.524120 15.273640 2041.584839
1.120000 7.120000 -6.800000 34.421947 44.940033 3204.477051
1.120000 7.160000 -7.200000 -13.757403 3.627480 202.424759
1.120000 7.160000 -7.160000 -10.393911 -1.103680 109.251503
1.120000 7.160000 -7.120000 -3.962253 -1.182328 17.097345
1.120000 7.160000 -7.080000 -0.432258 3.217087 10.536494
1.120000 7.160000 -7.040000 -1.748199 6.357975 43.480049
1.120000 7.160000 -7.000000 -2.823809 4.098259 24.769623
1.120000 7.160000 -6.960000 3.063828 0.024123 9.387621
1.120000 7.160000 -6.920000 15.822824 3.230395 260.797180
1.120000 7.160000 -6.880000 26.297430 19.347540 1065.882080
1.120000 7.160000 -6.840000 23.217892 43.678699 2446.899170
1.120000 7.160000 -6.800000 2.928630 63.550537 4047.247559
1.120000 7.200000 -7.200000 -21.510612 -3.866435 477.655762
1.120000 7.200000 -7.160000 -11.936076 -13.458209 323.593323
1.120000 7.200000 -7.120000 2.518540 -12.056877 151.711334
1.120000 7.200000 -7.080000 11.158702 -0.918245 125.359802
1.120000 7.200000 -7.040000 10.051455 10.904058 219.930237
1.120000 7.200000 -7.000000 4.736478 16.612007 298.393005
1.120000 7.200000 -6.960000 2.716032 18.442257 347.493683
1.120000 7.200000 -6.920000 4.277312 24.017509 595.136169
1.120000 7.200000 -6.880000 1.643979 36.601845 1342.397705
1.120000 7.200000 -6.840000 -12.701559 49.852173 2646.568848
1.120000 7.200000 -6.800000 -37.386780 52.629272 4167.611816
1.160000 6.800000 -7.200000 -14.567160 -28.464203 1022.412964
1.160000 6.800000 -7.160000 11.268892 -29.634287 1005.178894
1.160000 6.800000 -7.120000 33.224586 -11.432699 1234.579834
1.160000 6.800000 -7.080000 37.237785 18.031012 1711.770020
1.160000 6.800000 -7.040000 20.305645 42.200436 2193.195801
1.160000 6.800000 -7.000000 -7.034815 48.137238 2366.682129
1.160000 6.800000 -6.960000 -28.998156 35.396873 2093.831543
1.160000 6.800000 -6.920000 -35.969452 14.462924 1502.977661
1.160000 6.800000 -6.880000 -29.319641 -2.658051 866.706604
1.160000 6.800000 -6.840000 -16.899303 -10.566697 397.241547
1.160000 6.800000 -6.800000 -5.223196 -10.937784 146.916901
1.160000 6.840000 -7.200000 5.920566 -26.736288 749.882202
1.160000 6.840000 -7.160000 22.135681 -16.752386 770.630798
1.160000 6.840000 -7.120000 29.123112 2.670608 855.287781
1.160000 6.840000 -7.080000 22.143433 22.597115 1000.961182
1.160000 6.840000 -7.040000 4.492140 33.320518 1130.436279
1.160000 6.840000 -7.000000 -14.892287 30.480974 1150.869995
1.160000 6.840000 -6.960000 -27.184269 16.874048 1023.718018
1.160000 6.840000 -6.920000 -28.045210 -0.365434 786.667358
1.160000 6.840000 -6.880000 -18.332081 -13.869230 528.420715
1.160000 6.840000 -6.840000 -2.443556 -18.576284 351.049316
1.160000 6.840000 -6.800000 13.492527 -12.604401 340.919189
1.160000 6.880000 -7.200000 16.372665 -12.192022 416.709595
1.160000 6.880000 -7.160000 19.735863 -2.890207 397.857574
1.160000 6.880000 -7.120000 18.033180 6.735270 370.559448
1.160000 6.880000 -7.080000 12.188028 14.080561 346.810242
1.160000 6.880000 -7.040000 3.757813 17.698593 327.361359
1.160000 6.880000 -7.000000 -5.563704 16.413118 300.345245
1.160000 6.880000 -6.960000 -12.800646 9.305957 250.457367
1.160000 6.880000 -6.920000 -13.419258 -2.109385 184.526001
1.160000 6.880000 -6.880000 -4.276425 -11.955735 161.227417
1.160000 6.880000 -6.840000 11.911719 -12.108353 288.501251
1.160000 6.880000 -6.800000 25.651863 1.537400 660.381653
1.160000 6.920000 -7.200000 12.940880 1.690618 170.324554
1.160000 6.920000 -7.160000 11.050091 2.035927 126.249504
1.160000 6.920000 -7.120000 12.332476 1.620393 154.715622
1.160000 6.920000 -7.080000 15.646627 4.805366 267.908508
1.160000 6.920000 -7.040000 15.605442 12.429558 398.023743
1.160000 6.920000 -7.000000 8.439334 19.035389 433.568390
1.160000 6.920000 -6.960000 -2.187286 17.531456 312.136169
1.160000 6.920000 -6.920000 -6.828992 7.526496 103.283272
1.160000 6.920000 -6.880000 0.575623 -1.803225 3.582962
1.160000 6.920000 -6.840000 14.843820 0.990883 221.320831
1.160000 6.920000 -6.800000 22.080711 18.110628 815.552612
1.160000 6.960000 -7.200000 3.847503 6.210169 53.369473
1.160000 6.960000 -7.160000 6.325566 -0.195722 40.051098
1.160000 6.960000 -7.120000 15.699448 -1.616691 249.086349
1.160000 6.960000 -7.080000 24.648352 7.354951 661.636536
1.160000 6.960000 -7.040000 23.330173 22.795639 1063.938232
1.160000 6.960000 -7.000000 9.573754 32.982788 1179.520996
1.160000 6.960000 -6.960000 -7.075774 29.079777 895.700012
1.160000 6.960000 -6.920000 -13.223312 14.721544 391.579834
1.160000 6.960000 -6.880000 -4.752120 3.890985 37.722412
1.160000 6.960000 -6.840000 8.119861 7.816421 127.028564
1.160000 6.960000 -6.800000 9.922865 23.479134 649.732971
1.160000 7.000000 -7.200000 -1.557699 4.035033 18.707920
1.160000 7.000000 -7.160000 7.206219 -0.849929 52.651966
1.160000 7.000000 -7.120000 19.326221 4.115052 390.436493
1.160000 7.000000 -7.080000 24.326563 19.590437 975.566895
1.160000 7.000000 -7.040000 14.739077 35.880203 1504.629395
1.160000 7.000000 -7.000000 -5.213909 39.999611 1627.153687
1.160000 7.000000 -6.960000 -21.462711 27.822681 1234.749634
1.160000 7.000000 -6.920000 -22.265440 9.081347 578.220703
1.160000 7.000000 -6.880000 -9.304735 -0.852868 87.305481
1.160000 7.000000 -6.840000 3.644725 4.847078 36.778187
1.160000 7.000000 -6.800000 3.756479 18.219376 346.056793
1.160000 7.040000 -7.200000 -2.557332 2.807538 14.422213
1.160000 7.040000 -7.160000 6.406274 3.616223 54.117424
1.160000 7.040000 -7.120000 13.328153 12.855028 342.891418
1.160000 7.040000 -7.080000 10.432086 26.668095 820.015686
1.160000 7.040000 -7.040000 -3.780744 34.791096 1224.714355
1.160000 7.040000 -7.000000 -20.797283 29.097065 1279.166138
1.160000 7.040000 -6.960000 -28.040636 11.980539 929.810608
1.160000 7.040000 -6.920000 -19.881195 -4.381268 414.457428
1.160000 7.040000 -6.880000 -3.073301 -8.194942 76.602249
1.160000 7.040000 -6.840000 9.105445 1.748095 85.964958
1.160000 7.040000 -6.800000 8.590969 15.662722 319.125610
1.160000 7.080000 -7.200000 -5.290977 4.478018 48.047085
1.160000 7.080000 -7.160000 -1.513420 6.763464 48.034885
1.160000 7.080000 -7.120000 -0.302545 12.418482 154.310226
1.160000 7.080000 -7.080000 -4.941682 18.041698 349.923096
1.160000 7.080000 -7.040000 -13.951279 17.715843 508.489288
1.160000 7.080000 -7.000000 -20.400925 8.921200 495.785522
1.160000 7.080000 -6.960000 -17.303621 -3.523199 311.828247
1.160000 7.080000 -6.920000 -4.372313 -10.247721 124.132896
1.160000 7.080000 -6.880000 10.677961 -5.002349 139.042358
1.160000 7.080000 -6.840000 18.033279 9.940239 424.007507
1.160000 7.080000 -6.800000 13.515320 25.788031 847.686401
1.160000 7.120000 -7.200000 -12.738411 3.060105 171.631363
1.160000 7.120000 -7.160000 -11.578610 0.319331 134.166199
1.160000 7.120000 -7.120000 -8.589066 -0.697494 74.258545
1.160000 7.120000 -7.080000 -6.427070 0.136208 41.325775
1.160000 7.120000 -7.040000 -5.789741 0.332623 33.631733
1.160000 7.120000 -7.000000 -4.074899 -1.575941 19.088390
1.160000 7.120000 -6.960000 1.703222 -3.156765 12.866130
1.160000 7.120000 -6.920000 10.714386 0.467690 115.016800
1.160000 7.120000 -6.880000 17.506510 11.898896 448.061584
1.160000 7.120000 -6.840000 15.828649 28.129856 1041.834961
1.160000 7.120000 -6.800000 3.672268 41.985859 1776.297974
1.160000 7.160000 -7.200000 -18.938082 -6.935995 406.758972
1.160000 7.160000 -7.160000 -12.637543 -14.408104 367.300964
1.160000 7.160000 -7.120000 -1.850160 -15.687258 249.513153
1.160000 7.160000 -7.080000 7.312411 -9.977943 153.030716
1.160000 7.160000 -7.040000 11.285465 -1.299703 129.050949
1.160000 7.160000 -7.000000 11.372169 6.229250 168.129791
1.160000 7.160000 -6.960000 10.842093 12.351140 270.101654
1.160000 7.160000 -6.920000 10.365417 19.874744 502.447327
1.160000 7.160000 -6.880000 6.727297 30.368877 967.525269
1.160000 7.160000 -6.840000 -3.962667 41.027905 1698.991699
1.160000 7.160000 -6.800000 -21.873642 45.915939 2586.729736
1.160000 7.200000 -7.200000 -14.747711 -21.668734 687.028992
1.160000 7.200000 -7.160000 -0.035652 -25.580193 654.347534
1.160000 7.200000 -7.120000 14.729976 -18.096487 544.455017
1.160000 7.200000 -7.080000 21.571402 -3.067521 474.735077
1.160000 7.200000 -7.040000 18.838036 11.770825 493.423920
1.160000 7.200000 -7.000000 10.778364 21.505892 578.676514
1.160000 7.200000 -6.960000 2.166304 26.736340 719.524719
1.160000 7.200000 -6.920000 -6.099305 30.562733 971.282166
1.160000 7.200000 -6.880000 -16.427361 33.843151 1415.217041
1.160000 7.200000 -6.840000 -30.427919 33.716995 2062.694092
1.160000 7.200000 -6.800000 -45.895187 26.371967 2801.848877
1.200000 6.800000 -7.200000 -5.438938 -15.520187 270.458252
1.200000 6.800000 -7.160000 7.004156 -7.250021 101.621002
1.200000 6.800000 -7.120000 11.987097 8.619406 217.984650
1.200000 6.800000 -7.080000 4.931947 25.313662 665.105530
1.200000 6.800000 -7.040000 -12.485289 33.759102 1295.559448
1.200000 6.800000 -7.000000 -31.968410 28.290993 1822.359497
1.200000 6.800000 -6.960000 -43.208061 10.979042 1987.475830
1.200000 6.800000 -6.920000 -40.479076 -9.265633 1724.407593
1.200000 6.800000 -6.880000 -26.153633 -22.510111 1190.717529
1.200000 6.800000 -6.840000 -8.332460 -24.010035 645.911621
1.200000 6.800000 -6.800000 5.174362 -15.987146 282.362885
1.200000 6.840000 -7.200000 2.054048 -16.948122 291.457947
1.200000 6.840000 -7.160000 8.413448 -6.672460 115.307831
1.200000 6.840000 -7.120000 6.344394 6.607081 83.904861
1.200000 6.840000 -7.080000 -4.915352 15.673380 269.815521
1.200000 6.840000 -7.040000 -20.135069 14.447292 614.145264
1.200000 6.840000 -7.000000 -30.781836 2.469195 953.618347
1.200000 6.840000 -6.960000 -30.323174 -14.295732 1123.862793
1.200000 6.840000 -6.920000 -18.321625 -26.968306 1062.971436
1.200000 6.840000 -6.880000 -0.482813 -28.988190 840.548218
1.200000 6.840000 -6.840000 14.959434 -19.466448 602.727234
1.200000 6.840000 -6.800000 21.758207 -2.835573 481.460052
1.200000 6.880000 -7.200000 8.863029 -15.227730 310.437042
1.200000 6.880000 -7.160000 10.634585 -6.457424 154.792725
1.200000 6.880000 -7.120000 5.438235 1.143382 30.881727
1.200000 6.880000 -7.080000 -3.631614 2.368354 18.797718
1.200000 6.880000 -7.040000 -10.477006 -3.796051 124.177658
1.200000 6.880000 -7.000000 -10.281979 -13.547218 289.246216
1.200000 6.880000 -6.960000 -2.357257 -20.954399 444.643524
1.200000 6.880000 -6.920000 9.989891 -21.333433 554.913269
1.200000 6.880000 -6.880000 21.422688 -13.097809 630.484131
1.200000 6.880000 -6.840000 26.664139 1.950124 714.779297
1.200000 6.880000 -6.800000 22.197369 19.089439 857.129883
1.200000 6.920000 -7.200000 14.889522 -10.802201 338.385406
1.200000 6.920000 -7.160000 14.645929 -4.085132 231.191559
1.200000 6.920000 -7.120000 10.251540 -1.059024 106.215607
1.200000 6.920000 -7.080000 6.788691 -3.101253 55.704098
1.200000 6.920000 -7.040000 7.905053 -6.943829 110.706619
1.200000 6.920000 -7.000000 13.068160 -8.198453 237.991440
1.200000 6.920000 -6.960000 19.082840 -4.861611 387.790039
1.200000 6.920000 -6.920000 23.073271 2.484719 538.549683
1.200000 6.920000 -6.880000 23.360874 12.523627 702.571716
1.200000 6.920000 -6.840000 18.341625 23.775539 901.691467
1.200000 6.920000 -6.800000 6.425170 33.148476 1140.104248
1.200000 6.960000 -7.200000 18.742371 -2.704805 358.592438
1.200000 6.960000 -7.160000 17.093624 3.088888 301.733215
1.200000 6.960000 -7.120000 14.210007 4.176932 219.371048
1.200000 6.960000 -7.080000 14.749689 3.039195 226.790039
1.200000 6.960000 -7.040000 18.448442 4.535868 360.919128
1.200000 6.960000 -7.000000 21.101818 10.434870 554.173218
1.200000 6.960000 -6.960000 19.493114 18.127865 708.600952
1.200000 6.960000 -6.920000 14.160286 24.241112 788.145142
1.200000 6.960000 -6.880000 7.266125 28.058338 840.066895
1.200000 6.960000 -6.840000 -0.933053 30.511366 931.814026
1.200000 6.960000 -6.800000 -11.869892 30.545845 1073.942993
1.200000 7.000000 -7.200000 16.682346 8.016244 342.560852
1.200000 7.000000 -7.160000 12.428675 12.508350 310.930786
1.200000 7.000000 -7.120000 9.769098 12.106478 242.002075
1.200000 7.000000 -7.080000 11.354109 11.961844 272.001526
1.200000 7.000000 -7.040000 13.724972 16.222939 451.558594
1.200000 7.000000 -7.000000 11.829484 23.437698 689.262390
1.200000 7.000000 -6.960000 4.758543 28.561813 838.420898
1.200000 7.000000 -6.920000 -3.748116 28.646484 834.669495
1.200000 7.000000 -6.880000 -9.991922 25.385983 744.286621
1.200000 7.000000 -6.840000 -14.188177 21.885315 680.271362
1.200000 7.000000 -6.800000 -18.756330 18.152275 681.305054
1.200000 7.040000 -7.200000 6.358015 15.791409 289.792938
1.200000 7.040000 -7.160000 -0.253352 16.186968 262.082092
1.200000 7.040000 -7.120000 -2.155705 12.588758 163.123901
1.200000 7.040000 -7.080000 0.643517 11.440758 131.305054
1.200000 7.040000 -7.040000 2.801276 15.327194 242.770035
1.200000 7.040000 -7.000000 -0.070230 20.746502 430.422272
1.200000 7.040000 -6.960000 -6.813283 22.461121 550.922791
1.200000 7.040000 -6.920000 -12.562315 19.192747 526.173279
1.200000 7.040000 -6.880000 -14.272390 14.339293 409.316437
1.200000 7.040000 -6.840000 -13.486918 11.530741 314.854950
1.200000 7.040000 -6.800000 -13.500138 10.622334 295.087708
1.200000 7.080000 -7.200000 -8.326926 13.557688 253.148590
1.200000 7.080000 -7.160000 -13.355897 7.783275 238.959351
1.200000 7.080000 -7.120000 -10.962011 1.015469 121.196869
1.200000 7.080000 -7.080000 -4.138354 -0.374801 17.266453
1.200000 7.080000 -7.040000 0.658405 4.331097 19.191896
1.200000 7.080000 -7.000000 -0.130589 10.423512 108.666664
1.200000 7.080000 -6.960000 -4.413038 13.084843 190.688019
1.200000 7.080000 -6.920000 -7.602416 11.963224 200.915466
1.200000 7.080000 -6.880000 -7.684899 10.558023 170.529541
1.200000 7.080000 -6.840000 -6.811508 11.785789 185.301483
1.200000 7.080000 -6.800000 -8.265550 14.910455 290.640961
1.200000 7.120000 -7.200000 -17.631227 -0.264162 310.929962
1.200000 7.120000 -7.160000 -15.707347 -9.601349 338.906647
1.200000 7.120000 -7.120000 -6.245479 -14.976559 263.303314
1.200000 7.120000 -7.080000 4.997282 -11.962248 168.068192
1.200000 7.120000 -7.040000 11.351377 -2.346952 134.361954
1.200000 7.120000 -7.000000 10.424932 8.061857 173.672760
1.200000 7.120000 -6.960000 5.003123 14.631559 239.113770
1.200000 7.120000 -6.920000 -0.530742 17.114286 293.180481
1.200000 7.120000 -6.880000 -4.364880 18.402145 357.691132
1.200000 7.120000 -6.840000 -8.149767 20.700495 494.929199
1.200000 7.120000 -6.800000 -14.415432 23.156918 744.047546
1.200000 7.160000 -7.200000 -13.230600 -17.954367 497.408081
1.200000 7.160000 -7.160000 -2.923210 -23.739254 572.097351
1.200000 7.160000 -7.120000 10.823044 -21.339657 572.519226
1.200000 7.160000 -7.080000 21.249359 -10.216720 555.916626
1.200000 7.160000 -7.040000 23.451597 5.179770 576.807434
1.200000 7.160000 -7.000000 17.225220 18.687511 645.931274
1.200000 7.160000 -6.960000 6.331163 26.377766 735.870117
1.200000 7.160000 -6.920000 -4.746992 28.271648 821.820068
1.200000 7.160000 -6.880000 -13.815954 26.956001 917.506592
1.200000 7.160000 -6.840000 -21.580166 24.670055 1074.315186
1.200000 7.160000 -6.800000 -29.796776 21.305616 1341.777100
1.200000 7.200000 -7.200000 3.780883 -27.096600 748.520813
1.200000 7.200000 -7.160000 17.025795 -23.077564 822.451660
1.200000 7.200000 -7.120000 26.939665 -11.102692 849.015320
1.200000 7.200000 -7.080000 29.182489 5.271363 879.404968
1.200000 7.200000 -7.040000 22.734467 20.848381 951.510986
1.200000 7.200000 -7.000000 9.754171 31.227524 1070.302124
1.200000 7.200000 -6.960000 -5.799662 34.288498 1209.337158
1.200000 7.200000 -6.920000 -19.892027 30.588430 1331.344849
1.200000 7.200000 -6.880000 -30.050087 22.713394 1418.906006
1.200000 7.200000 -6.840000 -36.255318 13.584075 1498.975220
1.200000 7.200000 -6.800000 -40.217182 4.447242 1637.199707
