#kx 	ky 	kz 	real 	imag 	intensity
2.800000 4.800000 -5.200000 -8.222518 -35.532669 1330.180420
2.800000 4.800000 -5.160000 11.426334 -38.352951 1601.510010
2.800000 4.800000 -5.120000 26.303751 -26.189678 1377.786621
2.800000 4.800000 -5.080000 27.117716 -9.267084 821.249329
2.800000 4.800000 -5.040000 17.032526 -0.211689 290.151733
2.800000 4.800000 -5.000000 7.349538 -2.947880 62.705700
2.800000 4.800000 -4.960000 6.497778 -10.779154 158.411270
2.800000 4.800000 -4.920000 13.340162 -14.250837 381.046295
2.800000 4.800000 -4.880000 20.308199 -10.026440 512.952454
2.800000 4.800000 -4.840000 21.739212 -2.275750 477.772400
2.800000 4.800000 -4.800000 18.439983 3.226819 350.445343
2.800000 4.840000 -5.200000 11.366758 -35.359814 1379.519653
2.800000 4.840000 -5.160000 28.392988 -31.694199 1810.684082
2.800000 4.840000 -5.120000 37.737404 -18.582552 1769.422974
2.800000 4.840000 -5.080000 36.530392 -5.419158 1363.836792
2.800000 4.840000 -5.040000 29.996386 1.128556 901.056763
2.800000 4.840000 -5.000000 25.094961 1.575769 632.240112
2.800000 4.840000 -4.960000 24.436630 0.801594 597.791504
2.800000 4.840000 -4.920000 25.794685 2.411094 671.179138
2.800000 4.840000 -4.880000 26.031258 6.222322 716.343689
2.800000 4.840000 -4.840000 24.254015 10.173129 691.749817
2.800000 4.840000 -4.800000 21.437166 13.198883 633.762573
2.800000 4.880000 -5.200000 23.367619 -21.888138 1025.136230
2.800000 4.880000 -5.160000 36.050461 -16.185764 1561.614746
2.800000 4.880000 -5.120000 42.704472 -4.725499 1846.002197
2.800000 4.880000 -5.080000 42.395779 7.018703 1846.664307
2.800000 4.880000 -5.040000 37.592590 15.565409 1655.484863
2.800000 4.880000 -5.000000 31.325882 20.160259 1387.746948
2.800000 4.880000 -4.960000 25.749640 21.587368 1129.058350
2.800000 4.880000 -4.920000 22.103657 21.339748 943.956543
2.800000 4.880000 -4.880000 20.509850 21.367348 877.217468
2.800000 4.880000 -4.840000 19.501331 23.239889 920.394409
2.800000 4.880000 -4.800000 16.675756 26.653301 988.479248
2.800000 4.920000 -5.200000 21.629965 -6.919775 515.738647
2.800000 4.920000 -5.160000 32.304543 -1.713623 1046.520020
2.800000 4.920000 -5.120000 38.593338 9.535465 1580.370728
2.800000 4.920000 -5.080000 37.597771 22.757870 1931.513062
2.800000 4.920000 -5.040000 29.804596 32.859451 1968.057495
2.800000 4.920000 -5.000000 19.195488 36.390762 1692.754395
2.800000 4.920000 -4.960000 11.075544 33.957100 1275.752319
2.800000 4.920000 -4.920000 8.268605 30.033258 970.366394
2.800000 4.920000 -4.880000 8.745111 29.379997 939.661255
2.800000 4.920000 -4.840000 7.462558 32.711899 1125.758179
2.800000 4.920000 -4.800000 1.336123 35.908928 1291.236328
2.800000 4.960000 -5.200000 12.406976 -0.723698 154.456787
2.800000 4.960000 -5.160000 23.040873 5.503756 561.173157
2.800000 4.960000 -5.120000 27.305975 18.694567 1095.103027
2.800000 4.960000 -5.080000 21.790205 31.957850 1496.117188
2.800000 4.960000 -5.040000 9.831724 38.115120 1549.425171
2.800000 4.960000 -5.000000 -0.857603 35.523590 1262.660889
2.800000 4.960000 -4.960000 -4.731094 29.423679 888.136169
2.800000 4.960000 -4.920000 -3.244946 26.949451 736.802612
2.800000 4.960000 -4.880000 -3.084259 30.205080 921.859497
2.800000 4.960000 -4.840000 -9.135013 34.246582 1256.276855
2.800000 4.960000 -4.800000 -19.164553 32.304634 1410.869385
2.800000 5.000000 -5.200000 6.095561 -2.814595 45.077801
2.800000 5.000000 -5.160000 14.595640 6.705584 257.997559
2.800000 5.000000 -5.120000 13.087565 19.899328 567.267639
2.800000 5.000000 -5.080000 2.897161 27.366110 757.297546
2.800000 5.000000 -5.040000 -7.471004 25.201286 690.920776
2.800000 5.000000 -5.000000 -10.546102 18.546921 455.208557
2.800000 5.000000 -4.960000 -7.243119 16.128178 312.580872
2.800000 5.000000 -4.920000 -5.652821 21.011791 473.449738
2.800000 5.000000 -4.880000 -12.242590 27.196211 889.514893
2.800000 5.000000 -4.840000 -24.525013 25.777901 1265.976440
2.800000 5.000000 -4.800000 -33.028728 14.523378 1301.825317
2.800000 5.040000 -5.200000 5.964059 -4.998693 60.556938
2.800000 5.040000 -5.160000 7.937973 5.872005 97.491859
2.800000 5.040000 -5.120000 0.570251 12.811832 164.468231
2.800000 5.040000 -5.080000 -7.677248 10.187349 162.722229
2.800000 5.040000 -5.040000 -7.919844 2.985258 71.635689
2.800000 5.040000 -5.000000 -0.750281 1.589987 3.090980
2.800000 5.040000 -4.960000 3.762049 10.218985 118.580650
2.800000 5.040000 -4.920000 -3.308267 21.353596 466.920685
2.800000 5.040000 -4.880000 -19.513956 22.712986 896.674255
2.800000 5.040000 -4.840000 -32.319427 9.947407 1143.496338
2.800000 5.040000 -4.800000 -31.109993 -8.218969 1035.383179
2.800000 5.080000 -5.200000 6.143497 -2.252193 42.814926
2.800000 5.080000 -5.160000 0.729872 3.330472 11.624758
2.800000 5.080000 -5.120000 -5.756105 -0.784379 33.748001
2.800000 5.080000 -5.080000 -2.856234 -9.904837 106.263863
2.800000 5.080000 -5.040000 9.776169 -11.486021 227.502167
2.800000 5.080000 -5.000000 19.944799 1.175938 399.177856
2.800000 5.080000 -4.960000 14.622318 19.907528 610.121826
2.800000 5.080000 -4.920000 -5.785516 27.986855 816.736206
2.800000 5.080000 -4.880000 -25.994005 16.415821 945.167480
2.800000 5.080000 -4.840000 -29.702374 -6.513549 924.657349
2.800000 5.080000 -4.800000 -15.080304 -22.592724 737.846741
2.800000 5.120000 -5.200000 0.362892 1.275415 1.758374
2.800000 5.120000 -5.160000 -6.337753 -4.170366 57.559074
2.800000 5.120000 -5.120000 -2.370510 -16.386137 274.124817
2.800000 5.120000 -5.080000 14.970107 -20.894489 660.683777
2.800000 5.120000 -5.040000 32.752697 -6.907429 1120.451660
2.800000 5.120000 -5.000000 33.098003 19.362202 1470.372681
2.800000 5.120000 -4.960000 11.308866 37.726704 1551.194580
2.800000 5.120000 -4.920000 -17.379133 32.286659 1344.462646
2.800000 5.120000 -4.880000 -30.663317 7.089926 990.506042
2.800000 5.120000 -4.840000 -19.610737 -17.088827 676.609009
2.800000 5.120000 -4.800000 3.673452 -21.989775 497.044464
2.800000 5.160000 -5.200000 -9.306095 -2.325084 92.009422
2.800000 5.160000 -5.160000 -7.739465 -17.292812 358.940674
2.800000 5.160000 -5.120000 10.828630 -27.065105 849.779175
2.800000 5.160000 -5.080000 35.337994 -16.392521 1517.488525
2.800000 5.160000 -5.040000 44.561752 13.475381 2167.335693
2.800000 5.160000 -5.000000 26.746910 42.361725 2509.913086
2.800000 5.160000 -4.960000 -7.376860 47.839790 2343.063477
2.800000 5.160000 -4.920000 -32.474674 25.929001 1726.917603
2.800000 5.160000 -4.880000 -30.961065 -4.741015 981.064819
2.800000 5.160000 -4.840000 -8.221908 -19.949863 465.596802
2.800000 5.160000 -4.800000 13.964577 -11.360456 324.069366
2.800000 5.200000 -5.200000 -13.821951 -14.555092 402.897034
2.800000 5.200000 -5.160000 1.211195 -29.984005 900.507507
2.800000 5.200000 -5.120000 28.475876 -26.772221 1527.627197
2.800000 5.200000 -5.080000 46.710773 0.293766 2181.982422
2.800000 5.200000 -5.040000 37.977669 35.337685 2691.055176
2.800000 5.200000 -5.000000 5.046647 53.026436 2837.271729
2.800000 5.200000 -4.960000 -29.098797 40.496078 2486.672363
2.800000 5.200000 -4.920000 -40.614891 9.016541 1730.867310
2.800000 5.200000 -4.880000 -25.103447 -16.177944 891.908936
2.800000 5.200000 -4.840000 0.264816 -18.163084 329.967743
2.800000 5.200000 -4.800000 13.924190 -1.301883 195.577957
2.840000 4.800000 -5.200000 33.872284 -27.907341 1926.151367
2.840000 4.800000 -5.160000 45.795612 -11.584132 2231.430176
2.840000 4.800000 -5.120000 42.197701 7.896336 1842.998047
2.840000 4.800000 -5.080000 27.640776 17.168068 1058.755005
2.840000 4.800000 -5.040000 15.040272 13.295477 402.979492
2.840000 4.800000 -5.000000 12.631023 4.983429 184.377319
2.840000 4.800000 -4.960000 17.189644 2.256456 300.575439
2.840000 4.800000 -4.920000 19.684431 6.440360 428.955078
2.840000 4.800000 -4.880000 15.941792 10.754588 369.801880
2.840000 4.800000 -4.840000 10.327368 9.480152 196.527802
2.840000 4.800000 -4.800000 9.340951 4.626581 108.658615
2.840000 4.840000 -5.200000 39.893902 -5.664391 1623.608765
2.840000 4.840000 -5.160000 45.931221 6.730292 2154.973877
2.840000 4.840000 -5.120000 44.082062 20.421864 2360.280762
2.840000 4.840000 -5.080000 36.408558 30.688553 2267.370361
2.840000 4.840000 -5.040000 26.210812 36.337479 2007.418945
2.840000 4.840000 -5.000000 15.202227 37.694271 1651.965698
2.840000 4.840000 -4.960000 4.618275 34.265568 1195.457642
2.840000 4.840000 -4.920000 -2.595510 25.844097 674.654053
2.840000 4.840000 -4.880000 -2.923518 15.408548 245.970306
2.840000 4.840000 -4.840000 3.603420 8.886057 91.946640
2.840000 4.840000 -4.800000 11.540856 10.415493 241.673859
2.840000 4.880000 -5.200000 27.267214 12.513266 900.082764
2.840000 4.880000 -5.160000 35.143345 20.133312 1640.404907
2.840000 4.880000 -5.120000 38.197754 35.646759 2729.759766
2.840000 4.880000 -5.080000 29.708996 54.211533 3821.514893
2.840000 4.880000 -5.040000 8.498400 65.666870 4384.360352
2.840000 4.880000 -5.000000 -17.362032 60.986076 4020.741699
2.840000 4.880000 -4.960000 -34.160610 40.399101 2799.034668
2.840000 4.880000 -4.920000 -32.518517 15.462722 1296.549561
2.840000 4.880000 -4.880000 -15.649855 1.355350 246.754929
2.840000 4.880000 -4.840000 2.453387 4.877148 29.805679
2.840000 4.880000 -4.800000 8.388064 19.061251 433.690887
2.840000 4.920000 -5.200000 7.622315 13.515838 240.777557
2.840000 4.920000 -5.160000 21.190748 23.326773 993.186157
2.840000 4.920000 -5.120000 22.756411 47.055222 2732.048096
2.840000 4.920000 -5.080000 2.198048 69.570755 4844.921387
2.840000 4.920000 -5.040000 -33.378632 71.409172 6213.403320
2.840000 4.920000 -5.000000 -62.093647 46.014557 5972.960449
2.840000 4.920000 -4.960000 -64.335579 7.819779 4200.215820
2.840000 4.920000 -4.920000 -39.881374 -18.093262 1917.890137
2.840000 4.920000 -4.880000 -8.695823 -16.691668 354.229095
2.840000 4.920000 -4.840000 6.189455 4.839382 61.728973
2.840000 4.920000 -4.800000 -1.982176 24.918026 624.837036
2.840000 4.960000 -5.200000 -2.117237 0.439712 4.676039
2.840000 4.960000 -5.160000 11.716909 19.594294 521.222290
2.840000 4.960000 -5.120000 1.617203 48.151596 2321.191406
2.840000 4.960000 -5.080000 -33.188675 60.540054 4766.586426
2.840000 4.960000 -5.040000 -70.013268 40.150677 6513.934082
2.840000 4.960000 -5.000000 -80.335777 -3.348992 6465.052734
2.840000 4.960000 -4.960000 -55.193783 -39.925415 4640.392578
2.840000 4.960000 -4.920000 -14.084236 -44.634830 2190.633789
2.840000 4.960000 -4.880000 11.984329 -19.069307 507.262634
2.840000 4.960000 -4.840000 7.553946 11.547876 190.415558
2.840000 4.960000 -4.800000 -15.788052 22.362297 749.334900
2.840000 5.000000 -5.200000 3.566847 -11.182140 137.762665
2.840000 5.000000 -5.160000 7.241880 15.726312 299.761719
2.840000 5.000000 -5.120000 -17.495117 36.669643 1650.741821
2.840000 5.000000 -5.080000 -54.435833 27.655441 3728.083496
2.840000 5.000000 -5.040000 -72.350525 -10.983743 5355.241211
2.840000 5.000000 -5.000000 -53.137131 -51.721031 5498.620117
2.840000 5.000000 -4.960000 -9.745397 -63.212982 4090.853760
2.840000 5.000000 -4.920000 24.556166 -38.490982 2084.561035
2.840000 5.000000 -4.880000 25.946314 -0.628170 673.605774
2.840000 5.000000 -4.840000 0.178971 19.418737 377.119415
2.840000 5.000000 -4.800000 -25.764202 10.655961 777.343628
2.840000 5.040000 -5.200000 14.187542 -9.739561 296.145386
2.840000 5.040000 -5.160000 2.708456 13.785711 197.381577
2.840000 5.040000 -5.120000 -27.010315 16.026564 986.407837
2.840000 5.040000 -5.080000 -47.910980 -11.150351 2419.792236
2.840000 5.040000 -5.040000 -37.101692 -48.006695 3681.178223
2.840000 5.040000 -5.000000 1.091115 -63.093246 3981.948242
2.840000 5.040000 -4.960000 37.208687 -42.380299 3180.576172
2.840000 5.040000 -4.920000 43.184635 -2.775383 1872.615479
2.840000 5.040000 -4.880000 17.717873 23.679657 874.649170
2.840000 5.040000 -4.840000 -14.259840 19.294882 575.635498
2.840000 5.040000 -4.800000 -26.495821 -5.136089 728.407898
2.840000 5.080000 -5.200000 15.343885 0.827485 236.119553
2.840000 5.080000 -5.160000 -4.479714 9.263603 105.882187
2.840000 5.080000 -5.120000 -23.129583 -6.249898 574.038818
2.840000 5.080000 -5.080000 -18.623325 -34.339481 1526.028198
2.840000 5.080000 -5.040000 11.042462 -48.458237 2470.136719
2.840000 5.080000 -5.000000 43.214642 -31.811632 2879.485107
2.840000 5.080000 -4.960000 50.484840 5.272401 2576.517090
2.840000 5.080000 -4.920000 26.405037 33.761215 1837.045654
2.840000 5.080000 -4.880000 -8.527374 32.568714 1133.437256
2.840000 5.080000 -4.840000 -26.568722 7.132991 756.776550
2.840000 5.080000 -4.800000 -18.078274 -17.966064 649.603455
2.840000 5.120000 -5.200000 4.310263 6.247764 57.612915
2.840000 5.120000 -5.160000 -9.638287 -2.165956 97.587936
2.840000 5.120000 -5.120000 -7.524368 -21.803566 532.011597
2.840000 5.120000 -5.080000 14.923167 -32.364075 1270.134277
2.840000 5.120000 -5.040000 41.189060 -18.093788 2023.923828
2.840000 5.120000 -5.000000 47.313496 15.132503 2467.559570
2.840000 5.120000 -4.960000 24.554777 42.765499 2431.824951
2.840000 5.120000 -4.920000 -11.143396 43.250542 1994.784668
2.840000 5.120000 -4.880000 -33.056217 17.695478 1405.843506
2.840000 5.120000 -4.840000 -27.630878 -11.897982 905.027405
2.840000 5.120000 -4.800000 -5.045591 -23.637478 584.188354
2.840000 5.160000 -5.200000 -7.414097 -2.195473 59.788937
2.840000 5.160000 -5.160000 -5.262034 -17.256847 325.487762
2.840000 5.160000 -5.120000 13.237877 -25.044811 802.483948
2.840000 5.160000 -5.080000 35.304337 -12.202564 1395.298706
2.840000 5.160000 -5.040000 40.573654 17.694860 1959.329590
2.840000 5.160000 -5.000000 19.646194 44.127495 2333.208740
2.840000 5.160000 -4.960000 -15.425244 46.389832 2389.954590
2.840000 5.160000 -4.920000 -40.133636 22.185919 2102.923828
2.840000 5.160000 -4.880000 -38.422161 -10.039158 1577.047119
2.840000 5.160000 -4.840000 -15.751964 -27.494396 1004.066162
2.840000 5.160000 -4.800000 7.729115 -22.258411 555.176086
2.840000 5.200000 -5.200000 -6.784295 -18.313299 381.403564
2.840000 5.200000 -5.160000 9.855642 -26.231609 785.231018
2.840000 5.200000 -5.120000 30.442715 -15.812129 1176.782227
2.840000 5.200000 -5.080000 37.144886 10.906282 1498.689575
2.840000 5.200000 -5.040000 20.083536 36.847347 1761.075439
2.840000 5.200000 -5.000000 -12.492648 42.540268 1965.740723
2.840000 5.200000 -4.960000 -39.246674 22.543396 2048.506104
2.840000 5.200000 -4.920000 -42.738964 -9.387664 1914.747314
2.840000 5.200000 -4.880000 -23.281281 -31.606049 1540.960327
2.840000 5.200000 -4.840000 2.742841 -32.023800 1033.046997
2.840000 5.200000 -4.800000 17.716158 -15.926833 567.526245
2.880000 4.800000 -5.200000 57.655487 16.718948 3603.678467
2.880000 4.800000 -5.160000 46.974586 40.451904 3842.968262
2.880000 4.800000 -5.120000 22.690985 49.359234 2951.214844
2.880000 4.800000 -5.080000 2.406162 39.209206 1543.151489
2.880000 4.800000 -5.040000 -1.638889 22.454035 506.869629
2.880000 4.800000 -5.000000 6.100403 14.719765 253.886398
2.880000 4.800000 -4.960000 11.118687 18.939997 482.348663
2.880000 4.800000 -4.920000 5.430954 24.183308 614.327637
2.880000 4.800000 -4.880000 -4.372738 19.538122 400.859070
2.880000 4.800000 -4.840000 -5.933279 6.870842 82.412262
2.880000 4.800000 -4.800000 4.052226 -1.666891 19.199059
2.880000 4.840000 -5.200000 32.286926 41.593399 2772.456543
2.880000 4.840000 -5.160000 23.652678 50.726688 3132.646240
2.880000 4.840000 -5.120000 12.897168 55.965714 3298.498047
2.880000 4.840000 -5.080000 1.326424 58.590637 3434.622314
2.880000 4.840000 -5.040000 -12.509712 58.510773 3580.003418
2.880000 4.840000 -5.000000 -28.647167 51.885513 3512.766602
2.880000 4.840000 -4.960000 -41.381588 35.147217 2947.762695
2.880000 4.840000 -4.920000 -41.867435 11.820366 1892.603271
2.880000 4.840000 -4.880000 -26.923218 -6.620614 768.692200
2.880000 4.840000 -4.840000 -4.805798 -9.307611 109.727318
2.880000 4.840000 -4.800000 9.827810 3.590510 109.477615
2.880000 4.880000 -5.200000 -2.603510 38.617271 1498.072021
2.880000 4.880000 -5.160000 2.106126 44.589684 1992.675659
2.880000 4.880000 -5.120000 -1.786983 61.996964 3846.816895
2.880000 4.880000 -5.080000 -25.215082 78.215195 6753.416992
2.880000 4.880000 -5.040000 -62.956131 73.774803 9406.196289
2.880000 4.880000 -5.000000 -93.011337 40.239128 10270.295898
2.880000 4.880000 -4.960000 -92.890198 -8.410660 8699.328125
2.880000 4.880000 -4.920000 -59.690685 -43.774059 5479.146484
2.880000 4.880000 -4.880000 -14.811167 -45.476135 2287.449463
2.880000 4.880000 -4.840000 12.694565 -18.135838 490.060577
2.880000 4.880000 -4.800000 9.787368 13.200732 270.051910
2.880000 4.920000 -5.200000 -20.773281 11.480026 563.320190
2.880000 4.920000 -5.160000 -7.517496 30.209438 969.122925
2.880000 4.920000 -5.120000 -22.800146 61.323601 4280.430664
2.880000 4.920000 -5.080000 -69.718956 71.611374 9988.921875
2.880000 4.920000 -5.040000 -118.867928 37.330376 15523.140625
2.880000 4.920000 -5.000000 -130.148895 -29.923267 17834.136719
2.880000 4.920000 -4.960000 -88.463112 -88.094894 15586.432617
2.880000 4.920000 -4.920000 -19.591465 -98.817749 10148.772461
2.880000 4.920000 -4.880000 30.362373 -60.067482 4529.976074
2.880000 4.920000 -4.840000 33.669594 -6.633818 1177.649170
2.880000 4.920000 -4.800000 1.856450 21.665577 472.843628
2.880000 4.960000 -5.200000 -10.734545 -15.918090 368.616028
2.880000 4.960000 -5.160000 -6.201380 19.522715 419.593506
2.880000 4.960000 -5.120000 -44.433449 47.795227 4258.715332
2.880000 4.960000 -5.080000 -103.118103 29.574923 11508.018555
2.880000 4.960000 -5.040000 -132.217133 -38.471508 18961.427734
2.880000 4.960000 -5.000000 -98.093262 -113.716263 22553.675781
2.880000 4.960000 -4.960000 -16.965490 -141.401794 20282.294922
2.880000 4.960000 -4.920000 56.200233 -102.466614 13657.873047
2.880000 4.960000 -4.880000 74.576385 -29.964010 6459.479004
2.880000 4.960000 -4.840000 38.101212 21.504200 1914.132812
2.880000 4.960000 -4.800000 -11.797680 23.382975 685.948730
2.880000 5.000000 -5.200000 14.062326 -21.519917 660.855835
2.880000 5.000000 -5.160000 -3.566343 17.137922 306.427185
2.880000 5.000000 -5.120000 -56.537239 21.986980 3679.886719
2.880000 5.000000 -5.080000 -99.332497 -28.392153 10673.059570
2.880000 5.000000 -5.040000 -84.879395 -105.086411 18247.664062
2.880000 5.000000 -5.000000 -10.505428 -148.915131 22286.080078
2.880000 5.000000 -4.960000 74.698395 -122.346191 20548.441406
2.880000 5.000000 -4.920000 111.069977 -44.120735 14283.179688
2.880000 5.000000 -4.880000 79.946075 27.403379 7142.320312
2.880000 5.000000 -4.840000 16.648178 46.119617 2404.180908
2.880000 5.000000 -4.800000 -25.667561 15.189600 889.547607
2.880000 5.040000 -5.200000 28.929987 -5.071684 862.666138
2.880000 5.040000 -5.160000 -7.094333 17.032110 340.422333
2.880000 5.040000 -5.120000 -51.936455 -7.329735 2751.120361
2.880000 5.040000 -5.080000 -58.152092 -68.997177 8142.276367
2.880000 5.040000 -5.040000 -5.767138 -119.050903 14206.376953
2.880000 5.040000 -5.000000 73.760719 -110.613770 17676.050781
2.880000 5.040000 -4.960000 121.687630 -43.018501 16658.470703
2.880000 5.040000 -4.920000 103.544846 35.421516 11976.218750
2.880000 5.040000 -4.880000 38.832497 69.974335 6404.370605
2.880000 5.040000 -4.840000 -19.281155 46.429466 2527.458252
2.880000 5.040000 -4.800000 -32.851360 -2.003048 1083.224121
2.880000 5.080000 -5.200000 21.703812 13.549497 654.644287
2.880000 5.080000 -5.160000 -14.140342 10.308046 306.205078
2.880000 5.080000 -5.120000 -31.968254 -28.429428 1830.201660
2.880000 5.080000 -5.080000 -5.008663 -72.112770 5225.338379
2.880000 5.080000 -5.040000 54.721214 -77.899200 9062.697266
2.880000 5.080000 -5.000000 101.927856 -30.959625 11347.786133
2.880000 5.080000 -4.960000 97.150620 38.437180 10915.660156
2.880000 5.080000 -4.920000 42.810555 79.917564 8219.560547
2.880000 5.080000 -4.880000 -19.095018 67.155754 4874.515137
2.880000 5.080000 -4.840000 -45.298347 18.803020 2405.493652
2.880000 5.080000 -4.800000 -27.803858 -22.628525 1285.104614
2.880000 5.120000 -5.200000 2.851578 15.122276 236.814743
2.880000 5.120000 -5.160000 -14.988768 -4.167459 242.030884
2.880000 5.120000 -5.120000 -5.639446 -34.026714 1189.620605
2.880000 5.120000 -5.080000 30.905596 -44.609772 2945.187500
2.880000 5.120000 -5.040000 67.010139 -17.743887 4805.204590
2.880000 5.120000 -5.000000 69.626526 32.776661 5922.162598
2.880000 5.120000 -4.960000 30.939468 69.989014 5855.712891
2.880000 5.120000 -4.920000 -22.636360 65.597603 4815.450195
2.880000 5.120000 -4.880000 -53.041962 24.813587 3429.163818
2.880000 5.120000 -4.840000 -43.363388 -19.645355 2266.323486
2.880000 5.120000 -4.800000 -9.558727 -37.746311 1516.153320
2.880000 5.160000 -5.200000 -7.072357 -0.598204 50.376083
2.880000 5.160000 -5.160000 -3.689834 -17.467455 318.726837
2.880000 5.160000 -5.120000 16.290306 -24.974667 889.108032
2.880000 5.160000 -5.080000 38.459507 -10.252939 1584.256470
2.880000 5.160000 -5.040000 41.468201 21.577667 2185.207520
2.880000 5.160000 -5.000000 16.287466 47.945953 2564.095947
2.880000 5.160000 -4.960000 -23.088703 46.759777 2719.564941
2.880000 5.160000 -4.920000 -49.453621 16.141567 2706.210938
2.880000 5.160000 -4.880000 -44.944878 -23.021408 2550.027344
2.880000 5.160000 -4.840000 -15.484704 -44.697205 2237.616211
2.880000 5.160000 -4.800000 16.127327 -38.912300 1774.257812
2.880000 5.200000 -5.200000 1.455659 -16.857716 286.301544
2.880000 5.200000 -5.160000 14.742031 -19.136639 583.538452
2.880000 5.200000 -5.120000 27.260529 -8.295893 811.958252
2.880000 5.200000 -5.080000 27.474464 11.779421 893.600952
2.880000 5.200000 -5.040000 10.377148 27.982006 890.677856
2.880000 5.200000 -5.000000 -16.181595 26.639381 971.500610
2.880000 5.200000 -4.960000 -35.225090 4.916759 1264.981567
2.880000 5.200000 -4.920000 -33.000366 -25.216106 1724.876221
2.880000 5.200000 -4.880000 -9.966099 -45.111660 2134.385010
2.880000 5.200000 -4.840000 19.458221 -43.330856 2256.185547
2.880000 5.200000 -4.800000 38.185959 -23.415821 2006.468140
2.920000 4.800000 -5.200000 37.371773 69.734016 6259.482422
2.920000 4.800000 -5.160000 3.479174 80.437439 6482.286133
2.920000 4.800000 -5.120000 -28.293364 64.091682 4908.257812
2.920000 4.800000 -5.080000 -37.473259 33.536221 2528.923340
2.920000 4.800000 -5.040000 -24.165642 12.494729 740.096558
2.920000 4.800000 -5.000000 -7.759731 12.235199 209.913513
2.920000 4.800000 -4.960000 -5.912161 21.903938 514.736145
2.920000 4.800000 -4.920000 -16.682644 22.443626 782.026978
2.920000 4.800000 -4.880000 -22.828552 8.199079 588.367737
2.920000 4.800000 -4.840000 -12.477423 -7.583931 213.202087
2.920000 4.800000 -4.800000 7.288470 -8.558325 126.366730
2.920000 4.840000 -5.200000 -13.649529 68.805405 4920.493164
2.920000 4.840000 -5.160000 -30.010687 63.859505 4978.677734
2.920000 4.840000 -5.120000 -41.120125 55.574505 4779.390137
2.920000 4.840000 -5.080000 -50.068233 47.996239 4810.466797
2.920000 4.840000 -5.040000 -61.188339 38.394920 5218.182617
2.920000 4.840000 -5.000000 -71.847458 20.129044 5567.235352
2.920000 4.840000 -4.960000 -71.684174 -7.411407 5193.549805
2.920000 4.840000 -4.920000 -52.662525 -33.019569 3863.633545
2.920000 4.840000 -4.880000 -20.264645 -40.832058 2077.912842
2.920000 4.840000 -4.840000 7.368803 -25.272976 693.022583
2.920000 4.840000 -4.800000 14.091597 1.554164 200.988510
2.920000 4.880000 -5.200000 -46.097931 30.184101 3036.099121
2.920000 4.880000 -5.160000 -41.760292 33.891388 2892.548340
2.920000 4.880000 -5.120000 -53.697552 47.496773 5139.370117
2.920000 4.880000 -5.080000 -87.388603 47.798485 9921.462891
2.920000 4.880000 -5.040000 -122.795738 15.011391 15304.134766
2.920000 4.880000 -5.000000 -127.937164 -44.385307 18337.972656
2.920000 4.880000 -4.960000 -87.784210 -97.056305 17125.994141
2.920000 4.880000 -4.920000 -21.431850 -108.531464 12238.402344
2.920000 4.880000 -4.880000 30.766375 -73.020981 6278.633301
2.920000 4.880000 -4.840000 40.065449 -19.116407 1970.677246
2.920000 4.880000 -4.800000 12.203467 14.768335 367.028351
2.920000 4.920000 -5.200000 -37.593952 -16.586723 1688.424683
2.920000 4.920000 -5.160000 -32.311718 11.054430 1166.247559
2.920000 4.920000 -5.120000 -68.565552 33.847420 5846.882812
2.920000 4.920000 -5.080000 -125.831718 10.342148 15940.581055
2.920000 4.920000 -5.040000 -152.193008 -65.048935 27394.074219
2.920000 4.920000 -5.000000 -110.382072 -148.282257 34171.828125
2.920000 4.920000 -4.960000 -15.850700 -179.472961 32461.787109
2.920000 4.920000 -4.920000 71.778397 -135.105789 23405.712891
2.920000 4.920000 -4.880000 98.344437 -49.380096 12110.021484
2.920000 4.920000 -4.840000 59.852745 16.094978 3841.399414
2.920000 4.920000 -4.800000 0.973875 25.149527 633.447144
2.920000 4.960000 -5.200000 0.600151 -36.547203 1336.058228
2.920000 4.960000 -5.160000 -17.231255 5.702005 329.429016
2.920000 4.960000 -5.120000 -78.958260 9.226492 6319.534668
2.920000 4.960000 -5.080000 -129.659164 -55.381138 19878.568359
2.920000 4.960000 -5.040000 -108.749596 -154.508972 35699.500000
2.920000 4.960000 -5.000000 -9.580833 -213.174744 45535.265625
2.920000 4.960000 -4.960000 107.082596 -180.205734 43940.789062
2.920000 4.960000 -4.920000 162.620361 -75.676910 32172.376953
2.920000 4.960000 -4.880000 127.842651 25.854752 17012.210938
2.920000 4.960000 -4.840000 44.511211 60.572914 5650.325684
2.920000 4.960000 -4.800000 -17.204880 26.654127 1006.450378
2.920000 5.000000 -5.200000 34.536148 -19.594238 1576.679688
2.920000 5.000000 -5.160000 -11.728329 11.174049 262.413086
2.920000 5.000000 -5.120000 -74.412201 -22.183105 6029.266113
2.920000 5.000000 -5.080000 -84.865997 -111.953735 19735.875000
2.920000 5.000000 -5.040000 -8.908602 -189.896973 36140.222656
2.920000 5.000000 -5.000000 113.189056 -184.218658 46748.277344
2.920000 5.000000 -4.960000 195.568634 -86.504410 45730.101562
2.920000 5.000000 -4.920000 180.832672 37.111992 34077.753906
2.920000 5.000000 -4.880000 89.205231 103.106659 18588.556641
2.920000 5.000000 -4.840000 -3.555508 81.597252 6670.752930
2.920000 5.000000 -4.800000 -35.710464 14.343123 1480.962524
2.920000 5.040000 -5.200000 38.604637 12.931896 1657.551880
2.920000 5.040000 -5.160000 -17.376839 12.826878 466.483337
2.920000 5.040000 -5.120000 -51.610870 -47.462757 4916.395508
2.920000 5.040000 -5.080000 -14.103565 -124.857178 15788.224609
2.920000 5.040000 -5.040000 85.564911 -147.193207 28987.193359
2.920000 5.040000 -5.000000 177.339722 -79.421677 37757.179688
2.920000 5.040000 -4.960000 189.272339 39.252132 37364.750000
2.920000 5.040000 -4.920000 111.730400 126.332809 28443.660156
2.920000 5.040000 -4.880000 5.222755 127.350540 16245.437500
2.920000 5.040000 -4.840000 -55.140526 59.572258 6589.331543
2.920000 5.040000 -4.800000 -43.641273 -11.467888 2036.073242
2.920000 5.080000 -5.200000 16.633053 30.499264 1206.863525
2.920000 5.080000 -5.160000 -22.988993 3.252638 539.073425
2.920000 5.080000 -5.120000 -19.120743 -55.034500 3394.398926
2.920000 5.080000 -5.080000 42.215752 -91.469307 10148.803711
2.920000 5.080000 -5.040000 120.647400 -60.907402 18265.505859
2.920000 5.080000 -5.000000 151.382019 28.011208 23701.142578
2.920000 5.080000 -4.960000 103.005669 114.337364 23683.201172
2.920000 5.080000 -4.920000 7.682957 136.188049 18606.212891
2.920000 5.080000 -4.880000 -66.621140 84.080994 11507.990234
2.920000 5.080000 -4.840000 -75.318275 5.579601 5703.974609
2.920000 5.080000 -4.800000 -31.044615 -40.994705 2644.333984
2.920000 5.120000 -5.200000 -5.877677 21.516964 497.526825
2.920000 5.120000 -5.160000 -17.442547 -11.220702 430.146606
2.920000 5.120000 -5.120000 8.774685 -43.884544 2002.848389
2.920000 5.120000 -5.080000 59.516907 -40.232712 5160.933594
2.920000 5.120000 -5.040000 92.734146 9.898800 8697.608398
2.920000 5.120000 -5.000000 73.331375 74.898354 10987.253906
2.920000 5.120000 -4.960000 7.395195 105.035110 11087.062500
2.920000 5.120000 -4.920000 -59.766483 75.703751 9303.089844
2.920000 5.120000 -4.880000 -81.944672 9.220654 6799.949707
2.920000 5.120000 -4.840000 -50.639236 -45.861443 4667.604492
2.920000 5.120000 -4.800000 2.105320 -57.182613 3274.283691
2.920000 5.160000 -5.200000 -8.272362 0.494570 68.676567
2.920000 5.160000 -5.160000 -1.040573 -17.976677 324.243713
2.920000 5.160000 -5.120000 22.706261 -23.259907 1056.597534
2.920000 5.160000 -5.080000 44.971146 -3.258553 2033.022095
2.920000 5.160000 -5.040000 42.316711 32.654537 2857.022949
2.920000 5.160000 -5.000000 8.278992 56.752762 3289.417725
2.920000 5.160000 -4.960000 -36.584431 45.669876 3424.158203
2.920000 5.160000 -4.920000 -59.445229 2.413288 3539.559082
2.920000 5.160000 -4.880000 -42.772278 -44.165382 3780.048828
2.920000 5.160000 -4.840000 0.997185 -63.156517 3989.739990
2.920000 5.160000 -4.800000 41.341377 -46.424400 3864.334473
2.920000 5.200000 -5.200000 7.237885 -10.047944 153.348145
2.920000 5.200000 -5.160000 15.293056 -10.958529 353.966919
2.920000 5.200000 -5.120000 23.261791 -4.292563 559.536987
2.920000 5.200000 -5.080000 23.511099 9.092756 635.450012
2.920000 5.200000 -5.040000 10.724625 20.305368 527.325562
2.920000 5.200000 -5.000000 -10.172253 17.283844 402.205994
2.920000 5.200000 -4.960000 -24.120556 -3.996719 597.774963
2.920000 5.200000 -4.920000 -16.950167 -32.696709 1356.382812
2.920000 5.200000 -4.880000 11.614115 -49.220924 2557.587158
2.920000 5.200000 -4.840000 45.616051 -40.430180 3715.423340
2.920000 5.200000 -4.800000 64.599213 -10.457477 4282.416992
2.960000 4.800000 -5.200000 -18.320024 92.103798 8818.732422
2.960000 4.800000 -5.160000 -59.659698 75.259941 9223.337891
2.960000 4.800000 -5.120000 -77.960175 33.687176 7212.614258
2.960000 4.800000 -5.080000 -62.821110 -4.828707 3969.808350
2.960000 4.800000 -5.040000 -31.692795 -16.752693 1285.085938
2.960000 4.800000 -5.000000 -12.252604 -4.475937 170.160309
2.960000 4.800000 -4.960000 -15.141010 8.748650 305.789062
2.960000 4.800000 -4.920000 -25.861778 4.630222 690.270569
2.960000 4.800000 -4.880000 -23.371758 -11.705530 683.258545
2.960000 4.800000 -4.840000 -4.054640 -19.830704 409.696899
2.960000 4.800000 -4.800000 15.206923 -8.235667 299.076721
2.960000 4.840000 -5.200000 -67.413658 51.841980 7232.191895
2.960000 4.840000 -5.160000 -78.744522 30.888596 7154.805176
2.960000 4.840000 -5.120000 -80.002686 11.654217 6536.250488
2.960000 4.840000 -5.080000 -78.303856 -2.809822 6139.388672
2.960000 4.840000 -5.040000 -77.700760 -17.855728 6356.235352
2.960000 4.840000 -5.000000 -72.665070 -38.883675 6792.152344
2.960000 4.840000 -4.960000 -53.612900 -60.998749 6595.190430
2.960000 4.840000 -4.920000 -20.032257 -69.742409 5265.294922
2.960000 4.840000 -4.880000 13.551979 -54.668144 3172.262207
2.960000 4.840000 -4.840000 27.752623 -22.405655 1272.221436
2.960000 4.840000 -4.800000 16.219763 5.960841 298.612335
2.960000 4.880000 -5.200000 -69.322647 -10.798410 4922.234863
2.960000 4.880000 -5.160000 -63.936069 -8.164591 4154.481445
2.960000 4.880000 -5.120000 -79.397751 -4.192602 6321.581055
2.960000 4.880000 -5.080000 -107.309311 -24.825081 12131.572266
2.960000 4.880000 -5.040000 -116.440781 -76.573189 19421.908203
2.960000 4.880000 -5.000000 -80.925278 -133.059555 24253.746094
2.960000 4.880000 -4.960000 -8.485695 -153.492920 23632.083984
2.960000 4.880000 -4.920000 60.340660 -118.605751 17708.320312
2.960000 4.880000 -4.880000 84.374146 -50.154850 9634.505859
2.960000 4.880000 -4.840000 56.489727 5.976881 3226.812500
2.960000 4.880000 -4.800000 8.255713 18.310368 403.426361
2.960000 4.920000 -5.200000 -25.326351 -50.247627 3166.248047
2.960000 4.920000 -5.160000 -34.027653 -21.203583 1607.473022
2.960000 4.920000 -5.120000 -80.117165 -21.718027 6890.433105
2.960000 4.920000 -5.080000 -117.551712 -79.472435 20134.273438
2.960000 4.920000 -5.040000 -92.483925 -166.765488 36364.003906
2.960000 4.920000 -5.000000 2.443985 -217.063080 47122.351562
2.960000 4.920000 -4.960000 113.127525 -183.036407 46300.164062
2.960000 4.920000 -4.920000 166.919647 -81.658257 34530.238281
2.960000 4.920000 -4.880000 134.856567 18.243782 18519.128906
2.960000 4.920000 -4.840000 54.499046 55.157730 6012.521484
2.960000 4.920000 -4.800000 -7.122299 24.764019 663.983826
2.960000 4.960000 -5.200000 27.546558 -41.677517 2495.828125
2.960000 4.960000 -5.160000 -13.959097 -11.346615 323.602051
2.960000 4.960000 -5.120000 -74.491913 -45.918182 7657.524414
2.960000 4.960000 -5.080000 -81.413834 -139.820450 26177.970703
2.960000 4.960000 -5.040000 3.382854 -221.474731 49062.503906
2.960000 4.960000 -5.000000 138.243469 -213.096481 64521.367188
2.960000 4.960000 -4.960000 230.524139 -103.875977 63931.597656
2.960000 4.960000 -4.920000 216.291000 35.390846 48034.308594
2.960000 4.960000 -4.880000 115.646179 112.670090 26068.587891
2.960000 4.960000 -4.840000 11.223179 92.860909 8749.108398
2.960000 4.960000 -4.800000 -27.177729 20.242935 1148.405273
2.960000 5.000000 -5.200000 49.785931 -0.371380 2478.776855
2.960000 5.000000 -5.160000 -13.435617 1.699699 183.404800
2.960000 5.000000 -5.120000 -53.442284 -69.521317 7689.291016
2.960000 5.000000 -5.080000 -6.708504 -163.885193 26903.359375
2.960000 5.000000 -5.040000 118.201584 -192.138901 50888.968750
2.960000 5.000000 -5.000000 236.093658 -108.027939 67410.250000
2.960000 5.000000 -4.960000 255.998886 42.769638 67364.671875
2.960000 5.000000 -4.920000 162.310699 157.981583 51302.945312
2.960000 5.000000 -4.880000 27.936466 166.871460 28626.529297
2.960000 5.000000 -4.840000 -52.534191 87.315918 10383.910156
2.960000 5.000000 -4.800000 -43.676392 -0.063217 1907.631226
2.960000 5.040000 -5.200000 32.455612 35.511433 2314.428711
2.960000 5.040000 -5.160000 -22.212967 2.011509 497.462067
2.960000 5.040000 -5.120000 -19.299799 -78.441093 6525.487793
2.960000 5.040000 -5.080000 65.845848 -132.738647 21955.224609
2.960000 5.040000 -5.040000 180.294800 -93.768478 41298.742188
2.960000 5.040000 -5.000000 231.989319 31.835443 54832.539062
2.960000 5.040000 -4.960000 171.413391 160.924988 55279.402344
2.960000 5.040000 -4.920000 38.313011 203.660583 42945.519531
2.960000 5.040000 -4.880000 -72.910522 140.666656 25103.050781
2.960000 5.040000 -4.840000 -95.773270 34.366257 10353.558594
2.960000 5.040000 -4.800000 -42.828072 -32.990231 2922.599121
2.960000 5.080000 -5.200000 -0.082611 40.273468 1621.959106
2.960000 5.080000 -5.160000 -23.908472 -9.282484 657.779541
2.960000 5.080000 -5.120000 13.440701 -65.909866 4524.762695
2.960000 5.080000 -5.080000 97.057991 -67.920670 14033.470703
2.960000 5.080000 -5.040000 160.430634 8.586128 25811.708984
2.960000 5.080000 -5.000000 141.512711 118.619598 34096.457031
2.960000 5.080000 -4.960000 41.640320 181.515564 34681.816406
2.960000 5.080000 -4.920000 -71.409218 150.690765 27806.984375
2.960000 5.080000 -4.880000 -121.438065 53.690872 17629.912109
2.960000 5.080000 -4.840000 -87.772354 -35.333054 8952.411133
2.960000 5.080000 -4.800000 -15.187937 -62.076225 4084.131104
2.960000 5.120000 -5.200000 -17.106506 20.066067 695.279602
2.960000 5.120000 -5.160000 -12.709134 -18.797415 514.864868
2.960000 5.120000 -5.120000 30.369751 -39.718597 2499.888672
2.960000 5.120000 -5.080000 81.468918 -11.176788 6762.104980
2.960000 5.120000 -5.040000 91.743309 57.578629 11732.133789
2.960000 5.120000 -5.000000 39.270584 116.502121 15114.922852
2.960000 5.120000 -4.960000 -45.707375 115.791611 15496.861328
2.960000 5.120000 -4.920000 -103.165833 50.888958 13232.875000
2.960000 5.120000 -4.880000 -94.258408 -32.319809 9929.217773
2.960000 5.120000 -4.840000 -32.783356 -77.606812 7097.565918
2.960000 5.120000 -4.800000 31.557695 -64.991089 5219.729980
2.960000 5.160000 -5.200000 -9.535867 0.640441 91.342918
2.960000 5.160000 -5.160000 3.034286 -16.186979 271.225220
2.960000 5.160000 -5.120000 29.164948 -15.092014 1078.363037
2.960000 5.160000 -5.080000 46.463745 12.032713 2303.665771
2.960000 5.160000 -5.040000 32.543812 48.252213 3387.375977
2.960000 5.160000 -5.000000 -10.852676 61.617912 3914.547607
2.960000 5.160000 -4.960000 -53.669670 33.558510 4006.607178
2.960000 5.160000 -4.920000 -61.064705 -21.342827 4184.414551
2.960000 5.160000 -4.880000 -23.942341 -65.098534 4811.054688
2.960000 5.160000 -4.840000 32.698761 -67.847359 5672.473145
2.960000 5.160000 -4.800000 71.628456 -31.612185 6129.965820
2.960000 5.200000 -5.200000 7.023114 -0.328138 49.431808
2.960000 5.200000 -5.160000 11.274317 -3.608993 140.135056
2.960000 5.200000 -5.120000 19.213118 -1.431408 371.192810
2.960000 5.200000 -5.080000 22.472218 9.005855 586.105957
2.960000 5.200000 -5.040000 13.075367 19.414284 547.879639
2.960000 5.200000 -5.000000 -4.753288 16.023743 279.354065
2.960000 5.200000 -4.960000 -14.184912 -5.504951 231.516205
2.960000 5.200000 -4.920000 -0.218771 -31.601799 998.721558
2.960000 5.200000 -4.880000 34.321251 -39.765877 2759.273193
2.960000 5.200000 -4.840000 68.075966 -18.099636 4961.933594
2.960000 5.200000 -4.800000 77.905632 23.252663 6609.974121
3.000000 4.800000 -5.200000 -72.588257 67.714806 9854.349609
3.000000 4.800000 -5.160000 -99.754959 25.478340 10600.197266
3.000000 4.800000 -5.120000 -90.065857 -25.450102 8759.566406
3.000000 4.800000 -5.080000 -50.400429 -53.033585 5352.764160
3.000000 4.800000 -5.040000 -10.884346 -45.151478 2157.125000
3.000000 4.800000 -5.000000 3.335026 -19.497124 391.260254
3.000000 4.800000 -4.960000 -5.766991 -4.057747 49.723492
3.000000 4.800000 -4.920000 -15.363640 -9.217194 320.998077
3.000000 4.800000 -4.880000 -8.241436 -20.563240 490.768097
3.000000 4.800000 -4.840000 9.747196 -18.263237 428.553680
3.000000 4.800000 -4.800000 18.956825 -0.089848 359.369324
3.000000 4.840000 -5.200000 -91.634407 1.474522 8399.038086
3.000000 4.840000 -5.160000 -88.116493 -27.518036 8521.758789
3.000000 4.840000 -5.120000 -73.848389 -48.318108 7788.223633
3.000000 4.840000 -5.080000 -57.733078 -60.123802 6947.979980
3.000000 4.840000 -5.040000 -42.894218 -68.819229 6576.000488
3.000000 4.840000 -5.000000 -24.460289 -77.213745 6560.268066
3.000000 4.840000 -4.960000 1.817673 -78.926926 6232.763184
3.000000 4.840000 -4.920000 29.765884 -64.515366 5048.240234
3.000000 4.840000 -4.880000 44.478489 -34.294804 3154.469482
3.000000 4.840000 -4.840000 36.090137 -3.114840 1312.200317
3.000000 4.840000 -4.800000 11.663786 10.562927 247.619324
3.000000 4.880000 -5.200000 -54.702461 -55.434456 6065.338379
3.000000 4.880000 -5.160000 -48.227425 -52.937286 5128.240723
3.000000 4.880000 -5.120000 -58.606243 -58.921158 6906.394531
3.000000 4.880000 -5.080000 -65.685341 -89.731354 12366.279297
3.000000 4.880000 -5.040000 -41.429966 -133.645798 19577.640625
3.000000 4.880000 -5.000000 19.672935 -155.642914 24611.740234
3.000000 4.880000 -4.960000 88.298157 -128.254761 24245.847656
3.000000 4.880000 -4.920000 121.501328 -59.936546 18354.960938
3.000000 4.880000 -4.880000 99.757202 7.959839 10014.858398
3.000000 4.880000 -4.840000 44.815842 35.063328 3237.896729
3.000000 4.880000 -4.800000 0.588287 15.540775 241.861786
3.000000 4.920000 -5.200000 8.542767 -63.656296 4125.103027
3.000000 4.920000 -5.160000 -11.814941 -43.977440 2073.608154
3.000000 4.920000 -5.120000 -47.570511 -68.682755 6980.274414
3.000000 4.920000 -5.080000 -44.938850 -135.746902 20446.720703
3.000000 4.920000 -5.040000 25.552197 -192.099442 37555.109375
3.000000 4.920000 -5.000000 132.456924 -178.309540 49339.125000
3.000000 4.920000 -4.960000 203.867096 -86.015045 48960.382812
3.000000 4.920000 -4.920000 189.363922 28.807304 36688.554688
3.000000 4.920000 -4.880000 105.048477 92.278534 19550.511719
3.000000 4.920000 -4.840000 18.168316 75.554497 6038.569824
3.000000 4.920000 -4.800000 -13.192915 14.858376 394.824341
3.000000 4.960000 -5.200000 50.566708 -24.437500 3154.183350
3.000000 4.960000 -5.160000 0.096687 -20.348253 414.060760
3.000000 4.960000 -5.120000 -31.455618 -81.811699 7682.610352
3.000000 4.960000 -5.080000 15.093292 -164.162491 27177.130859
3.000000 4.960000 -5.040000 132.636307 -185.089401 51850.476562
3.000000 4.960000 -5.000000 242.140869 -101.492157 68932.859375
3.000000 4.960000 -4.960000 258.530884 43.703621 68748.226562
3.000000 4.960000 -4.920000 167.437347 153.967361 51741.214844
3.000000 4.960000 -4.880000 38.422127 162.405289 27851.738281
3.000000 4.960000 -4.840000 -38.098961 86.573715 8946.539062
3.000000 4.960000 -4.800000 -28.380405 4.451555 825.263733
3.000000 5.000000 -5.200000 46.722519 25.173473 2816.697266
3.000000 5.000000 -5.160000 -8.192425 -6.425877 108.407715
3.000000 5.000000 -5.120000 -3.666569 -88.776939 7894.788574
3.000000 5.000000 -5.080000 88.336716 -143.950455 28525.109375
3.000000 5.000000 -5.040000 211.727814 -99.115181 54652.488281
3.000000 5.000000 -5.000000 267.173859 39.186558 72917.453125
3.000000 5.000000 -4.960000 200.825180 181.209229 73167.539062
3.000000 5.000000 -4.920000 55.634254 229.518661 55773.988281
3.000000 5.000000 -4.880000 -65.908356 163.129730 30955.218750
3.000000 5.000000 -4.840000 -91.694443 50.169888 10924.888672
3.000000 5.000000 -4.800000 -36.071770 -19.693050 1688.988770
3.000000 5.040000 -5.200000 12.077917 47.667206 2418.038574
3.000000 5.040000 -5.160000 -17.320370 -9.613543 392.415405
3.000000 5.040000 -5.120000 27.999279 -77.580818 6802.742676
3.000000 5.040000 -5.080000 131.310669 -79.152008 23507.533203
3.000000 5.040000 -5.040000 210.622955 16.678736 44640.210938
3.000000 5.040000 -5.000000 188.429245 155.165573 59581.937500
3.000000 5.040000 -4.960000 65.376175 236.653122 60278.742188
3.000000 5.040000 -4.920000 -75.531578 203.081665 46947.183594
3.000000 5.040000 -4.880000 -140.619568 87.750259 27473.970703
3.000000 5.040000 -4.840000 -104.540131 -18.718386 11279.016602
3.000000 5.040000 -4.800000 -22.342934 -50.457935 3045.209961
3.000000 5.080000 -5.200000 -18.388443 35.889156 1626.166260
3.000000 5.080000 -5.160000 -14.248112 -18.679497 551.932312
3.000000 5.080000 -5.120000 46.993919 -49.122223 4621.420898
3.000000 5.080000 -5.080000 121.578545 -8.151501 14847.790039
3.000000 5.080000 -5.040000 138.418991 92.177010 27656.417969
3.000000 5.080000 -5.000000 64.871902 180.502609 36789.554688
3.000000 5.080000 -4.960000 -57.091110 185.386902 37627.699219
3.000000 5.080000 -4.920000 -143.153580 99.377754 30368.886719
3.000000 5.080000 -4.880000 -138.824066 -14.254005 19475.296875
3.000000 5.080000 -4.840000 -62.923874 -78.391129 10104.583008
3.000000 5.080000 -4.800000 16.942636 -66.684517 4733.877441
3.000000 5.120000 -5.200000 -23.497326 12.083417 698.133301
3.000000 5.120000 -5.160000 -2.666609 -19.639647 392.826538
3.000000 5.120000 -5.120000 44.499008 -18.634880 2327.420410
3.000000 5.120000 -5.080000 76.590042 29.984259 6765.090332
3.000000 5.120000 -5.040000 53.685371 95.950668 12088.649414
3.000000 5.120000 -5.000000 -21.254295 123.942444 15813.474609
3.000000 5.120000 -4.960000 -97.796890 82.582664 16384.128906
3.000000 5.120000 -4.920000 -119.007797 -4.506615 14183.165039
3.000000 5.120000 -4.880000 -70.538483 -77.209068 10936.917969
3.000000 5.120000 -4.840000 8.855716 -90.153114 8206.007812
3.000000 5.120000 -4.800000 64.048973 -47.775455 6384.765137
3.000000 5.160000 -5.200000 -10.492682 1.114466 111.338402
3.000000 5.160000 -5.160000 5.142914 -10.356036 133.697052
3.000000 5.160000 -5.120000 28.082216 -1.621458 791.239990
3.000000 5.160000 -5.080000 34.615131 28.054552 1985.265137
3.000000 5.160000 -5.040000 9.424362 55.161293 3131.586914
3.000000 5.160000 -5.000000 -34.339779 50.338558 3713.190918
3.000000 5.160000 -4.960000 -61.412392 7.454689 3827.054199
3.000000 5.160000 -4.920000 -44.592262 -46.122505 4115.755371
3.000000 5.160000 -4.880000 9.554455 -70.717850 5092.301758
3.000000 5.160000 -4.840000 65.030670 -47.988071 6531.843262
3.000000 5.160000 -4.800000 86.892944 4.874211 7574.141602
3.000000 5.200000 -5.200000 -0.546284 7.320545 53.888809
3.000000 5.200000 -5.160000 2.963442 0.131194 8.799199
3.000000 5.200000 -5.120000 13.279099 0.041552 176.336182
3.000000 5.200000 -5.080000 18.768078 10.423830 460.896973
3.000000 5.200000 -5.040000 10.655117 20.485531 533.188477
3.000000 5.200000 -5.000000 -4.130102 15.628357 261.303284
3.000000 5.200000 -4.960000 -6.835791 -4.992630 71.654388
3.000000 5.200000 -4.920000 14.262730 -23.354385 748.852783
3.000000 5.200000 -4.880000 49.274494 -17.499977 2734.225098
3.000000 5.200000 -4.840000 72.532761 17.222864 5557.628418
3.000000 5.200000 -4.800000 64.413910 62.073822 8002.311523
3.040000 4.800000 -5.200000 -91.614349 16.034847 8650.305664
3.040000 4.800000 -5.160000 -91.998772 -34.498360 9653.911133
3.040000 4.800000 -5.120000 -56.027145 -73.600426 8556.063477
3.040000 4.800000 -5.080000 -5.272404 -76.873009 5937.257812
3.040000 4.800000 -5.040000 28.012190 -47.830971 3072.484619
3.040000 4.800000 -5.000000 29.227058 -13.568050 1038.312988
3.040000 4.800000 -4.960000 11.758171 1.402131 140.220566
3.040000 4.800000 -4.920000 0.028381 -3.809750 14.514997
3.040000 4.800000 -4.880000 4.410116 -10.977146 139.946854
3.040000 4.800000 -4.840000 14.150269 -5.475708 230.213486
3.040000 4.800000 -4.800000 13.437269 8.466262 252.237793
3.040000 4.840000 -5.200000 -73.598892 -46.921700 7618.442871
3.040000 4.840000 -5.160000 -54.368477 -71.929474 8129.780273
3.040000 4.840000 -5.120000 -27.212030 -83.412239 7698.096191
3.040000 4.840000 -5.080000 -1.684225 -82.171021 6754.913086
3.040000 4.840000 -5.040000 18.376762 -74.112267 5830.333496
3.040000 4.840000 -5.000000 34.814362 -62.535446 5122.721680
3.040000 4.840000 -4.960000 48.321289 -45.581432 4412.614258
3.040000 4.840000 -4.920000 53.877144 -22.042648 3388.625000
3.040000 4.840000 -4.880000 45.288719 1.832699 2054.427002
3.040000 4.840000 -4.840000 24.457680 14.306976 802.867676
3.040000 4.840000 -4.800000 4.009590 8.875305 94.847855
3.040000 4.880000 -5.200000 -15.397287 -73.917755 5700.911133
3.040000 4.880000 -5.160000 -7.770884 -71.265900 5139.215332
3.040000 4.880000 -5.120000 -6.895258 -80.083641 6460.934082
3.040000 4.880000 -5.080000 7.401260 -101.790001 10415.982422
3.040000 4.880000 -5.040000 47.347088 -115.658119 15618.547852
3.040000 4.880000 -5.000000 99.138443 -96.558380 19151.951172
3.040000 4.880000 -4.960000 129.807190 -41.620049 18582.134766
3.040000 4.880000 -4.920000 115.595703 21.330864 13817.372070
3.040000 4.880000 -4.880000 65.363289 54.634777 7257.318359
3.040000 4.880000 -4.840000 15.208603 42.916428 2073.121338
3.040000 4.880000 -4.800000 -2.050999 6.028282 40.546783
3.040000 4.920000 -5.200000 39.123497 -49.077827 3939.281250
3.040000 4.920000 -5.160000 17.602520 -44.004211 2246.219238
3.040000 4.920000 -5.120000 5.847342 -77.422913 6028.499023
3.040000 4.920000 -5.080000 41.464294 -122.178772 16646.939453
3.040000 4.920000 -5.040000 119.732109 -125.972061 30204.738281
3.040000 4.920000 -5.000000 188.807281 -61.787571 39465.894531
3.040000 4.920000 -4.960000 192.988983 40.397125 38876.671875
3.040000 4.920000 -4.920000 124.431236 114.895584 28684.128906
3.040000 4.920000 -4.880000 32.536686 116.863434 14715.698242
3.040000 4.920000 -4.840000 -19.300039 60.416229 4022.612305
3.040000 4.920000 -4.800000 -8.179579 2.298710 72.189575
3.040000 4.960000 -5.200000 53.561333 2.332952 2874.259033
3.040000 4.960000 -5.160000 15.264048 -17.637226 544.062866
3.040000 4.960000 -5.120000 21.886688 -77.069923 6418.800293
3.040000 4.960000 -5.080000 96.174484 -114.473328 22353.673828
3.040000 4.960000 -5.040000 193.180206 -72.040131 42508.375000
3.040000 4.960000 -5.000000 233.142395 43.885170 56281.281250
3.040000 4.960000 -4.960000 173.795288 159.655594 55694.710938
3.040000 4.960000 -4.920000 52.138714 196.337936 41267.031250
3.040000 4.960000 -4.880000 -46.719707 138.827118 21455.699219
3.040000 4.960000 -4.840000 -64.321129 45.726574 6228.126953
3.040000 4.960000 -4.800000 -15.296616 -7.645874 292.445831
3.040000 5.000000 -5.200000 27.744392 39.598701 2337.808350
3.040000 5.000000 -5.160000 1.740292 -9.135365 86.483505
3.040000 5.000000 -5.120000 44.181702 -68.250465 6610.148438
3.040000 5.000000 -5.080000 139.744659 -65.500542 23818.890625
3.040000 5.000000 -5.040000 211.388062 27.823162 45459.042969
3.040000 5.000000 -5.000000 186.797119 159.404861 60303.074219
3.040000 5.000000 -4.960000 68.088036 235.233322 59970.695312
3.040000 5.000000 -4.920000 -65.119141 201.982025 45037.242188
3.040000 5.000000 -4.880000 -124.761765 93.434341 24295.474609
3.040000 5.000000 -4.840000 -89.373688 -3.413860 7999.310547
3.040000 5.000000 -4.800000 -14.111073 -27.517632 956.342407
3.040000 5.040000 -5.200000 -8.535622 42.229801 1856.212891
3.040000 5.040000 -5.160000 -4.424526 -13.735140 208.230499
3.040000 5.040000 -5.120000 61.193199 -43.803974 5663.395996
3.040000 5.040000 -5.080000 140.368835 3.436663 19715.220703
3.040000 5.040000 -5.040000 155.924469 114.020378 37313.085938
3.040000 5.040000 -5.000000 73.662842 209.926239 49495.242188
3.040000 5.040000 -4.960000 -59.451744 214.719604 49639.015625
3.040000 5.040000 -4.920000 -152.241318 122.527840 38190.488281
3.040000 5.040000 -4.880000 -148.120544 3.098391 21949.294922
3.040000 5.040000 -4.840000 -70.363266 -61.681316 8755.574219
3.040000 5.040000 -4.800000 7.254688 -47.184826 2279.038330
3.040000 5.080000 -5.200000 -26.587046 22.059153 1193.477173
3.040000 5.080000 -5.160000 -0.162363 -16.594822 275.414490
3.040000 5.080000 -5.120000 59.184494 -12.388008 3656.267090
3.040000 5.080000 -5.080000 97.327896 52.176254 12195.081055
3.040000 5.080000 -5.040000 64.677261 136.585739 22838.812500
3.040000 5.080000 -5.000000 -32.366638 171.066559 30311.367188
3.040000 5.080000 -4.960000 -129.215668 118.900925 30834.119141
3.040000 5.080000 -4.920000 -156.821350 12.222366 24742.322266
3.040000 5.080000 -4.880000 -101.202209 -74.939102 15857.755859
3.040000 5.080000 -4.840000 -11.999949 -90.778854 8384.799805
3.040000 5.080000 -4.800000 45.898033 -45.338253 4162.186523
3.040000 5.120000 -5.200000 -22.495447 4.564053 526.875732
3.040000 5.120000 -5.160000 4.339787 -11.036555 140.639297
3.040000 5.120000 -5.120000 38.737442 8.024469 1564.981445
3.040000 5.120000 -5.080000 42.836456 57.306824 5119.034180
3.040000 5.120000 -5.040000 -2.262970 97.344650 9481.101562
3.040000 5.120000 -5.000000 -71.585709 86.237328 12561.390625
3.040000 5.120000 -4.960000 -112.544334 20.448120 13084.353516
3.040000 5.120000 -4.920000 -90.297562 -57.368801 11444.829102
3.040000 5.120000 -4.880000 -19.087381 -93.550079 9115.945312
3.040000 5.120000 -4.840000 50.904247 -68.585442 7295.205078
3.040000 5.120000 -4.800000 77.598526 -9.554836 6112.826172
3.040000 5.160000 -5.200000 -12.891461 2.333149 171.633362
3.040000 5.160000 -5.160000 0.982437 -3.539704 13.494689
3.040000 5.160000 -5.120000 15.855459 8.222431 319.003967
3.040000 5.160000 -5.080000 12.131458 31.497965 1139.294067
3.040000 5.160000 -5.040000 -15.095535 42.582317 2041.128906
3.040000 5.160000 -5.000000 -45.322941 22.518272 2561.241455
3.040000 5.160000 -4.960000 -48.193729 -20.839485 2756.919678
3.040000 5.160000 -4.920000 -12.208572 -55.307541 3207.973389
3.040000 5.160000 -4.880000 41.946602 -51.415424 4403.063477
3.040000 5.160000 -4.840000 77.768112 -8.449172 6119.268066
3.040000 5.160000 -4.800000 73.477570 45.607761 7479.020996
3.040000 5.200000 -5.200000 -12.569699 7.418243 213.027679
3.040000 5.200000 -5.160000 -6.840667 -3.000532 55.797916
3.040000 5.200000 -5.120000 6.121521 -3.228415 47.895679
3.040000 5.200000 -5.080000 12.606205 7.474556 214.785385
3.040000 5.200000 -5.040000 6.214989 16.227722 301.965027
3.040000 5.200000 -5.000000 -3.094410 11.121792 133.269623
3.040000 5.200000 -4.960000 1.372211 -3.453865 13.812148
3.040000 5.200000 -4.920000 23.996857 -8.535646 648.706360
3.040000 5.200000 -4.880000 49.006496 10.933506 2521.178223
3.040000 5.200000 -4.840000 53.221977 49.552979 5288.076172
3.040000 5.200000 -4.800000 27.226864 84.210449 7832.702148
3.080000 4.800000 -5.200000 -71.224030 -26.672178 5784.267578
3.080000 4.800000 -5.160000 -48.770466 -65.885094 6719.404297
3.080000 4.800000 -5.120000 -2.346558 -80.601547 6502.115723
3.080000 4.800000 -5.080000 41.188190 -59.821789 5275.113281
3.080000 4.800000 -5.040000 56.733742 -18.647091 3566.431641
3.080000 4.800000 -5.000000 41.668533 14.915430 1958.736816
3.080000 4.800000 -4.960000 15.439713 24.052486 816.906799
3.080000 4.800000 -4.920000 -0.336254 14.649342 214.716278
3.080000 4.800000 -4.880000 -0.472984 4.644897 21.798788
3.080000 4.800000 -4.840000 4.130718 4.456903 36.926811
3.080000 4.800000 -4.800000 2.326635 9.153530 89.200348
3.080000 4.840000 -5.200000 -33.117157 -64.475883 5253.885742
3.080000 4.840000 -5.160000 -5.665716 -77.202278 5992.291992
3.080000 4.840000 -5.120000 24.802469 -73.595123 6031.404785
3.080000 4.840000 -5.080000 47.877953 -55.916416 5418.943848
3.080000 4.840000 -5.040000 58.352112 -32.059532 4432.782715
3.080000 4.840000 -5.000000 57.314045 -9.429825 3373.821289
3.080000 4.840000 -4.960000 48.299133 8.243202 2400.756836
3.080000 4.840000 -4.920000 34.073318 19.265430 1532.147949
3.080000 4.840000 -4.880000 17.560633 21.609268 775.336304
3.080000 4.840000 -4.840000 4.185802 14.295207 221.873901
3.080000 4.840000 -4.800000 0.427720 1.200338 1.623757
3.080000 4.880000 -5.200000 18.858097 -60.537010 4020.357422
3.080000 4.880000 -5.160000 28.022778 -56.987804 4032.885986
3.080000 4.880000 -5.120000 38.203468 -59.062347 4947.865723
3.080000 4.880000 -5.080000 58.855766 -59.819164 7042.333984
3.080000 4.880000 -5.040000 86.821136 -44.742714 9539.820312
3.080000 4.880000 -5.000000 104.312927 -8.070473 10946.319336
3.080000 4.880000 -4.960000 93.649872 36.389790 10094.515625
3.080000 4.880000 -4.920000 55.736031 63.134670 7092.491699
3.080000 4.880000 -4.880000 13.275982 56.490196 3367.394043
3.080000 4.880000 -4.840000 -6.687265 25.641102 702.185669
3.080000 4.880000 -4.800000 4.329024 -2.198593 23.574265
3.080000 4.920000 -5.200000 47.629341 -22.062687 2755.316406
3.080000 4.920000 -5.160000 35.547897 -26.501837 1966.000244
3.080000 4.920000 -5.120000 44.217064 -48.906647 4347.008789
3.080000 4.920000 -5.080000 84.736252 -58.131859 10559.544922
3.080000 4.920000 -5.040000 132.627472 -25.266870 18228.460938
3.080000 4.920000 -5.000000 145.641907 43.800129 23130.015625
3.080000 4.920000 -4.960000 103.321442 107.129059 22151.955078
3.080000 4.920000 -4.920000 29.669113 121.681076 15686.540039
3.080000 4.920000 -4.880000 -25.387089 82.192810 7400.162598
3.080000 4.920000 -4.840000 -29.458719 26.004433 1544.046631
3.080000 4.920000 -4.800000 5.384123 -1.236700 30.518206
3.080000 4.960000 -5.200000 38.896965 18.962891 1872.565063
3.080000 4.960000 -5.160000 24.199648 -7.568350 642.902893
3.080000 4.960000 -5.120000 52.935669 -40.527195 4444.638672
3.080000 4.960000 -5.080000 114.783546 -32.265751 14216.341797
3.080000 4.960000 -5.040000 157.974396 35.401653 26209.187500
3.080000 4.960000 -5.000000 134.668304 125.697113 33935.316406
3.080000 4.960000 -4.960000 48.626461 174.318054 32751.316406
3.080000 4.960000 -4.920000 -43.415192 146.568832 23367.300781
3.080000 4.960000 -4.880000 -80.697098 69.065033 11282.000000
3.080000 4.960000 -4.840000 -51.151054 4.657154 2638.119385
3.080000 4.960000 -4.800000 2.529316 -4.606514 27.617409
3.080000 5.000000 -5.200000 8.859180 35.772320 1358.143921
3.080000 5.000000 -5.160000 12.008703 -4.243917 162.219788
3.080000 5.000000 -5.120000 62.665108 -24.049459 4505.292480
3.080000 5.000000 -5.080000 122.725922 16.917664 15347.858398
3.080000 5.000000 -5.040000 130.943222 106.742104 28540.003906
3.080000 5.000000 -5.000000 61.233936 182.461426 37041.765625
3.080000 5.000000 -4.960000 -47.032196 183.594086 35918.816406
3.080000 5.000000 -4.920000 -120.011871 107.756042 26014.214844
3.080000 5.000000 -4.880000 -113.947372 13.426155 13164.265625
3.080000 5.000000 -4.840000 -51.138992 -33.291061 3723.491211
3.080000 5.000000 -4.800000 6.089132 -15.669373 282.606781
3.080000 5.040000 -5.200000 -15.733379 27.160202 985.215820
3.080000 5.040000 -5.160000 7.955833 -5.744321 96.292511
3.080000 5.040000 -5.120000 61.177616 1.082724 3743.873047
3.080000 5.040000 -5.080000 93.357117 63.074326 12693.921875
3.080000 5.040000 -5.040000 59.300835 141.497910 23538.248047
3.080000 5.040000 -5.000000 -33.180450 171.707794 30584.507812
3.080000 5.040000 -4.960000 -123.011940 121.608231 29920.500000
3.080000 5.040000 -4.920000 -147.365662 23.486942 22268.275391
3.080000 5.040000 -4.880000 -96.547249 -53.583836 12192.598633
3.080000 5.040000 -4.840000 -19.268202 -64.438751 4523.616211
3.080000 5.040000 -4.800000 25.042280 -22.957329 1154.154785
3.080000 5.080000 -5.200000 -22.467821 11.135021 628.791687
3.080000 5.080000 -5.160000 6.754009 -3.131637 55.423790
3.080000 5.080000 -5.120000 41.861050 21.213749 2202.370605
3.080000 5.080000 -5.080000 41.428669 76.507004 7569.656250
3.080000 5.080000 -5.040000 -12.295860 118.178879 14117.435547
3.080000 5.080000 -5.000000 -89.140282 102.613014 18475.419922
3.080000 5.080000 -4.960000 -132.364822 29.895203 18414.167969
3.080000 5.080000 -4.920000 -108.221878 -52.044361 14420.589844
3.080000 5.080000 -4.880000 -36.070656 -88.151428 9071.766602
3.080000 5.080000 -4.840000 30.377977 -63.020676 4894.426758
3.080000 5.080000 -4.800000 51.315689 -9.129898 2716.655029
3.080000 5.120000 -5.200000 -18.977360 2.930847 368.730072
3.080000 5.120000 -5.160000 0.541191 0.669351 0.740919
3.080000 5.120000 -5.120000 14.876009 22.027695 706.514954
3.080000 5.120000 -5.080000 0.794815 52.644260 2772.050049
3.080000 5.120000 -5.040000 -41.175591 60.725975 5383.073242
3.080000 5.120000 -5.000000 -80.372047 27.408619 7210.898438
3.080000 5.120000 -4.960000 -80.877380 -30.967022 7500.107422
3.080000 5.120000 -4.920000 -35.075119 -73.335876 6608.415039
3.080000 5.120000 -4.880000 27.537222 -68.988205 5517.670898
3.080000 5.120000 -4.840000 65.704086 -23.631742 4875.486328
3.080000 5.120000 -4.800000 61.106937 28.373100 4539.090820
3.080000 5.160000 -5.200000 -18.115406 1.813245 331.455780
3.080000 5.160000 -5.160000 -8.943726 -2.572948 86.610291
3.080000 5.160000 -5.120000 -0.896994 5.024071 26.045885
3.080000 5.160000 -5.080000 -6.449924 16.600512 317.178528
3.080000 5.160000 -5.040000 -23.313419 15.205841 774.733093
3.080000 5.160000 -5.000000 -32.890694 -5.956463 1117.277222
3.080000 5.160000 -4.960000 -17.762375 -32.481815 1370.570312
3.080000 5.160000 -4.920000 19.028980 -39.413139 1915.497559
3.080000 5.160000 -4.880000 53.510643 -14.287197 3067.512939
3.080000 5.160000 -4.840000 60.822033 30.364902 4621.346680
3.080000 5.160000 -4.800000 36.229462 67.626137 5885.868164
3.080000 5.200000 -5.200000 -22.039978 -2.099509 490.168549
3.080000 5.200000 -5.160000 -12.206820 -13.543061 332.420959
3.080000 5.200000 -5.120000 3.092209 -12.547739 167.007507
3.080000 5.200000 -5.080000 10.923322 -1.524281 121.642387
3.080000 5.200000 -5.040000 8.140390 7.377594 120.694847
3.080000 5.200000 -5.000000 4.496712 6.811382 66.615341
3.080000 5.200000 -4.960000 10.723881 3.401780 126.573723
3.080000 5.200000 -4.920000 24.783028 10.913893 733.311523
3.080000 5.200000 -4.880000 31.749395 34.472233 2196.358887
3.080000 5.200000 -4.840000 18.052956 62.886845 4280.664551
3.080000 5.200000 -4.800000 -14.743498 77.427864 6212.444824
3.120000 4.800000 -5.200000 -35.528069 -38.098625 2713.749023
3.120000 4.800000 -5.160000 -5.891518 -56.727013 3252.663818
3.120000 4.800000 -5.120000 32.721130 -49.890713 3559.755615
3.120000 4.800000 -5.080000 57.377571 -17.432976 3596.094238
3.120000 4.800000 -5.040000 53.210762 21.951223 3313.241455
3.120000 4.800000 -5.000000 25.645706 45.188557 2699.708008
3.120000 4.800000 -4.960000 -4.945617 42.877029 1862.898804
3.120000 4.800000 -4.920000 -20.697039 24.479813 1027.628662
3.120000 4.800000 -4.880000 -19.139959 7.131763 417.200104
3.120000 4.800000 -4.840000 -10.664836 0.249253 113.800850
3.120000 4.800000 -4.800000 -5.503826 0.621656 30.678558
3.120000 4.840000 -5.200000 -1.555281 -50.669178 2569.784424
3.120000 4.840000 -5.160000 23.994312 -50.781273 3154.464844
3.120000 4.840000 -5.120000 47.286232 -34.925137 3455.752930
3.120000 4.840000 -5.080000 57.378315 -7.791092 3352.972168
3.120000 4.840000 -5.040000 49.950222 19.126865 2860.861572
3.120000 4.840000 -5.000000 30.005856 34.942741 2121.346436
3.120000 4.840000 -4.960000 7.911583 35.676270 1335.389404
3.120000 4.840000 -4.920000 -7.224461 25.000851 677.235352
3.120000 4.840000 -4.880000 -11.600887 10.343590 241.570435
3.120000 4.840000 -4.840000 -6.511671 -1.486482 44.611488
3.120000 4.840000 -4.800000 3.898726 -6.327570 55.238213
3.120000 4.880000 -5.200000 28.947948 -34.455822 2025.187256
3.120000 4.880000 -5.160000 39.099358 -28.571016 2345.062744
3.120000 4.880000 -5.120000 49.776108 -19.871346 2872.531250
3.120000 4.880000 -5.080000 59.380806 -4.733006 3548.481445
3.120000 4.880000 -5.040000 61.344704 17.675800 4075.606445
3.120000 4.880000 -5.000000 49.070824 40.634106 4059.076172
3.120000 4.880000 -4.960000 23.900122 52.173340 3293.273193
3.120000 4.880000 -4.920000 -2.222519 44.507420 1985.849976
3.120000 4.880000 -4.880000 -14.097998 22.459108 703.165100
3.120000 4.880000 -4.840000 -5.591509 1.926508 34.976402
3.120000 4.880000 -4.800000 14.271284 -1.998313 207.662811
3.120000 4.920000 -5.200000 36.919029 -4.444012 1382.764038
3.120000 4.920000 -5.160000 36.332352 -7.380562 1374.512451
3.120000 4.920000 -5.120000 48.870819 -10.434589 2497.237549
3.120000 4.920000 -5.080000 69.358940 2.588310 4817.361816
3.120000 4.920000 -5.040000 77.966553 35.850395 7364.034180
3.120000 4.920000 -5.000000 58.284145 72.391083 8637.509766
3.120000 4.920000 -4.960000 15.819616 86.246773 7688.766113
3.120000 4.920000 -4.920000 -22.958765 66.259705 4917.453613
3.120000 4.920000 -4.880000 -32.643143 28.344082 1868.961670
3.120000 4.920000 -4.840000 -11.800688 2.768275 146.919571
3.120000 4.920000 -4.800000 15.712030 7.447601 302.334656
3.120000 4.960000 -5.200000 23.500942 17.979891 875.570801
3.120000 4.960000 -5.160000 25.953335 3.457452 685.529541
3.120000 4.960000 -5.120000 50.052795 -0.863512 2506.027832
3.120000 4.960000 -5.080000 76.741013 24.672916 6497.936035
3.120000 4.960000 -5.040000 75.265999 73.032288 10998.685547
3.120000 4.960000 -5.000000 33.501442 110.977539 13438.361328
3.120000 4.960000 -4.960000 -26.006912 107.410507 12213.375977
3.120000 4.960000 -4.920000 -63.008789 63.329559 7980.740234
3.120000 4.960000 -4.880000 -55.219727 12.913748 3215.983154
3.120000 4.960000 -4.840000 -18.221806 -6.884150 379.425720
3.120000 4.960000 -4.800000 10.174795 10.813570 220.459747
3.120000 5.000000 -5.200000 3.941681 23.451662 565.517334
3.120000 5.000000 -5.160000 17.257864 7.259272 350.530884
3.120000 5.000000 -5.120000 47.572254 14.441685 2471.681641
3.120000 5.000000 -5.080000 64.344048 54.637814 7125.447266
3.120000 5.000000 -5.040000 39.729023 103.891663 12371.873047
3.120000 5.000000 -5.000000 -20.971430 121.689377 15248.105469
3.120000 5.000000 -4.960000 -78.533157 88.261223 13957.500000
3.120000 5.000000 -4.920000 -92.959023 25.447189 9288.939453
3.120000 5.000000 -4.880000 -59.540321 -21.344471 4000.636230
3.120000 5.000000 -4.840000 -12.218771 -23.707932 711.364380
3.120000 5.000000 -4.800000 9.133507 6.132769 121.031799
3.120000 5.040000 -5.200000 -9.214154 17.907515 405.579712
3.120000 5.040000 -5.160000 9.887013 10.234018 202.488159
3.120000 5.040000 -5.120000 32.730602 29.526323 1943.096191
3.120000 5.040000 -5.080000 29.530298 70.448074 5834.969727
3.120000 5.040000 -5.040000 -12.505644 100.474800 10251.577148
3.120000 5.040000 -5.000000 -70.780296 87.737160 12707.660156
3.120000 5.040000 -4.960000 -103.181007 33.065224 11739.628906
3.120000 5.040000 -4.920000 -85.478851 -27.073669 8039.617188
3.120000 5.040000 -4.880000 -33.839767 -51.936455 3842.525146
3.120000 5.040000 -4.840000 10.433482 -32.221584 1147.088013
3.120000 5.040000 -4.800000 18.891468 4.652485 378.533203
3.120000 5.080000 -5.200000 -15.295165 11.046633 355.970184
3.120000 5.080000 -5.160000 -0.733314 11.345565 129.259598
3.120000 5.080000 -5.120000 8.123985 30.902582 1020.968750
3.120000 5.080000 -5.080000 -7.889284 56.488056 3253.141113
3.120000 5.080000 -5.040000 -46.759022 60.807476 5883.955078
3.120000 5.080000 -5.000000 -81.064041 29.166945 7422.089355
3.120000 5.080000 -4.960000 -80.704109 -22.413313 7015.509766
3.120000 5.080000 -4.920000 -41.546097 -58.208633 5114.323242
3.120000 5.080000 -4.880000 9.139597 -54.036156 3003.438232
3.120000 5.080000 -4.840000 36.894119 -18.211021 1692.817383
3.120000 5.080000 -4.800000 30.053608 18.306519 1238.348022
3.120000 5.120000 -5.200000 -19.834471 5.128429 419.707001
3.120000 5.120000 -5.160000 -12.852818 4.341291 184.041733
3.120000 5.120000 -5.120000 -10.512844 13.392326 289.874298
3.120000 5.120000 -5.080000 -22.229166 21.648476 962.792358
3.120000 5.120000 -5.040000 -41.520363 13.470345 1905.390747
3.120000 5.120000 -5.000000 -48.662315 -13.493095 2550.084717
3.120000 5.120000 -4.960000 -29.559113 -41.598499 2604.176270
3.120000 5.120000 -4.920000 8.257315 -47.315769 2306.965332
3.120000 5.120000 -4.880000 40.024967 -23.061350 2133.823975
3.120000 5.120000 -4.840000 45.231045 15.380810 2282.416748
3.120000 5.120000 -4.800000 24.778099 43.439590 2500.952148
3.120000 5.160000 -5.200000 -23.837269 -3.909577 583.500183
3.120000 5.160000 -5.160000 -17.241777 -11.489858 429.295715
3.120000 5.160000 -5.120000 -9.043633 -10.940365 201.478882
3.120000 5.160000 -5.080000 -6.867291 -6.956509 95.552704
3.120000 5.160000 -5.040000 -8.616714 -8.228428 141.954773
3.120000 5.160000 -5.000000 -4.528748 -15.597466 263.790497
3.120000 5.160000 -4.960000 10.743332 -18.919586 473.369934
3.120000 5.160000 -4.920000 29.635315 -7.065330 928.170776
3.120000 5.160000 -4.880000 36.934593 19.397268 1740.418213
3.120000 5.160000 -4.840000 23.849903 46.742699 2753.697754
3.120000 5.160000 -4.800000 -3.777088 59.672073 3575.022705
3.120000 5.200000 -5.200000 -21.739326 -16.901987 758.275513
3.120000 5.200000 -5.160000 -7.573915 -26.322205 750.222656
3.120000 5.200000 -5.120000 9.559115 -22.602043 602.229065
3.120000 5.200000 -5.080000 19.084553 -9.547882 455.382202
3.120000 5.200000 -5.040000 19.159092 3.320690 378.097778
3.120000 5.200000 -5.000000 16.037447 11.237714 383.485901
3.120000 5.200000 -4.960000 14.941555 17.833618 541.287964
3.120000 5.200000 -4.920000 13.349871 28.679825 1000.751404
3.120000 5.200000 -4.880000 4.091599 42.779953 1846.865601
3.120000 5.200000 -4.840000 -15.737287 51.827477 2933.749512
3.120000 5.200000 -4.800000 -40.212097 47.845856 3906.238770
3.160000 4.800000 -5.200000 -12.358167 -23.930765 725.405823
3.160000 4.800000 -5.160000 9.245253 -26.949825 811.767761
3.160000 4.800000 -5.120000 31.086617 -12.184147 1114.831177
3.160000 4.800000 -5.080000 37.730244 16.759365 1704.447632
3.160000 4.800000 -5.040000 21.612381 43.883350 2392.843506
3.160000 4.800000 -5.000000 -9.065806 52.243622 2811.584961
3.160000 4.800000 -4.960000 -35.675827 37.509628 2679.736816
3.160000 4.800000 -4.920000 -43.619938 11.170469 2027.478394
3.160000 4.800000 -4.880000 -32.946667 -9.555825 1176.796631
3.160000 4.800000 -4.840000 -15.795769 -15.554726 491.455811
3.160000 4.800000 -4.800000 -4.240959 -10.728584 133.088257
3.160000 4.840000 -5.200000 5.394209 -27.448675 782.527222
3.160000 4.840000 -5.160000 22.581608 -21.268810 962.291321
3.160000 4.840000 -5.120000 33.985268 -2.365585 1160.594360
3.160000 4.840000 -5.080000 29.931658 21.868971 1374.156006
3.160000 4.840000 -5.040000 9.945383 37.926907 1537.360840
3.160000 4.840000 -5.000000 -15.373276 36.198059 1546.637085
3.160000 4.840000 -4.960000 -31.655258 18.495720 1344.146973
3.160000 4.840000 -4.920000 -31.123772 -3.503120 980.960999
3.160000 4.840000 -4.880000 -17.202248 -17.255619 593.673706
3.160000 4.840000 -4.840000 -0.230994 -17.721493 314.104645
3.160000 4.840000 -4.800000 10.896778 -8.592971 192.578918
3.160000 4.880000 -5.200000 19.792320 -18.378729 729.513611
3.160000 4.880000 -5.160000 28.803951 -9.664251 923.065369
3.160000 4.880000 -5.120000 32.072800 4.979000 1053.454834
3.160000 4.880000 -5.080000 25.689764 20.277773 1071.152100
3.160000 4.880000 -5.040000 10.863699 28.981636 957.955200
3.160000 4.880000 -5.000000 -5.917066 26.470417 735.694641
3.160000 4.880000 -4.960000 -16.327316 14.081549 464.871277
3.160000 4.880000 -4.920000 -15.156731 -1.133727 231.011826
3.160000 4.880000 -4.880000 -3.665238 -10.252151 118.540588
3.160000 4.880000 -4.840000 10.843200 -7.743449 177.535980
3.160000 4.880000 -4.800000 19.228411 5.106925 395.812469
3.160000 4.920000 -5.200000 24.680588 -3.728153 623.030518
3.160000 4.920000 -5.160000 28.303036 2.024666 805.161072
3.160000 4.920000 -5.120000 30.291759 10.564691 1029.203369
3.160000 4.920000 -5.080000 27.900850 21.512726 1241.254883
3.160000 4.920000 -5.040000 18.583479 31.267918 1323.028320
3.160000 4.920000 -5.000000 3.835237 33.868401 1161.777588
3.160000 4.920000 -4.960000 -9.258604 25.961176 759.704407
3.160000 4.920000 -4.920000 -12.265495 11.727502 287.976685
3.160000 4.920000 -4.880000 -3.126298 1.756498 12.859025
3.160000 4.920000 -4.840000 10.088064 4.890905 125.690002
3.160000 4.920000 -4.800000 14.496883 19.702662 598.354492
3.160000 4.960000 -5.200000 20.824165 9.642673 526.627014
3.160000 4.960000 -5.160000 23.390043 12.213509 696.263916
3.160000 4.960000 -5.120000 27.472967 18.730402 1105.591919
3.160000 4.960000 -5.080000 27.374416 31.411461 1736.038574
3.160000 4.960000 -5.040000 16.641146 44.873100 2290.522949
3.160000 4.960000 -5.000000 -3.301023 48.538673 2366.899658
3.160000 4.960000 -4.960000 -21.048409 36.887787 1803.744385
3.160000 4.960000 -4.920000 -24.265629 17.153194 883.052856
3.160000 4.960000 -4.880000 -12.137701 4.824514 170.599731
3.160000 4.960000 -4.840000 2.047101 9.468742 93.847702
3.160000 4.960000 -4.800000 2.555282 24.652512 614.275818
3.160000 5.000000 -5.200000 11.347531 18.723160 479.323181
3.160000 5.000000 -5.160000 13.643789 20.526207 607.478149
3.160000 5.000000 -5.120000 17.357737 28.009789 1085.839355
3.160000 5.000000 -5.080000 13.999830 42.037888 1963.179199
3.160000 5.000000 -5.040000 -2.457423 53.244308 2840.995117
3.160000 5.000000 -5.000000 -25.908857 49.395077 3111.142334
3.160000 5.000000 -4.960000 -40.617096 28.841969 2481.607666
3.160000 5.000000 -4.920000 -35.607529 5.120954 1294.120239
3.160000 5.000000 -4.880000 -16.627974 -4.262128 294.655243
3.160000 5.000000 -4.840000 -1.995459 5.205985 31.084131
3.160000 5.000000 -4.800000 -5.077489 20.093901 429.545715
3.160000 5.040000 -5.200000 -1.777346 22.159508 494.202759
3.160000 5.040000 -5.160000 -1.735099 23.056803 534.626709
3.160000 5.040000 -5.120000 -1.254948 29.018284 843.635681
3.160000 5.040000 -5.080000 -8.583885 38.414688 1549.371338
3.160000 5.040000 -5.040000 -25.925627 40.708656 2329.332764
3.160000 5.040000 -5.000000 -43.166763 27.362877 2612.096680
3.160000 5.040000 -4.960000 -45.700470 3.340671 2099.693115
3.160000 5.040000 -4.920000 -29.523901 -14.764822 1089.660645
3.160000 5.040000 -4.880000 -7.160952 -13.941308 245.639313
3.160000 5.040000 -4.840000 3.407621 2.034709 15.751921
3.160000 5.040000 -4.800000 -3.772807 16.027252 271.106873
3.160000 5.080000 -5.200000 -16.123446 17.611622 570.134705
3.160000 5.080000 -5.160000 -18.035465 14.200382 526.928833
3.160000 5.080000 -5.120000 -18.181944 14.340530 536.233887
3.160000 5.080000 -5.080000 -22.930363 16.018496 782.393677
3.160000 5.080000 -5.040000 -31.887897 11.366156 1146.027466
3.160000 5.080000 -5.000000 -35.840328 -2.775118 1292.230469
3.160000 5.080000 -4.960000 -26.325081 -18.290909 1027.567261
3.160000 5.080000 -4.920000 -6.467334 -22.124660 531.327026
3.160000 5.080000 -4.880000 9.882204 -9.671413 191.194199
3.160000 5.080000 -4.840000 11.057437 9.489090 212.309753
3.160000 5.080000 -4.800000 -0.933933 20.582527 424.512634
3.160000 5.120000 -5.200000 -25.994314 3.863546 690.631348
3.160000 5.120000 -5.160000 -24.934105 -5.580963 652.856750
3.160000 5.120000 -5.120000 -19.141884 -10.271244 471.910156
3.160000 5.120000 -5.080000 -14.721934 -10.839993 334.240814
3.160000 5.120000 -5.040000 -12.352569 -12.269779 303.133423
3.160000 5.120000 -5.000000 -7.201405 -15.767141 300.462982
3.160000 5.120000 -4.960000 3.480963 -15.872043 264.038849
3.160000 5.120000 -4.920000 14.689290 -6.670913 260.276306
3.160000 5.120000 -4.880000 17.407742 10.089935 404.836273
3.160000 5.120000 -4.840000 7.985343 25.009939 689.262756
3.160000 5.120000 -4.800000 -7.585437 29.784088 944.630798
3.160000 5.160000 -5.200000 -24.451452 -14.628681 811.871826
3.160000 5.160000 -5.160000 -15.140331 -25.706436 890.050476
3.160000 5.160000 -5.120000 -0.686735 -27.581940 761.235046
3.160000 5.160000 -5.080000 11.004619 -20.909050 558.290039
3.160000 5.160000 -5.040000 16.884857 -10.964233 405.312805
3.160000 5.160000 -5.000000 18.832523 -1.178027 356.051697
3.160000 5.160000 -4.960000 18.577408 8.967064 425.528320
3.160000 5.160000 -4.920000 14.581243 20.324312 625.690308
3.160000 5.160000 -4.880000 4.538486 30.331032 940.569336
3.160000 5.160000 -4.840000 -10.297909 34.369793 1287.329590
3.160000 5.160000 -4.800000 -24.917526 30.496304 1550.907715
3.160000 5.200000 -5.200000 -9.975773 -27.684072 865.923950
3.160000 5.200000 -5.160000 6.587538 -32.229240 1082.119507
3.160000 5.200000 -5.120000 23.726109 -24.155979 1146.439575
3.160000 5.200000 -5.080000 32.776535 -6.952678 1122.640991
3.160000 5.200000 -5.040000 30.931103 11.737402 1094.499756
3.160000 5.200000 -5.000000 20.954931 25.998249 1115.018066
3.160000 5.200000 -4.960000 7.130112 33.933075 1202.292114
3.160000 5.200000 -4.920000 -7.603038 35.946194 1349.934937
3.160000 5.200000 -4.880000 -21.475590 32.692677 1530.012085
3.160000 5.200000 -4.840000 -32.821945 24.972237 1700.892578
3.160000 5.200000 -4.800000 -40.377186 14.371401 1836.854248
3.200000 4.800000 -5.200000 -11.015903 -5.812999 155.141083
3.200000 4.800000 -5.160000 -2.661492 -5.969300 42.716084
3.200000 4.800000 -5.120000 6.182837 3.265306 48.889706
3.200000 4.800000 -5.080000 5.033575 20.388521 441.028687
3.200000 4.800000 -5.040000 -11.458311 33.700691 1267.029419
3.200000 4.800000 -5.000000 -35.691780 30.437275 2200.331055
3.200000 4.800000 -4.960000 -51.426758 9.185360 2729.082275
3.200000 4.800000 -4.920000 -47.433731 -17.241362 2547.223389
3.200000 4.800000 -4.880000 -27.398237 -32.285679 1793.028564
3.200000 4.800000 -4.840000 -6.097281 -29.639782 915.693481
3.200000 4.800000 -4.800000 4.271203 -17.078230 309.909088
3.200000 4.840000 -5.200000 -4.301801 -15.572474 261.007416
3.200000 4.840000 -5.160000 4.718874 -11.162143 146.861206
3.200000 4.840000 -5.120000 7.970601 1.839109 66.912804
3.200000 4.840000 -5.080000 -1.481066 15.229848 234.141830
3.200000 4.840000 -5.040000 -20.298620 17.208391 708.162720
3.200000 4.840000 -5.000000 -35.786812 3.216307 1291.040527
3.200000 4.840000 -4.960000 -36.077389 -18.818056 1655.697266
3.200000 4.840000 -4.920000 -20.321621 -34.433250 1598.616943
3.200000 4.840000 -4.880000 0.817288 -34.432419 1186.259399
3.200000 4.840000 -4.840000 14.569216 -21.512341 675.042847
3.200000 4.840000 -4.800000 16.118073 -6.054727 296.451996
3.200000 4.880000 -5.200000 9.514229 -18.456123 431.149048
3.200000 4.880000 -5.160000 15.464817 -8.916773 318.669403
3.200000 4.880000 -5.120000 11.378205 2.999367 138.459763
3.200000 4.880000 -5.080000 -1.250687 7.572031 58.899872
3.200000 4.880000 -5.040000 -13.162640 0.210236 173.299286
3.200000 4.880000 -5.000000 -14.947897 -14.211155 425.396545
3.200000 4.880000 -4.960000 -4.774273 -25.310467 663.413452
3.200000 4.880000 -4.920000 10.622951 -25.479519 762.052979
3.200000 4.880000 -4.880000 21.832956 -15.021118 702.311951
3.200000 4.880000 -4.840000 23.584602 -0.405908 556.398193
3.200000 4.880000 -4.800000 16.870457 11.457829 415.894135
3.200000 4.920000 -5.200000 23.588520 -9.578888 648.173340
3.200000 4.920000 -5.160000 22.650124 2.605756 519.818054
3.200000 4.920000 -5.120000 13.213072 8.837727 252.690674
3.200000 4.920000 -5.080000 3.958719 5.114113 41.825611
3.200000 4.920000 -5.040000 2.622370 -3.739264 20.858921
3.200000 4.920000 -5.000000 9.503854 -9.241284 175.724579
3.200000 4.920000 -4.960000 18.527155 -6.768505 389.068115
3.200000 4.920000 -4.920000 23.373859 1.917282 550.013245
3.200000 4.920000 -4.880000 21.875328 12.066951 624.141235
3.200000 4.920000 -4.840000 15.242769 20.201305 640.434753
3.200000 4.920000 -4.800000 5.089746 24.739239 637.935425
3.200000 4.960000 -5.200000 28.003307 9.083063 866.687256
3.200000 4.960000 -5.160000 18.715101 18.685932 699.419067
3.200000 4.960000 -5.120000 8.124199 16.950266 353.314148
3.200000 4.960000 -5.080000 5.757552 9.144311 116.767822
3.200000 4.960000 -5.040000 11.734761 5.275699 165.537613
3.200000 4.960000 -5.000000 18.225397 9.879485 429.769318
3.200000 4.960000 -4.960000 18.365595 18.923470 695.392761
3.200000 4.960000 -4.920000 12.247976 25.777996 814.518005
3.200000 4.960000 -4.880000 4.282193 28.120743 809.113342
3.200000 4.960000 -4.840000 -3.199626 27.933924 790.541687
3.200000 4.960000 -4.800000 -11.533087 26.079342 813.144165
3.200000 5.000000 -5.200000 16.758060 27.351116 1028.916138
3.200000 5.000000 -5.160000 1.900324 28.708391 827.782959
3.200000 5.000000 -5.120000 -5.184512 19.377121 402.351990
3.200000 5.000000 -5.080000 -0.605713 11.568678 134.201187
3.200000 5.000000 -5.040000 7.524850 13.783978 246.621399
3.200000 5.000000 -5.000000 8.930164 23.163889 616.313599
3.200000 5.000000 -4.960000 1.598346 30.441891 929.263428
3.200000 5.000000 -4.920000 -8.226315 30.444229 994.523315
3.200000 5.000000 -4.880000 -14.677481 25.919117 887.229004
3.200000 5.000000 -4.840000 -18.292027 21.556984 799.301758
3.200000 5.000000 -4.800000 -22.582657 17.027237 799.903198
3.200000 5.040000 -5.200000 -5.887789 32.563869 1095.071655
3.200000 5.040000 -5.160000 -19.652740 23.051580 917.605591
3.200000 5.040000 -5.120000 -19.230873 8.979699 450.461487
3.200000 5.040000 -5.080000 -8.768688 3.754200 90.983910
3.200000 5.040000 -5.040000 -0.709708 10.203056 104.606041
3.200000 5.040000 -5.000000 -2.686201 19.899572 403.208649
3.200000 5.040000 -4.960000 -11.443975 23.548088 685.477051
3.200000 5.040000 -4.920000 -18.908291 19.967339 756.218079
3.200000 5.040000 -4.880000 -21.589161 14.467862 675.410889
3.200000 5.040000 -4.840000 -22.324062 10.593081 610.577148
3.200000 5.040000 -4.800000 -23.729500 6.321385 603.049072
3.200000 5.080000 -5.200000 -26.311716 19.298012 1064.719727
3.200000 5.080000 -5.160000 -31.664879 1.862872 1006.134827
3.200000 5.080000 -5.120000 -21.689182 -11.803986 609.754700
3.200000 5.080000 -5.080000 -6.508327 -12.006201 186.507172
3.200000 5.080000 -5.040000 1.613956 -1.630149 5.262242
3.200000 5.080000 -5.000000 -0.952167 9.070050 83.172432
3.200000 5.080000 -4.960000 -8.668076 13.098639 246.709900
3.200000 5.080000 -4.920000 -14.767815 11.331447 346.490051
3.200000 5.080000 -4.880000 -17.575584 8.117586 374.796356
3.200000 5.080000 -4.840000 -19.038404 5.177258 389.264832
3.200000 5.080000 -4.800000 -19.541729 1.405138 383.853607
3.200000 5.120000 -5.200000 -30.782675 -4.987672 972.449951
3.200000 5.120000 -5.160000 -24.349415 -22.614407 1104.305420
3.200000 5.120000 -5.120000 -6.521151 -29.719305 925.762512
3.200000 5.120000 -5.080000 10.558336 -22.104584 600.091064
3.200000 5.120000 -5.040000 17.209255 -6.155346 334.046753
3.200000 5.120000 -5.000000 12.528786 8.213931 224.439148
3.200000 5.120000 -4.960000 2.193199 15.319686 239.502899
3.200000 5.120000 -4.920000 -7.814038 15.474228 300.510925
3.200000 5.120000 -4.880000 -14.685307 11.633744 351.002258
3.200000 5.120000 -4.840000 -17.913517 6.363276 361.385376
3.200000 5.120000 -4.800000 -17.710423 1.803679 316.912323
3.200000 5.160000 -5.200000 -16.265133 -24.386452 859.253540
3.200000 5.160000 -5.160000 -1.355324 -34.101620 1164.757324
3.200000 5.160000 -5.120000 18.274109 -30.690771 1275.866455
3.200000 5.160000 -5.080000 31.782669 -14.546961 1221.752197
3.200000 5.160000 -5.040000 32.475204 6.563475 1097.718140
3.200000 5.160000 -5.000000 21.048723 23.275011 984.774902
3.200000 5.160000 -4.960000 3.654466 29.898857 907.296753
3.200000 5.160000 -4.920000 -12.282540 26.208652 837.754272
3.200000 5.160000 -4.880000 -21.588913 16.368507 734.009216
3.200000 5.160000 -4.840000 -23.256275 6.376149 581.509583
3.200000 5.160000 -4.800000 -20.629402 0.894458 426.372284
3.200000 5.200000 -5.200000 6.657592 -26.443415 743.577698
3.200000 5.200000 -5.160000 21.783308 -25.152380 1107.154785
3.200000 5.200000 -5.120000 35.505028 -12.812206 1424.759644
3.200000 5.200000 -5.080000 40.012409 7.732857 1660.790039
3.200000 5.200000 -5.040000 31.293968 28.769192 1806.978760
3.200000 5.200000 -5.000000 11.550230 41.531662 1858.286743
3.200000 5.200000 -4.960000 -11.501938 40.779572 1795.268066
3.200000 5.200000 -4.920000 -28.471737 27.969219 1592.916992
3.200000 5.200000 -4.880000 -33.782818 10.760763 1257.072876
3.200000 5.200000 -4.840000 -29.336586 -1.834262 863.999756
3.200000 5.200000 -4.800000 -22.964565 -5.942949 562.689941
