#kx 	ky 	kz 	real 	imag 	intensity
1.800000 1.800000 -8.200000 -30.545877 -14.269148 1136.659180
1.800000 1.800000 -8.160000 -12.912147 -39.480820 1725.458618
1.800000 1.800000 -8.120000 18.512192 -40.217354 1960.136719
1.800000 1.800000 -8.080000 37.369095 -16.273287 1661.269043
1.800000 1.800000 -8.040000 29.828074 10.735312 1004.960876
1.800000 1.800000 -8.000000 6.392241 18.697889 390.471802
1.800000 1.800000 -7.960000 -10.212476 5.178839 131.115036
1.800000 1.800000 -7.920000 -7.457147 -13.150383 228.541611
1.800000 1.800000 -7.880000 7.262965 -19.202305 421.479187
1.800000 1.800000 -7.840000 17.711111 -11.693914 450.431091
1.800000 1.800000 -7.800000 16.867359 -2.841593 292.582458
1.800000 1.840000 -8.200000 -13.840035 -32.020687 1216.871094
1.800000 1.840000 -8.160000 13.870106 -42.966412 2038.492432
1.800000 1.840000 -8.120000 40.200165 -28.743309 2442.230957
1.800000 1.840000 -8.080000 46.006180 -1.397530 2118.521729
1.800000 1.840000 -8.040000 30.822071 17.403236 1252.872681
1.800000 1.840000 -8.000000 11.411414 16.301033 395.944031
1.800000 1.840000 -7.960000 4.680186 2.744186 29.434704
1.800000 1.840000 -7.920000 12.694044 -6.884884 208.540390
1.800000 1.840000 -7.880000 23.842432 -3.920772 583.833984
1.800000 1.840000 -7.840000 26.818655 6.237131 758.142029
1.800000 1.840000 -7.800000 21.652800 12.818480 633.157104
1.800000 1.880000 -8.200000 7.642442 -28.999805 899.395630
1.800000 1.880000 -8.160000 32.227222 -24.828632 1655.054932
1.800000 1.880000 -8.120000 45.891716 -4.375463 2125.194336
1.800000 1.880000 -8.080000 41.101788 17.355923 1990.584961
1.800000 1.880000 -8.040000 25.452271 26.537975 1352.082275
1.800000 1.880000 -8.000000 13.284405 21.950083 658.281494
1.800000 1.880000 -7.960000 12.324944 13.806043 342.511047
1.800000 1.880000 -7.920000 18.308006 12.478104 490.886169
1.800000 1.880000 -7.880000 21.530581 19.035299 825.908508
1.800000 1.880000 -7.840000 17.322626 26.355583 994.690125
1.800000 1.880000 -7.800000 9.573841 28.027760 877.213745
1.800000 1.920000 -8.200000 15.256636 -12.492332 388.823303
1.800000 1.920000 -8.160000 29.443390 -1.931491 870.643860
1.800000 1.920000 -8.120000 32.361023 15.079443 1274.625488
1.800000 1.920000 -8.080000 24.051249 27.918453 1357.902588
1.800000 1.920000 -8.040000 12.540368 30.950382 1115.187012
1.800000 1.920000 -8.000000 5.976755 27.345303 783.487183
1.800000 1.920000 -7.960000 5.679213 24.609264 637.869385
1.800000 1.920000 -7.920000 6.416944 26.851572 762.184082
1.800000 1.920000 -7.880000 2.803068 31.457874 997.455017
1.800000 1.920000 -7.840000 -5.113300 32.777550 1100.513672
1.800000 1.920000 -7.800000 -12.409307 28.386883 959.806030
1.800000 1.960000 -8.200000 6.385233 -0.709486 41.274567
1.800000 1.960000 -8.160000 12.661144 7.689486 219.432770
1.800000 1.960000 -8.120000 11.573749 18.020252 458.681152
1.800000 1.960000 -8.080000 4.773266 24.290880 612.830933
1.800000 1.960000 -8.040000 -2.255140 24.713970 615.865967
1.800000 1.960000 -8.000000 -5.659301 22.706310 547.604248
1.800000 1.960000 -7.960000 -6.675906 22.685762 559.211548
1.800000 1.960000 -7.920000 -9.623957 25.117050 723.486755
1.800000 1.960000 -7.880000 -16.643480 25.993492 952.667053
1.800000 1.960000 -7.840000 -24.758289 21.224594 1063.456299
1.800000 1.960000 -7.800000 -28.377325 11.392746 935.067261
1.800000 2.000000 -8.200000 -5.559917 -3.555176 43.551956
1.800000 2.000000 -8.160000 -1.141771 1.375776 3.196400
1.800000 2.000000 -8.120000 -2.272866 7.449707 60.664047
1.800000 2.000000 -8.080000 -6.813165 9.810085 142.656982
1.800000 2.000000 -8.040000 -9.836812 8.357479 166.610321
1.800000 2.000000 -8.000000 -9.590040 7.378287 146.407990
1.800000 2.000000 -7.960000 -9.643376 9.890044 190.807678
1.800000 2.000000 -7.920000 -14.494007 13.257676 385.842224
1.800000 2.000000 -7.880000 -23.472378 11.370860 680.248962
1.800000 2.000000 -7.840000 -29.915028 1.491217 897.132629
1.800000 2.000000 -7.800000 -27.221188 -11.604321 875.653320
1.800000 2.040000 -8.200000 -7.207004 -14.246799 254.912170
1.800000 2.040000 -8.160000 -3.053894 -9.214089 94.225716
1.800000 2.040000 -8.120000 -4.944756 -5.681791 56.733360
1.800000 2.040000 -8.080000 -7.032606 -7.493454 105.609406
1.800000 2.040000 -8.040000 -3.935969 -10.420882 124.086639
1.800000 2.040000 -8.000000 1.893539 -7.675205 62.494267
1.800000 2.040000 -7.960000 2.363219 0.888609 6.374431
1.800000 2.040000 -7.920000 -6.539731 6.908623 90.497147
1.800000 2.040000 -7.880000 -18.523653 1.918365 346.805847
1.800000 2.040000 -7.840000 -21.972836 -12.734441 644.971497
1.800000 2.040000 -7.800000 -11.562578 -25.616013 789.873352
1.800000 2.080000 -8.200000 0.933294 -19.239471 371.028290
1.800000 2.080000 -8.160000 1.256068 -13.310298 178.741745
1.800000 2.080000 -8.120000 -1.822363 -14.718209 219.946686
1.800000 2.080000 -8.080000 2.006576 -21.063356 447.691315
1.800000 2.080000 -8.040000 14.097923 -21.141876 645.730347
1.800000 2.080000 -8.000000 23.537973 -8.728091 630.215759
1.800000 2.080000 -7.960000 18.713831 8.236660 418.050018
1.800000 2.080000 -7.920000 1.258897 14.341019 207.249634
1.800000 2.080000 -7.880000 -13.585571 2.863717 192.768616
1.800000 2.080000 -7.840000 -11.603367 -16.052151 392.309662
1.800000 2.080000 -7.800000 5.834740 -24.583704 638.402710
1.800000 2.120000 -8.200000 7.146836 -14.104342 250.009720
1.800000 2.120000 -8.160000 1.670694 -12.428477 157.258255
1.800000 2.120000 -8.120000 1.943888 -21.410229 462.176575
1.800000 2.120000 -8.080000 16.387897 -27.829607 1043.050171
1.800000 2.120000 -8.040000 35.467163 -17.253706 1555.610107
1.800000 2.120000 -8.000000 40.136608 8.109320 1676.708374
1.800000 2.120000 -7.960000 22.392670 28.958948 1340.052246
1.800000 2.120000 -7.920000 -4.414856 27.591322 780.772034
1.800000 2.120000 -7.880000 -17.577997 6.348148 349.284973
1.800000 2.120000 -7.840000 -7.287901 -14.064423 250.921478
1.800000 2.120000 -7.800000 13.986062 -14.946366 419.003784
1.800000 2.160000 -8.200000 3.265390 -7.711573 70.131119
1.800000 2.160000 -8.160000 -2.787005 -15.988895 263.412170
1.800000 2.160000 -8.120000 7.932489 -29.163340 913.424744
1.800000 2.160000 -8.080000 32.502960 -26.582283 1763.060181
1.800000 2.160000 -8.040000 49.231522 -0.569044 2424.066406
1.800000 2.160000 -8.000000 39.156361 32.486191 2588.573242
1.800000 2.160000 -7.960000 6.740041 46.375313 2196.097900
1.800000 2.160000 -7.920000 -22.718573 30.704174 1458.879883
1.800000 2.160000 -7.880000 -27.014925 1.321768 731.553223
1.800000 2.160000 -7.840000 -7.854445 -15.394588 298.685638
1.800000 2.160000 -7.800000 12.543236 -7.933298 220.269989
1.800000 2.200000 -8.200000 -5.612082 -11.088144 154.442413
1.800000 2.200000 -8.160000 -2.725632 -27.738766 776.868225
1.800000 2.200000 -8.120000 20.485558 -35.342163 1668.726562
1.800000 2.200000 -8.080000 46.356529 -17.020760 2438.634033
1.800000 2.200000 -8.040000 49.291588 19.904936 2825.867188
1.800000 2.200000 -8.000000 21.507402 48.132660 2779.321289
1.800000 2.200000 -7.960000 -17.610550 45.558922 2385.747070
1.800000 2.200000 -7.920000 -38.872986 16.267206 1775.730957
1.800000 2.200000 -7.880000 -30.098572 -13.876145 1098.471436
1.800000 2.200000 -7.840000 -5.605853 -22.099792 519.826416
1.800000 2.200000 -7.800000 9.993591 -8.666634 174.982391
1.840000 1.800000 -8.200000 2.298678 -33.631176 1136.339966
1.840000 1.800000 -8.160000 31.965115 -34.409897 2205.809570
1.840000 1.800000 -8.120000 51.676247 -9.667368 2763.892578
1.840000 1.800000 -8.080000 44.762909 20.867300 2439.162109
1.840000 1.800000 -8.040000 19.045769 33.391052 1477.703735
1.840000 1.800000 -8.000000 -2.426149 22.490410 511.704742
1.840000 1.800000 -7.960000 -4.579247 3.861897 35.883743
1.840000 1.800000 -7.920000 6.905897 -3.829054 62.353073
1.840000 1.800000 -7.880000 15.070399 2.459018 233.163696
1.840000 1.800000 -7.840000 11.284751 10.176590 230.908585
1.840000 1.800000 -7.800000 3.222040 7.775305 70.836914
1.840000 1.840000 -8.200000 21.044725 -26.738674 1157.837158
1.840000 1.840000 -8.160000 47.473885 -15.879581 2505.930908
1.840000 1.840000 -8.120000 57.975910 12.598001 3519.915771
1.840000 1.840000 -8.080000 45.409790 39.379349 3612.782227
1.840000 1.840000 -8.040000 20.862999 48.623096 2799.470215
1.840000 1.840000 -8.000000 1.679453 40.483616 1641.743652
1.840000 1.840000 -7.960000 -4.083344 27.348194 764.597412
1.840000 1.840000 -7.920000 -1.539509 19.920788 399.207886
1.840000 1.840000 -7.880000 0.354171 18.465746 341.109192
1.840000 1.840000 -7.840000 -0.714157 16.868731 285.064087
1.840000 1.840000 -7.800000 -0.090814 12.604108 158.871780
1.840000 1.880000 -8.200000 25.291756 -7.913519 702.296692
1.840000 1.880000 -8.160000 43.957150 8.479259 2004.128784
1.840000 1.880000 -8.120000 46.764740 36.155891 3494.189453
1.840000 1.880000 -8.080000 30.267433 59.911133 4505.461426
1.840000 1.880000 -8.040000 3.416693 67.827934 4612.302734
1.840000 1.880000 -8.000000 -20.219576 58.856277 3872.892578
1.840000 1.880000 -7.960000 -32.023922 41.053761 2710.942871
1.840000 1.880000 -7.920000 -31.864567 24.078053 1595.103271
1.840000 1.880000 -7.880000 -24.813400 13.319616 793.117004
1.840000 1.880000 -7.840000 -16.117149 9.411777 348.344055
1.840000 1.880000 -7.800000 -9.071671 10.862753 200.294601
1.840000 1.920000 -8.200000 12.317347 4.213261 169.468597
1.840000 1.920000 -8.160000 25.071039 20.957001 1067.752930
1.840000 1.920000 -8.120000 22.532118 46.909565 2708.203613
1.840000 1.920000 -8.080000 0.726249 67.554070 4564.079590
1.840000 1.920000 -8.040000 -31.503881 69.590919 5835.390625
1.840000 1.920000 -8.000000 -57.962181 50.708099 5930.925781
1.840000 1.920000 -7.960000 -66.211700 21.217159 4834.157227
1.840000 1.920000 -7.920000 -55.545361 -3.504511 3097.568604
1.840000 1.920000 -7.880000 -35.984886 -13.489070 1476.866943
1.840000 1.920000 -7.840000 -20.009363 -9.458078 489.829834
1.840000 1.920000 -7.800000 -14.168605 0.199254 200.789062
1.840000 1.960000 -8.200000 -3.021333 -1.392570 11.067704
1.840000 1.960000 -8.160000 7.034061 15.731281 296.951233
1.840000 1.960000 -8.120000 -1.224460 40.187836 1616.561401
1.840000 1.960000 -8.080000 -29.451777 53.625748 3743.127930
1.840000 1.960000 -8.040000 -62.867722 42.504848 5759.012695
1.840000 1.960000 -8.000000 -80.728951 10.200666 6621.217285
1.840000 1.960000 -7.960000 -72.592567 -24.815784 5885.503906
1.840000 1.960000 -7.920000 -46.067719 -43.411709 4006.811035
1.840000 1.960000 -7.880000 -19.515419 -40.021198 1982.547852
1.840000 1.960000 -7.840000 -6.934439 -24.540035 650.299744
1.840000 1.960000 -7.800000 -8.701227 -11.641869 211.244476
1.840000 2.000000 -8.200000 -4.409826 -17.023499 309.246063
1.840000 2.000000 -8.160000 1.981738 2.898441 12.328247
1.840000 2.000000 -8.120000 -13.750551 23.078117 721.677124
1.840000 2.000000 -8.080000 -44.238396 23.355352 2502.508057
1.840000 2.000000 -8.040000 -67.444763 -2.129104 4553.329102
1.840000 2.000000 -8.000000 -65.148422 -38.519165 5728.042969
1.840000 2.000000 -7.960000 -38.474380 -62.423046 5376.914551
1.840000 2.000000 -7.920000 -6.078581 -61.309788 3795.839355
1.840000 2.000000 -7.880000 12.531719 -42.201160 1937.981934
1.840000 2.000000 -7.840000 12.389807 -22.739010 670.569885
1.840000 2.000000 -7.800000 3.544331 -14.757115 230.334747
1.840000 2.040000 -8.200000 8.900103 -25.189899 713.742859
1.840000 2.040000 -8.160000 7.131773 -3.815172 65.417732
1.840000 2.040000 -8.120000 -14.288106 6.200772 242.599548
1.840000 2.040000 -8.080000 -37.146439 -8.004564 1443.930908
1.840000 2.040000 -8.040000 -40.051987 -37.996216 3047.874023
1.840000 2.040000 -8.000000 -18.009254 -61.154091 4064.156006
1.840000 2.040000 -7.960000 13.496037 -60.906830 3891.784912
1.840000 2.040000 -7.920000 33.218739 -40.429619 2738.038574
1.840000 2.040000 -7.880000 32.657993 -17.373318 1368.376709
1.840000 2.040000 -7.840000 20.692019 -6.446387 469.715546
1.840000 2.040000 -7.800000 11.803852 -7.648019 197.823105
1.840000 2.080000 -8.200000 22.202518 -17.456833 797.692871
1.840000 2.080000 -8.160000 10.529812 -1.571746 113.347321
1.840000 2.080000 -8.120000 -8.798462 -5.439136 106.997131
1.840000 2.080000 -8.080000 -14.635372 -26.444252 913.492554
1.840000 2.080000 -8.040000 1.848803 -44.959995 2024.819214
1.840000 2.080000 -8.000000 28.681591 -43.200592 2688.924805
1.840000 2.080000 -7.960000 44.950867 -21.778961 2494.903564
1.840000 2.080000 -7.920000 40.500084 2.220544 1645.187622
1.840000 2.080000 -7.880000 23.699886 12.534479 718.797791
1.840000 2.080000 -7.840000 10.814154 8.106045 182.653885
1.840000 2.080000 -7.800000 9.434486 0.829732 89.697990
1.840000 2.120000 -8.200000 21.690197 -2.816180 478.395538
1.840000 2.120000 -8.160000 5.897122 0.415648 34.948814
1.840000 2.120000 -8.120000 -1.614347 -13.411768 182.481644
1.840000 2.120000 -8.080000 10.446430 -27.709381 876.937744
1.840000 2.120000 -8.040000 32.994976 -24.199013 1674.260742
1.840000 2.120000 -8.000000 45.394501 -1.547655 2063.055908
1.840000 2.120000 -7.960000 35.904526 23.254694 1829.915771
1.840000 2.120000 -7.920000 12.681496 31.771688 1170.260498
1.840000 2.120000 -7.880000 -5.320858 21.473127 489.406708
1.840000 2.120000 -7.840000 -7.184615 6.146910 89.403198
1.840000 2.120000 -7.800000 1.098052 0.378675 1.349113
1.840000 2.160000 -8.200000 9.048746 2.744164 89.410248
1.840000 2.160000 -8.160000 -0.262338 -6.679812 44.688717
1.840000 2.160000 -8.120000 8.065969 -19.566994 447.927094
1.840000 2.160000 -8.080000 28.300312 -16.923340 1087.307129
1.840000 2.160000 -8.040000 40.127556 5.673158 1642.405396
1.840000 2.160000 -8.000000 28.853455 32.312534 1876.621704
1.840000 2.160000 -7.960000 0.427878 41.650703 1734.964233
1.840000 2.160000 -7.920000 -24.046417 27.280979 1322.481934
1.840000 2.160000 -7.880000 -28.404289 2.965704 815.599060
1.840000 2.160000 -7.840000 -15.456965 -11.750512 376.992310
1.840000 2.160000 -7.800000 -1.571312 -9.976643 102.002426
1.840000 2.200000 -8.200000 -1.052466 -6.512384 43.518837
1.840000 2.200000 -8.160000 3.298635 -19.880968 406.133881
1.840000 2.200000 -8.120000 21.849630 -21.226284 927.961487
1.840000 2.200000 -8.080000 36.360786 -1.939544 1325.868652
1.840000 2.200000 -8.040000 28.990370 25.943836 1513.524170
1.840000 2.200000 -8.000000 0.434618 39.800701 1584.284668
1.840000 2.200000 -7.960000 -29.536087 27.455568 1626.188721
1.840000 2.200000 -7.920000 -39.886566 -1.611581 1593.535278
1.840000 2.200000 -7.880000 -26.767096 -25.644472 1374.116455
1.840000 2.200000 -7.840000 -4.813641 -30.488462 952.717468
1.840000 2.200000 -7.800000 8.406900 -20.213181 479.248627
1.880000 1.800000 -8.200000 40.046440 -16.241982 1867.519409
1.880000 1.800000 -8.160000 57.768513 10.089310 3438.995361
1.880000 1.800000 -8.120000 47.231102 43.455151 4119.126953
1.880000 1.800000 -8.080000 15.040666 56.889626 3462.651123
1.880000 1.800000 -8.040000 -12.768551 42.446983 1964.782227
1.880000 1.800000 -8.000000 -17.119324 17.707771 606.636414
1.880000 1.800000 -7.960000 -3.613049 6.110871 50.396866
1.880000 1.800000 -7.920000 6.360029 12.963488 208.501984
1.880000 1.800000 -7.880000 0.022601 22.591539 510.378174
1.880000 1.800000 -7.840000 -13.890663 18.058327 519.053650
1.880000 1.800000 -7.800000 -16.791166 0.700698 282.434235
1.880000 1.840000 -8.200000 37.788769 7.249494 1480.546265
1.880000 1.840000 -8.160000 46.529846 32.459919 3218.672852
1.880000 1.840000 -8.120000 33.786224 59.228622 4649.538574
1.880000 1.840000 -8.080000 6.537882 70.808647 5056.608887
1.880000 1.840000 -8.040000 -19.047443 63.638519 4412.666016
1.880000 1.840000 -8.000000 -32.643879 47.208443 3294.259766
1.880000 1.840000 -7.960000 -35.965420 32.170464 2328.450195
1.880000 1.840000 -7.920000 -35.785995 20.872082 1716.281250
1.880000 1.840000 -7.880000 -34.057171 9.772001 1255.382935
1.880000 1.840000 -7.840000 -27.028063 -1.525802 732.844238
1.880000 1.840000 -7.800000 -13.291040 -7.000143 225.653748
1.880000 1.880000 -8.200000 17.092636 19.611898 676.784790
1.880000 1.880000 -8.160000 23.691498 41.376221 2273.278809
1.880000 1.880000 -8.120000 11.771200 67.990555 4761.276367
1.880000 1.880000 -8.080000 -18.607643 83.824890 7372.856445
1.880000 1.880000 -8.040000 -55.648056 77.809799 9151.070312
1.880000 1.880000 -8.000000 -83.054832 50.408134 9439.084961
1.880000 1.880000 -7.960000 -89.486023 12.951035 8175.478027
1.880000 1.880000 -7.920000 -74.190063 -19.109844 5869.351562
1.880000 1.880000 -7.880000 -46.412571 -34.308891 3331.226562
1.880000 1.880000 -7.840000 -19.834625 -30.338345 1313.827515
1.880000 1.880000 -7.800000 -5.409842 -14.187955 230.564453
1.880000 1.920000 -8.200000 -4.179750 9.449100 106.755798
1.880000 1.920000 -8.160000 3.913495 33.162315 1115.054565
1.880000 1.920000 -8.120000 -13.211098 64.156738 4290.620117
1.880000 1.920000 -8.080000 -56.600445 77.520798 9213.083984
1.880000 1.920000 -8.040000 -105.096680 54.986454 14068.822266
1.880000 1.920000 -8.000000 -128.852325 1.634323 16605.593750
1.880000 1.920000 -7.960000 -111.804367 -55.298920 15558.187500
1.880000 1.920000 -7.920000 -64.265533 -85.711075 11476.447266
1.880000 1.920000 -7.880000 -14.916424 -78.224442 6341.562988
1.880000 1.920000 -7.840000 10.820009 -46.410248 2270.983643
1.880000 1.920000 -7.800000 7.727285 -15.682538 305.652954
1.880000 1.960000 -8.200000 -6.435106 -13.447664 222.250275
1.880000 1.960000 -8.160000 -1.818174 17.808136 320.435455
1.880000 1.960000 -8.120000 -32.451157 47.948322 3352.119141
1.880000 1.960000 -8.080000 -87.139816 43.833466 9514.720703
1.880000 1.960000 -8.040000 -128.764282 -6.076315 16617.162109
1.880000 1.960000 -8.000000 -123.315506 -77.420517 21200.650391
1.880000 1.960000 -7.960000 -69.098816 -126.754471 20841.343750
1.880000 1.960000 -7.920000 0.753162 -125.813660 15829.644531
1.880000 1.960000 -7.880000 45.044720 -82.816467 8887.593750
1.880000 1.960000 -7.840000 46.300499 -32.603809 3206.744629
1.880000 1.960000 -7.800000 19.860718 -6.407635 435.505890
1.880000 2.000000 -8.200000 12.081629 -26.967218 873.196655
1.880000 2.000000 -8.160000 3.999029 9.086699 98.560341
1.880000 2.000000 -8.120000 -40.002544 25.723993 2261.927490
1.880000 2.000000 -8.080000 -89.858307 -4.501056 8094.774414
1.880000 2.000000 -8.040000 -102.093391 -71.809113 15579.609375
1.880000 2.000000 -8.000000 -57.936726 -132.681473 20961.037109
1.880000 2.000000 -7.960000 18.254234 -144.827744 21308.292969
1.880000 2.000000 -7.920000 78.340042 -102.196136 16581.212891
1.880000 2.000000 -7.880000 89.836929 -38.053429 9518.737305
1.880000 2.000000 -7.840000 59.374477 5.243179 3552.819580
1.880000 2.000000 -7.800000 20.773802 10.369983 539.087402
1.880000 2.040000 -8.200000 33.438099 -18.283672 1452.399170
1.880000 2.040000 -8.160000 9.197129 11.250528 211.161575
1.880000 2.040000 -8.120000 -36.116020 5.380432 1333.316040
1.880000 2.040000 -8.080000 -62.188515 -42.755775 5695.467773
1.880000 2.040000 -8.040000 -38.347500 -101.476578 11768.027344
1.880000 2.040000 -8.000000 26.900610 -125.227081 16405.464844
1.880000 2.040000 -7.960000 90.858780 -93.702408 17035.460938
1.880000 2.040000 -7.920000 112.395927 -28.929871 13469.782227
1.880000 2.040000 -7.880000 85.119987 25.118601 7876.356445
1.880000 2.040000 -7.840000 38.127415 39.968460 3051.177490
1.880000 2.040000 -7.800000 6.667193 22.034050 529.950806
1.880000 2.080000 -8.200000 37.870377 3.974826 1449.964600
1.880000 2.080000 -8.160000 5.208528 15.988348 282.756042
1.880000 2.080000 -8.120000 -25.366688 -8.633276 718.002319
1.880000 2.080000 -8.080000 -21.333605 -53.931900 3363.772461
1.880000 2.080000 -8.040000 22.574883 -81.780067 7197.604980
1.880000 2.080000 -8.000000 76.948936 -65.093483 10158.300781
1.880000 2.080000 -7.960000 102.226334 -12.238997 10600.016602
1.880000 2.080000 -7.920000 82.357697 40.517082 8424.423828
1.880000 2.080000 -7.880000 36.259132 60.698700 4999.057129
1.880000 2.080000 -7.840000 -1.957158 45.085648 2036.546021
1.880000 2.080000 -7.800000 -12.946072 16.534494 440.990265
1.880000 2.120000 -8.200000 22.835598 19.176609 889.206909
1.880000 2.120000 -8.160000 -4.146972 12.485213 173.077927
1.880000 2.120000 -8.120000 -12.077217 -16.117760 405.641357
1.880000 2.120000 -8.080000 10.826693 -40.494286 1757.004395
1.880000 2.120000 -8.040000 48.534775 -35.243351 3597.718018
1.880000 2.120000 -8.000000 70.137718 0.660835 4919.735840
1.880000 2.120000 -7.960000 57.056549 42.252769 5040.746094
1.880000 2.120000 -7.920000 18.736710 60.577057 4020.644043
1.880000 2.120000 -7.880000 -17.301815 47.008854 2509.185059
1.880000 2.120000 -7.840000 -30.155449 17.451836 1213.917603
1.880000 2.120000 -7.800000 -20.859444 -5.240473 462.578949
1.880000 2.160000 -8.200000 4.056256 15.337287 251.685593
1.880000 2.160000 -8.160000 -7.345020 -0.354697 54.075127
1.880000 2.160000 -8.120000 1.909855 -18.035326 328.920532
1.880000 2.160000 -8.080000 24.417839 -18.253130 929.407593
1.880000 2.160000 -8.040000 38.986298 3.456924 1531.881714
1.880000 2.160000 -8.000000 29.747332 31.428720 1872.668213
1.880000 2.160000 -7.960000 0.759853 43.475899 1890.731201
1.880000 2.160000 -7.920000 -27.750488 30.330194 1690.010254
1.880000 2.160000 -7.880000 -37.378651 2.566769 1403.751831
1.880000 2.160000 -7.840000 -26.154663 -20.434380 1101.630249
1.880000 2.160000 -7.800000 -6.922606 -27.492754 803.773987
1.880000 2.200000 -8.200000 -1.362351 -0.342102 1.973035
1.880000 2.200000 -8.160000 2.036100 -12.374580 157.275940
1.880000 2.200000 -8.120000 15.421050 -13.980978 433.276550
1.880000 2.200000 -8.080000 24.585373 -0.644444 604.855835
1.880000 2.200000 -8.040000 17.488106 17.586933 615.134033
1.880000 2.200000 -8.000000 -4.098337 24.399868 612.149963
1.880000 2.200000 -7.960000 -25.347744 11.717539 779.808838
1.880000 2.200000 -7.920000 -30.998882 -13.193024 1134.986572
1.880000 2.200000 -7.880000 -17.815847 -34.290451 1493.239502
1.880000 2.200000 -7.840000 4.183985 -40.151375 1629.638672
1.880000 2.200000 -7.800000 21.653124 -31.652271 1470.723999
1.920000 1.800000 -8.200000 49.500916 27.286835 3194.911865
1.920000 1.800000 -8.160000 37.109940 62.719906 5310.934082
1.920000 1.800000 -8.120000 -2.189087 77.612854 6028.546875
1.920000 1.800000 -8.080000 -39.230385 57.643810 4861.832031
1.920000 1.800000 -8.040000 -46.791302 20.698179 2617.840576
1.920000 1.800000 -8.000000 -26.619812 -1.552137 711.023499
1.920000 1.800000 -7.960000 -5.857941 4.088192 51.028782
1.920000 1.800000 -7.920000 -7.363973 20.691048 482.347534
1.920000 1.800000 -7.880000 -26.224308 21.722750 1159.592285
1.920000 1.800000 -7.840000 -37.186699 0.529000 1383.130371
1.920000 1.800000 -7.800000 -23.562752 -23.195635 1093.240723
1.920000 1.840000 -8.200000 19.450171 42.666084 2198.703857
1.920000 1.840000 -8.160000 5.518932 64.409515 4179.043945
1.920000 1.840000 -8.120000 -22.816063 72.271828 5743.790039
1.920000 1.840000 -8.080000 -49.812550 60.688164 6164.343262
1.920000 1.840000 -8.040000 -63.462570 38.654175 5521.643066
1.920000 1.840000 -8.000000 -64.685875 18.372955 4521.827637
1.920000 1.840000 -7.960000 -61.517761 3.341446 3795.600342
1.920000 1.840000 -7.920000 -57.167831 -10.945953 3387.974854
1.920000 1.840000 -7.880000 -46.902100 -26.339958 2893.600342
1.920000 1.840000 -7.840000 -27.086432 -35.890575 2021.808105
1.920000 1.840000 -7.800000 -4.353116 -30.753319 964.716248
1.920000 1.880000 -8.200000 -11.201485 28.565218 941.444946
1.920000 1.880000 -8.160000 -16.226379 47.008465 2473.091064
1.920000 1.880000 -8.120000 -39.725845 62.840660 5527.091309
1.920000 1.880000 -8.080000 -76.446335 60.413521 9493.835938
1.920000 1.880000 -8.040000 -109.788452 32.253571 13093.796875
1.920000 1.880000 -8.000000 -121.468765 -14.518959 14965.460938
1.920000 1.880000 -7.960000 -102.985466 -61.081772 14336.988281
1.920000 1.880000 -7.920000 -61.480362 -87.418716 11421.867188
1.920000 1.880000 -7.880000 -16.079365 -84.017731 7317.524902
1.920000 1.880000 -7.840000 13.247803 -57.357910 3465.434082
1.920000 1.880000 -7.800000 17.433765 -25.424723 950.352661
1.920000 1.920000 -8.200000 -17.416016 -3.567575 316.045197
1.920000 1.920000 -8.160000 -18.838003 25.283092 994.105103
1.920000 1.920000 -8.120000 -54.384800 49.126602 5371.129883
1.920000 1.920000 -8.080000 -110.382912 36.245819 13498.146484
1.920000 1.920000 -8.040000 -148.949936 -22.443363 22689.789062
1.920000 1.920000 -8.000000 -136.703369 -100.503128 28788.689453
1.920000 1.920000 -7.960000 -73.124390 -152.997787 28755.498047
1.920000 1.920000 -7.920000 6.855827 -150.397995 22666.558594
1.920000 1.920000 -7.880000 59.088860 -100.585388 13608.913086
1.920000 1.920000 -7.840000 62.810219 -40.473698 5583.243652
1.920000 1.920000 -7.800000 32.291317 -5.897585 1077.510620
1.920000 1.960000 -8.200000 5.135147 -25.862797 695.254028
1.920000 1.960000 -8.160000 -8.555607 14.534918 284.462250
1.920000 1.960000 -8.120000 -64.618027 29.299976 5033.978027
1.920000 1.960000 -8.080000 -125.411674 -14.566311 15940.265625
1.920000 1.960000 -8.040000 -136.696594 -104.074829 29517.529297
1.920000 1.960000 -8.000000 -74.874161 -183.721024 39359.554688
1.920000 1.960000 -7.960000 28.847012 -198.686874 40308.621094
1.920000 1.960000 -7.920000 111.456711 -139.973267 32015.113281
1.920000 1.960000 -7.880000 128.410309 -50.582748 19047.822266
1.920000 1.960000 -7.840000 86.138107 11.851437 7560.229980
1.920000 1.960000 -7.800000 29.667208 20.675072 1307.601807
1.920000 2.000000 -8.200000 35.573151 -19.424515 1642.760864
1.920000 2.000000 -8.160000 -0.337347 17.815996 317.523529
1.920000 2.000000 -8.120000 -65.480217 5.114365 4313.815430
1.920000 2.000000 -8.080000 -102.758591 -69.035645 15325.248047
1.920000 2.000000 -8.040000 -65.781471 -160.092087 29956.679688
1.920000 2.000000 -8.000000 35.846481 -199.708328 41168.386719
1.920000 2.000000 -7.960000 139.140747 -153.578735 42946.578125
1.920000 2.000000 -7.920000 178.535248 -51.486374 34525.679688
1.920000 2.000000 -7.880000 138.769608 38.524406 20741.132812
1.920000 2.000000 -7.840000 62.140953 67.021805 8353.419922
1.920000 2.000000 -7.800000 6.915184 38.514893 1531.216797
1.920000 2.040000 -8.200000 47.303761 8.741072 2314.052002
1.920000 2.040000 -8.160000 -3.724613 24.890575 633.413513
1.920000 2.040000 -8.120000 -54.507698 -16.915802 3257.233398
1.920000 2.040000 -8.080000 -50.644894 -96.781708 11931.604492
1.920000 2.040000 -8.040000 23.743855 -153.183121 24028.839844
1.920000 2.040000 -8.000000 125.052757 -134.201553 33648.250000
1.920000 2.040000 -7.960000 183.291016 -44.551228 35580.410156
1.920000 2.040000 -7.920000 160.514679 56.697468 28979.566406
1.920000 2.040000 -7.880000 80.621017 106.055565 17747.531250
1.920000 2.040000 -7.840000 4.383914 86.360786 7477.404297
1.920000 2.040000 -7.800000 -23.915075 32.799965 1647.768555
1.920000 2.080000 -8.200000 32.215446 33.638138 2169.359375
1.920000 2.080000 -8.160000 -14.831253 23.376438 766.423950
1.920000 2.080000 -8.120000 -35.155811 -29.862064 2127.673828
1.920000 2.080000 -8.080000 1.811249 -86.278534 7447.266113
1.920000 2.080000 -8.040000 79.163475 -93.795776 15064.503906
1.920000 2.080000 -8.000000 141.361115 -35.092110 21214.421875
1.920000 2.080000 -7.960000 140.299957 53.897137 22588.980469
1.920000 2.080000 -7.920000 76.447754 113.136871 18644.210938
1.920000 2.080000 -7.880000 -3.251446 108.530792 11789.504883
1.920000 2.080000 -7.840000 -47.347107 56.549961 5439.646484
1.920000 2.080000 -7.800000 -40.925385 3.182708 1685.016724
1.920000 2.120000 -8.200000 6.038879 36.374020 1359.537354
1.920000 2.120000 -8.160000 -21.561949 10.828319 582.170105
1.920000 2.120000 -8.120000 -14.641866 -31.421467 1201.692871
1.920000 2.120000 -8.080000 29.727978 -52.758957 3667.260254
1.920000 2.120000 -8.040000 79.654388 -27.432701 7097.375000
1.920000 2.120000 -8.000000 93.338882 32.625893 9776.596680
1.920000 2.120000 -7.960000 55.588531 85.174271 10344.741211
1.920000 2.120000 -7.920000 -8.370144 92.927933 8705.660156
1.920000 2.120000 -7.880000 -54.868340 54.131096 5940.709961
1.920000 2.120000 -7.840000 -58.338577 0.730701 3403.923584
1.920000 2.120000 -7.800000 -28.470507 -31.787903 1821.040527
1.920000 2.160000 -8.200000 -8.956726 20.190424 487.876160
1.920000 2.160000 -8.160000 -16.097010 -3.683633 272.682861
1.920000 2.160000 -8.120000 1.151403 -24.539671 603.521179
1.920000 2.160000 -8.080000 31.003794 -21.444445 1421.099365
1.920000 2.160000 -8.040000 47.495571 7.899765 2318.235596
1.920000 2.160000 -8.000000 32.801201 42.250393 2861.014648
1.920000 2.160000 -7.960000 -5.832283 53.650627 2912.405518
1.920000 2.160000 -7.920000 -41.126019 31.356602 2674.585938
1.920000 2.160000 -7.880000 -48.547192 -9.306545 2443.441650
1.920000 2.160000 -7.840000 -25.766150 -40.872982 2334.495117
1.920000 2.160000 -7.800000 8.425239 -46.518265 2234.933594
1.920000 2.200000 -8.200000 -5.173461 3.765006 40.939976
1.920000 2.200000 -8.160000 -2.176986 -9.104082 87.623573
1.920000 2.200000 -8.120000 10.345541 -13.860199 299.135345
1.920000 2.200000 -8.080000 21.360147 -5.137054 482.645203
1.920000 2.200000 -8.040000 19.184753 10.363886 475.464874
1.920000 2.200000 -8.000000 2.645016 18.045712 332.643799
1.920000 2.200000 -7.960000 -16.160431 7.855114 322.862335
1.920000 2.200000 -7.920000 -21.132233 -16.124397 706.567444
1.920000 2.200000 -7.880000 -5.621792 -38.101479 1483.327148
1.920000 2.200000 -7.840000 22.009020 -43.139893 2345.447266
1.920000 2.200000 -7.800000 45.554794 -28.517050 2888.461426
1.960000 1.800000 -8.200000 20.754478 63.191826 4423.955078
1.960000 1.800000 -8.160000 -19.186045 81.508171 7011.686523
1.960000 1.800000 -8.120000 -64.385727 61.053513 7873.053711
1.960000 1.800000 -8.080000 -79.028572 13.082668 6416.671387
1.960000 1.800000 -8.040000 -54.132820 -25.120766 3561.415039
1.960000 1.800000 -8.000000 -16.903862 -27.046902 1017.275452
1.960000 1.800000 -7.960000 -2.667828 -2.777000 14.829036
1.960000 1.800000 -7.920000 -19.098404 13.448429 545.609253
1.960000 1.800000 -7.880000 -40.480377 0.076529 1638.666748
1.960000 1.800000 -7.840000 -37.048920 -30.006090 2272.987793
1.960000 1.800000 -7.800000 -6.991507 -45.141685 2086.652832
1.960000 1.840000 -8.200000 -20.401340 50.111958 2927.422852
1.960000 1.840000 -8.160000 -46.650925 53.195023 5006.019531
1.960000 1.840000 -8.120000 -72.041557 36.457428 6519.129883
1.960000 1.840000 -8.080000 -81.701202 7.884041 6737.244629
1.960000 1.840000 -8.040000 -74.625816 -16.976528 5857.215332
1.960000 1.840000 -8.000000 -61.804703 -30.820213 4769.707031
1.960000 1.840000 -7.960000 -51.874626 -39.185287 4226.463379
1.960000 1.840000 -7.920000 -41.835293 -49.572376 4207.612305
1.960000 1.840000 -7.880000 -23.671021 -59.244568 4070.235840
1.960000 1.840000 -7.840000 1.769844 -57.134125 3267.440430
1.960000 1.840000 -7.800000 21.279776 -38.149658 1908.225220
1.960000 1.880000 -8.200000 -35.110718 10.431433 1341.577271
1.960000 1.880000 -8.160000 -46.004303 20.273775 2527.421875
1.960000 1.880000 -8.120000 -71.525375 20.185068 5523.316406
1.960000 1.880000 -8.080000 -99.834229 -2.002476 9970.882812
1.960000 1.880000 -8.040000 -111.860558 -45.270527 14562.205078
1.960000 1.880000 -8.000000 -94.038391 -93.511856 17587.685547
1.960000 1.880000 -7.960000 -48.540310 -124.192726 17779.994141
1.960000 1.880000 -7.920000 6.323410 -122.235275 14981.448242
1.960000 1.880000 -7.880000 46.477242 -89.954971 10252.031250
1.960000 1.880000 -7.840000 56.767570 -45.986214 5337.289062
1.960000 1.880000 -7.800000 40.067074 -13.387329 1784.590942
1.960000 1.920000 -8.200000 -12.602110 -23.276955 700.629761
1.960000 1.920000 -8.160000 -27.037300 4.572796 751.926086
1.960000 1.920000 -8.120000 -73.312782 8.227764 5442.460449
1.960000 1.920000 -8.080000 -118.439056 -36.466522 15357.618164
1.960000 1.920000 -8.040000 -118.760040 -115.461403 27435.283203
1.960000 1.920000 -8.000000 -57.554810 -181.586060 36286.050781
1.960000 1.920000 -7.960000 37.056976 -190.080765 37503.914062
1.960000 1.920000 -7.920000 111.567017 -134.576447 30558.019531
1.960000 1.920000 -7.880000 127.924164 -51.921375 19060.421875
1.960000 1.920000 -7.840000 90.596252 7.910900 8270.262695
1.960000 1.920000 -7.800000 37.889462 19.705219 1823.906982
1.960000 1.960000 -8.200000 26.177313 -23.853233 1254.228516
1.960000 1.960000 -8.160000 -11.363861 9.984730 228.832184
1.960000 1.960000 -8.120000 -76.317215 -8.791544 5901.608398
1.960000 1.960000 -8.080000 -109.161263 -89.790787 19978.566406
1.960000 1.960000 -8.040000 -63.256058 -184.923325 38197.964844
1.960000 1.960000 -8.000000 49.147930 -222.855072 52079.902344
1.960000 1.960000 -7.960000 160.706223 -168.951080 54370.957031
1.960000 1.960000 -7.920000 202.246872 -55.982803 44037.871094
1.960000 1.960000 -7.880000 157.978485 43.111675 26815.818359
1.960000 1.960000 -7.840000 73.423996 74.974289 11012.226562
1.960000 1.960000 -7.800000 11.991554 43.784828 2060.908691
1.960000 2.000000 -8.200000 47.833580 6.538267 2330.800293
1.960000 2.000000 -8.160000 -12.460356 22.030300 640.594604
1.960000 2.000000 -8.120000 -70.719666 -32.095947 6031.420898
1.960000 2.000000 -8.080000 -61.221542 -130.986267 20905.480469
1.960000 2.000000 -8.040000 34.755188 -199.185776 40882.894531
1.960000 2.000000 -8.000000 163.038879 -173.013016 56515.179688
1.960000 2.000000 -7.960000 236.731918 -58.513306 59465.808594
1.960000 2.000000 -7.920000 208.259735 70.601341 48356.667969
1.960000 2.000000 -7.880000 107.153282 134.316742 29522.812500
1.960000 2.000000 -7.840000 10.108921 110.106232 12225.572266
1.960000 2.000000 -7.800000 -25.708517 42.064667 2430.364014
1.960000 2.040000 -8.200000 36.494484 40.252155 2952.083496
1.960000 2.040000 -8.160000 -25.464163 23.680180 1209.174561
1.960000 2.040000 -8.120000 -50.785259 -51.765869 5258.847656
1.960000 2.040000 -8.080000 4.044155 -131.884048 17409.757812
1.960000 2.040000 -8.040000 116.969765 -143.094299 34157.906250
1.960000 2.040000 -8.000000 209.924362 -58.830135 47529.222656
1.960000 2.040000 -7.960000 212.665176 71.606438 50353.957031
1.960000 2.040000 -7.920000 123.011215 161.858551 41329.949219
1.960000 2.040000 -7.880000 7.079458 160.189651 25710.843750
1.960000 2.040000 -7.840000 -59.348560 87.758301 11223.771484
1.960000 2.040000 -7.800000 -51.830971 11.236788 2812.714844
1.960000 2.080000 -8.200000 5.617309 50.897186 2622.077881
1.960000 2.080000 -8.160000 -34.904827 11.099175 1341.538574
1.960000 2.080000 -8.120000 -22.772276 -56.693138 3732.688477
1.960000 2.080000 -8.080000 50.826492 -93.665115 11356.486328
1.960000 2.080000 -8.040000 137.810745 -54.899071 22005.708984
1.960000 2.080000 -8.000000 168.890625 45.414711 30586.539062
1.960000 2.080000 -7.960000 113.620674 140.136810 32547.984375
1.960000 2.080000 -7.920000 8.348949 164.356354 27082.716797
1.960000 2.080000 -7.880000 -74.952179 108.955154 17489.054688
1.960000 2.080000 -7.840000 -89.303299 23.387522 8522.055664
1.960000 2.080000 -7.800000 -46.108711 -31.699940 3130.899414
1.960000 2.120000 -8.200000 -18.066143 35.979164 1620.885742
1.960000 2.120000 -8.160000 -30.857605 -5.179914 979.023315
1.960000 2.120000 -8.120000 0.273597 -45.714684 2089.907227
1.960000 2.120000 -8.080000 60.151833 -44.656891 5612.480957
1.960000 2.120000 -8.040000 101.676094 9.858692 10435.221680
1.960000 2.120000 -8.000000 85.031303 83.638702 14225.755859
1.960000 2.120000 -7.960000 14.894073 121.831306 15064.700195
1.960000 2.120000 -7.920000 -60.886604 95.325211 12794.074219
1.960000 2.120000 -7.880000 -91.301102 25.016535 8961.718750
1.960000 2.120000 -7.840000 -63.535133 -38.331268 5505.999023
1.960000 2.120000 -7.800000 -8.109871 -57.892029 3417.257080
1.960000 2.160000 -8.200000 -20.475498 14.558924 631.208313
1.960000 2.160000 -8.160000 -17.250416 -12.565585 455.470764
1.960000 2.160000 -8.120000 10.211472 -28.135651 895.888977
1.960000 2.160000 -8.080000 42.904480 -13.216084 2015.459351
1.960000 2.160000 -8.040000 51.219322 26.382986 3319.480957
1.960000 2.160000 -8.000000 21.984951 60.381363 4129.247070
1.960000 2.160000 -7.960000 -26.533638 58.722801 4152.401367
1.960000 2.160000 -7.920000 -57.963879 18.592346 3705.486572
1.960000 2.160000 -7.880000 -48.419598 -32.132835 3376.976562
1.960000 2.160000 -7.840000 -5.867821 -58.586449 3466.803467
1.960000 2.160000 -7.800000 39.015015 -47.207943 3750.761230
1.960000 2.200000 -8.200000 -10.017794 5.270309 128.132355
1.960000 2.200000 -8.160000 -5.741755 -8.542974 105.950165
1.960000 2.200000 -8.120000 9.377458 -14.366589 294.335571
1.960000 2.200000 -8.080000 23.724556 -4.799522 585.889954
1.960000 2.200000 -8.040000 23.169746 13.314704 714.118530
1.960000 2.200000 -8.000000 5.793869 22.586994 543.741211
1.960000 2.200000 -7.960000 -13.515779 10.917732 301.873169
1.960000 2.200000 -7.920000 -15.005880 -15.555000 467.134491
1.960000 2.200000 -7.880000 7.862806 -35.989643 1357.078125
1.960000 2.200000 -7.840000 41.615372 -32.407692 2782.097656
1.960000 2.200000 -7.800000 63.925476 -4.868544 4110.169434
2.000000 1.800000 -8.200000 -24.286259 64.649002 4769.315918
2.000000 1.800000 -8.160000 -69.924072 51.224560 7513.331543
2.000000 1.800000 -8.120000 -93.104881 2.247978 8673.572266
2.000000 1.800000 -8.080000 -71.470154 -48.918613 7501.013672
2.000000 1.800000 -8.040000 -22.229786 -64.403831 4642.017090
2.000000 1.800000 -8.000000 13.263852 -39.046257 1700.540039
2.000000 1.800000 -7.960000 10.037407 -4.895523 124.715683
2.000000 1.800000 -7.920000 -17.078156 2.044466 295.843231
2.000000 1.800000 -7.880000 -31.208199 -22.138567 1464.067871
2.000000 1.800000 -7.840000 -12.733953 -47.942261 2460.614014
2.000000 1.800000 -7.800000 21.709215 -45.582565 2549.060303
2.000000 1.840000 -8.200000 -50.332020 24.701637 3143.483154
2.000000 1.840000 -8.160000 -71.294800 7.386923 5137.514648
2.000000 1.840000 -8.120000 -77.390701 -23.752802 6553.516602
2.000000 1.840000 -8.080000 -62.729027 -51.970432 6635.856445
2.000000 1.840000 -8.040000 -38.133842 -63.853134 5531.412598
2.000000 1.840000 -8.000000 -18.989891 -61.746544 4173.251953
2.000000 1.840000 -7.960000 -9.257172 -58.266010 3480.623291
2.000000 1.840000 -7.920000 0.113258 -60.012737 3601.541504
2.000000 1.840000 -7.880000 17.140867 -59.839226 3874.542236
2.000000 1.840000 -7.840000 36.342617 -46.859146 3516.565430
2.000000 1.840000 -7.800000 43.236420 -22.154305 2360.201172
2.000000 1.880000 -8.200000 -34.657177 -18.795193 1554.379150
2.000000 1.880000 -8.160000 -44.774059 -17.363834 2306.219238
2.000000 1.880000 -8.120000 -61.745728 -30.289547 4729.991699
2.000000 1.880000 -8.080000 -69.797882 -61.392586 8640.793945
2.000000 1.880000 -8.040000 -54.431660 -99.825005 12927.836914
2.000000 1.880000 -8.000000 -13.836189 -125.786636 16013.718750
2.000000 1.880000 -7.960000 37.964752 -123.206398 16621.138672
2.000000 1.880000 -7.920000 78.715103 -90.733070 14428.557617
2.000000 1.880000 -7.880000 91.426781 -43.478706 10249.253906
2.000000 1.880000 -7.840000 74.943687 -4.004433 5632.591797
2.000000 1.880000 -7.800000 44.293583 11.715161 2099.166504
2.000000 1.920000 -8.200000 7.668833 -30.697916 1001.173035
2.000000 1.920000 -8.160000 -17.901821 -12.308676 471.978699
2.000000 1.920000 -8.120000 -58.549896 -32.301968 4471.507324
2.000000 1.920000 -8.080000 -71.940033 -93.131958 13848.929688
2.000000 1.920000 -8.040000 -28.561508 -158.086304 25807.039062
2.000000 1.920000 -8.000000 58.909637 -177.665207 35035.269531
2.000000 1.920000 -7.960000 141.161713 -130.430725 36938.804688
2.000000 1.920000 -7.920000 169.882721 -42.074455 30630.398438
2.000000 1.920000 -7.880000 135.074600 34.599312 19442.261719
2.000000 1.920000 -7.840000 69.928986 60.961990 8606.427734
2.000000 1.920000 -7.800000 21.021851 39.113533 1971.786621
2.000000 1.960000 -8.200000 39.785332 -4.124748 1599.886230
2.000000 1.960000 -8.160000 -12.472198 6.641045 199.659210
2.000000 1.960000 -8.120000 -59.530060 -44.830910 5553.638672
2.000000 1.960000 -8.080000 -43.439331 -132.877426 19543.384766
2.000000 1.960000 -8.040000 49.045761 -188.708939 38016.550781
2.000000 1.960000 -8.000000 166.307434 -157.348816 52416.812500
2.000000 1.960000 -7.960000 230.093307 -47.710598 55219.230469
2.000000 1.960000 -7.920000 199.848145 71.785217 45092.398438
2.000000 1.960000 -7.880000 104.717957 129.254456 27672.566406
2.000000 1.960000 -7.840000 15.209633 105.858582 11437.372070
2.000000 1.960000 -7.800000 -16.886339 42.988792 2133.184570
2.000000 2.000000 -8.200000 36.705776 35.180656 2584.992676
2.000000 2.000000 -8.160000 -26.376251 15.366676 931.841309
2.000000 2.000000 -8.120000 -48.246056 -65.289108 6590.349609
2.000000 2.000000 -8.080000 15.201654 -147.401611 21958.324219
2.000000 2.000000 -8.040000 137.650192 -153.574203 42532.609375
2.000000 2.000000 -8.000000 234.997604 -58.410828 58635.699219
2.000000 2.000000 -7.960000 234.080917 83.099319 61699.371094
2.000000 2.000000 -7.920000 135.351776 178.708405 50256.796875
2.000000 2.000000 -7.880000 11.044930 175.094147 30779.951172
2.000000 2.000000 -7.840000 -58.239105 97.113869 12822.896484
2.000000 2.000000 -7.800000 -48.089798 17.193594 2608.248291
2.000000 2.040000 -8.200000 5.763233 54.576157 3011.771729
2.000000 2.040000 -8.160000 -40.009205 4.873899 1624.491333
2.000000 2.040000 -8.120000 -20.531322 -76.769043 6315.020996
2.000000 2.040000 -8.080000 72.982040 -118.093727 19272.505859
2.000000 2.040000 -8.040000 180.096451 -65.635742 36742.781250
2.000000 2.040000 -8.000000 216.204102 61.006031 50465.949219
2.000000 2.040000 -7.960000 145.856949 178.452728 53119.625000
2.000000 2.040000 -7.920000 15.513058 207.969543 43491.988281
2.000000 2.040000 -7.880000 -86.187317 140.327240 27119.988281
2.000000 2.040000 -7.840000 -102.990723 37.638634 12023.755859
2.000000 2.040000 -7.800000 -50.979225 -25.854584 3267.340820
2.000000 2.080000 -8.200000 -24.460899 43.742069 2511.704102
2.000000 2.080000 -8.160000 -38.025066 -13.270939 1622.023438
2.000000 2.080000 -8.120000 9.759982 -67.164207 4606.288086
2.000000 2.080000 -8.080000 96.120514 -60.820560 12938.293945
2.000000 2.080000 -8.040000 154.144104 20.936661 24198.748047
2.000000 2.080000 -8.000000 128.537399 128.548508 33046.582031
2.000000 2.080000 -7.960000 27.339222 184.573257 34814.722656
2.000000 2.080000 -7.920000 -81.308350 149.082382 28836.605469
2.000000 2.080000 -7.880000 -126.258362 52.589550 18706.833984
2.000000 2.080000 -7.840000 -91.008408 -33.592674 9410.998047
2.000000 2.080000 -7.800000 -19.463387 -59.343700 3900.498291
2.000000 2.120000 -8.200000 -33.065292 19.496672 1473.433838
2.000000 2.120000 -8.160000 -23.292969 -22.120850 1031.894409
2.000000 2.120000 -8.120000 24.793592 -42.394211 2411.991455
2.000000 2.120000 -8.080000 78.614281 -11.443428 6311.157227
2.000000 2.120000 -8.040000 89.556534 59.267990 11533.067383
2.000000 2.120000 -8.000000 37.348431 118.986687 15552.737305
2.000000 2.120000 -7.960000 -46.802105 118.872726 16321.162109
2.000000 2.120000 -7.920000 -103.496460 55.300209 13769.630859
2.000000 2.120000 -7.880000 -94.904640 -26.339706 9700.670898
2.000000 2.120000 -7.840000 -34.572865 -71.060783 6244.917969
2.000000 2.120000 -7.800000 29.185482 -59.068699 4340.903320
2.000000 2.160000 -8.200000 -23.788242 4.589958 586.948181
2.000000 2.160000 -8.160000 -10.563950 -17.174091 406.546448
2.000000 2.160000 -8.120000 20.284700 -20.156210 817.741821
2.000000 2.160000 -8.080000 44.506340 6.864563 2027.936523
2.000000 2.160000 -8.040000 36.134171 47.427612 3555.056641
2.000000 2.160000 -8.000000 -5.659027 67.273048 4557.687500
2.000000 2.160000 -7.960000 -50.830086 44.658752 4578.101562
2.000000 2.160000 -7.920000 -62.514793 -7.749229 3968.149902
2.000000 2.160000 -7.880000 -29.269497 -51.882027 3548.447998
2.000000 2.160000 -7.840000 25.207731 -56.490757 3826.635254
2.000000 2.160000 -7.800000 63.648045 -22.091291 4539.098633
2.000000 2.200000 -8.200000 -15.275112 4.816476 256.527496
2.000000 2.200000 -8.160000 -9.247989 -8.648272 160.317902
2.000000 2.200000 -8.120000 7.920568 -12.385906 216.146057
2.000000 2.200000 -8.080000 21.961374 0.562968 482.618896
2.000000 2.200000 -8.040000 18.303349 19.928936 732.175049
2.000000 2.200000 -8.000000 -1.196117 26.123589 683.872620
2.000000 2.200000 -7.960000 -17.131401 9.997559 393.436066
2.000000 2.200000 -7.920000 -10.139816 -15.829636 353.393250
2.000000 2.200000 -7.880000 19.677971 -26.856379 1108.487549
2.000000 2.200000 -7.840000 51.245384 -8.936776 2705.955322
2.000000 2.200000 -7.800000 60.729385 28.864916 4521.241699
2.040000 1.800000 -8.200000 -52.594307 34.386063 3948.562500
2.040000 1.800000 -8.160000 -79.624100 -3.442526 6351.848145
2.040000 1.800000 -8.120000 -68.437492 -55.787937 7795.984375
2.040000 1.800000 -8.080000 -20.197546 -83.918182 7450.202148
2.040000 1.800000 -8.040000 30.255909 -66.964508 5399.665039
2.040000 1.800000 -8.000000 46.192009 -23.234020 2673.521484
2.040000 1.800000 -7.960000 23.788143 7.259254 618.572510
2.040000 1.800000 -7.920000 -5.998253 1.728731 38.967548
2.040000 1.800000 -7.880000 -10.038864 -25.051476 728.355225
2.040000 1.800000 -7.840000 14.209217 -39.084526 1729.502075
2.040000 1.800000 -7.800000 39.359589 -23.473141 2100.165527
2.040000 1.840000 -8.200000 -49.833481 -11.120071 2607.031738
2.040000 1.840000 -8.160000 -53.799789 -37.243004 4281.458496
2.040000 1.840000 -8.120000 -37.795425 -64.529427 5592.541016
2.040000 1.840000 -8.080000 -7.103037 -75.846893 5803.204590
2.040000 1.840000 -8.040000 20.664993 -66.340584 4828.115234
2.040000 1.840000 -8.000000 32.685043 -47.791237 3352.314453
2.040000 1.840000 -7.960000 32.429306 -35.438602 2307.554443
2.040000 1.840000 -7.920000 33.102943 -32.237122 2135.036865
2.040000 1.840000 -7.880000 41.102676 -28.085526 2478.226807
2.040000 1.840000 -7.840000 48.717392 -14.219196 2575.569824
2.040000 1.840000 -7.800000 44.308270 4.440062 1982.936890
2.040000 1.880000 -8.200000 -12.724386 -34.631866 1361.276245
2.040000 1.880000 -8.160000 -18.295956 -37.767406 1761.118896
2.040000 1.880000 -8.120000 -21.668137 -54.104038 3396.755127
2.040000 1.880000 -8.080000 -9.814310 -77.720932 6136.864258
2.040000 1.880000 -8.040000 20.845352 -93.466667 9170.545898
2.040000 1.880000 -8.000000 60.502048 -87.809906 11371.077148
2.040000 1.880000 -7.960000 91.727219 -58.588676 11846.515625
2.040000 1.880000 -7.920000 100.415337 -16.993011 10372.002930
2.040000 1.880000 -7.880000 84.413315 19.043091 7488.247070
2.040000 1.880000 -7.840000 54.611233 35.476009 4240.934082
2.040000 1.880000 -7.800000 28.072924 30.195845 1699.878174
2.040000 1.920000 -8.200000 25.600929 -18.426981 994.961182
2.040000 1.920000 -8.160000 -2.921700 -14.923798 231.256073
2.040000 1.920000 -8.120000 -23.851164 -48.440929 2915.401611
2.040000 1.920000 -8.080000 -4.056499 -98.820206 9781.887695
2.040000 1.920000 -8.040000 59.322159 -123.623940 18801.998047
2.040000 1.920000 -8.000000 131.436798 -93.275887 25976.023438
2.040000 1.920000 -7.960000 165.552246 -17.869175 27726.853516
2.040000 1.920000 -7.920000 140.456650 59.033119 23212.980469
2.040000 1.920000 -7.880000 76.686607 94.604935 14830.929688
2.040000 1.920000 -7.840000 18.132038 78.966347 6564.455078
2.040000 1.920000 -7.800000 -3.375505 38.345009 1481.733765
2.040000 1.960000 -8.200000 33.381832 19.960752 1512.778320
2.040000 1.960000 -8.160000 -13.937435 3.167994 204.288284
2.040000 1.960000 -8.120000 -25.671755 -59.527878 4202.606934
2.040000 1.960000 -8.080000 29.477596 -118.649261 14946.576172
2.040000 1.960000 -8.040000 126.521774 -114.996880 29232.042969
2.040000 1.960000 -8.000000 198.362869 -33.229477 40452.027344
2.040000 1.960000 -7.960000 190.632355 80.043152 42747.601562
2.040000 1.960000 -7.920000 107.941971 152.775742 34991.898438
2.040000 1.960000 -7.880000 9.062759 146.269928 21477.025391
2.040000 1.960000 -7.840000 -43.674660 83.046333 8804.168945
2.040000 1.960000 -7.800000 -33.357738 21.068607 1556.625000
2.040000 2.000000 -8.200000 8.348062 46.426682 2225.126953
2.040000 2.000000 -8.160000 -32.017078 -0.930140 1025.958374
2.040000 2.000000 -8.120000 -9.567566 -75.074890 5727.777344
2.040000 2.000000 -8.080000 79.894470 -107.832581 18010.992188
2.040000 2.000000 -8.040000 177.231934 -52.614021 34179.394531
2.040000 2.000000 -8.000000 204.925339 68.068237 46627.679688
2.040000 2.000000 -7.960000 134.255615 175.275940 48746.226562
2.040000 2.000000 -7.920000 11.904024 198.439972 39520.128906
2.040000 2.000000 -7.880000 -79.832367 133.155090 24103.484375
2.040000 2.000000 -7.840000 -91.838531 39.428837 9988.948242
2.040000 2.000000 -7.800000 -42.553185 -14.683083 2026.366455
2.040000 2.040000 -8.200000 -24.120468 42.557549 2392.941895
2.040000 2.040000 -8.160000 -35.183441 -19.222641 1607.384399
2.040000 2.040000 -8.120000 20.161301 -73.715408 5840.439453
2.040000 2.040000 -8.080000 113.419769 -60.645412 16541.910156
2.040000 2.040000 -8.040000 171.580856 32.051903 30467.314453
2.040000 2.040000 -8.000000 138.362762 147.873383 41010.789062
2.040000 2.040000 -7.960000 26.878902 204.562927 42568.468750
2.040000 2.040000 -7.920000 -88.069366 163.504074 34489.796875
2.040000 2.040000 -7.880000 -132.778198 61.144524 21368.703125
2.040000 2.040000 -7.840000 -94.073868 -26.103436 9531.282227
2.040000 2.040000 -7.800000 -21.647783 -48.159912 2788.003662
2.040000 2.080000 -8.200000 -38.250992 19.239544 1833.298462
2.040000 2.080000 -8.160000 -21.055424 -30.776337 1390.513794
2.040000 2.080000 -8.120000 41.688309 -49.642925 4202.334961
2.040000 2.080000 -8.080000 106.029091 -3.810778 11256.690430
2.040000 2.080000 -8.040000 112.893616 87.432587 20389.425781
2.040000 2.080000 -8.000000 42.185566 159.517288 27225.386719
2.040000 2.080000 -7.960000 -63.430965 155.387299 28168.699219
2.040000 2.080000 -7.920000 -131.368744 75.709587 22989.687500
2.040000 2.080000 -7.880000 -119.799347 -21.567329 14817.033203
2.040000 2.080000 -7.840000 -49.723583 -71.884392 7639.800781
2.040000 2.080000 -7.800000 19.665730 -56.426670 3570.709961
2.040000 2.120000 -8.200000 -31.287540 0.598624 979.268494
2.040000 2.120000 -8.160000 -5.961884 -25.510374 686.323242
2.040000 2.120000 -8.120000 39.152279 -19.583014 1916.395386
2.040000 2.120000 -8.080000 66.746292 27.907467 5233.894043
2.040000 2.120000 -8.040000 43.887390 87.549042 9590.937500
2.040000 2.120000 -8.000000 -23.506134 110.786110 12826.100586
2.040000 2.120000 -7.960000 -89.391434 72.598671 13261.395508
2.040000 2.120000 -7.920000 -104.789978 -3.596920 10993.876953
2.040000 2.120000 -7.880000 -59.660313 -64.371544 7703.048828
2.040000 2.120000 -7.840000 10.098961 -71.392334 5198.854492
2.040000 2.120000 -7.800000 56.065727 -30.691351 4085.324707
2.040000 2.160000 -8.200000 -20.563372 -2.030246 426.974152
2.040000 2.160000 -8.160000 -4.610766 -13.391636 200.595078
2.040000 2.160000 -8.120000 19.073454 -5.409010 393.054016
2.040000 2.160000 -8.080000 27.830318 23.383427 1321.311279
2.040000 2.160000 -8.040000 6.502110 51.159668 2659.588867
2.040000 2.160000 -8.000000 -33.297417 50.151123 3623.853271
2.040000 2.160000 -7.960000 -59.089588 14.125912 3691.120605
2.040000 2.160000 -7.920000 -45.817932 -32.114174 3130.603027
2.040000 2.160000 -7.880000 0.444946 -52.637127 2770.865234
2.040000 2.160000 -7.840000 47.004196 -31.439325 3197.825684
2.040000 2.160000 -7.800000 62.912163 15.117767 4186.487305
2.040000 2.200000 -8.200000 -20.864048 1.420820 437.327240
2.040000 2.200000 -8.160000 -13.933258 -10.990676 314.930634
2.040000 2.200000 -8.120000 2.702824 -12.227535 156.817871
2.040000 2.200000 -8.080000 13.546082 1.699255 186.383789
2.040000 2.200000 -8.040000 7.192825 17.819485 369.270752
2.040000 2.200000 -8.000000 -9.664845 18.803848 446.993927
2.040000 2.200000 -7.960000 -17.245045 2.138481 301.964661
2.040000 2.200000 -7.920000 -2.749481 -15.050152 234.066711
2.040000 2.200000 -7.880000 25.218201 -11.703648 772.932983
2.040000 2.200000 -7.840000 43.279865 16.480951 2144.768555
2.040000 2.200000 -7.800000 34.486107 52.340012 3928.768555
2.080000 1.800000 -8.200000 -48.971878 -0.855927 2398.977539
2.080000 1.800000 -8.160000 -48.365585 -41.214657 4037.877686
2.080000 1.800000 -8.120000 -13.558407 -72.946449 5505.015137
2.080000 1.800000 -8.080000 36.506706 -68.966072 6089.059082
2.080000 1.800000 -8.040000 66.729324 -29.960190 5350.415527
2.080000 1.800000 -8.000000 57.734932 13.954041 3528.037598
2.080000 1.800000 -7.960000 23.758057 30.566566 1498.760254
2.080000 1.800000 -7.920000 -1.979845 14.875393 225.197098
2.080000 1.800000 -7.880000 0.451815 -9.000126 81.206406
2.080000 1.800000 -7.840000 20.702532 -14.230789 631.110168
2.080000 1.800000 -7.800000 32.532135 2.176243 1063.075928
2.080000 1.840000 -8.200000 -25.887886 -30.008329 1570.682373
2.080000 1.840000 -8.160000 -14.269331 -50.151939 2718.830811
2.080000 1.840000 -8.120000 12.619246 -60.692108 3842.777344
2.080000 1.840000 -8.080000 42.268955 -50.773224 4364.584961
2.080000 1.840000 -8.040000 57.637554 -25.086628 3951.426514
2.080000 1.840000 -8.000000 53.105316 -0.371781 2820.312744
2.080000 1.840000 -7.960000 38.966011 10.368919 1625.864502
2.080000 1.840000 -7.920000 29.865036 9.067101 974.132690
2.080000 1.840000 -7.880000 30.028521 7.642525 960.120239
2.080000 1.840000 -7.840000 31.326973 13.269930 1157.470215
2.080000 1.840000 -7.800000 25.260365 20.768404 1069.412598
2.080000 1.880000 -8.200000 9.636405 -27.337069 840.175598
2.080000 1.880000 -8.160000 8.689796 -30.892569 1029.863281
2.080000 1.880000 -8.120000 15.738416 -41.204475 1945.506592
2.080000 1.880000 -8.080000 35.154552 -47.300987 3473.225830
2.080000 1.880000 -8.040000 60.063789 -38.759983 5109.995117
2.080000 1.880000 -8.000000 77.493546 -14.437889 6213.702148
2.080000 1.880000 -7.960000 77.876389 16.560055 6338.967285
2.080000 1.880000 -7.920000 61.199669 41.225918 5444.975586
2.080000 1.880000 -7.880000 36.215672 50.668633 3878.885254
2.080000 1.880000 -7.840000 14.712193 44.447090 2191.992432
2.080000 1.880000 -7.800000 5.138079 29.807661 914.896484
2.080000 1.920000 -8.200000 25.996838 2.040463 679.999084
2.080000 1.920000 -8.160000 4.682430 -7.176498 73.427284
2.080000 1.920000 -8.120000 5.258436 -37.322506 1420.620605
2.080000 1.920000 -8.080000 39.392708 -59.797482 5127.524414
2.080000 1.920000 -8.040000 89.017639 -46.636879 10099.138672
2.080000 1.920000 -8.000000 118.853600 4.190315 14143.736328
2.080000 1.920000 -7.960000 105.114441 64.803970 15248.600586
2.080000 1.920000 -7.920000 55.262833 99.022705 12859.476562
2.080000 1.920000 -7.880000 1.626392 90.712898 8231.475586
2.080000 1.920000 -7.840000 -24.856447 54.535698 3591.985352
2.080000 1.920000 -7.800000 -17.424665 21.256594 755.461731
2.080000 1.960000 -8.200000 11.562800 29.930862 1029.554810
2.080000 1.960000 -8.160000 -14.221327 -2.505043 208.521378
2.080000 1.960000 -8.120000 4.525377 -49.814014 2501.915039
2.080000 1.960000 -8.080000 65.981621 -65.265106 8613.108398
2.080000 1.960000 -8.040000 127.360184 -21.354662 16676.638672
2.080000 1.960000 -8.000000 138.299713 62.112053 22984.718750
2.080000 1.960000 -7.960000 84.312454 130.973969 24262.769531
2.080000 1.960000 -7.920000 0.280199 140.928009 19860.781250
2.080000 1.960000 -7.880000 -58.856834 93.264885 12162.465820
2.080000 1.960000 -7.840000 -63.160679 30.368935 4911.543457
2.080000 1.960000 -7.800000 -27.968670 -2.785769 790.007019
2.080000 2.000000 -8.200000 -16.852545 33.510555 1406.965576
2.080000 2.000000 -8.160000 -23.795141 -17.079800 857.928284
2.080000 2.000000 -8.120000 23.298563 -58.000866 3906.923340
2.080000 2.000000 -8.080000 97.341545 -42.236412 11259.291016
2.080000 2.000000 -8.040000 138.974274 35.482040 20572.824219
2.080000 2.000000 -8.000000 106.542252 126.920403 27460.039062
2.080000 2.000000 -7.960000 14.886208 167.538498 28290.748047
2.080000 2.000000 -7.920000 -74.850624 130.697708 22684.505859
2.080000 2.000000 -7.880000 -106.337555 48.922359 13701.073242
2.080000 2.000000 -7.840000 -73.062431 -16.736084 5618.215332
2.080000 2.000000 -7.800000 -17.097563 -29.135027 1141.176514
2.080000 2.040000 -8.200000 -33.707092 15.449463 1374.854004
2.080000 2.040000 -8.160000 -14.114645 -31.031456 1162.174438
2.080000 2.040000 -8.120000 46.430359 -44.289581 4117.345215
2.080000 2.040000 -8.080000 103.804581 3.437067 10787.204102
2.080000 2.040000 -8.040000 104.535667 89.683289 18970.798828
2.080000 2.040000 -8.000000 34.629253 153.427185 24739.085938
2.080000 2.040000 -7.960000 -63.017784 145.159409 25042.496094
2.080000 2.040000 -7.920000 -122.247864 70.110107 19859.966797
2.080000 2.040000 -7.880000 -108.765198 -16.463177 12100.904297
2.080000 2.040000 -7.840000 -45.824409 -57.535805 5410.245117
2.080000 2.040000 -7.800000 11.677534 -40.315582 1761.710938
2.080000 2.080000 -8.200000 -30.176315 -3.347004 921.812439
2.080000 2.080000 -8.160000 1.889740 -28.321531 805.680237
2.080000 2.080000 -8.120000 50.725391 -14.876544 2794.376953
2.080000 2.080000 -8.080000 74.680550 41.446327 7294.982422
2.080000 2.080000 -8.040000 42.609241 104.739975 12786.009766
2.080000 2.080000 -8.000000 -33.292557 124.316643 16563.021484
2.080000 2.080000 -7.960000 -101.921471 79.012497 16630.960938
2.080000 2.080000 -7.920000 -114.773453 -1.764740 13176.059570
2.080000 2.080000 -7.880000 -66.851318 -62.034473 8317.375000
2.080000 2.080000 -7.840000 1.404683 -66.400894 4411.051758
2.080000 2.080000 -7.800000 41.783821 -26.237751 2434.307129
2.080000 2.120000 -8.200000 -19.119646 -7.964449 428.993286
2.080000 2.120000 -8.160000 5.368378 -14.108952 227.881989
2.080000 2.120000 -8.120000 30.801403 6.080135 985.694458
2.080000 2.120000 -8.080000 30.528545 46.035217 3051.233398
2.080000 2.120000 -8.040000 -6.323116 75.440033 5731.180664
2.080000 2.120000 -8.000000 -58.552917 64.793213 7626.604492
2.080000 2.120000 -7.960000 -86.640602 14.385303 7713.530762
2.080000 2.120000 -7.920000 -66.568420 -41.912952 6188.049805
2.080000 2.120000 -7.880000 -11.783194 -64.208763 4261.608887
2.080000 2.120000 -7.840000 38.481045 -40.155586 3093.261719
2.080000 2.120000 -7.800000 53.243744 7.211281 2886.898926
2.080000 2.160000 -8.200000 -16.915602 -3.674807 299.641785
2.080000 2.160000 -8.160000 -6.324163 -7.308985 93.416306
2.080000 2.160000 -8.120000 5.497065 2.047082 34.408264
2.080000 2.160000 -8.080000 3.602859 20.690710 441.086060
2.080000 2.160000 -8.040000 -16.478394 30.838327 1222.539917
2.080000 2.160000 -8.000000 -39.585148 17.656342 1878.730225
2.080000 2.160000 -7.960000 -42.556023 -13.197178 1985.180542
2.080000 2.160000 -7.920000 -16.735981 -37.198647 1663.832275
2.080000 2.160000 -7.880000 21.610277 -32.236069 1506.168213
2.080000 2.160000 -7.840000 44.534607 1.070569 1984.477295
2.080000 2.160000 -7.800000 36.619598 40.180286 2955.450439
2.080000 2.200000 -8.200000 -24.091524 -6.290518 619.972168
2.080000 2.200000 -8.160000 -16.882904 -18.045828 610.684326
2.080000 2.200000 -8.120000 -1.734663 -18.706131 352.928406
2.080000 2.200000 -8.080000 7.365580 -6.959961 102.692818
2.080000 2.200000 -8.040000 3.028670 5.065830 34.835480
2.080000 2.200000 -8.000000 -6.875641 5.330986 75.693848
2.080000 2.200000 -7.960000 -7.669147 -4.110615 75.712975
2.080000 2.200000 -7.920000 5.475956 -8.384667 100.288742
2.080000 2.200000 -7.880000 20.912071 4.508499 457.641296
2.080000 2.200000 -7.840000 21.365952 30.348938 1377.561890
2.080000 2.200000 -7.800000 0.834841 51.748711 2678.625977
2.120000 1.800000 -8.200000 -25.753813 -16.341053 930.288818
2.120000 1.800000 -8.160000 -7.790761 -40.610817 1709.934326
2.120000 1.800000 -8.120000 27.775856 -45.585663 2849.550781
2.120000 1.800000 -8.080000 59.002293 -21.420824 3940.122314
2.120000 1.800000 -8.040000 63.359520 18.758492 4366.309570
2.120000 1.800000 -8.000000 38.238823 48.052387 3771.239502
2.120000 1.800000 -7.960000 3.921963 48.864342 2403.105713
2.120000 1.800000 -7.920000 -14.763788 27.588278 979.082520
2.120000 1.800000 -7.880000 -10.194168 6.576313 147.168961
2.120000 1.800000 -7.840000 4.067265 2.024508 20.641275
2.120000 1.800000 -7.800000 9.817106 10.246838 201.373260
2.120000 1.840000 -8.200000 -2.601887 -23.985081 582.053955
2.120000 1.840000 -8.160000 13.726809 -31.064091 1153.402954
2.120000 1.840000 -8.120000 36.238651 -25.257797 1951.196167
2.120000 1.840000 -8.080000 51.727070 -3.520111 2688.080811
2.120000 1.840000 -8.040000 48.942406 23.910213 2967.057373
2.120000 1.840000 -8.000000 29.737421 41.160828 2578.527832
2.120000 1.840000 -7.960000 7.906269 40.579025 1709.166382
2.120000 1.840000 -7.920000 -3.377766 28.611965 830.053833
2.120000 1.840000 -7.880000 -2.519661 18.014786 330.881195
2.120000 1.840000 -7.840000 2.013512 15.185567 234.655670
2.120000 1.840000 -7.800000 2.852197 16.114075 267.798431
2.120000 1.880000 -8.200000 14.867887 -8.937945 300.940948
2.120000 1.880000 -8.160000 16.489504 -10.609387 384.462830
2.120000 1.880000 -8.120000 25.725574 -11.417805 792.171448
2.120000 1.880000 -8.080000 38.322155 -3.066084 1477.988403
2.120000 1.880000 -8.040000 44.421150 15.095503 2201.112793
2.120000 1.880000 -8.000000 37.622253 35.036484 2642.989258
2.120000 1.880000 -7.960000 20.342613 46.763557 2600.652344
2.120000 1.880000 -7.920000 1.343258 45.867889 2105.667725
2.120000 1.880000 -7.880000 -11.028221 35.509731 1382.562744
2.120000 1.880000 -7.840000 -13.544102 22.773216 702.062073
2.120000 1.880000 -7.800000 -8.129494 13.991360 261.846802
2.120000 1.920000 -8.200000 11.124990 12.339312 276.023987
2.120000 1.920000 -8.160000 2.281945 -0.701647 5.699582
2.120000 1.920000 -8.120000 13.545665 -16.018415 440.074646
2.120000 1.920000 -8.080000 38.825352 -14.082049 1705.712036
2.120000 1.920000 -8.040000 57.580910 11.526121 3448.412842
2.120000 1.920000 -8.000000 51.834984 47.374332 4931.192871
2.120000 1.920000 -7.960000 21.520477 70.453079 5426.767090
2.120000 1.920000 -7.920000 -15.162363 66.602631 4665.808105
2.120000 1.920000 -7.880000 -36.347965 41.250656 3022.791016
2.120000 1.920000 -7.840000 -33.186584 13.942442 1295.741089
2.120000 1.920000 -7.800000 -14.859583 2.393803 226.537491
2.120000 1.960000 -8.200000 -7.465982 19.595150 439.710815
2.120000 1.960000 -8.160000 -10.038475 -8.873951 179.517990
2.120000 1.960000 -8.120000 17.352619 -28.420162 1108.819092
2.120000 1.960000 -8.080000 55.919731 -15.085262 3354.581543
2.120000 1.960000 -8.040000 72.976425 29.694962 6207.349609
2.120000 1.960000 -8.000000 49.384579 77.192574 8397.530273
2.120000 1.960000 -7.960000 -2.886816 93.882256 8822.211914
2.120000 1.960000 -7.920000 -49.672592 69.132416 7246.657227
2.120000 1.960000 -7.880000 -62.595936 23.411610 4466.354492
2.120000 1.960000 -7.840000 -41.184860 -9.993452 1796.061890
2.120000 1.960000 -7.800000 -10.166933 -12.564535 261.234070
2.120000 2.000000 -8.200000 -21.734722 9.092287 555.067810
2.120000 2.000000 -8.160000 -6.447952 -22.064859 528.434143
2.120000 2.000000 -8.120000 34.522774 -28.130329 1983.137329
2.120000 2.000000 -8.080000 70.040436 6.078793 4942.614258
2.120000 2.000000 -8.040000 66.617355 62.681416 8366.832031
2.120000 2.000000 -8.000000 18.421413 101.538918 10649.500000
2.120000 2.000000 -7.960000 -44.672100 92.864616 10619.433594
2.120000 2.000000 -7.920000 -80.502327 42.862946 8317.856445
2.120000 2.000000 -7.880000 -69.323273 -11.635088 4941.091797
2.120000 2.000000 -7.840000 -28.406181 -34.776543 2016.319092
2.120000 2.000000 -7.800000 5.914611 -20.425705 452.192017
2.120000 2.040000 -8.200000 -20.779224 -5.301210 459.878998
2.120000 2.040000 -8.160000 7.070195 -22.985865 578.337646
2.120000 2.040000 -8.120000 44.703873 -8.957087 2078.665771
2.120000 2.040000 -8.080000 60.037842 36.431236 4931.777344
2.120000 2.040000 -8.040000 32.210461 83.841660 8066.937500
2.120000 2.040000 -8.000000 -26.573900 96.077515 9937.060547
2.120000 2.040000 -7.960000 -77.170441 60.064884 9563.067383
2.120000 2.040000 -7.920000 -85.013535 -0.107206 7227.312988
2.120000 2.040000 -7.880000 -48.944031 -42.787285 4226.269531
2.120000 2.040000 -7.840000 -0.574725 -43.651291 1905.765503
2.120000 2.040000 -7.800000 24.741432 -13.680941 799.306641
2.120000 2.080000 -8.200000 -11.731108 -9.526608 228.375122
2.120000 2.080000 -8.160000 12.670574 -10.399929 268.701965
2.120000 2.080000 -8.120000 32.903500 12.645567 1242.550659
2.120000 2.080000 -8.080000 27.274776 49.458702 3190.076660
2.120000 2.080000 -8.040000 -9.369972 72.625473 5362.255859
2.120000 2.080000 -8.000000 -55.652378 59.381592 6623.360352
2.120000 2.080000 -7.960000 -78.083923 13.726984 6285.529297
2.120000 2.080000 -7.920000 -59.269512 -33.796974 4655.110352
2.120000 2.080000 -7.880000 -13.570678 -50.868046 2771.721436
2.120000 2.080000 -7.840000 25.420893 -30.301331 1564.392456
2.120000 2.080000 -7.800000 34.023472 6.139651 1195.291992
2.120000 2.120000 -8.200000 -8.825931 -4.777355 100.720169
2.120000 2.120000 -8.160000 2.157689 -0.386342 4.804882
2.120000 2.120000 -8.120000 7.391752 14.847084 275.073914
2.120000 2.120000 -8.080000 -3.473726 32.464294 1065.997192
2.120000 2.120000 -8.040000 -28.587736 35.847252 2102.284180
2.120000 2.120000 -8.000000 -50.423935 15.782444 2791.658691
2.120000 2.120000 -7.960000 -49.101433 -17.414547 2714.217041
2.120000 2.120000 -7.920000 -21.251253 -39.671555 2025.447998
2.120000 2.120000 -7.880000 14.777853 -33.473362 1338.850830
2.120000 2.120000 -7.840000 34.010880 -3.470213 1168.782227
2.120000 2.120000 -7.800000 26.135567 28.252886 1481.293457
2.120000 2.160000 -8.200000 -15.566057 -4.219916 260.109833
2.120000 2.160000 -8.160000 -12.694745 -7.495951 217.345825
2.120000 2.160000 -8.120000 -7.751606 -5.497350 90.308258
2.120000 2.160000 -8.080000 -8.107517 0.470510 65.953217
2.120000 2.160000 -8.040000 -15.128572 1.923473 232.573425
2.120000 2.160000 -8.000000 -20.240856 -6.477077 451.644806
2.120000 2.160000 -7.960000 -13.382929 -18.503662 521.488281
2.120000 2.160000 -7.920000 4.866524 -20.568741 446.756134
2.120000 2.160000 -7.880000 21.330315 -5.296462 483.034851
2.120000 2.160000 -7.840000 21.724791 19.959063 870.330688
2.120000 2.160000 -7.800000 3.940437 39.082253 1542.949585
2.120000 2.200000 -8.200000 -20.463816 -15.838163 669.615173
2.120000 2.200000 -8.160000 -12.710733 -27.175137 900.050781
2.120000 2.200000 -8.120000 2.277343 -28.372196 810.167786
2.120000 2.200000 -8.080000 12.998479 -18.362123 506.128021
2.120000 2.200000 -8.040000 13.405909 -6.017756 215.931763
2.120000 2.200000 -8.000000 8.137468 0.216015 66.265053
2.120000 2.200000 -7.960000 5.688675 1.178488 33.749855
2.120000 2.200000 -7.920000 7.925303 4.599625 83.966965
2.120000 2.200000 -7.880000 7.934869 14.881571 284.423279
2.120000 2.200000 -7.840000 -1.741587 26.999104 731.984741
2.120000 2.200000 -7.800000 -20.264091 31.212044 1384.825073
2.160000 1.800000 -8.200000 -6.833047 -9.331927 133.775391
2.160000 1.800000 -8.160000 10.271606 -14.701080 321.627655
2.160000 1.800000 -8.120000 30.190559 -5.170519 938.204102
2.160000 1.800000 -8.080000 39.358940 18.796463 1902.433228
2.160000 1.800000 -8.040000 28.500111 44.771889 2816.778320
2.160000 1.800000 -8.000000 1.837044 56.487698 3194.234619
2.160000 1.800000 -7.960000 -24.789707 46.895741 2813.739990
2.160000 1.800000 -7.920000 -36.343441 24.004326 1897.053345
2.160000 1.800000 -7.880000 -30.318024 3.530882 931.649658
2.160000 1.800000 -7.840000 -16.787945 -4.634600 303.314606
2.160000 1.800000 -7.800000 -7.302860 -3.170179 63.381802
2.160000 1.840000 -8.200000 3.046100 -7.319587 62.855072
2.160000 1.840000 -8.160000 13.702986 -4.970112 212.473831
2.160000 1.840000 -8.120000 23.901936 6.622520 615.160339
2.160000 1.840000 -8.080000 24.422899 25.912138 1267.916992
2.160000 1.840000 -8.040000 10.401442 42.736927 1934.634888
2.160000 1.840000 -8.000000 -12.289943 45.928814 2260.498779
2.160000 1.840000 -7.960000 -30.599144 33.262516 2042.702637
2.160000 1.840000 -7.920000 -34.920002 13.622313 1404.973877
2.160000 1.840000 -7.880000 -26.449806 -0.914816 700.429138
2.160000 1.840000 -7.840000 -14.242073 -5.036341 228.201370
2.160000 1.840000 -7.800000 -5.784824 -2.391298 39.182499
2.160000 1.880000 -8.200000 4.537416 1.531443 22.933460
2.160000 1.880000 -8.160000 6.453986 1.969206 45.531704
2.160000 1.880000 -8.120000 11.019085 7.024945 170.770096
2.160000 1.880000 -8.080000 11.327353 17.971352 451.278381
2.160000 1.880000 -8.040000 2.506036 28.707619 830.407593
2.160000 1.880000 -8.000000 -12.679394 31.212612 1134.994141
2.160000 1.880000 -7.960000 -25.781601 23.001007 1193.737305
2.160000 1.880000 -7.920000 -29.807762 9.173245 972.651123
2.160000 1.880000 -7.880000 -24.339436 -2.261297 597.521606
2.160000 1.880000 -7.840000 -14.370393 -6.503191 248.799698
2.160000 1.880000 -7.800000 -5.384944 -3.795037 43.399933
2.160000 1.920000 -8.200000 -2.694935 5.717429 39.951672
2.160000 1.920000 -8.160000 -2.205739 -1.925295 8.572049
2.160000 1.920000 -8.120000 5.906822 -3.526502 47.326767
2.160000 1.920000 -8.080000 12.715443 4.885693 185.552475
2.160000 1.920000 -8.040000 9.876322 18.116135 425.736084
2.160000 1.920000 -8.000000 -3.235474 26.251522 699.610657
2.160000 1.920000 -7.960000 -19.044535 22.789474 882.054443
2.160000 1.920000 -7.920000 -27.785713 9.618902 864.569092
2.160000 1.920000 -7.880000 -24.788689 -4.674712 636.331970
2.160000 1.920000 -7.840000 -13.442679 -11.232732 306.879883
2.160000 1.920000 -7.800000 -2.310036 -6.855138 52.329182
2.160000 1.960000 -8.200000 -8.922791 0.804446 80.263321
2.160000 1.960000 -8.160000 -1.308336 -11.085107 124.591339
2.160000 1.960000 -8.120000 14.181467 -11.204718 326.659729
2.160000 1.960000 -8.080000 24.892935 3.007915 628.705750
2.160000 1.960000 -8.040000 20.486595 22.763651 937.884399
2.160000 1.960000 -8.000000 1.464172 33.928120 1153.261108
2.160000 1.960000 -7.960000 -20.433924 27.854637 1193.426025
2.160000 1.960000 -7.920000 -30.907015 8.456311 1026.752808
2.160000 1.960000 -7.880000 -24.224398 -10.565895 698.459595
2.160000 1.960000 -7.840000 -7.661266 -16.481157 330.323547
2.160000 1.960000 -7.800000 4.586836 -7.490066 77.140152
2.160000 2.000000 -8.200000 -6.875690 -6.221365 85.980499
2.160000 2.000000 -8.160000 8.093308 -12.992080 234.295776
2.160000 2.000000 -8.120000 25.023037 -4.745606 648.673157
2.160000 2.000000 -8.080000 30.714037 16.150867 1204.202637
2.160000 2.000000 -8.040000 17.793938 36.773724 1668.930908
2.160000 2.000000 -8.000000 -7.930546 42.033802 1829.734009
2.160000 2.000000 -7.960000 -30.082409 26.708578 1618.299561
2.160000 2.000000 -7.920000 -33.924091 0.841264 1151.551758
2.160000 2.000000 -7.880000 -18.497688 -17.528517 649.413330
2.160000 2.000000 -7.840000 2.374947 -17.035442 295.846680
2.160000 2.000000 -7.800000 11.914873 -2.259420 147.069183
2.160000 2.040000 -8.200000 -0.407142 -6.402894 41.162815
2.160000 2.040000 -8.160000 13.490267 -3.654929 195.345810
2.160000 2.040000 -8.120000 22.791441 10.360495 626.789612
2.160000 2.040000 -8.080000 18.696663 29.701519 1231.745483
2.160000 2.040000 -8.040000 -0.336320 41.781734 1745.826538
2.160000 2.040000 -8.000000 -24.299307 36.019684 1887.873901
2.160000 2.040000 -7.960000 -37.121204 13.773281 1567.687012
2.160000 2.040000 -7.920000 -29.462046 -10.480761 977.858521
2.160000 2.040000 -7.880000 -7.508822 -20.048725 458.333801
2.160000 2.040000 -7.840000 11.542811 -10.181732 236.904175
2.160000 2.040000 -7.800000 14.369587 7.953165 269.737854
2.160000 2.080000 -8.200000 0.696577 -0.304675 0.578047
2.160000 2.080000 -8.160000 5.657984 6.350113 72.336716
2.160000 2.080000 -8.120000 5.577496 16.431526 301.103516
2.160000 2.080000 -8.080000 -2.686709 25.732731 669.391846
2.160000 2.080000 -8.040000 -17.587545 26.855927 1030.562500
2.160000 2.080000 -8.000000 -30.413555 15.419790 1162.754272
2.160000 2.080000 -7.960000 -30.696241 -3.455933 954.202698
2.160000 2.080000 -7.920000 -16.038530 -16.812260 539.886536
2.160000 2.080000 -7.880000 3.756214 -14.393391 221.278839
2.160000 2.080000 -7.840000 14.223994 1.620635 204.948471
2.160000 2.080000 -7.800000 9.110399 18.158852 412.743286
2.160000 2.120000 -8.200000 -6.641110 2.222055 49.041870
2.160000 2.120000 -8.160000 -9.223113 3.101767 94.686768
2.160000 2.120000 -8.120000 -10.547438 3.018704 120.361015
2.160000 2.120000 -8.080000 -12.303797 3.311574 162.349930
2.160000 2.120000 -8.040000 -15.524113 1.674744 243.802841
2.160000 2.120000 -8.000000 -16.933872 -4.057413 303.218628
2.160000 2.120000 -7.960000 -11.862961 -10.846004 258.365662
2.160000 2.120000 -7.920000 -0.812325 -11.548080 134.018036
2.160000 2.120000 -7.880000 8.688090 -2.236558 80.485107
2.160000 2.120000 -7.840000 8.466057 12.438693 226.395203
2.160000 2.120000 -7.800000 -2.072589 22.741367 521.465454
2.160000 2.160000 -8.200000 -13.771172 -6.077645 226.582947
2.160000 2.160000 -8.160000 -14.568667 -14.211867 414.223236
2.160000 2.160000 -8.120000 -7.568423 -20.017843 457.995087
2.160000 2.160000 -8.080000 1.539522 -18.534395 345.893921
2.160000 2.160000 -8.040000 6.608975 -12.009321 187.902359
2.160000 2.160000 -8.000000 7.000535 -5.695726 81.448784
2.160000 2.160000 -7.960000 6.203230 -1.460514 40.613163
2.160000 2.160000 -7.920000 6.027387 3.130002 46.126305
2.160000 2.160000 -7.880000 4.024803 10.004668 116.292427
2.160000 2.160000 -7.840000 -2.946916 16.799168 290.896362
2.160000 2.160000 -7.800000 -13.994204 18.934719 554.361328
2.160000 2.200000 -8.200000 -9.303246 -19.987461 486.048981
2.160000 2.200000 -8.160000 -1.046852 -30.240459 915.581299
2.160000 2.200000 -8.120000 14.826479 -30.971851 1179.080078
2.160000 2.200000 -8.080000 27.825451 -19.422920 1151.505615
2.160000 2.200000 -8.040000 30.054100 -2.213548 908.148682
2.160000 2.200000 -8.000000 22.069172 11.456684 618.303955
2.160000 2.200000 -7.960000 10.249880 17.359932 406.427277
2.160000 2.200000 -7.920000 0.018353 17.454563 304.662109
2.160000 2.200000 -7.880000 -7.697306 15.422021 297.087250
2.160000 2.200000 -7.840000 -14.485431 12.573721 367.926147
2.160000 2.200000 -7.800000 -21.003633 8.031508 505.657745
2.200000 1.800000 -8.200000 -4.777215 4.285098 41.183838
2.200000 1.800000 -8.160000 0.540645 6.858714 47.334251
2.200000 1.800000 -8.120000 4.842564 13.851248 215.307495
2.200000 1.800000 -8.080000 3.710454 25.246637 651.160156
2.200000 1.800000 -8.040000 -7.014554 35.905956 1338.441650
2.200000 1.800000 -8.000000 -25.555674 37.390648 2051.153076
2.200000 1.800000 -7.960000 -42.807972 24.975323 2456.289062
2.200000 1.800000 -7.920000 -48.337475 3.131840 2346.319824
2.200000 1.800000 -7.880000 -38.908401 -16.856655 1798.010498
2.200000 1.800000 -7.840000 -21.054047 -25.707455 1104.146118
2.200000 1.800000 -7.800000 -4.966516 -22.942511 551.025024
2.200000 1.840000 -8.200000 -5.703950 1.469280 34.693832
2.200000 1.840000 -8.160000 -3.394279 4.529638 32.038757
2.200000 1.840000 -8.120000 -2.425084 11.234050 132.084900
2.200000 1.840000 -8.080000 -7.562428 20.089867 460.793060
2.200000 1.840000 -8.040000 -20.485416 24.538582 1021.794312
2.200000 1.840000 -8.000000 -35.792259 18.211475 1612.743652
2.200000 1.840000 -7.960000 -43.951057 1.614762 1934.302856
2.200000 1.840000 -7.920000 -39.093529 -16.903385 1814.028320
2.200000 1.840000 -7.880000 -24.064959 -27.536598 1337.386475
2.200000 1.840000 -7.840000 -7.671208 -26.628689 767.934509
2.200000 1.840000 -7.800000 2.934425 -18.162092 338.472443
2.200000 1.880000 -8.200000 -5.929000 -2.615689 41.994869
2.200000 1.880000 -8.160000 -5.103479 -1.155526 27.380743
2.200000 1.880000 -8.120000 -6.169654 3.192888 48.259163
2.200000 1.880000 -8.080000 -12.297184 7.085174 201.420425
2.200000 1.880000 -8.040000 -21.842876 5.260737 504.786591
2.200000 1.880000 -8.000000 -28.748280 -4.025794 842.670593
2.200000 1.880000 -7.960000 -27.632275 -16.604929 1039.266235
2.200000 1.880000 -7.920000 -18.454557 -25.556110 993.685486
2.200000 1.880000 -7.880000 -6.274356 -26.680538 751.218689
2.200000 1.880000 -7.840000 3.232604 -20.908310 447.607147
2.200000 1.880000 -7.800000 7.549318 -12.014260 201.334656
2.200000 1.920000 -8.200000 -2.504865 -7.413769 61.238316
2.200000 1.920000 -8.160000 -0.966555 -6.772685 46.803490
2.200000 1.920000 -8.120000 -2.097528 -4.661651 26.130613
2.200000 1.920000 -8.080000 -5.810044 -4.698328 55.830902
2.200000 1.920000 -8.040000 -8.834864 -8.425922 149.050995
2.200000 1.920000 -8.000000 -8.229420 -13.824545 258.841400
2.200000 1.920000 -7.960000 -4.068707 -17.564922 325.080872
2.200000 1.920000 -7.920000 1.335720 -17.999586 325.769257
2.200000 1.920000 -7.880000 5.957265 -15.602737 278.934418
2.200000 1.920000 -7.840000 9.042601 -11.220881 207.676804
2.200000 1.920000 -7.800000 9.841127 -5.077166 122.625397
2.200000 1.960000 -8.200000 5.024927 -8.294306 94.045403
2.200000 1.960000 -8.160000 6.936478 -6.031312 84.491455
2.200000 1.960000 -8.120000 5.998284 -4.874562 59.740772
2.200000 1.960000 -8.080000 5.519208 -6.168290 68.509460
2.200000 1.960000 -8.040000 7.526418 -7.393139 111.305466
2.200000 1.960000 -8.000000 10.244541 -5.987594 140.801895
2.200000 1.960000 -7.960000 10.741600 -2.868098 123.607964
2.200000 1.960000 -7.920000 8.990259 -1.034293 81.894524
2.200000 1.960000 -7.880000 7.842666 -1.303473 63.206455
2.200000 1.960000 -7.840000 8.790988 -0.923151 78.133682
2.200000 1.960000 -7.800000 9.076316 2.620573 89.246910
2.200000 2.000000 -8.200000 11.339728 -1.956395 132.416916
2.200000 2.000000 -8.160000 10.554828 2.408878 117.207077
2.200000 2.000000 -8.120000 8.610599 2.468163 80.234238
2.200000 2.000000 -8.080000 10.167499 1.048575 104.477539
2.200000 2.000000 -8.040000 13.890790 3.183643 203.089630
2.200000 2.000000 -8.000000 14.442812 9.130149 291.954437
2.200000 2.000000 -7.960000 9.602262 13.732393 280.782074
2.200000 2.000000 -7.920000 3.414128 12.805286 175.631622
2.200000 2.000000 -7.880000 1.354253 8.463792 73.469772
2.200000 2.000000 -7.840000 3.464725 6.555375 54.977253
2.200000 2.000000 -7.800000 4.166246 9.105019 100.258972
2.200000 2.040000 -8.200000 9.715347 7.866399 156.268204
2.200000 2.040000 -8.160000 3.915083 11.040083 137.211304
2.200000 2.040000 -8.120000 1.059014 7.802387 61.998756
2.200000 2.040000 -8.080000 4.464184 5.446574 49.594112
2.200000 2.040000 -8.040000 8.804672 9.375507 165.422394
2.200000 2.040000 -8.000000 7.264941 16.640495 329.685455
2.200000 2.040000 -7.960000 -0.051044 19.880951 395.254791
2.200000 2.040000 -7.920000 -6.470164 16.297510 307.471863
2.200000 2.040000 -7.880000 -6.967406 10.674095 162.481064
2.200000 2.040000 -7.840000 -3.930207 9.085132 97.986145
2.200000 2.040000 -7.800000 -3.497876 11.327109 140.538544
2.200000 2.080000 -8.200000 -0.047739 12.266235 150.462799
2.200000 2.080000 -8.160000 -8.941433 9.670997 173.477402
2.200000 2.080000 -8.120000 -9.534796 1.594864 93.455925
2.200000 2.080000 -8.080000 -2.223944 -1.561694 7.384814
2.200000 2.080000 -8.040000 4.063329 4.119241 33.478786
2.200000 2.080000 -8.000000 2.396766 12.733736 167.892532
2.200000 2.080000 -7.960000 -5.138150 16.168287 287.814087
2.200000 2.080000 -7.920000 -11.134739 12.937526 291.362000
2.200000 2.080000 -7.880000 -11.723745 8.386822 207.784973
2.200000 2.080000 -7.840000 -9.860668 7.267924 150.055511
2.200000 2.080000 -7.800000 -10.076047 8.467020 173.217163
2.200000 2.120000 -8.200000 -9.531901 5.960353 126.382950
2.200000 2.120000 -8.160000 -15.918148 -3.624055 266.521210
2.200000 2.120000 -8.120000 -10.046462 -14.195106 302.432434
2.200000 2.120000 -8.080000 2.780862 -14.793003 226.566132
2.200000 2.120000 -8.040000 11.036004 -4.524004 142.259995
2.200000 2.120000 -8.000000 8.514997 7.890873 134.771042
2.200000 2.120000 -7.960000 -1.035616 13.658232 187.619781
2.200000 2.120000 -7.920000 -9.543015 11.593410 225.476318
2.200000 2.120000 -7.880000 -12.850044 6.795490 211.302338
2.200000 2.120000 -7.840000 -12.758266 3.880718 177.833328
2.200000 2.120000 -7.800000 -12.653594 3.208680 170.409073
2.200000 2.160000 -8.200000 -9.098680 -6.200612 121.233551
2.200000 2.160000 -8.160000 -8.312395 -18.641258 416.592438
2.200000 2.160000 -8.120000 4.827259 -25.889626 693.575134
2.200000 2.160000 -8.080000 20.674629 -19.316807 800.579346
2.200000 2.160000 -8.040000 26.925901 -2.151467 729.632935
2.200000 2.160000 -8.000000 19.387640 14.232269 578.438110
2.200000 2.160000 -7.960000 4.211705 20.578568 441.215912
2.200000 2.160000 -7.920000 -8.849919 16.327061 344.893982
2.200000 2.160000 -7.880000 -14.456606 7.686462 268.075165
2.200000 2.160000 -7.840000 -13.913278 1.119977 194.833649
2.200000 2.160000 -7.800000 -11.836408 -1.011703 141.124084
2.200000 2.200000 -8.200000 2.201778 -12.793505 168.521591
2.200000 2.200000 -8.160000 9.582591 -21.680641 561.876221
2.200000 2.200000 -8.120000 25.325325 -20.907921 1078.513184
2.200000 2.200000 -8.080000 37.837837 -6.165820 1469.719238
2.200000 2.200000 -8.040000 36.577465 15.397282 1574.987305
2.200000 2.200000 -8.000000 20.828959 31.095835 1400.796387
2.200000 2.200000 -7.960000 -0.289766 32.741043 1072.059937
2.200000 2.200000 -7.920000 -15.500456 22.027643 725.481201
2.200000 2.200000 -7.880000 -19.481159 7.738535 439.400482
2.200000 2.200000 -7.840000 -15.224174 -1.612312 234.375031
2.200000 2.200000 -7.800000 -10.180387 -3.470022 115.681320
