#kx 	ky 	kz 	real 	imag 	intensity
6.800000 -1.200000 4.800000 -36.143078 17.687765 1619.179077
6.800000 -1.200000 4.840000 -37.571312 1.497335 1413.845581
6.800000 -1.200000 4.880000 -30.645084 -12.423631 1093.467773
6.800000 -1.200000 4.920000 -18.193781 -20.401457 747.233154
6.800000 -1.200000 4.960000 -4.045118 -20.761051 447.384216
6.800000 -1.200000 5.000000 7.645474 -13.772903 248.146149
6.800000 -1.200000 5.040000 13.246498 -1.982899 179.401596
6.800000 -1.200000 5.080000 11.272188 10.153774 230.161346
6.800000 -1.200000 5.120000 3.482548 18.286625 346.528809
6.800000 -1.200000 5.160000 -6.178337 20.612560 463.049500
6.800000 -1.200000 5.200000 -14.411547 18.426891 547.242981
6.800000 -1.160000 4.800000 -38.071289 -9.651388 1542.572388
6.800000 -1.160000 4.840000 -29.859287 -19.336555 1265.479370
6.800000 -1.160000 4.880000 -18.758261 -24.022106 928.933960
6.800000 -1.160000 4.920000 -7.307294 -22.324139 551.763672
6.800000 -1.160000 4.960000 0.213670 -14.539808 211.451675
6.800000 -1.160000 5.000000 0.121508 -4.900373 24.028425
6.800000 -1.160000 5.040000 -6.510222 0.065548 42.387291
6.800000 -1.160000 5.080000 -13.143909 -2.919672 181.286850
6.800000 -1.160000 5.120000 -13.063015 -9.922006 269.088562
6.800000 -1.160000 5.160000 -6.224085 -12.760710 201.574936
6.800000 -1.160000 5.200000 -0.143581 -7.163902 51.342110
6.800000 -1.120000 4.800000 -19.659912 -30.455872 1314.072266
6.800000 -1.120000 4.840000 -9.029690 -28.877769 915.460876
6.800000 -1.120000 4.880000 -1.405128 -23.451324 551.938965
6.800000 -1.120000 4.920000 1.319364 -14.945496 225.108566
6.800000 -1.120000 4.960000 -3.615268 -7.201153 64.926765
6.800000 -1.120000 5.000000 -14.359568 -7.446404 261.646118
6.800000 -1.120000 5.040000 -21.579975 -19.392056 841.747131
6.800000 -1.120000 5.080000 -14.862766 -36.150883 1527.788208
6.800000 -1.120000 5.120000 6.021624 -42.952614 1881.187012
6.800000 -1.120000 5.160000 27.318369 -30.086533 1651.492676
6.800000 -1.120000 5.200000 31.603058 -3.989624 1014.670410
6.800000 -1.080000 4.800000 6.704854 -31.106922 1012.595703
6.800000 -1.080000 4.840000 11.246210 -20.251444 536.598206
6.800000 -1.080000 4.880000 9.010457 -10.204857 185.327454
6.800000 -1.080000 4.920000 -0.006269 -3.909623 15.285192
6.800000 -1.080000 4.960000 -13.586253 -7.231580 236.882019
6.800000 -1.080000 5.000000 -22.253193 -24.218250 1081.728271
6.800000 -1.080000 5.040000 -13.284834 -48.066101 2486.836914
6.800000 -1.080000 5.080000 16.219172 -60.557884 3930.318848
6.800000 -1.080000 5.120000 50.813450 -45.797287 4679.398438
6.800000 -1.080000 5.160000 65.336914 -7.105667 4319.402832
6.800000 -1.080000 5.200000 46.246254 31.178045 3110.786621
6.800000 -1.040000 4.800000 22.566399 -13.557547 693.049438
6.800000 -1.040000 4.840000 16.720190 -0.910680 280.394104
6.800000 -1.040000 4.880000 4.520026 4.824984 43.711105
6.800000 -1.040000 4.920000 -10.489474 0.138300 110.048195
6.800000 -1.040000 4.960000 -20.268673 -17.997379 734.724731
6.800000 -1.040000 5.000000 -12.516949 -44.408409 2128.780762
6.800000 -1.040000 5.040000 18.468502 -61.624557 4138.671875
6.800000 -1.040000 5.080000 60.000275 -50.069599 6106.998047
6.800000 -1.040000 5.120000 84.335312 -7.182949 7164.039551
6.800000 -1.040000 5.160000 69.805405 43.950375 6804.429688
6.800000 -1.040000 5.200000 21.878941 69.319763 5283.917480
6.800000 -1.000000 4.800000 18.951464 6.523867 401.718811
6.800000 -1.000000 4.840000 5.231997 12.985990 196.009720
6.800000 -1.000000 4.880000 -9.989338 8.353798 169.572815
6.800000 -1.000000 4.920000 -19.847624 -8.196365 461.108582
6.800000 -1.000000 4.960000 -14.660638 -32.699680 1284.203369
6.800000 -1.000000 5.000000 12.055618 -51.346745 2781.826172
6.800000 -1.000000 5.040000 52.403404 -45.256386 4794.256836
6.800000 -1.000000 5.080000 81.938156 -6.781312 6759.847656
6.800000 -1.000000 5.120000 75.382927 47.366337 7926.155273
6.800000 -1.000000 5.160000 29.639902 83.152359 7792.838867
6.800000 -1.000000 5.200000 -28.530594 75.169548 6464.455566
6.800000 -0.960000 4.800000 3.055061 13.740959 198.147369
6.800000 -0.960000 4.840000 -11.330356 10.655964 241.926514
6.800000 -0.960000 4.880000 -20.427221 -2.868742 425.501038
6.800000 -0.960000 4.920000 -17.412399 -22.686913 817.887634
6.800000 -0.960000 4.960000 2.542229 -38.949783 1523.548462
6.800000 -0.960000 5.000000 35.268826 -37.107201 2620.834473
6.800000 -0.960000 5.040000 63.164761 -8.100954 4055.412354
6.800000 -0.960000 5.080000 63.510117 38.992134 5553.921387
6.800000 -0.960000 5.120000 27.360458 76.872398 6657.960449
6.800000 -0.960000 5.160000 -27.934242 78.392296 6925.673828
6.800000 -0.960000 5.200000 -67.945518 39.814293 6201.771484
6.800000 -0.920000 4.800000 -9.818668 5.591372 127.669685
6.800000 -0.920000 4.840000 -18.065702 -4.200066 344.010162
6.800000 -0.920000 4.880000 -16.479961 -18.788300 624.589355
6.800000 -0.920000 4.920000 -2.751036 -30.500181 937.829224
6.800000 -0.920000 4.960000 19.981340 -29.913750 1294.086426
6.800000 -0.920000 5.000000 40.603172 -10.480178 1758.451660
6.800000 -0.920000 5.040000 43.257015 23.600998 2428.176270
6.800000 -0.920000 5.080000 18.705875 54.563774 3327.115234
6.800000 -0.920000 5.120000 -24.444233 60.660133 4277.172363
6.800000 -0.920000 5.160000 -61.372688 33.629074 4897.521484
6.800000 -0.920000 5.200000 -68.361984 -11.546352 4806.679199
6.800000 -0.880000 4.800000 -10.408533 -7.791502 169.045074
6.800000 -0.880000 4.840000 -10.291893 -18.077183 432.707611
6.800000 -0.880000 4.880000 -1.044468 -25.729944 663.120972
6.800000 -0.880000 4.920000 13.368737 -24.350107 771.650879
6.800000 -0.880000 4.960000 25.164352 -11.305706 761.063599
6.800000 -0.880000 5.000000 25.429806 9.834894 743.400208
6.800000 -0.880000 5.040000 9.268459 28.679138 908.397339
6.800000 -0.880000 5.080000 -18.666389 32.420338 1399.512329
6.800000 -0.880000 5.120000 -43.899708 14.934956 2150.237305
6.800000 -0.880000 5.160000 -50.653809 -16.234035 2829.352295
6.800000 -0.880000 5.200000 -34.182457 -42.985374 3016.182617
6.800000 -0.840000 4.800000 -1.998967 -15.087505 231.628677
6.800000 -0.840000 4.840000 3.840739 -20.929287 452.786346
6.800000 -0.840000 4.880000 13.436171 -19.281055 552.289795
6.800000 -0.840000 4.920000 19.260715 -9.460685 460.479706
6.800000 -0.840000 4.960000 15.807848 3.241268 260.393890
6.800000 -0.840000 5.000000 3.117844 10.995731 130.627060
6.800000 -0.840000 5.040000 -13.034594 8.066128 234.963043
6.800000 -0.840000 5.080000 -24.091763 -5.633810 612.152832
6.800000 -0.840000 5.120000 -23.565348 -23.808697 1122.179688
6.800000 -0.840000 5.160000 -11.473909 -36.978462 1499.057251
6.800000 -0.840000 5.200000 4.904745 -38.575958 1512.161133
6.800000 -0.800000 4.800000 5.809732 -14.151979 234.031509
6.800000 -0.800000 4.840000 13.107492 -14.575369 384.247742
6.800000 -0.800000 4.880000 17.729656 -7.290552 367.492859
6.800000 -0.800000 4.920000 13.478542 1.997417 185.660767
6.800000 -0.800000 4.960000 1.809213 4.525734 23.755518
6.800000 -0.800000 5.000000 -8.913868 -3.712668 93.240944
6.800000 -0.800000 5.040000 -10.254892 -18.254051 438.373199
6.800000 -0.800000 5.080000 -0.621588 -29.585850 875.708862
6.800000 -0.800000 5.120000 13.500443 -30.631033 1120.522095
6.800000 -0.800000 5.160000 22.674803 -22.136934 1004.190552
6.800000 -0.800000 5.200000 21.805040 -11.902239 617.123047
6.840000 -1.200000 4.800000 -52.720734 7.312727 2832.951904
6.840000 -1.200000 4.840000 -49.088226 -13.948179 2604.205811
6.840000 -1.200000 4.880000 -33.850388 -29.701162 2028.007812
6.840000 -1.200000 4.920000 -12.968226 -33.668034 1301.711426
6.840000 -1.200000 4.960000 4.917719 -25.206711 659.562256
6.840000 -1.200000 5.000000 13.161074 -9.485096 263.180908
6.840000 -1.200000 5.040000 10.444423 5.662125 141.145630
6.840000 -1.200000 5.080000 0.797449 14.229912 203.126312
6.840000 -1.200000 5.120000 -9.585499 14.947090 315.297302
6.840000 -1.200000 5.160000 -16.413059 10.839901 386.891968
6.840000 -1.200000 5.200000 -19.381172 5.961901 411.174072
6.840000 -1.160000 4.800000 -40.400005 -26.761990 2348.364502
6.840000 -1.160000 4.840000 -24.152742 -35.896809 1871.935791
6.840000 -1.160000 4.880000 -5.542042 -33.645050 1162.703613
6.840000 -1.160000 4.920000 6.473999 -20.572113 465.124481
6.840000 -1.160000 4.960000 5.690832 -4.647854 53.988113
6.840000 -1.160000 5.000000 -5.560203 3.537605 43.430504
6.840000 -1.160000 5.040000 -17.160332 -0.843102 295.187805
6.840000 -1.160000 5.080000 -19.144302 -12.446749 521.425842
6.840000 -1.160000 5.120000 -10.247360 -20.077456 508.112610
6.840000 -1.160000 5.160000 0.937016 -16.581646 275.828979
6.840000 -1.160000 5.200000 3.789885 -5.329588 42.767731
6.840000 -1.120000 4.800000 -6.368494 -40.194408 1656.148193
6.840000 -1.120000 4.840000 10.242397 -29.807690 993.405029
6.840000 -1.120000 4.880000 15.937445 -10.165127 357.331940
6.840000 -1.120000 4.920000 4.837711 8.075353 88.614769
6.840000 -1.120000 4.960000 -17.815029 10.968315 437.679199
6.840000 -1.120000 5.000000 -35.548286 -6.923302 1311.612793
6.840000 -1.120000 5.040000 -32.236485 -34.758652 2247.354736
6.840000 -1.120000 5.080000 -6.670944 -51.448196 2691.418457
6.840000 -1.120000 5.120000 24.015987 -42.596386 2391.219727
6.840000 -1.120000 5.160000 37.290726 -13.613058 1575.913574
6.840000 -1.120000 5.200000 24.093975 13.878188 773.123779
6.840000 -1.080000 4.800000 24.354046 -23.455238 1143.267822
6.840000 -1.080000 4.840000 26.146809 1.740885 686.686279
6.840000 -1.080000 4.880000 7.670135 23.720879 621.511047
6.840000 -1.080000 4.920000 -25.367867 25.430542 1290.241089
6.840000 -1.080000 4.960000 -52.365143 -1.657654 2744.855957
6.840000 -1.080000 5.000000 -50.036461 -45.236008 4549.943848
6.840000 -1.080000 5.040000 -12.673496 -75.976746 5933.083496
6.840000 -1.080000 5.080000 38.424774 -69.015785 6239.642090
6.840000 -1.080000 5.120000 68.526932 -25.905468 5367.033691
6.840000 -1.080000 5.160000 57.004272 24.057266 3828.239258
6.840000 -1.080000 5.200000 14.636093 46.649395 2390.381348
6.840000 -1.040000 4.800000 29.475786 8.254538 936.959351
6.840000 -1.040000 4.840000 9.616228 32.724236 1163.347412
6.840000 -1.040000 4.880000 -27.910053 37.038216 2150.800537
6.840000 -1.040000 4.920000 -62.867737 8.617737 4026.617676
6.840000 -1.040000 4.960000 -67.265015 -43.895004 6451.353516
6.840000 -1.040000 5.000000 -27.771469 -88.741646 8646.333984
6.840000 -1.040000 5.040000 37.385101 -91.529419 9775.280273
6.840000 -1.040000 5.080000 86.514275 -44.169983 9435.707031
6.840000 -1.040000 5.120000 85.509293 24.217062 7898.305664
6.840000 -1.040000 5.160000 36.227364 67.775208 5905.900391
6.840000 -1.040000 5.200000 -24.199196 60.078583 4195.037109
6.840000 -1.000000 4.800000 8.864910 28.546619 893.496094
6.840000 -1.000000 4.840000 -25.034966 36.560341 1963.408081
6.840000 -1.000000 4.880000 -61.830620 14.272390 4026.726807
6.840000 -1.000000 4.920000 -74.243065 -36.236671 6825.128906
6.840000 -1.000000 4.960000 -42.534641 -88.194847 9587.526367
6.840000 -1.000000 5.000000 24.146566 -103.859665 11369.886719
6.840000 -1.000000 5.040000 86.510132 -64.196075 11605.138672
6.840000 -1.000000 5.080000 101.588882 10.723270 10435.289062
6.840000 -1.000000 5.120000 57.585323 72.458389 8566.288086
6.840000 -1.000000 5.160000 -14.271315 80.966858 6759.302246
6.840000 -1.000000 5.200000 -63.798447 36.292671 5387.399414
6.840000 -0.960000 4.800000 -16.754622 23.215145 819.660278
6.840000 -0.960000 4.840000 -47.866211 10.563114 2402.753418
6.840000 -0.960000 4.880000 -64.457916 -28.283234 4954.764160
6.840000 -0.960000 4.920000 -45.598396 -76.134193 7875.629395
6.840000 -0.960000 4.960000 9.436176 -100.381516 10165.489258
6.840000 -0.960000 5.000000 72.201233 -76.029877 10993.560547
6.840000 -0.960000 5.040000 100.794891 -9.795597 10255.564453
6.840000 -0.960000 5.080000 72.134567 58.542511 8630.621094
6.840000 -0.960000 5.120000 3.521515 83.937698 7057.937988
6.840000 -0.960000 5.160000 -58.214314 51.671616 6058.862305
6.840000 -0.960000 5.200000 -73.207748 -10.759533 5475.142090
6.840000 -0.920000 4.800000 -25.770527 0.990924 665.101990
6.840000 -0.920000 4.840000 -40.772717 -22.405407 2164.416748
6.840000 -0.920000 4.880000 -33.243530 -56.947659 4348.167969
6.840000 -0.920000 4.920000 2.857338 -80.713913 6522.900391
6.840000 -0.920000 4.960000 52.438747 -71.110313 7806.499023
6.840000 -0.920000 5.000000 84.268890 -24.571180 7704.989258
6.840000 -0.920000 5.040000 72.869629 34.581993 6505.897461
6.840000 -0.920000 5.080000 21.066542 68.247665 5101.542969
6.840000 -0.920000 5.120000 -38.154160 53.510902 4319.156738
6.840000 -0.920000 5.160000 -65.570076 2.099447 4303.842773
6.840000 -0.920000 5.200000 -46.424156 -48.295280 4487.636719
6.840000 -0.880000 4.800000 -14.210821 -17.433470 505.873291
6.840000 -0.880000 4.840000 -12.645416 -36.294643 1477.207764
6.840000 -0.880000 4.880000 5.776816 -51.924641 2729.539795
6.840000 -0.880000 4.920000 35.241848 -50.136215 3755.627930
6.840000 -0.880000 4.960000 58.628941 -24.882242 4056.478760
6.840000 -0.880000 5.000000 57.672989 13.481567 3507.926270
6.840000 -0.880000 5.040000 27.913050 41.764748 2523.432617
6.840000 -0.880000 5.080000 -14.350933 39.980907 1804.422119
6.840000 -0.880000 5.120000 -41.812607 8.056068 1813.194336
6.840000 -0.880000 5.160000 -36.845993 -32.214779 2395.419189
6.840000 -0.880000 5.200000 -5.696294 -53.640701 2909.772705
6.840000 -0.840000 4.800000 4.315589 -19.487350 398.381134
6.840000 -0.840000 4.840000 11.962549 -25.363583 786.413940
6.840000 -0.840000 4.880000 23.896469 -23.962933 1145.263428
6.840000 -0.840000 4.920000 33.260372 -13.179422 1279.949463
6.840000 -0.840000 4.960000 32.875843 3.123688 1090.578491
6.840000 -0.840000 5.000000 20.233595 15.969221 664.414429
6.840000 -0.840000 5.040000 0.865910 16.361629 268.452698
6.840000 -0.840000 5.080000 -13.696732 2.235533 192.598053
6.840000 -0.840000 5.120000 -13.661484 -18.427475 526.208008
6.840000 -0.840000 5.160000 1.059549 -32.429333 1052.784302
6.840000 -0.840000 5.200000 20.066919 -31.422899 1390.079834
6.840000 -0.800000 4.800000 14.653383 -9.794145 310.646912
6.840000 -0.800000 4.840000 17.534464 -5.816613 341.290405
6.840000 -0.800000 4.880000 16.091694 -0.453913 259.148651
6.840000 -0.800000 4.920000 10.730247 1.976681 119.045479
6.840000 -0.800000 4.960000 5.210491 -0.676239 27.606516
6.840000 -0.800000 5.000000 3.423870 -6.771165 57.571564
6.840000 -0.800000 5.040000 6.534096 -12.472809 198.265366
6.840000 -0.800000 5.080000 12.551666 -14.589546 370.399170
6.840000 -0.800000 5.120000 18.040348 -12.502134 481.757507
6.840000 -0.800000 5.160000 20.375160 -8.231249 482.900604
6.840000 -0.800000 5.200000 19.369980 -5.040892 400.606689
6.880000 -1.200000 4.800000 -58.808353 -18.074129 3785.096436
6.880000 -1.200000 4.840000 -45.743607 -39.718342 3670.024170
6.880000 -1.200000 4.880000 -21.418674 -49.782406 2937.047363
6.880000 -1.200000 4.920000 3.315067 -43.187237 1876.127075
6.880000 -1.200000 4.960000 17.220484 -24.403473 892.074585
6.880000 -1.200000 5.000000 15.991991 -4.331238 274.503387
6.880000 -1.200000 5.040000 4.350140 7.127079 69.718971
6.880000 -1.200000 5.080000 -8.206886 7.141687 118.356682
6.880000 -1.200000 5.120000 -14.372982 0.396445 206.739777
6.880000 -1.200000 5.160000 -13.385351 -5.742025 212.138489
6.880000 -1.200000 5.200000 -9.932144 -7.165060 149.985580
6.880000 -1.160000 4.800000 -27.361174 -45.685238 2835.774658
6.880000 -1.160000 4.840000 -4.655300 -46.266701 2162.279541
6.880000 -1.160000 4.880000 13.079105 -31.351641 1153.988403
6.880000 -1.160000 4.920000 14.811203 -9.409612 307.912537
6.880000 -1.160000 4.960000 0.556835 4.613297 21.592571
6.880000 -1.160000 5.000000 -17.336473 1.407520 302.534424
6.880000 -1.160000 5.040000 -23.945190 -14.601425 786.573730
6.880000 -1.160000 5.080000 -14.207966 -28.917908 1038.111694
6.880000 -1.160000 5.120000 3.178949 -29.394667 874.152161
6.880000 -1.160000 5.160000 13.813782 -16.249842 454.877930
6.880000 -1.160000 5.200000 10.052109 -0.972144 101.989952
6.880000 -1.120000 4.800000 14.121212 -38.567265 1686.842529
6.880000 -1.120000 4.840000 26.219042 -14.069580 885.391235
6.880000 -1.120000 4.880000 15.250370 14.481878 442.298584
6.880000 -1.120000 4.920000 -16.468884 25.486683 920.795105
6.880000 -1.120000 4.960000 -47.637955 6.240013 2308.312500
6.880000 -1.120000 5.000000 -53.025955 -32.978813 3899.354004
6.880000 -1.120000 5.040000 -25.219040 -64.175514 4754.496582
6.880000 -1.120000 5.080000 17.273092 -63.855061 4375.828613
6.880000 -1.120000 5.120000 44.399719 -32.772316 3045.359863
6.880000 -1.120000 5.160000 39.185337 4.995298 1560.443604
6.880000 -1.120000 5.200000 10.562199 22.746584 628.967163
6.880000 -1.080000 4.800000 33.041348 -2.619810 1098.593994
6.880000 -1.080000 4.840000 16.356773 32.062096 1295.522095
6.880000 -1.080000 4.880000 -28.395241 45.791821 2903.180664
6.880000 -1.080000 4.920000 -75.697357 17.772934 6045.966797
6.880000 -1.080000 4.960000 -88.487755 -43.161118 9692.964844
6.880000 -1.080000 5.000000 -49.377037 -98.398392 12120.334961
6.880000 -1.080000 5.040000 20.304390 -107.889465 12052.405273
6.880000 -1.080000 5.080000 74.181320 -63.769974 9569.477539
6.880000 -1.080000 5.120000 77.646713 1.785011 6032.198242
6.880000 -1.080000 5.160000 35.341377 42.959335 3094.517578
6.880000 -1.080000 5.200000 -15.310022 37.364273 1630.485596
6.880000 -1.040000 4.800000 15.977204 31.576614 1252.353638
6.880000 -1.040000 4.840000 -29.493643 50.898193 3460.500977
6.880000 -1.040000 4.880000 -86.621597 26.033363 8181.037109
6.880000 -1.040000 4.920000 -112.377319 -43.942242 14559.583008
6.880000 -1.040000 4.960000 -75.510002 -120.244690 20160.544922
6.880000 -1.040000 5.000000 11.303280 -148.980194 22322.861328
6.880000 -1.040000 5.040000 94.231949 -105.316513 19971.228516
6.880000 -1.040000 5.080000 118.775024 -17.397209 14410.169922
6.880000 -1.040000 5.120000 73.884384 54.356636 8413.545898
6.880000 -1.040000 5.160000 -0.259028 65.907272 4343.835449
6.880000 -1.040000 5.200000 -47.773720 22.821602 2803.153809
6.880000 -1.000000 4.800000 -19.405594 36.346031 1697.611084
6.880000 -1.000000 4.840000 -73.051376 23.479347 5887.783203
6.880000 -1.000000 4.880000 -108.845444 -37.706280 13269.094727
6.880000 -1.000000 4.920000 -86.401917 -120.202652 21913.968750
6.880000 -1.000000 4.960000 -1.889450 -168.070709 28251.333984
6.880000 -1.000000 5.000000 98.413757 -139.741028 29212.822266
6.880000 -1.000000 5.040000 148.982361 -46.695534 24376.216797
6.880000 -1.000000 5.080000 117.459763 50.442101 16341.201172
6.880000 -1.000000 5.120000 31.938669 88.998955 8940.892578
6.880000 -1.000000 5.160000 -42.788063 53.830196 4728.508301
6.880000 -1.000000 5.200000 -58.934601 -14.716240 3689.854736
6.880000 -0.960000 4.800000 -41.575016 11.169431 1853.238159
6.880000 -0.960000 4.840000 -77.394684 -28.404549 6796.755371
6.880000 -0.960000 4.880000 -72.647537 -97.739883 14830.750000
6.880000 -0.960000 4.920000 -8.990091 -152.997589 23489.083984
6.880000 -0.960000 4.960000 86.598557 -146.598999 28990.576172
6.880000 -0.960000 5.000000 154.181366 -69.525764 28605.726562
6.880000 -0.960000 5.040000 146.546204 33.845348 22621.296875
6.880000 -0.960000 5.080000 69.641518 96.863647 14232.507812
6.880000 -0.960000 5.120000 -20.266525 83.356110 7358.973145
6.880000 -0.960000 5.160000 -62.245239 15.386127 4111.202637
6.880000 -0.960000 5.200000 -38.686733 -48.688938 3867.276123
6.880000 -0.920000 4.800000 -33.942867 -19.420309 1529.266724
6.880000 -0.920000 4.840000 -40.621140 -62.923332 5609.422852
6.880000 -0.920000 4.880000 -5.439535 -109.127869 11938.480469
6.880000 -0.920000 4.920000 64.806580 -118.958694 18351.062500
6.880000 -0.920000 4.960000 129.861526 -70.991196 21903.765625
6.880000 -0.920000 5.000000 143.425186 14.418583 20778.679688
6.880000 -0.920000 5.040000 91.823799 84.868752 15634.315430
6.880000 -0.920000 5.080000 8.888981 95.665512 9230.904297
6.880000 -0.920000 5.120000 -49.227188 45.995659 4538.916992
6.880000 -0.920000 5.160000 -48.716644 -21.327030 2828.153809
6.880000 -0.920000 5.200000 -2.834450 -56.589355 3210.389404
6.880000 -0.880000 4.800000 -7.221377 -30.495102 982.099548
6.880000 -0.880000 4.840000 4.949568 -57.004925 3274.059814
6.880000 -0.880000 4.880000 41.983467 -70.180908 6687.971191
6.880000 -0.880000 4.920000 86.207863 -49.992050 9931.000000
6.880000 -0.880000 4.960000 106.858353 1.837883 11422.085938
6.880000 -0.880000 5.000000 84.081635 57.270622 10349.645508
6.880000 -0.880000 5.040000 28.137413 80.749893 7312.259277
6.880000 -0.880000 5.080000 -25.331699 57.601002 3959.570557
6.880000 -0.880000 5.120000 -42.494308 6.946835 1854.024780
6.880000 -0.880000 5.160000 -17.960411 -33.638359 1454.115479
6.880000 -0.880000 5.200000 22.850761 -38.663151 2016.996582
6.880000 -0.840000 4.800000 14.660612 -18.370396 552.404968
6.880000 -0.840000 4.840000 25.523226 -24.438797 1248.689941
6.880000 -0.840000 4.880000 42.763863 -19.910015 2225.156738
6.880000 -0.840000 4.920000 55.276386 -0.808727 3056.132812
6.880000 -0.840000 4.960000 51.191933 25.650719 3278.573242
6.880000 -0.840000 5.000000 28.349487 43.788563 2721.131592
6.880000 -0.840000 5.040000 -1.359764 40.885117 1673.441772
6.880000 -0.840000 5.080000 -19.502905 18.294235 715.042358
6.880000 -0.840000 5.120000 -15.404940 -8.337383 306.824127
6.880000 -0.840000 5.160000 5.185768 -21.161068 474.682983
6.880000 -0.840000 5.200000 25.339153 -14.275848 845.872559
6.880000 -0.800000 4.800000 18.324009 0.801847 336.412262
6.880000 -0.800000 4.840000 16.111332 2.654972 266.623901
6.880000 -0.800000 4.880000 14.338125 2.743732 213.109894
6.880000 -0.800000 4.920000 14.199211 2.531357 208.025360
6.880000 -0.800000 4.960000 14.738022 3.784035 231.528214
6.880000 -0.800000 5.000000 13.791561 6.290295 229.774963
6.880000 -0.800000 5.040000 10.577961 7.761169 172.129013
6.880000 -0.800000 5.080000 6.922783 6.240818 86.872734
6.880000 -0.800000 5.120000 5.654177 2.294928 37.236408
6.880000 -0.800000 5.160000 7.919910 -1.363525 64.584183
6.880000 -0.800000 5.200000 12.309795 -2.330320 156.961456
6.920000 -1.200000 4.800000 -42.547688 -44.336349 3776.017578
6.920000 -1.200000 4.840000 -21.291994 -58.375504 3861.048340
6.920000 -1.200000 4.880000 5.422329 -56.557159 3228.114014
6.920000 -1.200000 4.920000 24.727467 -39.119843 2141.809570
6.920000 -1.200000 4.960000 28.149918 -15.890232 1044.917358
6.920000 -1.200000 5.000000 17.328156 0.572327 300.592529
6.920000 -1.200000 5.040000 2.232189 3.569511 17.724081
6.920000 -1.200000 5.080000 -6.409443 -3.879106 56.128418
6.920000 -1.200000 5.120000 -4.578100 -12.398619 174.684738
6.920000 -1.200000 5.160000 3.127365 -13.898602 202.951569
6.920000 -1.200000 5.200000 8.162999 -7.516201 123.127831
6.920000 -1.160000 4.800000 -0.851803 -50.804092 2581.781494
6.920000 -1.160000 4.840000 19.252724 -38.757969 1872.847534
6.920000 -1.160000 4.880000 24.997688 -15.423210 862.759827
6.920000 -1.160000 4.920000 11.784950 3.498878 151.127213
6.920000 -1.160000 4.960000 -9.811251 4.354370 115.221184
6.920000 -1.160000 5.000000 -22.102804 -12.352249 641.112061
6.920000 -1.160000 5.040000 -15.051586 -32.034180 1252.739014
6.920000 -1.160000 5.080000 5.597248 -38.265194 1495.554321
6.920000 -1.160000 5.120000 23.757399 -26.161869 1248.857422
6.920000 -1.160000 5.160000 26.622776 -5.283476 736.687317
6.920000 -1.160000 5.200000 14.222632 9.416079 290.945801
6.920000 -1.120000 4.800000 29.379978 -21.039581 1305.847046
6.920000 -1.120000 4.840000 24.556030 10.577656 714.885376
6.920000 -1.120000 4.880000 -7.505135 30.136436 964.531799
6.920000 -1.120000 4.920000 -47.835629 16.271767 2553.017578
6.920000 -1.120000 4.960000 -64.782166 -27.701641 4964.109863
6.920000 -1.120000 5.000000 -41.083008 -72.253990 6908.452637
6.920000 -1.120000 5.040000 9.356365 -84.627411 7249.340332
6.920000 -1.120000 5.080000 51.709015 -56.241066 5836.879883
6.920000 -1.120000 5.120000 58.837509 -9.294538 3548.240967
6.920000 -1.120000 5.160000 32.251488 22.975634 1568.038208
6.920000 -1.120000 5.200000 -2.571426 23.578150 562.541382
6.920000 -1.080000 4.800000 22.724279 20.001888 916.468384
6.920000 -1.080000 4.840000 -18.027739 45.037872 2353.409180
6.920000 -1.080000 4.880000 -75.751389 27.361198 6486.908203
6.920000 -1.080000 4.920000 -106.366791 -37.555111 12724.281250
6.920000 -1.080000 4.960000 -76.466820 -112.497948 18502.962891
6.920000 -1.080000 5.000000 3.293709 -144.252548 20819.644531
6.920000 -1.080000 5.040000 81.784012 -108.119835 18378.523438
6.920000 -1.080000 5.080000 107.918587 -30.186630 12557.653320
6.920000 -1.080000 5.120000 72.045761 34.373672 6372.141113
6.920000 -1.080000 5.160000 10.621357 47.185669 2339.300537
6.920000 -1.080000 5.200000 -28.312012 14.733555 1018.647644
6.920000 -1.040000 4.800000 -13.782761 37.014442 1560.033447
6.920000 -1.040000 4.840000 -75.523407 28.167849 6497.212891
6.920000 -1.040000 4.880000 -121.074890 -38.642807 16152.395508
6.920000 -1.040000 4.920000 -100.655334 -133.728836 28014.898438
6.920000 -1.040000 4.960000 -8.027359 -191.837616 36866.109375
6.920000 -1.040000 5.000000 104.205544 -164.916901 38056.378906
6.920000 -1.040000 5.040000 162.692810 -66.339180 30869.837891
6.920000 -1.040000 5.080000 133.349884 36.790581 19135.738281
6.920000 -1.040000 5.120000 48.483253 78.562164 8522.639648
6.920000 -1.040000 5.160000 -23.776411 46.611420 2737.942383
6.920000 -1.040000 5.200000 -38.001587 -14.955748 1667.795044
6.920000 -1.000000 4.800000 -47.066837 16.746634 2495.736816
6.920000 -1.000000 4.840000 -97.689102 -31.631178 10543.692383
6.920000 -1.000000 4.880000 -96.400467 -123.692642 24592.919922
6.920000 -1.000000 4.920000 -15.562710 -200.265869 40348.617188
6.920000 -1.000000 4.960000 109.501419 -196.535217 50616.648438
6.920000 -1.000000 5.000000 199.463318 -100.708405 49927.796875
6.920000 -1.000000 5.040000 194.177383 28.704599 38528.808594
6.920000 -1.000000 5.080000 103.846405 107.666359 22376.121094
6.920000 -1.000000 5.120000 -0.108643 94.888618 9003.861328
6.920000 -1.000000 5.160000 -46.430382 21.564560 2620.810547
6.920000 -1.000000 5.200000 -20.589432 -42.685112 2245.943604
6.920000 -0.960000 4.800000 -48.917709 -20.878273 2828.844727
6.920000 -0.960000 4.840000 -63.963844 -87.183022 11692.252930
6.920000 -0.960000 4.880000 -13.155193 -162.008911 26419.945312
6.920000 -0.960000 4.920000 95.003006 -181.957184 42133.988281
6.920000 -0.960000 4.960000 197.213745 -112.243057 51491.765625
6.920000 -0.960000 5.000000 221.868057 15.108354 49453.695312
6.920000 -0.960000 5.040000 150.084076 120.224922 36979.261719
6.920000 -0.960000 5.080000 34.372684 139.089111 20527.261719
6.920000 -0.960000 5.120000 -44.645653 75.034760 7623.449707
6.920000 -0.960000 5.160000 -44.439102 -8.824317 2052.702393
6.920000 -0.960000 5.200000 10.484845 -47.306549 2347.841553
6.920000 -0.920000 4.800000 -20.729046 -43.130554 2289.937988
6.920000 -0.920000 4.840000 -2.027929 -96.226875 9263.723633
6.920000 -0.920000 4.880000 67.631149 -126.621628 20607.009766
6.920000 -0.920000 4.920000 154.349518 -92.451172 32370.992188
6.920000 -0.920000 4.960000 197.389969 3.631771 38975.992188
6.920000 -0.920000 5.000000 159.154175 107.298843 36843.093750
6.920000 -0.920000 5.040000 60.834755 152.691666 27015.611328
6.920000 -0.920000 5.080000 -31.761927 116.373520 14551.616211
6.920000 -0.920000 5.120000 -61.690674 35.752621 5083.989258
6.920000 -0.920000 5.160000 -25.411976 -24.952881 1268.414795
6.920000 -0.920000 5.200000 31.098394 -28.928078 1803.943848
6.920000 -0.880000 4.800000 11.231681 -34.810841 1337.945312
6.920000 -0.880000 4.840000 40.058254 -58.873573 5070.761230
6.920000 -0.880000 4.880000 91.761520 -52.144947 11139.272461
6.920000 -0.880000 4.920000 131.702057 -0.780506 17346.041016
6.920000 -0.880000 4.960000 123.997871 73.072784 20715.103516
6.920000 -0.880000 5.000000 64.174210 123.703400 19420.859375
6.920000 -0.880000 5.040000 -12.621647 118.091812 14104.981445
6.920000 -0.880000 5.080000 -58.201523 64.011070 7484.833984
6.920000 -0.880000 5.120000 -50.064682 3.517700 2518.846680
6.920000 -0.880000 5.160000 -7.368200 -22.600054 565.052795
6.920000 -0.880000 5.200000 29.338907 -6.717481 905.896057
6.920000 -0.840000 4.800000 22.814701 -8.749546 597.065125
6.920000 -0.840000 4.840000 38.629917 -12.459040 1647.498169
6.920000 -0.840000 4.880000 58.818466 1.734215 3462.619629
6.920000 -0.840000 4.920000 64.959244 33.616692 5349.785156
6.920000 -0.840000 4.960000 44.808876 66.161324 6385.156250
6.920000 -0.840000 5.000000 5.111465 77.322556 6004.904785
6.920000 -0.840000 5.040000 -31.320312 58.438644 4396.037109
6.920000 -0.840000 5.080000 -43.239876 22.399540 2371.426270
6.920000 -0.840000 5.120000 -27.862858 -6.590084 819.768066
6.920000 -0.840000 5.160000 -1.761738 -12.588064 161.563080
6.920000 -0.840000 5.200000 14.407079 0.932655 208.433762
6.920000 -0.800000 4.800000 12.769470 11.194108 288.367432
6.920000 -0.800000 4.840000 11.105751 7.813759 184.392532
6.920000 -0.800000 4.880000 14.065519 6.648518 242.041626
6.920000 -0.800000 4.920000 17.416183 11.224630 429.315796
6.920000 -0.800000 4.960000 15.310654 19.758812 624.826782
6.920000 -0.800000 5.000000 5.742954 25.879261 702.717651
6.920000 -0.800000 5.040000 -7.030787 23.802551 615.993408
6.920000 -0.800000 5.080000 -15.496344 13.372524 418.961060
6.920000 -0.800000 5.120000 -14.731758 0.416243 217.197968
6.920000 -0.800000 5.160000 -6.013181 -7.685640 95.227417
6.920000 -0.800000 5.200000 4.588952 -7.253601 73.673210
6.960000 -1.200000 4.800000 -9.862783 -50.943333 2692.497559
6.960000 -1.200000 4.840000 11.241215 -52.819778 2916.293945
6.960000 -1.200000 4.880000 30.211292 -41.085152 2600.711914
6.960000 -1.200000 4.920000 37.922218 -20.814861 1871.353027
6.960000 -1.200000 4.960000 31.871052 -2.244423 1020.801331
6.960000 -1.200000 5.000000 17.836636 5.910503 353.079620
6.960000 -1.200000 5.040000 5.982933 2.165075 40.483036
6.960000 -1.200000 5.080000 3.852562 -6.868589 62.019753
6.960000 -1.200000 5.120000 11.022579 -11.366974 250.705353
6.960000 -1.200000 5.160000 19.480663 -5.779293 412.896484
6.960000 -1.200000 5.200000 19.968954 6.634750 442.779022
6.960000 -1.160000 4.800000 22.612450 -33.855431 1657.513062
6.960000 -1.160000 4.840000 30.160046 -14.832848 1129.641724
6.960000 -1.160000 4.880000 20.589546 4.006924 439.984863
6.960000 -1.160000 4.920000 0.250460 8.185684 67.068153
6.960000 -1.160000 4.960000 -14.720072 -5.616104 248.221130
6.960000 -1.160000 5.000000 -11.896965 -26.108696 823.201782
6.960000 -1.160000 5.040000 7.115463 -36.613312 1391.164307
6.960000 -1.160000 5.080000 28.411335 -28.455095 1616.896484
6.960000 -1.160000 5.120000 37.192520 -6.980824 1432.015503
6.960000 -1.160000 5.160000 28.636694 13.832623 1011.401672
6.960000 -1.160000 5.200000 9.804740 22.349167 595.618164
6.960000 -1.120000 4.800000 26.594051 3.188921 717.412781
6.960000 -1.120000 4.840000 3.105724 25.713099 670.808960
6.960000 -1.120000 4.880000 -36.494095 20.585518 1755.582520
6.960000 -1.120000 4.920000 -61.597610 -18.653114 4142.204102
6.960000 -1.120000 4.960000 -47.059368 -68.501152 6906.992188
6.960000 -1.120000 5.000000 2.638367 -92.645477 8590.145508
6.960000 -1.120000 5.040000 54.836773 -72.490356 8261.923828
6.960000 -1.120000 5.080000 75.266655 -22.790058 6184.456055
6.960000 -1.120000 5.120000 55.369724 21.695204 3536.488281
6.960000 -1.120000 5.160000 16.103958 35.270660 1503.356934
6.960000 -1.120000 5.200000 -12.920794 19.336500 540.847168
6.960000 -1.080000 4.800000 -2.481025 26.999168 735.110535
6.960000 -1.080000 4.840000 -53.214893 24.556061 3434.825195
6.960000 -1.080000 4.880000 -94.006462 -27.494389 9593.156250
6.960000 -1.080000 4.920000 -81.030418 -105.982079 17798.128906
6.960000 -1.080000 4.960000 -7.121475 -156.063416 24406.503906
6.960000 -1.080000 5.000000 84.810364 -136.726471 25886.925781
6.960000 -1.080000 5.040000 134.251892 -58.126434 21402.251953
6.960000 -1.080000 5.080000 113.112564 25.458378 13442.581055
6.960000 -1.080000 5.120000 47.100758 61.238617 5968.649414
6.960000 -1.080000 5.160000 -10.184523 39.613235 1672.932861
6.960000 -1.080000 5.200000 -24.034187 -5.112364 603.778442
6.960000 -1.040000 4.800000 -38.589500 15.569324 1731.553467
6.960000 -1.040000 4.840000 -89.149811 -27.973715 8730.217773
6.960000 -1.040000 4.880000 -90.939713 -116.684586 21885.324219
6.960000 -1.040000 4.920000 -14.565609 -192.510193 37272.332031
6.960000 -1.040000 4.960000 106.127724 -190.942780 47722.238281
6.960000 -1.040000 5.000000 193.627594 -100.166618 47524.996094
6.960000 -1.040000 5.040000 190.103302 22.849304 36661.355469
6.960000 -1.040000 5.080000 106.526314 97.914322 20935.070312
6.960000 -1.040000 5.120000 11.190742 87.738541 7823.284668
6.960000 -1.040000 5.160000 -30.759634 23.606590 1503.426270
6.960000 -1.040000 5.200000 -9.215440 -30.275656 1001.539673
6.960000 -1.000000 4.800000 -49.222061 -20.953392 2861.855957
6.960000 -1.000000 4.840000 -68.284958 -93.542740 13413.080078
6.960000 -1.000000 4.880000 -13.272732 -178.272797 31957.355469
6.960000 -1.000000 4.920000 107.546349 -202.138885 52426.343750
6.960000 -1.000000 4.960000 222.225220 -125.168182 65051.121094
6.960000 -1.000000 5.000000 250.155594 15.790627 62827.164062
6.960000 -1.000000 5.040000 171.970108 131.012100 46737.890625
6.960000 -1.000000 5.080000 47.842064 151.530548 25250.371094
6.960000 -1.000000 5.120000 -34.523888 84.728874 8370.880859
6.960000 -1.000000 5.160000 -33.368645 0.948988 1114.367065
6.960000 -1.000000 5.200000 20.171995 -32.974201 1494.207397
6.960000 -0.960000 4.800000 -25.647888 -50.310959 3189.006836
6.960000 -0.960000 4.840000 -3.070961 -119.812691 14364.511719
6.960000 -0.960000 4.880000 87.593674 -160.762817 33517.335938
6.960000 -0.960000 4.920000 201.285126 -116.545616 54098.585938
6.960000 -0.960000 4.960000 257.111298 8.612123 66180.390625
6.960000 -0.960000 5.000000 207.086578 141.913147 63024.195312
6.960000 -0.960000 5.040000 81.881119 198.453400 46088.265625
6.960000 -0.960000 5.080000 -32.378422 152.183716 24208.244141
6.960000 -0.960000 5.120000 -66.541306 55.059502 7459.293945
6.960000 -0.960000 5.160000 -22.700640 -12.558613 673.037781
6.960000 -0.960000 5.200000 38.160515 -11.480986 1588.037842
6.960000 -0.920000 4.800000 10.497660 -48.821312 2493.721436
6.960000 -0.920000 4.840000 56.610359 -88.634659 11060.834961
6.960000 -0.920000 4.880000 140.163376 -78.051460 25737.800781
6.960000 -0.920000 4.920000 203.425018 4.794296 41404.722656
6.960000 -0.920000 4.960000 189.024826 121.558563 50506.871094
6.960000 -0.920000 5.000000 93.566650 198.118896 48005.816406
6.960000 -0.920000 5.040000 -23.617016 185.761063 35064.933594
6.960000 -0.920000 5.080000 -88.325371 102.834335 18376.271484
6.960000 -0.920000 5.120000 -72.601654 17.172810 5565.905273
6.960000 -0.920000 5.160000 -12.651665 -13.586815 344.666138
6.960000 -0.920000 5.200000 30.324717 12.809938 1083.682983
6.960000 -0.880000 4.800000 29.648586 -21.773394 1353.119385
6.960000 -0.880000 4.840000 70.165367 -30.283018 5840.239746
6.960000 -0.880000 4.880000 117.145767 5.219929 13750.378906
6.960000 -0.880000 4.920000 126.909836 78.791023 22314.132812
6.960000 -0.880000 4.960000 76.649063 146.928513 27463.066406
6.960000 -0.880000 5.000000 -10.546997 162.222702 26427.443359
6.960000 -0.880000 5.040000 -81.212952 114.426254 19688.910156
6.960000 -0.880000 5.080000 -95.365341 39.908810 10687.260742
6.960000 -0.880000 5.120000 -58.227528 -9.929966 3489.049316
6.960000 -0.880000 5.160000 -11.119318 -11.352169 252.510971
6.960000 -0.880000 5.200000 7.627201 17.253611 355.861267
6.960000 -0.840000 4.800000 21.749142 5.442505 502.646027
6.960000 -0.840000 4.840000 40.858696 8.765507 1746.267090
6.960000 -0.840000 4.880000 54.724586 35.066509 4224.440430
6.960000 -0.840000 4.920000 42.643803 72.520500 7077.716797
6.960000 -0.840000 4.960000 2.135872 94.894318 9009.493164
6.960000 -0.840000 5.000000 -45.821266 83.466560 9066.254883
6.960000 -0.840000 5.040000 -72.922012 43.828556 7238.562500
6.960000 -0.840000 5.080000 -66.626099 1.458305 4441.163574
6.960000 -0.840000 5.120000 -38.899174 -19.672451 1900.151123
6.960000 -0.840000 5.160000 -13.579504 -15.273159 417.672302
6.960000 -0.840000 5.200000 -5.758741 0.069107 33.167877
6.960000 -0.800000 4.800000 1.493303 13.812324 193.010239
6.960000 -0.800000 4.840000 5.347229 9.461893 118.120277
6.960000 -0.800000 4.880000 10.748375 13.350340 293.759155
6.960000 -0.800000 4.920000 9.409645 23.620367 646.463196
6.960000 -0.800000 4.960000 -2.222755 32.030167 1030.872192
6.960000 -0.800000 5.000000 -19.631538 30.380951 1308.399536
6.960000 -0.800000 5.040000 -33.399734 16.879318 1400.453613
6.960000 -0.800000 5.080000 -35.946404 -2.610092 1298.956543
6.960000 -0.800000 5.120000 -26.390247 -18.754612 1048.180664
6.960000 -0.800000 5.160000 -10.528289 -24.678524 719.874390
6.960000 -0.800000 5.200000 3.131596 -19.580189 393.190674
7.000000 -1.200000 4.800000 16.703262 -30.406496 1203.553955
7.000000 -1.200000 4.840000 28.031500 -24.537907 1387.873901
7.000000 -1.200000 4.880000 34.648949 -13.032696 1370.400879
7.000000 -1.200000 4.920000 33.991859 0.036339 1155.447876
7.000000 -1.200000 4.960000 26.567247 9.710945 800.121033
7.000000 -1.200000 5.000000 16.348202 12.210884 416.369385
7.000000 -1.200000 5.040000 9.505360 7.696047 149.580994
7.000000 -1.200000 5.080000 10.430771 1.554890 111.218658
7.000000 -1.200000 5.120000 17.305819 1.369070 301.365723
7.000000 -1.200000 5.160000 22.031052 10.375134 593.010620
7.000000 -1.200000 5.200000 16.527252 23.138414 808.536255
7.000000 -1.160000 4.800000 25.007175 -4.900593 649.374634
7.000000 -1.160000 4.840000 18.482822 8.625782 416.018829
7.000000 -1.160000 4.880000 2.819785 11.940327 150.522583
7.000000 -1.160000 4.920000 -9.627018 0.993500 93.666519
7.000000 -1.160000 4.960000 -8.203430 -16.215134 330.226837
7.000000 -1.160000 5.000000 7.034630 -26.330921 742.803406
7.000000 -1.160000 5.040000 25.802567 -21.304707 1119.662964
7.000000 -1.160000 5.080000 35.900162 -3.716568 1302.634521
7.000000 -1.160000 5.120000 31.543640 16.349373 1262.303223
7.000000 -1.160000 5.160000 15.723093 28.732349 1072.763550
7.000000 -1.160000 5.200000 -3.275655 28.750256 837.307129
7.000000 -1.120000 4.800000 6.117392 16.342545 304.501251
7.000000 -1.120000 4.840000 -22.993912 17.853466 847.466187
7.000000 -1.120000 4.880000 -47.966854 -10.147884 2403.798584
7.000000 -1.120000 4.920000 -42.319134 -54.574188 4769.250977
7.000000 -1.120000 4.960000 -1.365410 -83.499870 6974.092773
7.000000 -1.120000 5.000000 50.557209 -73.135124 7904.778320
7.000000 -1.120000 5.040000 79.233650 -28.754608 7104.798828
7.000000 -1.120000 5.080000 68.422592 19.868492 5076.407715
7.000000 -1.120000 5.120000 31.039728 43.490162 2854.858887
7.000000 -1.120000 5.160000 -4.787830 35.318157 1270.295532
7.000000 -1.120000 5.200000 -19.705275 11.323731 516.524780
7.000000 -1.080000 4.800000 -23.892416 10.939861 690.528076
7.000000 -1.080000 4.840000 -60.187756 -18.066902 3948.979004
7.000000 -1.080000 4.880000 -62.545486 -80.693298 10423.345703
7.000000 -1.080000 4.920000 -8.610611 -134.934189 18281.376953
7.000000 -1.080000 4.960000 77.426872 -133.809723 23899.960938
7.000000 -1.080000 5.000000 139.735046 -68.791466 24258.148438
7.000000 -1.080000 5.040000 137.094757 19.226921 19164.646484
7.000000 -1.080000 5.080000 77.550751 73.405151 11402.435547
7.000000 -1.080000 5.120000 9.132141 67.742683 4672.467285
7.000000 -1.080000 5.160000 -23.093140 23.981358 1108.398682
7.000000 -1.080000 5.200000 -12.281102 -14.204563 352.595093
7.000000 -1.040000 4.800000 -36.602661 -19.040653 1702.301270
7.000000 -1.040000 4.840000 -52.990925 -77.661423 8839.333984
7.000000 -1.040000 4.880000 -7.703583 -148.009888 21966.273438
7.000000 -1.040000 4.920000 93.378021 -167.733734 36854.062500
7.000000 -1.040000 4.960000 189.280258 -102.511398 46335.601562
7.000000 -1.040000 5.000000 211.794678 16.167561 45118.375000
7.000000 -1.040000 5.040000 145.358826 112.351387 33752.023438
7.000000 -1.040000 5.080000 41.476433 128.900848 18335.724609
7.000000 -1.040000 5.120000 -26.767776 73.549850 6126.094238
7.000000 -1.040000 5.160000 -26.430098 5.486712 728.654053
7.000000 -1.040000 5.200000 14.944619 -21.459175 683.837830
7.000000 -1.000000 4.800000 -18.541521 -47.871727 2635.490234
7.000000 -1.000000 4.840000 2.251041 -112.918961 12755.758789
7.000000 -1.000000 4.880000 89.016922 -151.684998 30932.349609
7.000000 -1.000000 4.920000 198.321228 -108.050217 51006.156250
7.000000 -1.000000 4.960000 250.878082 13.824659 63130.933594
7.000000 -1.000000 5.000000 200.493347 142.152313 60404.859375
7.000000 -1.000000 5.040000 78.778198 194.624893 44084.851562
7.000000 -1.000000 5.080000 -29.751308 148.302322 22878.718750
7.000000 -1.000000 5.120000 -60.078262 56.020863 6747.734863
7.000000 -1.000000 5.160000 -18.051203 -5.015270 350.998840
7.000000 -1.000000 5.200000 35.615303 -1.114309 1269.691528
7.000000 -0.960000 4.800000 15.670689 -50.481827 2793.985352
7.000000 -0.960000 4.840000 66.365005 -93.658081 13176.150391
7.000000 -0.960000 4.880000 159.225891 -80.576233 31845.414062
7.000000 -0.960000 4.920000 228.387543 13.690105 52348.289062
7.000000 -0.960000 4.960000 209.075745 144.453796 64579.566406
7.000000 -0.960000 5.000000 99.684685 227.185516 61550.292969
7.000000 -0.960000 5.040000 -30.295338 209.114563 44646.710938
7.000000 -0.960000 5.080000 -97.951843 115.147980 22853.621094
7.000000 -0.960000 5.120000 -76.580391 23.601583 6421.590820
7.000000 -0.960000 5.160000 -11.778493 -4.183559 156.235062
7.000000 -0.960000 5.200000 28.004885 27.564613 1544.081543
7.000000 -0.920000 4.800000 37.697708 -25.877861 2090.780762
7.000000 -0.920000 4.840000 92.849823 -35.684853 9894.498047
7.000000 -0.920000 4.880000 155.015869 14.802013 24249.019531
7.000000 -0.920000 4.920000 164.082031 115.199600 40193.859375
7.000000 -0.920000 4.960000 91.596237 203.822495 49933.480469
7.000000 -0.920000 5.000000 -26.461975 217.446289 47983.121094
7.000000 -0.920000 5.040000 -115.721298 147.713852 35210.800781
7.000000 -0.920000 5.080000 -126.275429 49.253418 18371.382812
7.000000 -0.920000 5.120000 -72.924225 -9.077066 5400.335449
7.000000 -0.920000 5.160000 -15.564205 -2.719453 249.639893
7.000000 -0.920000 5.200000 -1.666634 35.357964 1252.963257
7.000000 -0.880000 4.800000 32.454647 3.626664 1066.456787
7.000000 -0.880000 4.840000 69.717644 15.522356 5101.493164
7.000000 -0.880000 4.880000 90.702759 68.822151 12963.478516
7.000000 -0.880000 4.920000 60.281010 135.498428 21993.625000
7.000000 -0.880000 4.960000 -17.937813 166.067093 27900.044922
7.000000 -0.880000 5.000000 -98.901787 133.109253 27499.636719
7.000000 -0.880000 5.040000 -132.922180 57.346863 20956.968750
7.000000 -0.880000 5.080000 -107.777191 -9.919212 11714.313477
7.000000 -0.880000 5.120000 -56.074249 -31.267746 4121.993652
7.000000 -0.880000 5.160000 -22.494211 -11.884735 647.236450
7.000000 -0.880000 5.200000 -24.481297 12.835347 764.080017
7.000000 -0.840000 4.800000 10.222515 15.462399 343.585571
7.000000 -0.840000 4.840000 26.166531 27.945038 1465.612427
7.000000 -0.840000 4.880000 24.233059 58.862709 4052.059814
7.000000 -0.840000 4.920000 -7.469826 85.000427 7280.871094
7.000000 -0.840000 4.960000 -55.460670 81.627869 9738.995117
7.000000 -0.840000 5.000000 -90.626862 45.197762 10256.066406
7.000000 -0.840000 5.040000 -92.882118 -2.996422 8636.066406
7.000000 -0.840000 5.080000 -67.086380 -35.457565 5757.821289
7.000000 -0.840000 5.120000 -35.968071 -40.927174 2968.735840
7.000000 -0.840000 5.160000 -18.835463 -29.742752 1239.406006
7.000000 -0.840000 5.200000 -17.477875 -19.774708 696.515137
7.000000 -0.800000 4.800000 -6.999885 7.470525 104.807129
7.000000 -0.800000 4.840000 -0.113327 8.775574 77.023537
7.000000 -0.800000 4.880000 0.127514 17.646275 311.407257
7.000000 -0.800000 4.920000 -10.375408 25.249786 745.200806
7.000000 -0.800000 4.960000 -27.066582 23.018425 1262.447754
7.000000 -0.800000 5.000000 -40.720390 9.021042 1739.529297
7.000000 -0.800000 5.040000 -44.075016 -11.603348 2077.244629
7.000000 -0.800000 5.080000 -35.528450 -30.828804 2212.686035
7.000000 -0.800000 5.120000 -18.634333 -42.048889 2115.347412
7.000000 -0.800000 5.160000 0.190523 -42.214973 1782.140259
7.000000 -0.800000 5.200000 13.894150 -32.648510 1258.972534
7.040000 -1.200000 4.800000 16.822557 1.977331 286.908295
7.040000 -1.200000 4.840000 16.166124 4.456995 281.208374
7.040000 -1.200000 4.880000 16.452900 5.755474 303.823395
7.040000 -1.200000 4.920000 17.747814 8.780342 392.079285
7.040000 -1.200000 4.960000 16.647209 14.107080 476.139282
7.040000 -1.200000 5.000000 11.309921 17.860826 446.923462
7.040000 -1.200000 5.040000 5.354195 16.304869 294.516144
7.040000 -1.200000 5.080000 4.500416 11.685423 156.802841
7.040000 -1.200000 5.120000 9.041101 11.183666 206.815887
7.040000 -1.200000 5.160000 11.529144 18.671993 481.564514
7.040000 -1.200000 5.200000 4.004583 28.476141 826.927307
7.040000 -1.160000 4.800000 4.260626 14.011530 214.475906
7.040000 -1.160000 4.840000 -6.720409 12.975546 213.528687
7.040000 -1.160000 4.880000 -13.561882 1.857124 187.373550
7.040000 -1.160000 4.920000 -8.829288 -11.768591 216.456055
7.040000 -1.160000 4.960000 5.256989 -17.495651 333.733734
7.040000 -1.160000 5.000000 19.373047 -11.194202 500.625122
7.040000 -1.160000 5.040000 25.337234 2.812645 649.886414
7.040000 -1.160000 5.080000 21.363987 16.901619 742.084717
7.040000 -1.160000 5.120000 10.620764 25.872877 782.206360
7.040000 -1.160000 5.160000 -2.911975 28.047155 795.122559
7.040000 -1.160000 5.200000 -16.014706 23.172577 793.439087
7.040000 -1.120000 4.800000 -16.055613 7.917401 320.467926
7.040000 -1.120000 4.840000 -32.938301 -8.046957 1149.685181
7.040000 -1.120000 4.880000 -31.319504 -39.547825 2544.941650
7.040000 -1.120000 4.920000 -2.001968 -64.147285 4118.881836
7.040000 -1.120000 4.960000 40.476135 -59.813850 5216.014160
7.040000 -1.120000 5.000000 68.486076 -25.307625 5330.818848
7.040000 -1.120000 5.040000 64.276703 17.942390 4453.423828
7.040000 -1.120000 5.080000 33.734962 43.775387 3054.332275
7.040000 -1.120000 5.120000 -0.794285 41.659462 1736.141602
7.040000 -1.120000 5.160000 -19.983986 21.428968 858.560364
7.040000 -1.120000 5.200000 -20.677000 0.853956 428.267578
7.040000 -1.080000 4.800000 -23.432226 -16.088703 807.915588
7.040000 -1.080000 4.840000 -31.401636 -50.981041 3585.129395
7.040000 -1.080000 4.880000 -1.746906 -92.285149 8519.600586
7.040000 -1.080000 4.920000 61.029133 -101.336357 13993.613281
7.040000 -1.080000 4.960000 118.447632 -58.134590 17409.472656
7.040000 -1.080000 5.000000 129.111420 16.233212 16933.275391
7.040000 -1.080000 5.040000 85.267929 74.632790 12840.672852
7.040000 -1.080000 5.080000 19.709106 83.205681 7311.634277
7.040000 -1.080000 5.120000 -23.313297 47.989807 2846.531250
7.040000 -1.080000 5.160000 -24.863840 4.940074 642.614929
7.040000 -1.080000 5.200000 -1.693015 -14.525767 213.864212
7.040000 -1.040000 4.800000 -6.571141 -38.832752 1551.162598
7.040000 -1.040000 4.840000 8.744799 -81.948326 6792.000000
7.040000 -1.040000 4.880000 70.437386 -106.983971 16406.996094
7.040000 -1.040000 4.920000 147.567322 -73.125130 27123.400391
7.040000 -1.040000 4.960000 182.676971 16.350182 33638.203125
7.040000 -1.040000 5.000000 142.854172 108.731369 32229.824219
7.040000 -1.040000 5.040000 52.333202 144.372025 23582.044922
7.040000 -1.040000 5.080000 -26.712261 107.890373 12353.877930
7.040000 -1.040000 5.120000 -47.713364 39.102833 3805.596680
7.040000 -1.040000 5.160000 -16.504433 -5.793634 305.962494
7.040000 -1.040000 5.200000 22.023918 -3.750436 499.118744
7.040000 -1.000000 4.800000 23.684694 -39.485489 2120.068604
7.040000 -1.000000 4.840000 63.170273 -71.263718 9069.000977
7.040000 -1.000000 4.880000 137.061890 -58.489990 22207.039062
7.040000 -1.000000 4.920000 191.306473 20.487967 37017.925781
7.040000 -1.000000 4.960000 171.821060 128.575989 46054.261719
7.040000 -1.000000 5.000000 77.889160 194.815048 44019.625000
7.040000 -1.000000 5.040000 -31.029556 175.688126 31829.152344
7.040000 -1.000000 5.080000 -85.138954 94.099831 16103.419922
7.040000 -1.000000 5.120000 -63.888805 17.462917 4386.732910
7.040000 -1.000000 5.160000 -8.368306 -3.468611 82.059807
7.040000 -1.000000 5.200000 22.995495 24.644293 1136.134033
7.040000 -0.960000 4.800000 43.239391 -15.916385 2122.976318
7.040000 -0.960000 4.840000 92.081955 -22.822348 8999.946289
7.040000 -0.960000 4.880000 147.687805 26.038258 22489.677734
7.040000 -0.960000 4.920000 152.505005 121.314171 37974.906250
7.040000 -0.960000 4.960000 79.524971 203.309906 47659.140625
7.040000 -0.960000 5.000000 -34.986088 211.236450 45844.867188
7.040000 -0.960000 5.040000 -117.900650 139.250885 33291.371094
7.040000 -0.960000 5.080000 -122.350868 43.316681 16846.070312
7.040000 -0.960000 5.120000 -66.748367 -9.115662 4538.439941
7.040000 -0.960000 5.160000 -12.521067 2.368471 162.386765
7.040000 -0.960000 5.200000 -4.632742 40.547474 1665.559937
7.040000 -0.920000 4.800000 37.286835 12.726341 1552.267700
7.040000 -0.920000 4.840000 76.358795 28.144474 6622.776855
7.040000 -0.920000 4.880000 95.884529 88.992706 17113.544922
7.040000 -0.920000 4.920000 56.514626 162.199707 29502.646484
7.040000 -0.920000 4.960000 -35.133232 190.770706 37627.804688
7.040000 -0.920000 5.000000 -124.703934 145.762726 36797.843750
7.040000 -0.920000 5.040000 -155.559082 55.719597 27303.302734
7.040000 -0.920000 5.080000 -118.516991 -17.362957 14347.750000
7.040000 -0.920000 5.120000 -57.192329 -32.889492 4352.681152
7.040000 -0.920000 5.160000 -24.740572 -3.899708 627.303589
7.040000 -0.920000 5.200000 -36.067715 22.932568 1826.782715
7.040000 -0.880000 4.800000 13.826714 24.373499 785.245483
7.040000 -0.880000 4.840000 33.894398 47.414352 3396.951172
7.040000 -0.880000 4.880000 24.064369 93.484573 9318.458984
7.040000 -0.880000 4.920000 -28.839741 125.736198 16641.322266
7.040000 -0.880000 4.960000 -98.922836 109.835342 21849.531250
7.040000 -0.880000 5.000000 -140.732666 47.759853 22086.687500
7.040000 -0.880000 5.040000 -129.390869 -21.623707 17209.580078
7.040000 -0.880000 5.080000 -81.931419 -56.846611 9944.294922
7.040000 -0.880000 5.120000 -39.212555 -49.234844 3961.694336
7.040000 -0.880000 5.160000 -27.666548 -25.356960 1408.413330
7.040000 -0.880000 5.200000 -39.163094 -16.891491 1819.070435
7.040000 -0.840000 4.800000 -5.511435 14.625167 244.271423
7.040000 -0.840000 4.840000 0.216694 31.550173 995.460327
7.040000 -0.840000 4.880000 -17.341846 52.897129 3098.845703
7.040000 -0.840000 4.920000 -54.207088 54.775772 5938.793945
7.040000 -0.840000 4.960000 -86.926514 26.790760 8273.963867
7.040000 -0.840000 5.000000 -93.186333 -17.417152 8987.049805
7.040000 -0.840000 5.040000 -71.265869 -52.455978 7830.454102
7.040000 -0.840000 5.080000 -39.353920 -63.471729 5577.391602
7.040000 -0.840000 5.120000 -17.129852 -56.187855 3450.506836
7.040000 -0.840000 5.160000 -9.323339 -46.769833 2274.341797
7.040000 -0.840000 5.200000 -6.708961 -44.512978 2026.415283
7.040000 -0.800000 4.800000 -7.406162 -1.350702 56.675636
7.040000 -0.800000 4.840000 -5.557072 5.798472 64.503326
7.040000 -0.800000 4.880000 -13.983372 11.318214 323.636658
7.040000 -0.800000 4.920000 -27.084932 7.203743 785.487488
7.040000 -0.800000 4.960000 -35.833054 -6.612389 1327.731323
7.040000 -0.800000 5.000000 -35.381199 -24.049477 1830.206543
7.040000 -0.800000 5.040000 -26.687981 -39.175625 2246.978027
7.040000 -0.800000 5.080000 -12.639233 -49.354851 2595.651611
7.040000 -0.800000 5.120000 4.777822 -53.207924 2853.910889
7.040000 -0.800000 5.160000 22.775007 -48.640244 2884.574219
7.040000 -0.800000 5.200000 35.623852 -35.365128 2519.750977
7.080000 -1.200000 4.800000 -8.413927 19.849470 464.795624
7.080000 -1.200000 4.840000 -12.914939 10.400201 274.959839
7.080000 -1.200000 4.880000 -7.026862 0.936684 50.254169
7.080000 -1.200000 4.920000 4.185238 1.169191 18.883224
7.080000 -1.200000 4.960000 9.340408 10.910295 206.277771
7.080000 -1.200000 5.000000 3.447548 19.774345 402.910339
7.080000 -1.200000 5.040000 -6.372532 18.800459 394.066406
7.080000 -1.200000 5.080000 -9.154918 10.686420 198.012100
7.080000 -1.200000 5.120000 -3.028117 6.524957 51.744556
7.080000 -1.200000 5.160000 2.305712 12.493988 161.416046
7.080000 -1.200000 5.200000 -3.184880 21.835033 486.912140
7.080000 -1.160000 4.800000 -22.033394 8.234080 553.270508
7.080000 -1.160000 4.840000 -24.333708 -4.913760 616.274353
7.080000 -1.160000 4.880000 -14.515856 -17.633881 521.663818
7.080000 -1.160000 4.920000 2.593391 -19.147278 373.343933
7.080000 -1.160000 4.960000 15.028500 -7.907520 288.384674
7.080000 -1.160000 5.000000 15.339911 7.165222 286.653290
7.080000 -1.160000 5.040000 6.725458 16.088367 304.067352
7.080000 -1.160000 5.080000 -2.301695 16.897701 290.830109
7.080000 -1.160000 5.120000 -7.513183 14.739306 273.695068
7.080000 -1.160000 5.160000 -11.645336 13.552821 319.292816
7.080000 -1.160000 5.200000 -18.114288 11.004404 449.224365
7.080000 -1.120000 4.800000 -21.621866 -14.450193 676.313171
7.080000 -1.120000 4.840000 -18.837870 -31.615772 1354.422363
7.080000 -1.120000 4.880000 0.935574 -46.000320 2116.904785
7.080000 -1.120000 4.920000 30.185802 -41.847332 2662.381836
7.080000 -1.120000 4.960000 50.044422 -16.437225 2774.626465
7.080000 -1.120000 5.000000 46.729603 15.904232 2436.600342
7.080000 -1.120000 5.040000 23.434019 35.712463 1824.533203
7.080000 -1.120000 5.080000 -3.437065 34.256573 1185.326294
7.080000 -1.120000 5.120000 -18.823971 18.455622 694.951904
7.080000 -1.120000 5.160000 -19.858330 1.911622 398.007568
7.080000 -1.120000 5.200000 -13.968968 -7.462037 250.814087
7.080000 -1.080000 4.800000 -1.013959 -31.270290 978.859192
7.080000 -1.080000 4.840000 10.686681 -49.447136 2559.224365
7.080000 -1.080000 4.880000 43.747337 -56.387959 5093.431152
7.080000 -1.080000 4.920000 80.731834 -33.034634 7608.916016
7.080000 -1.080000 4.960000 92.765945 15.806049 8855.351562
7.080000 -1.080000 5.000000 66.149307 61.430290 8149.411621
7.080000 -1.080000 5.040000 16.648426 74.803436 5872.724121
7.080000 -1.080000 5.080000 -23.217850 51.447083 3185.870850
7.080000 -1.080000 5.120000 -31.813969 13.860208 1204.233887
7.080000 -1.080000 5.160000 -14.550528 -10.020232 312.122894
7.080000 -1.080000 5.200000 5.520405 -10.629959 143.470901
7.080000 -1.040000 4.800000 27.834469 -26.015175 1451.546875
7.080000 -1.040000 4.840000 49.150322 -38.662498 3910.542969
7.080000 -1.040000 4.880000 88.902275 -27.136280 8639.992188
7.080000 -1.040000 4.920000 116.122322 21.437759 13943.970703
7.080000 -1.040000 4.960000 99.337868 84.903214 17076.566406
7.080000 -1.040000 5.000000 39.259235 120.865051 16149.648438
7.080000 -1.040000 5.040000 -27.153255 104.173691 11589.457031
7.080000 -1.040000 5.080000 -57.565498 50.521385 5866.197266
7.080000 -1.040000 5.120000 -40.866966 2.224491 1675.057251
7.080000 -1.040000 5.160000 -3.989938 -9.998089 115.881378
7.080000 -1.040000 5.200000 16.499996 8.172004 339.031525
7.080000 -1.000000 4.800000 43.147785 0.517817 1861.999512
7.080000 -1.000000 4.840000 69.080307 -0.614518 4772.466309
7.080000 -1.000000 4.880000 100.477478 31.974277 11118.078125
7.080000 -1.000000 4.920000 99.310349 94.278351 18750.953125
7.080000 -1.000000 4.960000 46.453621 146.693405 23676.894531
7.080000 -1.000000 5.000000 -33.396751 147.380676 22836.408203
7.080000 -1.000000 5.040000 -88.964767 92.674545 16503.300781
7.080000 -1.000000 5.080000 -87.510330 23.131540 8193.125977
7.080000 -1.000000 5.120000 -43.649593 -12.621567 2064.590820
7.080000 -1.000000 5.160000 -3.190575 -0.974813 11.130026
7.080000 -1.000000 5.200000 1.221878 28.854074 834.050598
7.080000 -0.960000 4.800000 32.701157 29.078722 1914.937744
7.080000 -0.960000 4.840000 54.905533 40.096981 4622.385254
7.080000 -0.960000 4.880000 64.932281 83.336525 11161.177734
7.080000 -0.960000 4.920000 31.722179 135.711090 19423.796875
7.080000 -0.960000 4.960000 -40.795479 153.107605 25106.210938
7.080000 -0.960000 5.000000 -109.682129 112.438858 24672.666016
7.080000 -0.960000 5.040000 -129.325104 37.432541 18126.177734
7.080000 -0.960000 5.080000 -93.490433 -20.346363 9154.435547
7.080000 -0.960000 5.120000 -40.429157 -27.967709 2416.709473
7.080000 -0.960000 5.160000 -15.596087 0.962790 244.164871
7.080000 -0.960000 5.200000 -29.706573 24.177237 1467.019287
7.080000 -0.920000 4.800000 5.631481 38.440449 1509.381714
7.080000 -0.920000 4.840000 17.888840 56.210747 3479.658447
7.080000 -0.920000 4.880000 5.569960 93.229263 8722.719727
7.080000 -0.920000 4.920000 -43.904629 117.031990 15624.102539
7.080000 -0.920000 4.960000 -106.647629 96.323669 20651.964844
7.080000 -0.920000 5.000000 -139.926941 34.212524 20750.044922
7.080000 -0.920000 5.040000 -121.511261 -30.547806 15698.154297
7.080000 -0.920000 5.080000 -71.047821 -57.895775 8399.713867
7.080000 -0.920000 5.120000 -31.052559 -42.476147 2768.484375
7.080000 -0.920000 5.160000 -26.635324 -15.215578 940.954285
7.080000 -0.920000 5.200000 -44.776958 -10.052927 2106.037354
7.080000 -0.880000 4.800000 -15.691699 24.542446 848.561096
7.080000 -0.880000 4.840000 -14.006368 41.637939 1929.896362
7.080000 -0.880000 4.880000 -37.483181 61.038589 5130.698242
7.080000 -0.880000 4.920000 -79.864662 55.928398 9506.349609
7.080000 -0.880000 4.960000 -112.340485 16.639153 12897.246094
7.080000 -0.880000 5.000000 -109.564453 -36.836342 13361.285156
7.080000 -0.880000 5.040000 -74.062981 -71.785393 10638.467773
7.080000 -0.880000 5.080000 -33.650200 -72.634537 6408.111816
7.080000 -0.880000 5.120000 -14.501740 -53.392544 3061.064209
7.080000 -0.880000 5.160000 -17.786793 -40.789009 1980.113281
7.080000 -0.880000 5.200000 -23.023808 -46.913158 2730.940186
7.080000 -0.840000 4.800000 -16.508375 3.390661 284.023041
7.080000 -0.840000 4.840000 -21.647900 14.870916 689.775696
7.080000 -0.840000 4.880000 -42.226509 17.165455 2077.730957
7.080000 -0.840000 4.920000 -63.600716 -1.237175 4046.581543
7.080000 -0.840000 4.960000 -67.415359 -33.734905 5682.874512
7.080000 -0.840000 5.000000 -49.142250 -61.306084 6173.396484
7.080000 -0.840000 5.040000 -21.508404 -70.380600 5416.040039
7.080000 -0.840000 5.080000 -0.941532 -64.029160 4100.620117
7.080000 -0.840000 5.120000 7.823965 -55.594246 3151.934570
7.080000 -0.840000 5.160000 12.922015 -53.238258 3001.290771
7.080000 -0.840000 5.200000 22.967052 -52.804768 3315.829102
7.080000 -0.800000 4.800000 -2.648847 -5.409990 36.284386
7.080000 -0.800000 4.840000 -10.041043 -0.860043 101.562218
7.080000 -0.800000 4.880000 -20.247601 -6.995647 458.904419
7.080000 -0.800000 4.920000 -23.019054 -21.339804 985.264099
7.080000 -0.800000 4.960000 -15.629173 -34.618599 1442.718506
7.080000 -0.800000 5.000000 -3.878876 -41.024078 1698.020630
7.080000 -0.800000 5.040000 6.340435 -42.873146 1878.307861
7.080000 -0.800000 5.080000 15.976995 -44.730789 2256.107910
7.080000 -0.800000 5.120000 29.536116 -45.268963 2921.661133
7.080000 -0.800000 5.160000 46.168671 -37.922043 3569.627441
7.080000 -0.800000 5.200000 57.218315 -20.185270 3681.380615
7.120000 -1.200000 4.800000 -36.482815 9.159593 1414.893921
7.120000 -1.200000 4.840000 -32.993874 -10.353293 1195.786377
7.120000 -1.200000 4.880000 -14.395235 -20.850031 641.946594
7.120000 -1.200000 4.920000 4.815615 -12.808069 187.236771
7.120000 -1.200000 4.960000 8.651033 5.623006 106.458572
7.120000 -1.200000 5.000000 -3.649522 16.423962 283.065521
7.120000 -1.200000 5.040000 -16.899975 10.441950 394.643494
7.120000 -1.200000 5.080000 -16.368374 -3.372183 279.295288
7.120000 -1.200000 5.120000 -3.405460 -8.313536 80.712036
7.120000 -1.200000 5.160000 6.693198 1.630155 47.456299
7.120000 -1.200000 5.200000 1.909074 15.460608 242.674973
7.120000 -1.160000 4.800000 -31.891218 -15.890396 1269.554443
7.120000 -1.160000 4.840000 -20.000921 -29.333475 1260.489624
7.120000 -1.160000 4.880000 0.719816 -30.244644 915.256653
7.120000 -1.160000 4.920000 15.826263 -15.196743 481.411621
7.120000 -1.160000 4.960000 14.328302 4.705748 227.444305
7.120000 -1.160000 5.000000 -0.060291 14.228584 202.456238
7.120000 -1.160000 5.040000 -12.938101 8.892687 246.474335
7.120000 -1.160000 5.080000 -14.095888 -1.691498 201.555222
7.120000 -1.160000 5.120000 -7.050628 -5.238362 77.151787
7.120000 -1.160000 5.160000 -3.379988 0.031246 11.425299
7.120000 -1.160000 5.200000 -8.878576 4.685451 100.782562
7.120000 -1.120000 4.800000 -6.885548 -31.226231 1022.488220
7.120000 -1.120000 4.840000 6.953008 -35.122131 1281.908447
7.120000 -1.120000 4.880000 24.546963 -27.722939 1371.114746
7.120000 -1.120000 4.920000 34.059696 -7.963566 1223.481201
7.120000 -1.120000 4.960000 27.223402 13.691820 928.579590
7.120000 -1.120000 5.000000 8.117077 23.773960 631.088135
7.120000 -1.120000 5.040000 -9.983164 17.844769 418.099304
7.120000 -1.120000 5.080000 -16.488750 3.732451 285.810089
7.120000 -1.120000 5.120000 -11.939104 -6.813152 188.961243
7.120000 -1.120000 5.160000 -5.115842 -8.968658 106.608673
7.120000 -1.120000 5.200000 -2.919619 -7.296355 61.760975
7.120000 -1.080000 4.800000 23.926468 -21.722778 1044.354980
7.120000 -1.080000 4.840000 33.258652 -18.258274 1439.502441
7.120000 -1.080000 4.880000 44.785439 -5.760742 2038.921631
7.120000 -1.080000 4.920000 47.091114 17.245079 2514.965820
7.120000 -1.080000 4.960000 31.559570 39.632038 2566.705078
7.120000 -1.080000 5.000000 3.308283 46.027771 2129.500488
7.120000 -1.080000 5.040000 -20.866297 31.273401 1413.427979
7.120000 -1.080000 5.080000 -26.549095 6.219253 743.533508
7.120000 -1.080000 5.120000 -14.157385 -11.496858 332.609283
7.120000 -1.080000 5.160000 2.479621 -12.842967 171.090317
7.120000 -1.080000 5.200000 9.731289 -3.948946 110.292160
7.120000 -1.040000 4.800000 37.676769 9.447726 1508.798462
7.120000 -1.040000 4.840000 40.145184 14.762052 1829.553955
7.120000 -1.040000 4.880000 44.668957 29.038511 2838.550781
7.120000 -1.040000 4.920000 37.258228 52.331280 4126.738281
7.120000 -1.040000 4.960000 10.276026 69.224388 4897.612793
7.120000 -1.040000 5.000000 -25.225576 62.628029 4558.599609
7.120000 -1.040000 5.040000 -46.428383 32.408386 3205.898193
7.120000 -1.040000 5.080000 -39.574978 -1.409058 1568.164307
7.120000 -1.040000 5.120000 -13.662965 -15.873949 438.658875
7.120000 -1.040000 5.160000 7.775231 -6.043060 96.972801
7.120000 -1.040000 5.200000 9.030640 11.610620 216.358948
7.120000 -1.000000 4.800000 22.701782 40.700958 2171.938965
7.120000 -1.000000 4.840000 20.596413 43.457901 2312.801270
7.120000 -1.000000 4.880000 18.267612 56.577957 3534.770752
7.120000 -1.000000 4.920000 0.438173 74.222656 5509.194824
7.120000 -1.000000 4.960000 -34.074688 76.707031 7045.053223
7.120000 -1.000000 5.000000 -65.655533 51.547775 6967.822266
7.120000 -1.000000 5.040000 -70.748543 10.136469 5108.104492
7.120000 -1.000000 5.080000 -45.904930 -19.710506 2495.766846
7.120000 -1.000000 5.120000 -13.118070 -19.559839 554.671082
7.120000 -1.000000 5.160000 0.666639 1.867535 3.932094
7.120000 -1.000000 5.200000 -10.577267 17.997164 435.776489
7.120000 -0.960000 4.800000 -10.075420 49.211205 2523.256836
7.120000 -0.960000 4.840000 -12.966691 48.965675 2565.772461
7.120000 -0.960000 4.880000 -21.145416 58.123276 3825.443848
7.120000 -0.960000 4.920000 -45.121414 63.639404 6085.916016
7.120000 -0.960000 4.960000 -75.822990 47.753021 8029.477051
7.120000 -0.960000 5.000000 -89.973579 9.879805 8192.855469
7.120000 -0.960000 5.040000 -73.571190 -28.052334 6199.653809
7.120000 -0.960000 5.080000 -38.450218 -40.985477 3158.228516
7.120000 -0.960000 5.120000 -12.676188 -25.583603 815.206482
7.120000 -0.960000 5.160000 -13.369022 -3.825174 193.362717
7.120000 -0.960000 5.200000 -30.256170 -0.636682 915.841187
7.120000 -0.920000 4.800000 -35.656815 30.584148 2206.798584
7.120000 -0.920000 4.840000 -37.950676 29.774698 2326.786377
7.120000 -0.920000 4.880000 -49.740406 32.457905 3527.623535
7.120000 -0.920000 4.920000 -71.129776 23.614101 5617.070801
7.120000 -0.920000 4.960000 -86.093941 -4.409906 7431.613770
7.120000 -0.920000 5.000000 -77.989067 -39.765533 7663.591797
7.120000 -0.920000 5.040000 -48.480484 -60.081024 5960.086914
7.120000 -0.920000 5.080000 -18.359871 -54.481419 3305.309814
7.120000 -0.920000 5.120000 -7.804361 -35.097641 1292.752441
7.120000 -0.920000 5.160000 -16.421871 -24.871794 888.283997
7.120000 -0.920000 5.200000 -24.527340 -33.991726 1757.027832
7.120000 -0.880000 4.800000 -36.572777 2.470015 1343.668945
7.120000 -0.880000 4.840000 -40.298805 2.586644 1630.684326
7.120000 -0.880000 4.880000 -52.075962 -2.568151 2718.501221
7.120000 -0.880000 4.920000 -62.420410 -21.138969 4343.163574
7.120000 -0.880000 4.960000 -57.880360 -47.834389 5638.264648
7.120000 -0.880000 5.000000 -35.923119 -66.825912 5756.172852
7.120000 -0.880000 5.040000 -9.331142 -67.092155 4588.427734
7.120000 -0.880000 5.080000 5.781108 -53.799065 2927.760498
7.120000 -0.880000 5.120000 5.957141 -42.913132 1877.024414
7.120000 -0.880000 5.160000 3.084232 -44.415657 1982.263062
7.120000 -0.880000 5.200000 10.814310 -52.168159 2838.466064
7.120000 -0.840000 4.800000 -17.630241 -11.822362 450.593658
7.120000 -0.840000 4.840000 -25.255304 -13.008394 807.048706
7.120000 -0.840000 4.880000 -32.703461 -25.205910 1704.854248
7.120000 -0.840000 4.920000 -29.008318 -44.307911 2804.673340
7.120000 -0.840000 4.960000 -12.049316 -58.011856 3510.561523
7.120000 -0.840000 5.000000 8.528276 -58.034157 3440.694824
7.120000 -0.840000 5.040000 21.098890 -48.452194 2792.778320
7.120000 -0.840000 5.080000 23.948879 -40.637321 2224.940674
7.120000 -0.840000 5.120000 26.028418 -40.422806 2311.481689
7.120000 -0.840000 5.160000 35.806839 -41.859413 3034.340332
7.120000 -0.840000 5.200000 50.874931 -34.550781 3782.015137
7.120000 -0.800000 4.800000 0.114676 -4.391749 19.300613
7.120000 -0.800000 4.840000 -10.157246 -11.416613 233.508698
7.120000 -0.800000 4.880000 -9.723926 -27.236017 836.355408
7.120000 -0.800000 4.920000 4.117128 -38.528858 1501.423706
7.120000 -0.800000 4.960000 21.140617 -36.705879 1794.247192
7.120000 -0.800000 5.000000 29.635181 -26.740364 1593.291016
7.120000 -0.800000 5.040000 29.335554 -20.587803 1284.432373
7.120000 -0.800000 5.080000 30.888260 -22.639820 1466.645996
7.120000 -0.800000 5.120000 42.240181 -24.189461 2369.362793
7.120000 -0.800000 5.160000 57.861633 -13.725760 3536.364990
7.120000 -0.800000 5.200000 63.732140 8.642035 4136.470215
7.160000 -1.200000 4.800000 -43.675491 -19.486706 2287.280273
7.160000 -1.200000 4.840000 -27.099979 -38.334541 2203.946045
7.160000 -1.200000 4.880000 0.096427 -38.691322 1497.027710
7.160000 -1.200000 4.920000 17.459572 -18.789917 657.897583
7.160000 -1.200000 4.960000 12.476742 4.047218 172.049057
7.160000 -1.200000 5.000000 -6.204416 9.985140 138.197800
7.160000 -1.200000 5.040000 -17.210941 -3.338449 307.361725
7.160000 -1.200000 5.080000 -8.284394 -18.665060 417.015656
7.160000 -1.200000 5.120000 11.426816 -17.289200 429.488586
7.160000 -1.200000 5.160000 21.413763 1.638111 461.232666
7.160000 -1.200000 5.200000 11.229677 20.816242 559.421631
7.160000 -1.160000 4.800000 -18.652208 -37.237316 1734.522583
7.160000 -1.160000 4.840000 1.268900 -40.387379 1632.750488
7.160000 -1.160000 4.880000 19.533119 -26.737251 1096.423340
7.160000 -1.160000 4.920000 21.588997 -3.764893 480.259186
7.160000 -1.160000 4.960000 6.038706 10.993296 157.318512
7.160000 -1.160000 5.000000 -12.450666 6.725545 200.252045
7.160000 -1.160000 5.040000 -16.929228 -9.645103 379.626770
7.160000 -1.160000 5.080000 -4.749227 -20.308100 434.974060
7.160000 -1.160000 5.120000 10.362875 -14.420913 315.351898
7.160000 -1.160000 5.160000 12.805490 1.546415 166.371964
7.160000 -1.160000 5.200000 0.798146 11.424221 131.149872
7.160000 -1.120000 4.800000 14.054940 -29.175463 1048.749023
7.160000 -1.120000 4.840000 23.698784 -19.227055 931.312012
7.160000 -1.120000 4.880000 25.509344 -2.919828 659.252014
7.160000 -1.120000 4.920000 15.110725 11.323553 356.556885
7.160000 -1.120000 4.960000 -2.313024 13.640442 191.411743
7.160000 -1.120000 5.000000 -14.619174 2.440256 219.675095
7.160000 -1.120000 5.040000 -13.173433 -12.847593 338.600006
7.160000 -1.120000 5.080000 -0.919318 -19.736969 390.393097
7.160000 -1.120000 5.120000 10.432837 -13.946113 303.338165
7.160000 -1.120000 5.160000 11.495979 -2.754554 139.745117
7.160000 -1.120000 5.200000 3.586044 2.759158 20.472668
7.160000 -1.080000 4.800000 30.074394 3.097850 914.065857
7.160000 -1.080000 4.840000 22.833448 13.463352 702.628235
7.160000 -1.080000 4.880000 12.091381 19.493460 526.196472
7.160000 -1.080000 4.920000 -0.526024 19.667709 387.095490
7.160000 -1.080000 4.960000 -11.614377 12.594779 293.522217
7.160000 -1.080000 5.000000 -16.072884 -0.168499 258.365967
7.160000 -1.080000 5.040000 -10.807108 -12.620153 276.061859
7.160000 -1.080000 5.080000 1.336507 -17.489632 307.673462
7.160000 -1.080000 5.120000 12.297921 -12.189934 299.833344
7.160000 -1.080000 5.160000 14.891057 -1.729798 224.735779
7.160000 -1.080000 5.200000 9.010809 5.098939 107.193863
7.160000 -1.040000 4.800000 15.124758 37.584854 1641.379517
7.160000 -1.040000 4.840000 -3.069864 35.431549 1264.818726
7.160000 -1.040000 4.880000 -14.466094 26.290897 900.479187
7.160000 -1.040000 4.920000 -19.616611 16.240479 648.564575
7.160000 -1.040000 4.960000 -21.486467 6.530051 504.309845
7.160000 -1.040000 5.000000 -19.788017 -4.007316 407.624207
7.160000 -1.040000 5.040000 -11.895262 -13.320016 318.920074
7.160000 -1.040000 5.080000 1.184122 -15.640934 246.040955
7.160000 -1.040000 5.120000 12.157543 -7.842112 209.304581
7.160000 -1.040000 5.160000 13.084105 4.877669 194.985443
7.160000 -1.040000 5.200000 4.026738 11.945803 158.916824
7.160000 -1.000000 4.800000 -21.304602 48.621216 2817.908691
7.160000 -1.000000 4.840000 -37.102798 31.020863 2338.911621
7.160000 -1.000000 4.880000 -38.965698 12.457528 1673.515625
7.160000 -1.000000 4.920000 -33.850761 0.524873 1146.149536
7.160000 -1.000000 4.960000 -28.649750 -6.696158 865.646729
7.160000 -1.000000 5.000000 -22.935728 -13.639239 712.076477
7.160000 -1.000000 5.040000 -12.854954 -18.886017 521.931458
7.160000 -1.000000 5.080000 0.034323 -16.474504 271.410492
7.160000 -1.000000 5.120000 7.271385 -5.134341 79.234505
7.160000 -1.000000 5.160000 2.515468 6.679791 50.947189
7.160000 -1.000000 5.200000 -9.388023 7.831942 149.474289
7.160000 -0.960000 4.800000 -52.516644 28.487324 3569.525391
7.160000 -0.960000 4.840000 -56.522602 3.899827 3210.013184
7.160000 -0.960000 4.880000 -47.606327 -14.100700 2465.192139
7.160000 -0.960000 4.920000 -35.900467 -22.221617 1782.643799
7.160000 -0.960000 4.960000 -26.836441 -25.607338 1375.930420
7.160000 -0.960000 5.000000 -18.243521 -28.228354 1129.666016
7.160000 -0.960000 5.040000 -7.620471 -27.631516 821.572266
7.160000 -0.960000 5.080000 1.199930 -20.221678 410.356079
7.160000 -0.960000 5.120000 1.431187 -9.375462 89.947571
7.160000 -0.960000 5.160000 -6.992297 -4.733326 71.296600
7.160000 -0.960000 5.200000 -14.118950 -11.788317 338.309143
7.160000 -0.920000 4.800000 -56.785789 -5.887446 3259.288086
7.160000 -0.920000 4.840000 -50.693619 -26.314329 3262.286865
7.160000 -0.920000 4.880000 -37.213383 -38.492775 2866.529541
7.160000 -0.920000 4.920000 -23.412148 -42.708790 2372.169434
7.160000 -0.920000 4.960000 -11.716759 -42.537178 1946.693970
7.160000 -0.920000 5.000000 -1.552030 -39.290173 1546.126465
7.160000 -0.920000 5.040000 5.867448 -32.335930 1080.039307
7.160000 -0.920000 5.080000 7.310166 -23.717848 615.974854
7.160000 -0.920000 5.120000 2.732697 -19.336605 381.371918
7.160000 -0.920000 5.160000 -1.394390 -23.299994 544.834045
7.160000 -0.920000 5.200000 3.198803 -31.520086 1003.748230
7.160000 -0.880000 4.800000 -35.345921 -27.849087 2024.905762
7.160000 -0.880000 4.840000 -28.367739 -40.586555 2451.997070
7.160000 -0.880000 4.880000 -16.064949 -49.440704 2702.465820
7.160000 -0.880000 4.920000 -0.867424 -52.016571 2706.476074
7.160000 -0.880000 4.960000 13.346352 -47.170605 2403.190918
7.160000 -0.880000 5.000000 21.829685 -36.712341 1824.331177
7.160000 -0.880000 5.040000 22.075203 -26.238173 1175.756348
7.160000 -0.880000 5.080000 17.142282 -22.120186 783.160461
7.160000 -0.880000 5.120000 14.770888 -25.887798 888.357239
7.160000 -0.880000 5.160000 21.190300 -31.510864 1441.963379
7.160000 -0.880000 5.200000 34.775253 -29.671741 2089.730469
7.160000 -0.840000 4.800000 -9.795158 -24.069855 675.303040
7.160000 -0.840000 4.840000 -8.244763 -35.262585 1311.425903
7.160000 -0.840000 4.880000 3.615854 -45.841705 2114.536377
7.160000 -0.840000 4.920000 22.312550 -46.385170 2649.433838
7.160000 -0.840000 4.960000 36.972473 -34.400387 2550.350342
7.160000 -0.840000 5.000000 39.067341 -18.189857 1857.127930
7.160000 -0.840000 5.040000 31.207161 -9.799765 1069.922241
7.160000 -0.840000 5.080000 25.302076 -13.234403 815.344482
7.160000 -0.840000 5.120000 30.899261 -20.021307 1355.617065
7.160000 -0.840000 5.160000 45.323181 -17.404873 2357.120361
7.160000 -0.840000 5.200000 55.962528 -1.147667 3133.121826
7.160000 -0.800000 4.800000 -1.673609 -4.648268 24.407360
7.160000 -0.800000 4.840000 -2.282227 -22.217304 498.817169
7.160000 -0.800000 4.880000 14.502037 -34.764679 1418.891968
7.160000 -0.800000 4.920000 36.686172 -29.313457 2205.154053
7.160000 -0.800000 4.960000 46.756882 -9.743052 2281.133057
7.160000 -0.800000 5.000000 39.513447 6.907815 1609.030396
7.160000 -0.800000 5.040000 27.255295 8.263977 811.144409
7.160000 -0.800000 5.080000 26.256302 -0.437455 689.584717
7.160000 -0.800000 5.120000 38.993156 -2.398560 1526.219360
7.160000 -0.800000 5.160000 51.430767 12.156031 2792.892822
7.160000 -0.800000 5.200000 48.276115 35.193829 3569.188965
7.200000 -1.200000 4.800000 -26.006392 -41.700401 2415.255859
7.200000 -1.200000 4.840000 -2.144125 -50.028572 2507.455078
7.200000 -1.200000 4.880000 22.548962 -37.553204 1918.698730
7.200000 -1.200000 4.920000 29.637226 -11.570128 1012.233032
7.200000 -1.200000 4.960000 15.489614 7.315732 293.448059
7.200000 -1.200000 5.000000 -3.690675 4.943761 38.061855
7.200000 -1.200000 5.040000 -7.244206 -11.799758 191.712814
7.200000 -1.200000 5.080000 9.148531 -21.434090 543.115845
7.200000 -1.200000 5.120000 28.829775 -9.489141 921.199768
7.200000 -1.200000 5.160000 30.804911 16.754894 1229.668945
7.200000 -1.200000 5.200000 10.674810 35.511581 1375.023926
7.200000 -1.160000 4.800000 4.417578 -39.834450 1606.298462
7.200000 -1.160000 4.840000 21.319393 -32.013817 1479.401001
7.200000 -1.160000 4.880000 28.418062 -12.363380 960.439453
7.200000 -1.160000 4.920000 18.335682 6.076384 373.119659
7.200000 -1.160000 4.960000 -1.073369 8.781658 78.269646
7.200000 -1.160000 5.000000 -12.205706 -5.390203 178.033539
7.200000 -1.160000 5.040000 -4.347653 -21.472227 479.958649
7.200000 -1.160000 5.080000 15.193083 -22.037537 716.482788
7.200000 -1.160000 5.120000 27.488718 -4.153864 772.884216
7.200000 -1.160000 5.160000 20.092989 17.582458 712.871094
7.200000 -1.160000 5.200000 -1.243118 25.156986 634.419312
7.200000 -1.120000 4.800000 23.568686 -13.225890 730.407104
7.200000 -1.120000 4.840000 21.791399 -0.734528 475.404602
7.200000 -1.120000 4.880000 11.228975 8.627214 200.518707
7.200000 -1.120000 4.920000 -3.782297 7.636522 72.622246
7.200000 -1.120000 4.960000 -13.161478 -4.942357 197.651398
7.200000 -1.120000 5.000000 -8.771023 -20.796001 509.404510
7.200000 -1.120000 5.040000 7.453377 -27.309875 801.382080
7.200000 -1.120000 5.080000 23.520382 -18.169743 883.347900
7.200000 -1.120000 5.120000 26.899479 0.477679 723.810120
7.200000 -1.120000 5.160000 15.248531 14.816326 452.041229
7.200000 -1.120000 5.200000 -1.739360 15.158467 232.804504
7.200000 -1.080000 4.800000 14.353212 20.497702 626.170471
7.200000 -1.080000 4.840000 -3.952814 20.240164 425.288971
7.200000 -1.080000 4.880000 -17.664911 8.058123 376.982452
7.200000 -1.080000 4.920000 -20.035715 -9.884144 499.126160
7.200000 -1.080000 4.960000 -10.301287 -24.747494 718.554993
7.200000 -1.080000 5.000000 6.419241 -29.629303 919.102234
7.200000 -1.080000 5.040000 21.964634 -22.712978 998.324524
7.200000 -1.080000 5.080000 29.102741 -7.911382 909.559509
7.200000 -1.080000 5.120000 25.084404 7.089484 679.488098
7.200000 -1.080000 5.160000 13.162249 14.835835 393.346802
7.200000 -1.080000 5.200000 0.869544 12.375740 153.915039
7.200000 -1.040000 4.800000 -19.160002 35.584923 1633.392456
7.200000 -1.040000 4.840000 -38.338036 13.401358 1649.401367
7.200000 -1.040000 4.880000 -37.138199 -15.643762 1623.973145
7.200000 -1.040000 4.920000 -17.979160 -35.130760 1557.420532
7.200000 -1.040000 4.960000 6.395700 -37.167610 1422.336304
7.200000 -1.040000 5.000000 23.782042 -25.476118 1214.618164
7.200000 -1.040000 5.040000 29.754604 -9.162555 969.288879
7.200000 -1.040000 5.080000 26.583399 4.782943 729.553589
7.200000 -1.040000 5.120000 18.195541 13.519348 513.850525
7.200000 -1.040000 5.160000 7.735505 16.052155 317.509705
7.200000 -1.040000 5.200000 -1.218685 11.972731 144.831482
7.200000 -1.000000 4.800000 -53.115711 19.460484 3199.989258
7.200000 -1.000000 4.840000 -56.466835 -17.781452 3504.683594
7.200000 -1.000000 4.880000 -33.220718 -46.938339 3306.823730
7.200000 -1.000000 4.920000 1.075110 -52.151161 2720.899414
7.200000 -1.000000 4.960000 26.290787 -35.720367 1967.150146
7.200000 -1.000000 5.000000 33.281319 -12.452063 1262.699951
7.200000 -1.000000 5.040000 26.788580 4.587816 738.676025
7.200000 -1.000000 5.080000 16.335484 12.217916 416.125488
7.200000 -1.000000 5.120000 7.103158 13.737177 239.164871
7.200000 -1.000000 5.160000 -0.412935 11.566886 133.963364
7.200000 -1.000000 5.200000 -5.143813 5.664039 58.540146
7.200000 -0.960000 4.800000 -63.021336 -16.081999 4230.319336
7.200000 -0.960000 4.840000 -46.283974 -51.720810 4817.248535
7.200000 -0.960000 4.880000 -9.410652 -66.295975 4483.716797
7.200000 -0.960000 4.920000 25.088446 -53.061672 3444.971191
7.200000 -0.960000 4.960000 39.582863 -24.665998 2175.214355
7.200000 -0.960000 5.000000 33.324211 -0.052454 1110.505859
7.200000 -0.960000 5.040000 18.165573 10.737439 445.280640
7.200000 -0.960000 5.080000 5.597153 10.091467 133.165833
7.200000 -0.960000 5.120000 -0.863500 5.050361 26.251780
7.200000 -0.960000 5.160000 -2.837874 -0.506829 8.310408
7.200000 -0.960000 5.200000 -1.059997 -5.779818 34.529888
7.200000 -0.920000 4.800000 -44.045883 -44.731857 3940.979004
7.200000 -0.920000 4.840000 -17.337257 -66.855820 4770.281250
7.200000 -0.920000 4.880000 18.337702 -65.303955 4600.877930
7.200000 -0.920000 4.920000 42.659790 -41.755722 3563.397949
7.200000 -0.920000 4.960000 44.960102 -12.188254 2169.964355
7.200000 -0.920000 5.000000 30.359989 6.886918 969.158569
7.200000 -0.920000 5.040000 12.562765 9.869485 255.229797
7.200000 -0.920000 5.080000 2.228163 2.337960 10.430765
7.200000 -0.920000 5.120000 1.554925 -6.748249 47.956657
7.200000 -0.920000 5.160000 7.078028 -11.736454 187.842834
7.200000 -0.920000 5.200000 14.574919 -11.000785 333.445526
7.200000 -0.880000 4.800000 -14.097980 -48.002808 2503.022461
7.200000 -0.880000 4.840000 9.115379 -58.442421 3498.606689
7.200000 -0.880000 4.880000 35.851379 -50.407921 3826.279785
7.200000 -0.880000 4.920000 50.918877 -26.863863 3314.398926
7.200000 -0.880000 4.960000 47.046516 -1.431722 2215.424561
7.200000 -0.880000 5.000000 29.915270 12.071838 1040.652588
7.200000 -0.880000 5.040000 12.947972 9.461903 257.177612
7.200000 -0.880000 5.080000 6.960600 -2.205683 53.314987
7.200000 -0.880000 5.120000 13.259705 -11.331895 304.231598
7.200000 -0.880000 5.160000 24.615223 -10.417060 714.424316
7.200000 -0.880000 5.200000 31.816811 -0.067289 1012.313965
7.200000 -0.840000 4.800000 2.881851 -29.857094 899.751099
7.200000 -0.840000 4.840000 18.576586 -39.446255 1901.096436
7.200000 -0.840000 4.880000 40.390430 -33.906601 2781.044434
7.200000 -0.840000 4.920000 53.280083 -12.990713 3007.525879
7.200000 -0.840000 4.960000 47.919437 10.511713 2406.768555
7.200000 -0.840000 5.000000 29.533405 21.259947 1324.207397
7.200000 -0.840000 5.040000 13.705674 14.819407 407.460327
7.200000 -0.840000 5.080000 12.590266 1.408781 160.499466
7.200000 -0.840000 5.120000 24.398691 -3.717348 609.114807
7.200000 -0.840000 5.160000 35.958710 5.934797 1328.250610
7.200000 -0.840000 5.200000 35.332253 23.223667 1787.706787
7.200000 -0.800000 4.800000 -2.368320 -10.810949 122.485565
7.200000 -0.800000 4.840000 13.222749 -26.531368 878.754578
7.200000 -0.800000 4.880000 38.217915 -22.755079 1978.402588
7.200000 -0.800000 4.920000 52.010117 0.433925 2705.240479
7.200000 -0.800000 4.960000 43.530903 25.265062 2533.262695
7.200000 -0.800000 5.000000 22.021210 33.120583 1581.906738
7.200000 -0.800000 5.040000 7.685863 22.419933 561.725891
7.200000 -0.800000 5.080000 11.557251 9.260611 219.328964
7.200000 -0.800000 5.120000 25.293034 10.419847 748.310791
7.200000 -0.800000 5.160000 30.926590 26.585396 1663.237305
7.200000 -0.800000 5.200000 19.634520 42.976265 2232.473633
