#kx 	ky 	kz 	real 	imag 	intensity
-1.200000 2.800000 6.800000 -2.339611 -1.537036 7.836257
-1.200000 2.800000 6.840000 -8.533435 1.209179 74.281624
-1.200000 2.800000 6.880000 -16.848169 -5.011900 308.979950
-1.200000 2.800000 6.920000 -17.510807 -19.706268 694.965332
-1.200000 2.800000 6.960000 -4.440207 -33.202740 1122.137329
-1.200000 2.800000 7.000000 17.413656 -33.449436 1422.100098
-1.200000 2.800000 7.040000 34.066086 -17.125114 1453.767700
-1.200000 2.800000 7.080000 33.985771 5.740201 1187.982544
-1.200000 2.800000 7.120000 18.823723 19.590069 738.103333
-1.200000 2.800000 7.160000 2.229165 17.221802 301.559631
-1.200000 2.800000 7.200000 -3.036962 6.025359 45.528091
-1.200000 2.840000 6.800000 -5.420154 -3.739008 43.358246
-1.200000 2.840000 6.840000 -9.353161 -2.691504 94.725815
-1.200000 2.840000 6.880000 -14.257170 -8.267672 271.621277
-1.200000 2.840000 6.920000 -12.139732 -19.642467 533.199646
-1.200000 2.840000 6.960000 1.263351 -27.690331 768.350464
-1.200000 2.840000 7.000000 19.357914 -22.260818 870.272827
-1.200000 2.840000 7.040000 28.224075 -3.454009 808.528625
-1.200000 2.840000 7.080000 19.617899 15.774549 633.698364
-1.200000 2.840000 7.120000 0.440192 20.644415 426.385620
-1.200000 2.840000 7.160000 -12.698928 9.199261 245.889160
-1.200000 2.840000 7.200000 -9.685970 -5.263485 121.522301
-1.200000 2.880000 6.800000 -3.764478 -11.334248 142.636459
-1.200000 2.880000 6.840000 -4.831819 -9.157176 107.200348
-1.200000 2.880000 6.880000 -8.091504 -11.873334 206.448486
-1.200000 2.880000 6.920000 -6.131022 -19.518578 418.564331
-1.200000 2.880000 6.960000 4.625091 -23.810574 588.334900
-1.200000 2.880000 7.000000 17.184160 -16.625051 571.687683
-1.200000 2.880000 7.040000 19.525536 -0.723065 381.769379
-1.200000 2.880000 7.080000 7.921740 10.724053 177.759277
-1.200000 2.880000 7.120000 -7.176767 7.358365 105.651520
-1.200000 2.880000 7.160000 -11.013859 -6.401534 162.284714
-1.200000 2.880000 7.200000 -0.522823 -14.990174 224.978668
-1.200000 2.920000 6.800000 7.146337 -16.288733 316.392944
-1.200000 2.920000 6.840000 6.526084 -10.531783 153.508224
-1.200000 2.920000 6.880000 1.798651 -10.468351 112.821526
-1.200000 2.920000 6.920000 1.468304 -16.337358 269.065186
-1.200000 2.920000 6.960000 8.991624 -19.844913 474.669891
-1.200000 2.920000 7.000000 17.565075 -14.225399 510.893860
-1.200000 2.920000 7.040000 17.697605 -3.277410 323.946655
-1.200000 2.920000 7.080000 8.970921 2.222145 85.415344
-1.200000 2.920000 7.120000 1.478346 -2.720171 9.584838
-1.200000 2.920000 7.160000 4.205849 -10.557186 129.143341
-1.200000 2.920000 7.200000 13.590106 -9.490986 274.769775
-1.200000 2.960000 6.800000 21.427624 -9.844553 556.058289
-1.200000 2.960000 6.840000 17.459503 -1.188528 306.246857
-1.200000 2.960000 6.880000 9.419958 -0.988095 89.711945
-1.200000 2.960000 6.920000 7.011601 -7.734458 108.984406
-1.200000 2.960000 6.960000 12.888540 -12.377032 319.305420
-1.200000 2.960000 7.000000 20.305651 -9.028287 493.829407
-1.200000 2.960000 7.040000 21.669800 -1.204868 471.031952
-1.200000 2.960000 7.080000 17.314859 3.424355 311.530548
-1.200000 2.960000 7.120000 13.920957 2.840080 201.859085
-1.200000 2.960000 7.160000 14.973964 2.616931 231.067917
-1.200000 2.960000 7.200000 15.589661 7.548530 300.017822
-1.200000 3.000000 6.800000 27.529446 7.217533 809.963135
-1.200000 3.000000 6.840000 18.468805 15.108176 569.353760
-1.200000 3.000000 6.880000 8.133983 12.457011 221.338806
-1.200000 3.000000 6.920000 5.634179 3.600124 44.704872
-1.200000 3.000000 6.960000 11.805622 -2.075258 143.679413
-1.200000 3.000000 7.000000 19.726671 0.436237 389.331879
-1.200000 3.000000 7.040000 22.551897 8.227599 576.281494
-1.200000 3.000000 7.080000 19.422157 15.308142 611.559387
-1.200000 3.000000 7.120000 13.740742 18.918692 546.724854
-1.200000 3.000000 7.160000 7.735315 20.048702 461.785583
-1.200000 3.000000 7.200000 0.900127 19.073238 364.598663
-1.200000 3.040000 6.800000 19.814362 24.304564 983.320679
-1.200000 3.040000 6.840000 7.534464 27.934145 837.084595
-1.200000 3.040000 6.880000 -2.341223 21.555553 470.123199
-1.200000 3.040000 6.920000 -3.139356 11.347352 138.617966
-1.200000 3.040000 6.960000 4.057114 5.912035 51.412331
-1.200000 3.040000 7.000000 12.141016 9.226263 232.528198
-1.200000 3.040000 7.040000 14.187822 18.340221 537.658020
-1.200000 3.040000 7.080000 8.234285 26.663107 778.724731
-1.200000 3.040000 7.120000 -2.520204 28.886261 840.767517
-1.200000 3.040000 7.160000 -12.672970 23.552319 715.315918
-1.200000 3.040000 7.200000 -17.523129 12.832406 471.730652
-1.200000 3.080000 6.800000 4.083407 31.260565 993.897095
-1.200000 3.080000 6.840000 -7.967390 30.167786 973.574585
-1.200000 3.080000 6.880000 -15.481639 21.490444 701.520325
-1.200000 3.080000 6.920000 -14.301769 11.388930 334.248352
-1.200000 3.080000 6.960000 -6.652969 7.145909 95.326019
-1.200000 3.080000 7.000000 0.180499 11.602838 134.658417
-1.200000 3.080000 7.040000 -0.716533 20.632845 426.227722
-1.200000 3.080000 7.080000 -10.342098 25.939909 779.837891
-1.200000 3.080000 7.120000 -22.520632 21.413454 965.714844
-1.200000 3.080000 7.160000 -28.285141 8.148643 866.449585
-1.200000 3.080000 7.200000 -22.709785 -5.919712 550.777344
-1.200000 3.120000 6.800000 -9.010008 27.851297 856.875000
-1.200000 3.120000 6.840000 -19.176981 24.056864 946.489258
-1.200000 3.120000 6.880000 -24.539616 14.686306 817.880310
-1.200000 3.120000 6.920000 -22.130896 5.259498 517.438843
-1.200000 3.120000 6.960000 -14.881166 2.133092 225.999191
-1.200000 3.120000 7.000000 -10.309160 6.630682 150.244720
-1.200000 3.120000 7.040000 -14.081259 12.719692 360.072418
-1.200000 3.120000 7.080000 -23.941734 11.703833 710.186340
-1.200000 3.120000 7.120000 -30.584984 0.610133 935.813477
-1.200000 3.120000 7.160000 -25.823521 -13.833701 858.225525
-1.200000 3.120000 7.200000 -10.805175 -20.297289 528.731750
-1.200000 3.160000 6.800000 -15.090147 22.053238 714.057861
-1.200000 3.160000 6.840000 -24.356604 16.850258 877.175293
-1.200000 3.160000 6.880000 -28.470577 6.646062 854.743958
-1.200000 3.160000 6.920000 -25.090267 -2.593766 636.249084
-1.200000 3.160000 6.960000 -18.416008 -5.268995 366.911652
-1.200000 3.160000 7.000000 -15.777747 -2.343824 254.430817
-1.200000 3.160000 7.040000 -19.805389 -1.140436 393.554047
-1.200000 3.160000 7.080000 -24.674929 -7.688588 667.966492
-1.200000 3.160000 7.120000 -21.525455 -19.234814 833.323303
-1.200000 3.160000 7.160000 -8.343782 -25.582794 724.098083
-1.200000 3.160000 7.200000 6.209136 -19.059433 401.815369
-1.200000 3.200000 6.800000 -19.085476 19.622412 749.294434
-1.200000 3.200000 6.840000 -28.401690 11.558741 940.260437
-1.200000 3.200000 6.880000 -30.525467 -0.742573 932.355530
-1.200000 3.200000 6.920000 -25.192081 -10.024221 735.125977
-1.200000 3.200000 6.960000 -18.513540 -12.571233 500.787048
-1.200000 3.200000 7.000000 -16.195736 -12.085167 408.353088
-1.200000 3.200000 7.040000 -16.892879 -15.035547 511.437073
-1.200000 3.200000 7.080000 -13.706980 -22.274652 684.041443
-1.200000 3.200000 7.120000 -2.906711 -26.783894 725.825928
-1.200000 3.200000 7.160000 9.895748 -21.047022 540.902954
-1.200000 3.200000 7.200000 13.871794 -6.575629 235.665558
-1.160000 2.800000 6.800000 -7.807539 -0.700864 61.448875
-1.160000 2.800000 6.840000 -9.344415 -3.246554 97.858192
-1.160000 2.800000 6.880000 -9.662737 -8.768053 170.247238
-1.160000 2.800000 6.920000 -5.378814 -16.254299 293.133881
-1.160000 2.800000 6.960000 5.508609 -21.085337 474.936218
-1.160000 2.800000 7.000000 19.922173 -17.374779 698.775879
-1.160000 2.800000 7.040000 29.842979 -3.557790 903.261292
-1.160000 2.800000 7.080000 28.122587 14.227312 993.296265
-1.160000 2.800000 7.120000 15.281153 25.757336 896.953979
-1.160000 2.800000 7.160000 0.027898 25.149689 632.507629
-1.160000 2.800000 7.200000 -8.044050 15.939995 318.790161
-1.160000 2.840000 6.800000 -6.876395 -9.939403 146.076538
-1.160000 2.840000 6.840000 -1.626601 -10.355530 109.882828
-1.160000 2.840000 6.880000 2.047606 -8.297203 73.036270
-1.160000 2.840000 6.920000 4.159006 -6.363008 57.785202
-1.160000 2.840000 6.960000 6.919743 -4.614440 69.175896
-1.160000 2.840000 7.000000 10.306604 -0.371609 106.364189
-1.160000 2.840000 7.040000 10.589294 7.215483 164.196350
-1.160000 2.840000 7.080000 4.679468 14.040026 219.019745
-1.160000 2.840000 7.120000 -4.787439 14.369875 229.412872
-1.160000 2.840000 7.160000 -10.648952 7.568837 170.687454
-1.160000 2.840000 7.200000 -8.509497 -0.017390 72.411842
-1.160000 2.880000 6.800000 4.378179 -16.900019 304.779083
-1.160000 2.880000 6.840000 13.341720 -8.771361 254.938263
-1.160000 2.880000 6.880000 12.857972 3.438662 177.151840
-1.160000 2.880000 6.920000 3.978193 10.479558 125.647156
-1.160000 2.880000 6.960000 -5.563525 8.718044 106.957108
-1.160000 2.880000 7.000000 -9.579005 2.181477 96.516182
-1.160000 2.880000 7.040000 -8.264860 -3.243765 78.829926
-1.160000 2.880000 7.080000 -5.319098 -5.648519 60.198563
-1.160000 2.880000 7.120000 -2.552020 -6.560436 49.552128
-1.160000 2.880000 7.160000 0.867306 -6.478806 42.727142
-1.160000 2.880000 7.200000 4.560152 -3.582958 33.632576
-1.160000 2.920000 6.800000 20.452610 -11.190495 543.536438
-1.160000 2.920000 6.840000 24.442949 7.170668 648.876221
-1.160000 2.920000 6.880000 11.430258 23.412539 678.797729
-1.160000 2.920000 6.920000 -10.326240 24.103346 687.602478
-1.160000 2.920000 6.960000 -25.224705 8.360415 706.182251
-1.160000 2.920000 7.000000 -23.812101 -12.279351 717.798645
-1.160000 2.920000 7.040000 -9.244349 -24.507223 686.062012
-1.160000 2.920000 7.080000 7.642433 -23.185631 595.980286
-1.160000 2.920000 7.120000 17.709244 -12.390980 467.153687
-1.160000 2.920000 7.160000 18.256771 0.419096 333.485321
-1.160000 2.920000 7.200000 11.403032 9.531967 220.887543
-1.160000 2.960000 6.800000 27.615406 7.843389 824.129395
-1.160000 2.960000 6.840000 19.022459 29.682072 1242.879395
-1.160000 2.960000 6.880000 -6.754755 38.206757 1505.382935
-1.160000 2.960000 6.920000 -32.375538 23.236511 1588.110840
-1.160000 2.960000 6.960000 -38.836372 -6.966833 1556.800537
-1.160000 2.960000 7.000000 -21.212990 -32.229042 1488.702148
-1.160000 2.960000 7.040000 8.037605 -36.666260 1409.017700
-1.160000 2.960000 7.080000 29.852440 -19.950895 1289.206421
-1.160000 2.960000 7.120000 32.759983 4.697388 1095.281860
-1.160000 2.960000 7.160000 18.936813 21.754314 831.853088
-1.160000 2.960000 7.200000 -0.242370 23.446362 549.790588
-1.160000 3.000000 6.800000 17.133064 27.715443 1061.687622
-1.160000 3.000000 6.840000 -3.326085 42.081108 1781.882568
-1.160000 3.000000 6.880000 -32.100502 35.027607 2257.375488
-1.160000 3.000000 6.920000 -47.985756 6.025647 2338.941162
-1.160000 3.000000 6.960000 -36.997482 -27.270020 2112.467773
-1.160000 3.000000 7.000000 -4.734801 -42.231667 1805.932007
-1.160000 3.000000 7.040000 27.413454 -29.135201 1600.357422
-1.160000 3.000000 7.080000 38.817757 1.608375 1509.405151
-1.160000 3.000000 7.120000 24.757854 28.291592 1413.365479
-1.160000 3.000000 7.160000 -1.767144 34.523201 1194.974243
-1.160000 3.000000 7.200000 -21.372164 19.927654 853.880798
-1.160000 3.040000 6.800000 -4.948418 33.557663 1150.603516
-1.160000 3.040000 6.840000 -28.057371 34.217648 1958.063477
-1.160000 3.040000 6.880000 -47.556404 14.528854 2472.699219
-1.160000 3.040000 6.920000 -46.720387 -16.656862 2460.245605
-1.160000 3.040000 6.960000 -22.019953 -38.974594 2003.897339
-1.160000 3.040000 7.000000 11.784234 -36.106865 1442.573853
-1.160000 3.040000 7.040000 31.921131 -9.614618 1111.399536
-1.160000 3.040000 7.080000 25.362816 21.375607 1100.188965
-1.160000 3.040000 7.120000 -0.887657 34.989407 1225.046509
-1.160000 3.040000 7.160000 -25.799772 23.554604 1220.447510
-1.160000 3.040000 7.200000 -31.217438 -1.405516 976.503906
-1.160000 3.080000 6.800000 -22.781445 22.418972 1021.604492
-1.160000 3.080000 6.840000 -38.523026 12.776884 1647.272217
-1.160000 3.080000 6.880000 -43.962009 -8.572612 2006.147949
-1.160000 3.080000 6.920000 -31.454376 -29.864532 1881.268066
-1.160000 3.080000 6.960000 -6.021049 -36.076454 1337.763550
-1.160000 3.080000 7.000000 15.986202 -21.373680 712.392822
-1.160000 3.080000 7.040000 18.990162 4.244806 378.644623
-1.160000 3.080000 7.080000 1.500834 21.553846 466.820801
-1.160000 3.080000 7.120000 -21.622089 17.649155 779.007385
-1.160000 3.080000 7.160000 -31.087242 -3.010754 975.481262
-1.160000 3.080000 7.200000 -19.357300 -22.245279 869.557495
-1.160000 3.120000 6.800000 -25.982998 5.796109 708.711060
-1.160000 3.120000 6.840000 -31.659315 -5.166008 1028.999878
-1.160000 3.120000 6.880000 -28.540419 -19.029861 1176.691162
-1.160000 3.120000 6.920000 -15.884649 -27.827581 1026.696289
-1.160000 3.120000 6.960000 -0.443472 -24.915262 620.966919
-1.160000 3.120000 7.000000 7.142453 -11.772606 189.608887
-1.160000 3.120000 7.040000 1.316941 1.199484 3.173096
-1.160000 3.120000 7.080000 -12.184225 2.748431 156.009216
-1.160000 3.120000 7.120000 -20.110348 -8.714709 480.372253
-1.160000 3.120000 7.160000 -13.475048 -22.474470 686.678711
-1.160000 3.120000 7.200000 3.437373 -24.587824 616.376648
-1.160000 3.160000 6.800000 -19.123524 -2.649465 372.728821
-1.160000 3.160000 6.840000 -19.875271 -9.149881 478.746735
-1.160000 3.160000 6.880000 -17.156067 -15.380787 530.899231
-1.160000 3.160000 6.920000 -11.576797 -18.822845 488.321716
-1.160000 3.160000 6.960000 -6.190779 -18.077616 365.125946
-1.160000 3.160000 7.000000 -4.305915 -15.254113 251.228882
-1.160000 3.160000 7.040000 -5.635498 -14.764567 249.751282
-1.160000 3.160000 7.080000 -5.529038 -18.521894 373.630859
-1.160000 3.160000 7.120000 0.418631 -22.615173 511.621338
-1.160000 3.160000 7.160000 10.537363 -20.188126 518.596436
-1.160000 3.160000 7.200000 16.768030 -8.820906 358.975220
-1.160000 3.200000 6.800000 -15.339975 -1.136645 236.606812
-1.160000 3.200000 6.840000 -16.985109 -5.016901 313.663208
-1.160000 3.200000 6.880000 -17.944931 -10.116773 424.369629
-1.160000 3.200000 6.920000 -17.020945 -16.371618 557.742432
-1.160000 3.200000 6.960000 -13.294107 -22.784618 695.872131
-1.160000 3.200000 7.000000 -6.393032 -27.899298 819.241638
-1.160000 3.200000 7.040000 3.389013 -29.735798 895.703064
-1.160000 3.200000 7.080000 14.165114 -26.002659 876.788696
-1.160000 3.200000 7.120000 21.779940 -15.815266 724.488403
-1.160000 3.200000 7.160000 21.379410 -2.140695 461.661743
-1.160000 3.200000 7.200000 11.417461 8.061650 195.348633
-1.120000 2.800000 6.800000 -11.938172 -9.336870 229.697113
-1.120000 2.800000 6.840000 -4.395324 -10.702516 133.862701
-1.120000 2.800000 6.880000 0.484497 -7.832644 61.585041
-1.120000 2.800000 6.920000 1.665415 -5.735682 35.671646
-1.120000 2.800000 6.960000 3.652292 -6.835134 60.058296
-1.120000 2.800000 7.000000 10.407679 -7.037779 157.850098
-1.120000 2.800000 7.040000 18.975214 -0.106956 360.070190
-1.120000 2.800000 7.080000 20.972767 14.081299 638.139954
-1.120000 2.800000 7.120000 11.353131 27.154459 866.258179
-1.120000 2.800000 7.160000 -5.054706 29.418230 890.982300
-1.120000 2.800000 7.200000 -16.931545 19.478334 666.082764
-1.120000 2.840000 6.800000 0.508131 -18.803818 353.841766
-1.120000 2.840000 6.840000 14.693521 -8.767345 292.765900
-1.120000 2.840000 6.880000 15.500728 9.352337 327.738770
-1.120000 2.840000 6.920000 1.955883 20.651062 430.291840
-1.120000 2.840000 6.960000 -13.668106 16.650452 464.054688
-1.120000 2.840000 7.000000 -18.236179 3.377022 343.962494
-1.120000 2.840000 7.040000 -10.445554 -5.606602 140.543579
-1.120000 2.840000 7.080000 -0.633394 -3.157861 10.373273
-1.120000 2.840000 7.120000 1.080715 5.466088 31.046066
-1.120000 2.840000 7.160000 -5.124251 10.021988 126.698189
-1.120000 2.840000 7.200000 -10.873266 6.771723 164.084152
-1.120000 2.880000 6.800000 19.283884 -14.368812 578.330933
-1.120000 2.880000 6.840000 28.742588 12.557089 983.816833
-1.120000 2.880000 6.880000 10.594610 40.384132 1743.123901
-1.120000 2.880000 6.920000 -25.643883 44.242355 2614.994629
-1.120000 2.880000 6.960000 -52.941879 18.098665 3130.404297
-1.120000 2.880000 7.000000 -50.944069 -18.983358 2955.666016
-1.120000 2.880000 7.040000 -23.616856 -40.168571 2171.270020
-1.120000 2.880000 7.080000 6.237930 -34.115097 1202.751587
-1.120000 2.880000 7.120000 18.471588 -11.972410 484.538147
-1.120000 2.880000 7.160000 11.310282 6.346085 168.195251
-1.120000 2.880000 7.200000 -2.179169 10.576018 116.600945
-1.120000 2.920000 6.800000 29.108778 6.201265 885.776672
-1.120000 2.920000 6.840000 19.694859 43.081936 2243.940674
-1.120000 2.920000 6.880000 -22.970711 61.786003 4345.164062
-1.120000 2.920000 6.920000 -70.975342 38.366020 6509.450684
-1.120000 2.920000 6.960000 -86.502831 -17.101254 7775.192383
-1.120000 2.920000 7.000000 -55.435001 -66.806526 7536.151367
-1.120000 2.920000 7.040000 0.007195 -77.187454 5957.903320
-1.120000 2.920000 7.080000 41.070957 -46.341740 3834.380371
-1.120000 2.920000 7.120000 44.975853 -2.267262 2027.967896
-1.120000 2.920000 7.160000 19.958210 23.723923 961.154663
-1.120000 2.920000 7.200000 -7.837705 21.641033 529.763916
-1.120000 2.960000 6.800000 18.002403 29.627968 1201.902954
-1.120000 2.960000 6.840000 -14.202307 58.658531 3642.528809
-1.120000 2.960000 6.880000 -68.192520 49.888828 7139.115234
-1.120000 2.960000 6.920000 -102.233505 -4.546292 10472.358398
-1.120000 2.960000 6.960000 -83.477570 -72.546646 12231.519531
-1.120000 2.960000 7.000000 -18.930351 -106.484329 11697.270508
-1.120000 2.960000 7.040000 48.357296 -83.277672 9273.598633
-1.120000 2.960000 7.080000 74.910225 -23.138441 6146.929688
-1.120000 2.960000 7.120000 51.303162 29.379103 3495.145996
-1.120000 2.960000 7.160000 5.218510 42.873405 1865.361694
-1.120000 2.960000 7.200000 -26.214518 20.697796 1115.599609
-1.120000 3.000000 6.800000 -9.325718 36.668278 1431.531616
-1.120000 3.000000 6.840000 -51.853615 42.455238 4491.244629
-1.120000 3.000000 6.880000 -92.714432 5.152822 8622.517578
-1.120000 3.000000 6.920000 -92.556717 -60.771889 12259.968750
-1.120000 3.000000 6.960000 -39.218910 -110.944092 13846.714844
-1.120000 3.000000 7.000000 37.011833 -106.967827 12811.992188
-1.120000 3.000000 7.040000 85.834259 -50.007912 9868.311523
-1.120000 3.000000 7.080000 77.903282 19.287075 6440.912598
-1.120000 3.000000 7.120000 27.457279 54.646877 3740.183350
-1.120000 3.000000 7.160000 -22.768814 40.792297 2182.430420
-1.120000 3.000000 7.200000 -38.473671 0.896044 1481.026245
-1.120000 3.040000 6.800000 -33.132088 19.921427 1494.598511
-1.120000 3.040000 6.840000 -65.631523 2.739947 4315.004395
-1.120000 3.040000 6.880000 -77.078720 -44.038963 7880.559082
-1.120000 3.040000 6.920000 -45.811768 -92.839432 10717.877930
-1.120000 3.040000 6.960000 17.636362 -106.017563 11550.764648
-1.120000 3.040000 7.000000 73.978943 -68.242111 10129.869141
-1.120000 3.040000 7.040000 85.638016 -2.440533 7339.825684
-1.120000 3.040000 7.080000 47.990982 47.131527 4524.515137
-1.120000 3.040000 7.120000 -7.070801 50.634232 2613.821777
-1.120000 3.040000 7.160000 -38.491989 15.471107 1720.988281
-1.120000 3.040000 7.200000 -29.295179 -23.324673 1402.247803
-1.120000 3.080000 6.800000 -35.793877 -8.033379 1345.736816
-1.120000 3.080000 6.840000 -46.410099 -32.294777 3196.849854
-1.120000 3.080000 6.880000 -33.566353 -64.729240 5316.574707
-1.120000 3.080000 6.920000 4.861977 -81.987579 6745.602051
-1.120000 3.080000 6.960000 49.220798 -65.922897 6768.515625
-1.120000 3.080000 7.000000 70.458542 -21.366016 5420.913086
-1.120000 3.080000 7.040000 53.695190 24.139172 3465.873047
-1.120000 3.080000 7.080000 12.052462 41.150112 1838.593628
-1.120000 3.080000 7.120000 -23.026640 22.384472 1031.290771
-1.120000 3.080000 7.160000 -27.595160 -11.638725 896.952759
-1.120000 3.080000 7.200000 -4.300308 -30.788454 966.421570
-1.120000 3.120000 6.800000 -18.160696 -25.703659 990.489014
-1.120000 3.120000 6.840000 -12.320915 -39.509598 1712.813232
-1.120000 3.120000 6.880000 4.213036 -48.480465 2368.105225
-1.120000 3.120000 6.920000 25.988989 -44.293461 2637.338135
-1.120000 3.120000 6.960000 41.204376 -25.123089 2328.970215
-1.120000 3.120000 7.000000 39.452152 0.077183 1556.478271
-1.120000 3.120000 7.040000 21.121382 16.132833 706.381104
-1.120000 3.120000 7.080000 -0.762966 13.400673 180.160156
-1.120000 3.120000 7.120000 -10.088457 -3.251856 112.351540
-1.120000 3.120000 7.160000 -1.397466 -17.587851 311.285400
-1.120000 3.120000 7.200000 14.889267 -15.854674 473.060974
-1.120000 3.160000 6.800000 1.681545 -22.750633 520.418884
-1.120000 3.160000 6.840000 8.440519 -21.455910 531.598389
-1.120000 3.160000 6.880000 11.808607 -17.633055 450.367828
-1.120000 3.160000 6.920000 12.587228 -14.546974 370.052765
-1.120000 3.160000 6.960000 12.970567 -12.690762 329.291016
-1.120000 3.160000 7.000000 13.653992 -10.921028 305.700348
-1.120000 3.160000 7.040000 14.047070 -8.856258 275.753479
-1.120000 3.160000 7.080000 14.177481 -6.967321 249.544525
-1.120000 3.160000 7.120000 14.806058 -4.799381 242.253403
-1.120000 3.160000 7.160000 15.316374 -0.687155 235.063492
-1.120000 3.160000 7.200000 12.697303 5.584625 192.409531
-1.120000 3.200000 6.800000 6.509840 -9.027479 123.873398
-1.120000 3.200000 6.840000 4.055943 -2.098190 20.853073
-1.120000 3.200000 6.880000 -5.209039 -2.627575 34.038235
-1.120000 3.200000 6.920000 -10.627943 -13.878017 305.552551
-1.120000 3.200000 6.960000 -3.467369 -27.917477 791.408142
-1.120000 3.200000 7.000000 14.302467 -32.530258 1262.778198
-1.120000 3.200000 7.040000 31.236912 -22.146385 1466.207031
-1.120000 3.200000 7.080000 36.059052 -2.570110 1306.860718
-1.120000 3.200000 7.120000 26.403606 14.219248 899.337463
-1.120000 3.200000 7.160000 9.406534 19.444635 466.576721
-1.120000 3.200000 7.200000 -4.912842 12.709000 185.654694
-1.080000 2.800000 6.800000 -5.050077 -20.957455 464.718201
-1.080000 2.800000 6.840000 7.866811 -12.777714 225.156677
-1.080000 2.800000 6.880000 8.777365 0.678833 77.502945
-1.080000 2.800000 6.920000 -0.401955 6.394640 41.052986
-1.080000 2.800000 6.960000 -6.917568 -0.014809 47.852966
-1.080000 2.800000 7.000000 -0.858034 -8.792522 78.044670
-1.080000 2.800000 7.040000 13.267585 -6.104889 213.298477
-1.080000 2.800000 7.080000 20.262531 10.543442 521.734314
-1.080000 2.800000 7.120000 10.101912 28.334002 904.864258
-1.080000 2.800000 7.160000 -10.835371 31.535437 1111.889038
-1.080000 2.800000 7.200000 -25.422508 17.545856 954.161011
-1.080000 2.840000 6.800000 16.291172 -18.575384 610.447144
-1.080000 2.840000 6.840000 26.521088 9.016080 784.657776
-1.080000 2.840000 6.880000 8.486038 36.494499 1403.861328
-1.080000 2.840000 6.920000 -26.412281 38.660515 2192.243896
-1.080000 2.840000 6.960000 -49.466751 11.552170 2580.412109
-1.080000 2.840000 7.000000 -41.574638 -22.318947 2226.585938
-1.080000 2.840000 7.040000 -11.389709 -34.983952 1353.602295
-1.080000 2.840000 7.080000 13.757946 -19.130774 555.267578
-1.080000 2.840000 7.120000 14.511932 6.906902 258.301483
-1.080000 2.840000 7.160000 -3.713202 19.164455 381.064209
-1.080000 2.840000 7.200000 -19.625917 11.268068 512.145996
-1.080000 2.880000 6.800000 29.785896 2.329309 892.625305
-1.080000 2.880000 6.840000 19.440699 45.661915 2462.951172
-1.080000 2.880000 6.880000 -30.116932 67.393616 5448.929199
-1.080000 2.880000 6.920000 -85.123283 39.233757 8785.260742
-1.080000 2.880000 6.960000 -100.385994 -25.438087 10724.444336
-1.080000 2.880000 7.000000 -60.965012 -80.108032 10134.029297
-1.080000 2.880000 7.040000 3.322159 -85.892281 7388.520508
-1.080000 2.880000 7.080000 44.998886 -45.071762 4056.363525
-1.080000 2.880000 7.120000 40.686161 4.435152 1675.034180
-1.080000 2.880000 7.160000 7.206672 25.943165 724.983887
-1.080000 2.880000 7.200000 -20.400377 14.603981 629.451660
-1.080000 2.920000 6.800000 20.688650 29.083879 1273.892334
-1.080000 2.920000 6.840000 -20.638542 67.979485 5047.159668
-1.080000 2.920000 6.880000 -91.703018 56.692097 11623.437500
-1.080000 2.920000 6.920000 -135.887299 -15.745144 18713.267578
-1.080000 2.920000 6.960000 -108.905815 -105.208191 22929.240234
-1.080000 2.920000 7.000000 -21.950081 -147.052994 22106.388672
-1.080000 2.920000 7.040000 65.054169 -112.341339 16852.621094
-1.080000 2.920000 7.080000 94.797409 -32.134041 10019.145508
-1.080000 2.920000 7.120000 59.636040 32.399014 4606.153320
-1.080000 2.920000 7.160000 1.296082 43.468025 1891.149048
-1.080000 2.920000 7.200000 -31.991655 12.861312 1188.879395
-1.080000 2.960000 6.800000 -9.023050 39.697578 1657.313110
-1.080000 2.960000 6.840000 -70.817162 50.096035 7524.683105
-1.080000 2.960000 6.880000 -131.471771 -4.621058 17306.179688
-1.080000 2.960000 6.920000 -130.221970 -102.798637 27525.320312
-1.080000 2.960000 6.960000 -48.841496 -176.220505 33439.156250
-1.080000 2.960000 7.000000 65.110580 -167.146057 32177.191406
-1.080000 2.960000 7.040000 135.215881 -80.065460 24693.812500
-1.080000 2.960000 7.080000 120.325325 21.559813 14943.008789
-1.080000 2.960000 7.120000 46.152344 70.290092 7070.736328
-1.080000 2.960000 7.160000 -22.973660 49.103401 2938.933105
-1.080000 2.960000 7.200000 -41.782063 -3.610898 1758.779297
-1.080000 3.000000 6.800000 -38.445137 21.860781 1955.922363
-1.080000 3.000000 6.840000 -93.115952 -3.821707 8685.185547
-1.080000 3.000000 6.880000 -112.883095 -81.836212 19439.757812
-1.080000 3.000000 6.920000 -58.808983 -163.667175 30245.439453
-1.080000 3.000000 6.960000 49.920467 -183.306763 36093.425781
-1.080000 3.000000 7.000000 144.221039 -115.862373 34223.796875
-1.080000 3.000000 7.040000 161.009705 -3.263321 25934.773438
-1.080000 3.000000 7.080000 96.153694 79.160019 15511.841797
-1.080000 3.000000 7.120000 5.490671 85.003838 7255.799805
-1.080000 3.000000 7.160000 -45.429111 30.809967 3013.058350
-1.080000 3.000000 7.200000 -34.574295 -26.510021 1898.163086
-1.080000 3.040000 6.800000 -43.934895 -13.951050 2124.906738
-1.080000 3.040000 6.840000 -67.578033 -58.289211 7964.422852
-1.080000 3.040000 6.880000 -43.286957 -122.075760 16776.251953
-1.080000 3.040000 6.920000 34.183708 -154.826828 25139.871094
-1.080000 3.040000 6.960000 122.499832 -118.804871 29120.806641
-1.080000 3.040000 7.000000 161.736755 -26.314266 26851.218750
-1.080000 3.040000 7.040000 124.439865 65.199928 19736.310547
-1.080000 3.040000 7.080000 39.843796 98.838852 11356.646484
-1.080000 3.040000 7.120000 -30.815928 63.997330 5045.279785
-1.080000 3.040000 7.160000 -45.238899 1.087173 2047.739990
-1.080000 3.040000 7.200000 -10.891759 -36.872410 1478.204956
-1.080000 3.080000 6.800000 -20.157619 -41.508270 2129.266113
-1.080000 3.080000 6.840000 -11.921131 -75.350677 5819.837891
-1.080000 3.080000 6.880000 29.142149 -99.979988 10845.262695
-1.080000 3.080000 6.920000 87.069748 -87.021156 15153.822266
-1.080000 3.080000 6.960000 125.222427 -31.293430 16659.935547
-1.080000 3.080000 7.000000 114.426201 39.106308 14622.659180
-1.080000 3.080000 7.040000 58.887127 81.674995 10138.498047
-1.080000 3.080000 7.080000 -4.731712 73.050659 5358.788086
-1.080000 3.080000 7.120000 -36.145298 27.701702 2073.866699
-1.080000 3.080000 7.160000 -23.219482 -15.276386 772.512329
-1.080000 3.080000 7.200000 11.216551 -25.270908 764.429871
-1.080000 3.120000 6.800000 14.340578 -41.262970 1908.284912
-1.080000 3.120000 6.840000 32.834320 -47.574982 3341.471436
-1.080000 3.120000 6.880000 56.650314 -39.770859 4790.979492
-1.080000 3.120000 6.920000 73.840073 -15.302231 5686.514648
-1.080000 3.120000 6.960000 72.530930 18.033340 5585.937012
-1.080000 3.120000 7.000000 49.850288 44.455788 4461.368164
-1.080000 3.120000 7.040000 16.390160 50.022797 2770.917480
-1.080000 3.120000 7.080000 -9.430187 33.437893 1207.021118
-1.080000 3.120000 7.120000 -14.523642 8.288998 279.643646
-1.080000 3.120000 7.160000 -1.431763 -6.819798 48.559597
-1.080000 3.120000 7.200000 13.784132 -3.042992 199.262085
-1.080000 3.160000 6.800000 33.440189 -17.432468 1422.137207
-1.080000 3.160000 6.840000 38.270683 -3.487392 1476.807007
-1.080000 3.160000 6.880000 32.391056 8.040043 1113.822876
-1.080000 3.160000 6.920000 23.414749 10.961636 668.407959
-1.080000 3.160000 6.960000 19.145142 8.658775 441.510834
-1.080000 3.160000 7.000000 19.739517 8.422026 460.579041
-1.080000 3.160000 7.040000 19.317078 12.746799 535.630371
-1.080000 3.160000 7.080000 13.838025 17.414639 494.760559
-1.080000 3.160000 7.120000 5.597483 17.426502 335.014801
-1.080000 3.160000 7.160000 -0.329376 12.949564 167.799698
-1.080000 3.160000 7.200000 -2.466120 8.207542 73.445503
-1.080000 3.200000 6.800000 26.733637 6.786966 760.750244
-1.080000 3.200000 6.840000 11.941800 19.769741 533.449219
-1.080000 3.200000 6.880000 -8.154505 12.350346 219.026978
-1.080000 3.200000 6.920000 -12.060558 -10.746580 260.946045
-1.080000 3.200000 6.960000 7.193283 -27.682024 818.037781
-1.080000 3.200000 7.000000 34.042912 -20.674368 1586.349243
-1.080000 3.200000 7.040000 44.837650 6.493809 2052.584473
-1.080000 3.200000 7.080000 29.991177 32.068615 1927.866821
-1.080000 3.200000 7.120000 1.933453 36.765862 1355.466797
-1.080000 3.200000 7.160000 -17.895683 20.224836 729.299500
-1.080000 3.200000 7.200000 -18.522369 -1.692816 345.943787
-1.040000 2.800000 6.800000 11.194380 -23.063759 657.251099
-1.040000 2.800000 6.840000 19.529173 -3.619335 394.488159
-1.040000 2.800000 6.880000 8.879025 13.636484 264.790771
-1.040000 2.800000 6.920000 -9.881905 13.140606 270.327576
-1.040000 2.800000 6.960000 -17.004822 -3.381660 300.599609
-1.040000 2.800000 7.000000 -3.949255 -17.261887 313.569336
-1.040000 2.800000 7.040000 16.841225 -11.341747 412.262085
-1.040000 2.800000 7.080000 23.700542 12.002752 705.781738
-1.040000 2.800000 7.120000 7.628223 32.408920 1108.527954
-1.040000 2.800000 7.160000 -18.280256 31.653811 1336.131470
-1.040000 2.800000 7.200000 -31.859205 11.699312 1151.882812
-1.040000 2.840000 6.800000 27.884233 -3.662531 790.944580
-1.040000 2.840000 6.840000 19.033623 33.424278 1479.461182
-1.040000 2.840000 6.880000 -21.614185 50.662292 3033.841064
-1.040000 2.840000 6.920000 -63.966137 26.560818 4797.143555
-1.040000 2.840000 6.960000 -71.316238 -24.268845 5674.982422
-1.040000 2.840000 7.000000 -35.468845 -61.613155 5054.219727
-1.040000 2.840000 7.040000 14.195869 -56.226841 3362.980469
-1.040000 2.840000 7.080000 37.833538 -16.527636 1704.539307
-1.040000 2.840000 7.120000 21.596729 21.071905 910.443848
-1.040000 2.840000 7.160000 -12.550930 27.651115 922.109985
-1.040000 2.840000 7.200000 -31.704447 6.891118 1052.659424
-1.040000 2.880000 6.800000 22.477186 24.692814 1114.958984
-1.040000 2.880000 6.840000 -18.654282 62.559361 4261.655762
-1.040000 2.880000 6.880000 -87.280937 50.360458 10154.137695
-1.040000 2.880000 6.920000 -127.349075 -20.344219 16631.673828
-1.040000 2.880000 6.960000 -97.555717 -104.031334 20339.636719
-1.040000 2.880000 7.000000 -12.789963 -137.889633 19177.134766
-1.040000 2.880000 7.040000 65.945892 -97.870125 13927.421875
-1.040000 2.880000 7.080000 85.018066 -19.627377 7613.305664
-1.040000 2.880000 7.120000 43.445564 35.687187 3161.092285
-1.040000 2.880000 7.160000 -12.572589 36.073692 1459.381226
-1.040000 2.880000 7.200000 -36.868996 0.838603 1360.026123
-1.040000 2.920000 6.800000 -6.231367 39.434898 1593.941162
-1.040000 2.920000 6.840000 -75.342186 50.453289 8221.979492
-1.040000 2.920000 6.880000 -141.646973 -11.456501 20195.117188
-1.040000 2.920000 6.920000 -137.371780 -119.987183 33267.929688
-1.040000 2.920000 6.960000 -44.762745 -197.614090 41055.031250
-1.040000 2.920000 7.000000 79.810211 -181.850479 39439.265625
-1.040000 2.920000 7.040000 150.916428 -82.424500 29569.566406
-1.040000 2.920000 7.080000 127.212418 26.636497 16892.501953
-1.040000 2.920000 7.120000 43.314438 72.438789 7123.519043
-1.040000 2.920000 7.160000 -27.603365 42.910442 2603.251709
-1.040000 2.920000 7.200000 -40.559277 -13.791365 1835.256714
-1.040000 2.960000 6.800000 -38.851254 24.565531 2112.885254
-1.040000 2.960000 6.840000 -108.157265 -7.684242 11757.041992
-1.040000 2.960000 6.880000 -132.044067 -106.486237 28774.953125
-1.040000 2.960000 6.920000 -61.547413 -208.156509 47117.218750
-1.040000 2.960000 6.960000 76.057304 -228.556580 58022.824219
-1.040000 2.960000 7.000000 191.025024 -139.343048 55907.042969
-1.040000 2.960000 7.040000 205.612457 2.110584 42280.937500
-1.040000 2.960000 7.080000 120.203674 100.141739 24477.291016
-1.040000 2.960000 7.120000 8.941658 101.375320 10356.909180
-1.040000 2.960000 7.160000 -48.488739 33.064732 3444.434082
-1.040000 2.960000 7.200000 -32.040131 -32.466133 2080.619629
-1.040000 3.000000 6.800000 -48.886105 -13.395317 2569.285889
-1.040000 3.000000 6.840000 -85.357864 -76.776672 13180.622070
-1.040000 3.000000 6.880000 -50.413544 -169.660431 31326.187500
-1.040000 3.000000 6.920000 62.908588 -215.542419 50416.027344
-1.040000 3.000000 6.960000 189.571426 -159.553329 61394.589844
-1.040000 3.000000 7.000000 241.215408 -23.526123 58738.351562
-1.040000 3.000000 7.040000 181.699341 105.924522 44234.656250
-1.040000 3.000000 7.080000 58.585285 148.554138 25500.568359
-1.040000 3.000000 7.120000 -39.164848 95.301231 10616.209961
-1.040000 3.000000 7.160000 -56.500084 7.955676 3255.552246
-1.040000 3.000000 7.200000 -10.564940 -41.397148 1825.341797
-1.040000 3.040000 6.800000 -25.081699 -47.836433 2917.416016
-1.040000 3.040000 6.840000 -17.060152 -107.740570 11899.079102
-1.040000 3.040000 6.880000 52.599995 -153.881744 26446.351562
-1.040000 3.040000 6.920000 154.147339 -131.663742 41096.742188
-1.040000 3.040000 6.960000 218.742371 -32.458023 48901.750000
-1.040000 3.040000 7.000000 194.658829 89.912498 45976.316406
-1.040000 3.040000 7.040000 93.867035 159.011475 34095.667969
-1.040000 3.040000 7.080000 -15.717695 138.016785 19295.679688
-1.040000 3.040000 7.120000 -66.367722 57.681232 7731.798828
-1.040000 3.040000 7.160000 -43.602505 -14.349016 2107.072754
-1.040000 3.040000 7.200000 10.585388 -32.031197 1138.047974
-1.040000 3.080000 6.800000 17.516699 -53.002686 3116.119385
-1.040000 3.080000 6.840000 50.094292 -79.135010 8771.787109
-1.040000 3.080000 6.880000 108.071434 -72.654053 16958.046875
-1.040000 3.080000 6.920000 155.534042 -17.412689 24494.039062
-1.040000 3.080000 6.960000 153.359695 65.606110 27823.357422
-1.040000 3.080000 7.000000 93.044189 128.980530 25293.197266
-1.040000 3.080000 7.040000 7.645309 134.787079 18226.007812
-1.040000 3.080000 7.080000 -52.284721 85.093460 9974.588867
-1.040000 3.080000 7.120000 -57.894676 19.579205 3735.138672
-1.040000 3.080000 7.160000 -22.099709 -17.605627 798.355225
-1.040000 3.080000 7.200000 15.829681 -11.938215 393.099792
-1.040000 3.120000 6.800000 49.082001 -25.591404 3063.962646
-1.040000 3.120000 6.840000 71.673065 -15.748718 5385.050293
-1.040000 3.120000 6.880000 87.284775 11.512825 7751.176758
-1.040000 3.120000 6.920000 83.522263 48.283222 9307.238281
-1.040000 3.120000 6.960000 56.649567 78.819405 9421.671875
-1.040000 3.120000 7.000000 15.611282 88.102158 8005.702148
-1.040000 3.120000 7.040000 -21.732903 71.472267 5580.604004
-1.040000 3.120000 7.080000 -39.092880 38.661552 3022.968750
-1.040000 3.120000 7.120000 -32.368111 8.211645 1115.125732
-1.040000 3.120000 7.160000 -12.378180 -4.875379 176.988647
-1.040000 3.120000 7.200000 3.316260 0.644300 11.412705
-1.040000 3.160000 6.800000 49.723434 12.738675 2634.693848
-1.040000 3.160000 6.840000 42.125561 33.862804 2921.252441
-1.040000 3.160000 6.880000 22.968719 42.347721 2320.891602
-1.040000 3.160000 6.920000 7.638062 36.245811 1372.098755
-1.040000 3.160000 6.960000 4.178749 27.053434 749.350220
-1.040000 3.160000 7.000000 6.335495 25.670956 699.136475
-1.040000 3.160000 7.040000 2.703995 30.580410 942.473083
-1.040000 3.160000 7.080000 -9.297915 31.001671 1047.554810
-1.040000 3.160000 7.120000 -20.589363 20.385784 839.502075
-1.040000 3.160000 7.160000 -21.237734 4.352388 469.984650
-1.040000 3.160000 7.200000 -11.880395 -5.746620 174.167419
-1.040000 3.200000 6.800000 25.207455 34.477364 1824.104370
-1.040000 3.200000 6.840000 -4.354767 39.535873 1582.049316
-1.040000 3.200000 6.880000 -25.308319 15.690922 886.716003
-1.040000 3.200000 6.920000 -15.434723 -15.472325 477.623535
-1.040000 3.200000 6.960000 17.209843 -22.909763 821.035889
-1.040000 3.200000 7.000000 41.021133 2.241951 1687.759766
-1.040000 3.200000 7.040000 31.998093 37.096455 2400.024902
-1.040000 3.200000 7.080000 -2.719231 49.464653 2454.146240
-1.040000 3.200000 7.120000 -32.701454 28.941437 1906.991943
-1.040000 3.200000 7.160000 -34.357098 -4.919310 1204.609741
-1.040000 3.200000 7.200000 -11.854340 -23.991680 716.126099
-1.000000 2.800000 6.800000 24.135492 -10.744173 697.959229
-1.000000 2.800000 6.840000 20.500433 12.400475 574.039551
-1.000000 2.800000 6.880000 -0.487236 23.130619 535.262939
-1.000000 2.800000 6.920000 -20.391844 11.519104 548.517090
-1.000000 2.800000 6.960000 -20.076468 -11.298187 530.713562
-1.000000 2.800000 7.000000 0.891190 -22.245094 495.638428
-1.000000 2.800000 7.040000 22.389496 -8.634792 575.849182
-1.000000 2.800000 7.080000 22.712143 18.683544 864.916260
-1.000000 2.800000 7.120000 -0.167006 35.328186 1248.108521
-1.000000 2.800000 7.160000 -26.625050 26.986595 1437.169556
-1.000000 2.800000 7.200000 -34.772102 2.774985 1216.799683
-1.000000 2.840000 6.800000 22.710775 16.525181 788.860901
-1.000000 2.840000 6.840000 -7.353470 44.377392 2023.426392
-1.000000 2.840000 6.880000 -55.463310 35.735531 4353.207031
-1.000000 2.840000 6.920000 -81.502411 -13.024750 6812.287109
-1.000000 2.840000 6.960000 -58.338058 -67.712685 7988.336914
-1.000000 2.840000 7.000000 0.013222 -84.597008 7156.653809
-1.000000 2.840000 7.040000 48.504997 -50.554546 4908.497070
-1.000000 2.840000 7.080000 51.393471 4.581268 2662.276855
-1.000000 2.840000 7.120000 13.611156 36.161602 1492.925049
-1.000000 2.840000 7.160000 -27.086138 25.345482 1376.052246
-1.000000 2.840000 7.200000 -37.783112 -7.532381 1484.300293
-1.000000 2.880000 6.800000 -2.370789 33.904030 1155.103882
-1.000000 2.880000 6.840000 -61.255924 42.066002 5521.836914
-1.000000 2.880000 6.880000 -115.626724 -10.885838 13488.040039
-1.000000 2.880000 6.920000 -109.461166 -100.596771 22101.457031
-1.000000 2.880000 6.960000 -30.730698 -161.236633 26941.626953
-1.000000 2.880000 7.000000 70.456871 -142.615997 25303.492188
-1.000000 2.880000 7.040000 122.529503 -57.159752 18280.716797
-1.000000 2.880000 7.080000 94.774719 30.111786 9888.966797
-1.000000 2.880000 7.120000 21.529240 59.568977 4011.971191
-1.000000 2.880000 7.160000 -33.642670 26.647350 1841.910522
-1.000000 2.880000 7.200000 -36.308372 -22.920475 1843.646118
-1.000000 2.920000 6.800000 -34.764336 23.678623 1769.236328
-1.000000 2.920000 6.840000 -101.260002 -9.155699 10337.415039
-1.000000 2.920000 6.880000 -121.959076 -105.012863 25901.718750
-1.000000 2.920000 6.920000 -51.426609 -200.634720 42898.984375
-1.000000 2.920000 6.960000 80.857483 -215.439545 52952.132812
-1.000000 2.920000 7.000000 186.712387 -125.667542 50653.847656
-1.000000 2.920000 7.040000 193.513580 9.379826 37535.484375
-1.000000 2.920000 7.080000 106.844765 97.031158 20830.849609
-1.000000 2.920000 7.120000 1.893513 90.253609 8149.299316
-1.000000 2.920000 7.160000 -46.169437 21.272224 2584.124512
-1.000000 2.920000 7.200000 -24.166998 -38.139523 2038.666992
-1.000000 2.960000 6.800000 -48.345207 -11.476002 2468.957520
-1.000000 2.960000 6.840000 -88.002701 -82.143608 14492.047852
-1.000000 2.960000 6.880000 -47.599529 -183.993805 36119.433594
-1.000000 2.960000 6.920000 78.357407 -231.352921 59664.058594
-1.000000 2.960000 6.960000 215.296844 -165.486923 73738.656250
-1.000000 2.960000 7.000000 265.928528 -14.637863 70932.250000
-1.000000 2.960000 7.040000 194.703003 123.250885 53100.039062
-1.000000 2.960000 7.080000 59.029022 162.366837 29847.416016
-1.000000 2.960000 7.120000 -42.591076 98.917969 11598.764648
-1.000000 2.960000 7.160000 -54.879051 4.914653 3035.864014
-1.000000 2.960000 7.200000 -3.230119 -42.969803 1856.837646
-1.000000 3.000000 6.800000 -28.475437 -47.647831 3081.166260
-1.000000 3.000000 6.840000 -20.101749 -124.951889 16017.054688
-1.000000 3.000000 6.880000 68.827332 -184.361954 38726.531250
-1.000000 3.000000 6.920000 198.004211 -154.390778 63042.179688
-1.000000 3.000000 6.960000 276.831482 -26.129047 77318.398438
-1.000000 3.000000 7.000000 240.546402 127.704765 74171.078125
-1.000000 3.000000 7.040000 109.430107 208.875763 55604.035156
-1.000000 3.000000 7.080000 -26.476402 175.163589 31383.283203
-1.000000 3.000000 7.120000 -83.607895 71.668541 12126.660156
-1.000000 3.000000 7.160000 -50.572853 -14.987350 2782.234131
-1.000000 3.000000 7.200000 15.138010 -32.609116 1292.513672
-1.000000 3.040000 6.800000 14.441763 -57.490082 3513.674072
-1.000000 3.040000 6.840000 59.500145 -103.877617 14330.827148
-1.000000 3.040000 6.880000 149.653961 -99.762276 32348.820312
-1.000000 3.040000 6.920000 225.102859 -16.075558 50929.718750
-1.000000 3.040000 6.960000 220.626770 112.190964 61262.984375
-1.000000 3.040000 7.000000 124.249290 206.581863 58113.953125
-1.000000 3.040000 7.040000 -7.280739 208.074310 43347.925781
-1.000000 3.040000 7.080000 -93.212318 125.582031 24459.382812
-1.000000 3.040000 7.120000 -93.586288 25.578896 9412.673828
-1.000000 3.040000 7.160000 -35.509521 -25.956881 1934.685791
-1.000000 3.040000 7.200000 19.358995 -14.546503 586.371460
-1.000000 3.080000 6.800000 51.943466 -32.227913 3736.762207
-1.000000 3.080000 6.840000 97.256485 -33.328312 10569.600586
-1.000000 3.080000 6.880000 143.408493 10.264999 20671.367188
-1.000000 3.080000 6.920000 149.232178 89.195297 30226.042969
-1.000000 3.080000 6.960000 94.768013 160.777557 34830.398438
-1.000000 3.080000 7.000000 2.325706 179.569046 32250.451172
-1.000000 3.080000 7.040000 -77.163338 133.707870 23831.976562
-1.000000 3.080000 7.080000 -102.538528 54.850677 13522.746094
-1.000000 3.080000 7.120000 -72.518867 -7.425968 5314.131348
-1.000000 3.080000 7.160000 -22.129353 -23.885759 1060.237793
-1.000000 3.080000 7.200000 9.116745 -3.540535 95.650421
-1.000000 3.120000 6.800000 59.756241 11.309913 3698.722412
-1.000000 3.120000 6.840000 73.059586 36.084091 6639.764648
-1.000000 3.120000 6.880000 67.600311 71.112900 9626.846680
-1.000000 3.120000 6.920000 39.006180 100.475525 11616.813477
-1.000000 3.120000 6.960000 -4.447380 109.097183 11921.974609
-1.000000 3.120000 7.000000 -46.054298 91.420532 10478.711914
-1.000000 3.120000 7.040000 -69.591240 54.588490 7822.843750
-1.000000 3.120000 7.080000 -67.875076 14.666965 4822.145508
-1.000000 3.120000 7.120000 -46.418797 -12.078127 2300.585693
-1.000000 3.120000 7.160000 -19.868597 -18.100643 722.394409
-1.000000 3.120000 7.200000 -2.931406 -8.350019 78.315964
-1.000000 3.160000 6.800000 36.264881 44.691475 3312.469482
-1.000000 3.160000 6.840000 14.289017 60.458946 3859.460205
-1.000000 3.160000 6.880000 -11.089397 55.606537 3215.061768
-1.000000 3.160000 6.920000 -22.573105 38.207272 1969.340698
-1.000000 3.160000 6.960000 -19.441063 25.791103 1043.135986
-1.000000 3.160000 7.000000 -15.926388 25.597954 908.905090
-1.000000 3.160000 7.040000 -23.233383 27.749535 1309.826782
-1.000000 3.160000 7.080000 -36.078590 18.365574 1638.958984
-1.000000 3.160000 7.120000 -38.884140 -2.937405 1520.604614
-1.000000 3.160000 7.160000 -24.216665 -21.368143 1043.044434
-1.000000 3.160000 7.200000 -2.175293 -22.933533 530.678772
-1.000000 3.200000 6.800000 1.618128 50.471703 2550.011230
-1.000000 3.200000 6.840000 -31.564095 36.698925 2343.103271
-1.000000 3.200000 6.880000 -38.034981 -0.234076 1446.714600
-1.000000 3.200000 6.920000 -9.820770 -25.037247 723.311218
-1.000000 3.200000 6.960000 25.316696 -12.816772 805.204773
-1.000000 3.200000 7.000000 31.315258 24.239594 1568.203369
-1.000000 3.200000 7.040000 0.826424 48.394997 2342.758545
-1.000000 3.200000 7.080000 -37.149559 34.460487 2567.614746
-1.000000 3.200000 7.120000 -46.802174 -5.301373 2218.547852
-1.000000 3.200000 7.160000 -20.947004 -34.925541 1658.570435
-1.000000 3.200000 7.200000 14.231203 -31.400372 1188.510498
-0.960000 2.800000 6.800000 22.557293 7.184668 560.450928
-0.960000 2.800000 6.840000 9.018448 23.688120 642.459412
-0.960000 2.800000 6.880000 -13.428320 23.217045 719.350952
-0.960000 2.800000 6.920000 -26.300585 4.492249 711.901062
-0.960000 2.800000 6.960000 -17.675026 -16.570518 586.988647
-0.960000 2.800000 7.000000 5.154343 -20.352713 440.800171
-0.960000 2.800000 7.040000 21.015842 -2.275568 446.843842
-0.960000 2.800000 7.080000 14.371780 21.959732 688.777893
-0.960000 2.800000 7.120000 -9.841098 30.707039 1039.769409
-0.960000 2.800000 7.160000 -30.909098 16.632133 1232.000244
-0.960000 2.800000 7.200000 -32.087257 -7.006412 1078.681885
-0.960000 2.840000 6.800000 2.521979 24.772953 620.059570
-0.960000 2.840000 6.840000 -33.998901 30.369320 2078.220947
-0.960000 2.840000 6.880000 -67.332138 -0.757153 4534.189941
-0.960000 2.840000 6.920000 -64.211136 -53.463341 6981.398438
-0.960000 2.840000 6.960000 -18.123619 -88.065598 8084.014648
-0.960000 2.840000 7.000000 39.954208 -74.924675 7210.045898
-0.960000 2.840000 7.040000 66.631920 -22.935482 4965.849121
-0.960000 2.840000 7.080000 44.543335 27.053558 2716.003662
-0.960000 2.840000 7.120000 -2.979233 38.684574 1505.372070
-0.960000 2.840000 7.160000 -35.022087 11.298691 1354.207031
-0.960000 2.840000 7.200000 -30.689541 -23.603048 1498.951782
-0.960000 2.880000 6.800000 -26.663319 18.681496 1059.930908
-0.960000 2.880000 6.840000 -74.294098 -6.592770 5563.077637
-0.960000 2.880000 6.880000 -87.850021 -76.109406 13510.267578
-0.960000 2.880000 6.920000 -35.826298 -143.753937 21948.718750
-0.960000 2.880000 6.960000 59.099007 -151.954529 26582.873047
-0.960000 2.880000 7.000000 132.549454 -85.209366 24829.994141
-0.960000 2.880000 7.040000 132.903824 11.634216 17798.781250
-0.960000 2.880000 7.080000 66.677216 70.709900 9445.741211
-0.960000 2.880000 7.120000 -9.059200 59.507042 3623.157227
-0.960000 2.880000 7.160000 -39.210369 4.804731 1560.538452
-0.960000 2.880000 7.200000 -16.720663 -38.417633 1755.495117
-0.960000 2.920000 6.800000 -41.195770 -11.188461 1822.273071
-0.960000 2.920000 6.840000 -72.012238 -71.654144 10320.078125
-0.960000 2.920000 6.880000 -35.420811 -155.897385 25558.628906
-0.960000 2.920000 6.920000 71.154442 -192.359589 42065.164062
-0.960000 2.920000 6.960000 183.798981 -133.758362 51673.367188
-0.960000 2.920000 7.000000 221.571716 -6.501705 49136.300781
-0.960000 2.920000 7.040000 157.509033 105.808197 36004.468750
-0.960000 2.920000 7.080000 43.056511 132.629166 19444.359375
-0.960000 2.920000 7.120000 -38.129204 74.573250 7015.005859
-0.960000 2.920000 7.160000 -42.210072 -4.600336 1802.853271
-0.960000 2.920000 7.200000 5.116679 -40.577568 1672.719482
-0.960000 2.960000 6.800000 -25.789970 -44.518791 2647.045410
-0.960000 2.960000 6.840000 -15.558044 -118.719376 14336.342773
-0.960000 2.960000 6.880000 71.739243 -173.627136 35292.902344
-0.960000 2.960000 6.920000 195.258087 -141.170120 58054.718750
-0.960000 2.960000 6.960000 267.014801 -15.524508 71537.914062
-0.960000 2.960000 7.000000 226.845184 130.579315 68509.695312
-0.960000 2.960000 7.040000 98.346382 202.784088 50793.398438
-0.960000 2.960000 7.080000 -29.349838 164.315567 27861.017578
-0.960000 2.960000 7.120000 -77.727951 63.164749 10031.419922
-0.960000 2.960000 7.160000 -40.969807 -16.251234 1942.627686
-0.960000 2.960000 7.200000 21.788044 -27.572668 1234.970947
-0.960000 3.000000 6.800000 12.430248 -55.747826 3262.331055
-0.960000 3.000000 6.840000 62.511608 -108.455414 15670.278320
-0.960000 3.000000 6.880000 163.669434 -103.567245 37513.859375
-0.960000 3.000000 6.920000 246.763626 -8.622583 60966.636719
-0.960000 3.000000 6.960000 238.065125 134.466400 74756.218750
-0.960000 3.000000 7.000000 126.996094 235.601593 71636.117188
-0.960000 3.000000 7.040000 -18.836996 230.455276 53464.464844
-0.960000 3.000000 7.080000 -108.399597 134.135773 29742.878906
-0.960000 3.000000 7.120000 -101.501358 24.615376 10908.442383
-0.960000 3.000000 7.160000 -34.286427 -26.470043 1876.222290
-0.960000 3.000000 7.200000 23.164732 -9.358330 624.183105
-0.960000 3.040000 6.800000 48.547710 -34.486694 3546.212158
-0.960000 3.040000 6.840000 109.240189 -43.468487 13822.928711
-0.960000 3.040000 6.880000 175.860764 11.132195 31050.933594
-0.960000 3.040000 6.920000 187.083313 118.161865 48962.390625
-0.960000 3.040000 6.960000 112.784286 215.375214 59106.781250
-0.960000 3.040000 7.000000 -13.524353 236.951416 56328.878906
-0.960000 3.040000 7.040000 -117.373306 168.711334 42240.007812
-0.960000 3.040000 7.080000 -142.653641 59.979053 23947.546875
-0.960000 3.040000 7.120000 -93.911148 -18.692259 9168.704102
-0.960000 3.040000 7.160000 -24.907722 -32.084621 1649.817627
-0.960000 3.040000 7.200000 11.910423 -0.399477 142.017761
-0.960000 3.080000 6.800000 59.113060 6.493170 3536.515137
-0.960000 3.080000 6.840000 94.720139 32.277718 10013.755859
-0.960000 3.080000 6.880000 105.095032 92.724045 19642.714844
-0.960000 3.080000 6.920000 64.658752 157.129547 28870.449219
-0.960000 3.080000 6.960000 -17.487198 182.356110 33559.550781
-0.960000 3.080000 7.000000 -99.767471 146.859161 31521.160156
-0.960000 3.080000 7.040000 -138.110153 69.108330 23850.375000
-0.960000 3.080000 7.080000 -118.580040 -6.210995 14099.801758
-0.960000 3.080000 7.120000 -65.009895 -42.112652 5999.762207
-0.960000 3.080000 7.160000 -16.823490 -34.091690 1445.273071
-0.960000 3.080000 7.200000 1.750793 -6.510830 45.456184
-0.960000 3.120000 6.800000 39.392410 42.054726 3320.361816
-0.960000 3.120000 6.840000 35.494675 70.041153 6165.635254
-0.960000 3.120000 6.880000 10.348892 94.614082 9058.923828
-0.960000 3.120000 6.920000 -29.112274 100.877319 11023.757812
-0.960000 3.120000 6.960000 -67.685509 83.096550 11486.365234
-0.960000 3.120000 7.000000 -90.735519 46.937958 10436.106445
-0.960000 3.120000 7.040000 -90.936195 5.437744 8298.960938
-0.960000 3.120000 7.080000 -70.404587 -27.286194 5701.341797
-0.960000 3.120000 7.120000 -39.068390 -41.666019 3262.396240
-0.960000 3.120000 7.160000 -10.330491 -36.441570 1434.707031
-0.960000 3.120000 7.200000 5.078793 -19.265247 396.943878
-0.960000 3.160000 6.800000 4.529501 54.028130 2939.555176
-0.960000 3.160000 6.840000 -22.733011 55.018730 3543.850342
-0.960000 3.160000 6.880000 -41.213226 36.519897 3032.232910
-0.960000 3.160000 6.920000 -40.699635 15.509254 1896.997192
-0.960000 3.160000 6.960000 -31.097795 7.416245 1022.073547
-0.960000 3.160000 7.000000 -29.105799 9.456970 936.581787
-0.960000 3.160000 7.040000 -37.812962 5.654419 1461.792480
-0.960000 3.160000 7.080000 -42.798916 -12.631330 1991.297729
-0.960000 3.160000 7.120000 -29.371975 -34.539661 2055.701172
-0.960000 3.160000 7.160000 -1.165979 -40.403671 1633.816162
-0.960000 3.160000 7.200000 21.489840 -23.628983 1020.141968
-0.960000 3.200000 6.800000 -24.462425 42.506516 2405.214111
-0.960000 3.200000 6.840000 -45.034889 12.616121 2187.307861
-0.960000 3.200000 6.880000 -30.207752 -21.716030 1384.094238
-0.960000 3.200000 6.920000 6.407764 -26.404961 738.281372
-0.960000 3.200000 6.960000 27.326290 2.931763 755.321350
-0.960000 3.200000 7.000000 10.320118 34.838840 1320.249634
-0.960000 3.200000 7.040000 -27.474361 34.220703 1925.896973
-0.960000 3.200000 7.080000 -46.784988 -0.918999 2189.679688
-0.960000 3.200000 7.120000 -26.776997 -37.338604 2111.178955
-0.960000 3.200000 7.160000 14.046721 -41.092445 1885.899414
-0.960000 3.200000 7.200000 38.162109 -11.736905 1594.101562
-0.920000 2.800000 6.800000 8.113355 16.223274 329.021179
-0.920000 2.800000 6.840000 -6.005526 22.315845 534.063293
-0.920000 2.800000 6.880000 -21.880739 15.138390 707.937622
-0.920000 2.800000 6.920000 -27.002419 -2.726326 736.563477
-0.920000 2.800000 6.960000 -15.842484 -18.141624 580.102783
-0.920000 2.800000 7.000000 3.245239 -18.143784 339.728455
-0.920000 2.800000 7.040000 13.979914 -2.346909 200.945969
-0.920000 2.800000 7.080000 6.660312 15.482819 284.077423
-0.920000 2.800000 7.120000 -12.484319 19.383442 531.576050
-0.920000 2.800000 7.160000 -26.664749 5.827110 744.964050
-0.920000 2.800000 7.200000 -23.952265 -13.181182 747.454590
-0.920000 2.840000 6.800000 -16.105368 12.965736 427.493195
-0.920000 2.840000 6.840000 -40.075329 1.080772 1607.200073
-0.920000 2.840000 6.880000 -48.834877 -32.700867 3454.191895
-0.920000 2.840000 6.920000 -25.791752 -67.570618 5231.002930
-0.920000 2.840000 6.960000 20.258602 -74.765717 6000.323730
-0.920000 2.840000 7.000000 58.171074 -44.060879 5325.234863
-0.920000 2.840000 7.040000 60.156807 4.113312 3635.760742
-0.920000 2.840000 7.080000 26.760443 34.636902 1915.836182
-0.920000 2.840000 7.120000 -13.317219 28.005157 961.637146
-0.920000 2.840000 7.160000 -29.026423 -3.625458 855.677124
-0.920000 2.840000 7.200000 -13.787247 -29.686909 1071.400757
-0.920000 2.880000 6.800000 -29.275351 -11.239756 983.378235
-0.920000 2.880000 6.840000 -45.626301 -48.198471 4404.851562
-0.920000 2.880000 6.880000 -22.404003 -98.491684 10202.550781
-0.920000 2.880000 6.920000 42.351963 -120.194931 16240.509766
-0.920000 2.880000 6.960000 110.947784 -84.625168 19470.830078
-0.920000 2.880000 7.000000 134.220184 -6.944443 18063.283203
-0.920000 2.880000 7.040000 94.757248 61.969498 12819.154297
-0.920000 2.880000 7.080000 23.662983 77.758301 6606.290039
-0.920000 2.880000 7.120000 -26.362553 39.832611 2281.621094
-0.920000 2.880000 7.160000 -26.464712 -11.446109 831.394409
-0.920000 2.880000 7.200000 7.346838 -33.635857 1185.346924
-0.920000 2.920000 6.800000 -16.921757 -39.411282 1839.594971
-0.920000 2.920000 6.840000 -5.723049 -90.562897 8234.391602
-0.920000 2.920000 6.880000 58.118954 -126.331169 19337.376953
-0.920000 2.920000 6.920000 145.377274 -100.090836 31152.726562
-0.920000 2.920000 6.960000 194.284348 -8.905064 37825.707031
-0.920000 2.920000 7.000000 163.127960 94.997116 35635.183594
-0.920000 2.920000 7.040000 69.878189 144.530090 25771.908203
-0.920000 2.920000 7.080000 -20.873343 114.316803 13504.027344
-0.920000 2.920000 7.120000 -52.783688 40.220345 4403.793945
-0.920000 2.920000 7.160000 -22.849493 -15.814238 772.189392
-0.920000 2.920000 7.200000 24.266857 -20.436163 1006.517090
-0.920000 2.960000 6.800000 15.410818 -48.798981 2618.833984
-0.920000 2.960000 6.840000 59.067291 -88.749161 11365.358398
-0.920000 2.960000 6.880000 142.039124 -80.433533 26644.666016
-0.920000 2.960000 6.920000 207.350464 0.803982 42994.859375
-0.920000 2.960000 6.960000 195.775024 118.706787 52419.160156
-0.920000 2.960000 7.000000 101.161484 198.832886 49768.160156
-0.920000 2.960000 7.040000 -18.690727 190.074829 36477.785156
-0.920000 2.960000 7.080000 -88.791138 107.937263 19534.320312
-0.920000 2.960000 7.120000 -78.528976 18.738873 6517.945801
-0.920000 2.960000 7.160000 -21.025978 -19.196724 810.605957
-0.920000 2.960000 7.200000 24.484175 -1.041552 600.559631
-0.920000 3.000000 6.800000 45.803543 -30.055199 3001.279541
-0.920000 3.000000 6.840000 104.038261 -37.107368 12200.916992
-0.920000 3.000000 6.880000 166.774200 17.120617 28106.750000
-0.920000 3.000000 6.920000 174.579071 120.589333 45019.640625
-0.920000 3.000000 6.960000 99.846687 211.737213 54802.007812
-0.920000 3.000000 7.000000 -22.273434 227.520660 52261.757812
-0.920000 3.000000 7.040000 -118.394867 157.437683 38803.968750
-0.920000 3.000000 7.080000 -136.371307 52.671539 21371.423828
-0.920000 3.000000 7.120000 -85.139778 -18.249058 7581.810059
-0.920000 3.000000 7.160000 -19.693804 -25.107866 1018.250854
-0.920000 3.000000 7.200000 10.875296 7.733750 178.082947
-0.920000 3.040000 6.800000 53.823349 5.338861 2925.456299
-0.920000 3.040000 6.840000 97.314606 31.118471 10438.492188
-0.920000 3.040000 6.880000 113.032745 100.714058 22919.722656
-0.920000 3.040000 6.920000 67.203300 177.088043 35876.460938
-0.920000 3.040000 6.960000 -29.538101 205.875061 43257.039062
-0.920000 3.040000 7.000000 -124.549286 160.721039 41343.777344
-0.920000 3.040000 7.040000 -163.484955 67.115585 31231.832031
-0.920000 3.040000 7.080000 -132.838013 -17.853762 17964.693359
-0.920000 3.040000 7.120000 -66.800888 -51.204762 7084.286133
-0.920000 3.040000 7.160000 -14.583485 -33.857994 1359.041748
-0.920000 3.040000 7.200000 -0.441437 -0.363408 0.326932
-0.920000 3.080000 6.800000 36.056332 35.527081 2562.232422
-0.920000 3.080000 6.840000 46.277607 71.188751 7209.455078
-0.920000 3.080000 6.880000 22.382883 116.661049 14110.793945
-0.920000 3.080000 6.920000 -36.550636 139.495941 20795.066406
-0.920000 3.080000 6.960000 -103.715645 116.740616 24385.304688
-0.920000 3.080000 7.000000 -142.658844 54.383026 23309.058594
-0.920000 3.080000 7.040000 -133.969452 -15.926891 18201.480469
-0.920000 3.080000 7.080000 -88.253387 -60.011265 11390.011719
-0.920000 3.080000 7.120000 -35.671623 -64.396240 5419.340820
-0.920000 3.080000 7.160000 -2.656413 -41.355038 1717.295654
-0.920000 3.080000 7.200000 4.244749 -14.522263 228.914001
-0.920000 3.120000 6.800000 5.919926 45.831139 2135.538574
-0.920000 3.120000 6.840000 -10.950737 63.350159 4133.161133
-0.920000 3.120000 6.880000 -40.318748 67.426941 6171.994141
-0.920000 3.120000 6.920000 -69.723495 52.458961 7613.308594
-0.920000 3.120000 6.960000 -87.317566 22.763626 8142.540039
-0.920000 3.120000 7.000000 -87.418556 -11.999695 7785.996582
-0.920000 3.120000 7.040000 -70.589661 -41.933876 6741.350586
-0.920000 3.120000 7.080000 -41.816547 -59.094566 5240.791504
-0.920000 3.120000 7.120000 -9.755339 -58.725559 3543.858154
-0.920000 3.120000 7.160000 14.586040 -41.866096 1965.522583
-0.920000 3.120000 7.200000 22.569056 -17.246155 806.792114
-0.920000 3.160000 6.800000 -19.813379 37.275871 1782.060547
-0.920000 3.160000 6.840000 -39.425636 24.876646 2173.228271
-0.920000 3.160000 6.880000 -42.815147 3.321636 1844.170166
-0.920000 3.160000 6.920000 -32.061054 -9.683319 1121.677979
-0.920000 3.160000 6.960000 -23.085423 -9.143967 616.548828
-0.920000 3.160000 7.000000 -25.759476 -7.509148 719.937866
-0.920000 3.160000 7.040000 -31.465538 -18.354334 1326.961670
-0.920000 3.160000 7.080000 -23.070354 -38.062946 1981.029053
-0.920000 3.160000 7.120000 3.529097 -47.362350 2255.646729
-0.920000 3.160000 7.160000 31.341578 -32.303810 2025.830566
-0.920000 3.160000 7.200000 38.179276 -1.473065 1459.827026
-0.920000 3.200000 6.800000 -33.567257 20.525812 1548.069702
-0.920000 3.200000 6.840000 -33.824879 -10.845574 1261.748901
-0.920000 3.200000 6.880000 -6.452097 -27.107988 776.472595
-0.920000 3.200000 6.920000 20.436537 -11.081516 540.452026
-0.920000 3.200000 6.960000 17.853310 19.667187 705.538940
-0.920000 3.200000 7.000000 -11.926712 30.433012 1068.414673
-0.920000 3.200000 7.040000 -36.331982 6.769598 1365.840454
-0.920000 3.200000 7.080000 -26.706501 -28.871809 1546.818604
-0.920000 3.200000 7.120000 10.741159 -40.060745 1720.235840
-0.920000 3.200000 7.160000 40.912846 -14.664362 1888.904541
-0.920000 3.200000 7.200000 36.468018 22.641056 1842.533691
-0.880000 2.800000 6.800000 -6.113563 10.153741 140.474106
-0.880000 2.800000 6.840000 -13.354660 11.350481 307.180359
-0.880000 2.800000 6.880000 -22.572594 5.564804 540.489014
-0.880000 2.800000 6.920000 -25.693573 -7.909268 722.716187
-0.880000 2.800000 6.960000 -16.829727 -21.099762 728.439697
-0.880000 2.800000 7.000000 -0.037361 -23.210125 538.711304
-0.880000 2.800000 7.040000 12.163177 -11.386711 277.600098
-0.880000 2.800000 7.080000 9.812249 4.815872 119.472862
-0.880000 2.800000 7.120000 -4.352794 11.226665 144.984833
-0.880000 2.800000 7.160000 -16.561789 2.460792 280.348358
-0.880000 2.800000 7.200000 -14.873809 -12.513401 377.815399
-0.880000 2.840000 6.800000 -16.918165 -8.852210 364.585938
-0.880000 2.840000 6.840000 -22.167362 -20.487507 911.129883
-0.880000 2.840000 6.880000 -16.769665 -38.920815 1796.051514
-0.880000 2.840000 6.920000 4.719833 -51.853321 2711.043701
-0.880000 2.840000 6.960000 33.594574 -45.321213 3182.607666
-0.880000 2.840000 7.000000 50.819649 -18.117584 2910.883545
-0.880000 2.840000 7.040000 42.932953 13.515182 2025.898560
-0.880000 2.840000 7.080000 15.472279 27.887712 1017.115906
-0.880000 2.840000 7.120000 -10.178143 16.673847 381.611755
-0.880000 2.840000 7.160000 -15.050333 -7.409490 281.413055
-0.880000 2.840000 7.200000 0.882891 -22.164753 492.055786
-0.880000 2.880000 6.800000 -6.450075 -31.571363 1038.354492
-0.880000 2.880000 6.840000 1.987247 -52.307716 2740.046387
-0.880000 2.880000 6.880000 31.693850 -66.934303 5484.701172
-0.880000 2.880000 6.920000 72.612747 -55.207233 8320.449219
-0.880000 2.880000 6.960000 98.284996 -12.971867 9828.209961
-0.880000 2.880000 7.000000 87.202011 38.602940 9094.377930
-0.880000 2.880000 7.040000 43.615501 67.292534 6430.597168
-0.880000 2.880000 7.080000 -3.242725 56.597549 3213.798096
-0.880000 2.880000 7.120000 -22.884842 20.116278 928.380615
-0.880000 2.880000 7.160000 -8.843237 -10.704702 192.793488
-0.880000 2.880000 7.200000 18.073677 -14.252243 529.784241
-0.880000 2.920000 6.800000 20.821037 -37.872929 1867.874390
-0.880000 2.920000 6.840000 48.073750 -54.055771 5233.111816
-0.880000 2.920000 6.880000 93.399002 -44.227558 10679.451172
-0.880000 2.920000 6.920000 127.503120 3.893364 16272.204102
-0.880000 2.920000 6.960000 119.116135 71.066124 19239.046875
-0.880000 2.920000 7.000000 64.543213 116.942650 17841.410156
-0.880000 2.920000 7.040000 -4.721918 112.604088 12701.977539
-0.880000 2.920000 7.080000 -46.102989 65.659897 6436.708008
-0.880000 2.920000 7.120000 -40.710175 13.661686 1843.959961
-0.880000 2.920000 7.160000 -6.650013 -8.421013 115.136131
-0.880000 2.920000 7.200000 20.648460 3.844315 441.137665
-0.880000 2.960000 6.800000 44.930683 -19.715797 2407.479004
-0.880000 2.960000 6.840000 82.611549 -17.144146 7118.589844
-0.880000 2.960000 6.880000 119.374031 23.513859 14803.060547
-0.880000 2.960000 6.920000 118.739166 92.719856 22695.960938
-0.880000 2.960000 6.960000 65.194168 150.589142 26927.369141
-0.880000 2.960000 7.000000 -16.844147 157.572723 25112.888672
-0.880000 2.960000 7.040000 -79.338081 108.703613 18111.007812
-0.880000 2.960000 7.080000 -89.195572 38.838852 9464.306641
-0.880000 2.960000 7.120000 -53.860695 -6.763094 2946.713867
-0.880000 2.960000 7.160000 -10.840224 -9.120565 200.695175
-0.880000 2.960000 7.200000 7.250392 14.032324 249.474304
-0.880000 3.000000 6.800000 47.737717 11.085161 2401.770508
-0.880000 3.000000 6.840000 78.175613 35.097374 7343.252441
-0.880000 3.000000 6.880000 85.134132 90.433495 15426.037109
-0.880000 3.000000 6.920000 44.583817 147.470215 23735.181641
-0.880000 3.000000 6.960000 -32.736645 164.970428 28286.929688
-0.880000 3.000000 7.000000 -104.797119 125.162773 26648.156250
-0.880000 3.000000 7.040000 -130.691254 50.704025 19651.101562
-0.880000 3.000000 7.080000 -103.093399 -13.145866 10801.062500
-0.880000 3.000000 7.120000 -51.331360 -34.947174 3856.213379
-0.880000 3.000000 7.160000 -13.748522 -18.844032 544.119385
-0.880000 3.000000 7.200000 -6.436488 6.221880 80.140175
-0.880000 3.040000 6.800000 28.471294 33.682804 1945.145874
-0.880000 3.040000 6.840000 37.787102 66.654640 5870.706055
-0.880000 3.040000 6.880000 14.557989 109.348816 12169.097656
-0.880000 3.040000 6.920000 -42.401451 129.612061 18597.169922
-0.880000 3.040000 6.960000 -105.849915 104.963249 22221.488281
-0.880000 3.040000 7.000000 -139.366318 43.048237 21276.121094
-0.880000 3.040000 7.040000 -125.641495 -22.830723 16307.027344
-0.880000 3.040000 7.080000 -78.788857 -59.368301 9732.279297
-0.880000 3.040000 7.120000 -30.693268 -57.149315 4208.121094
-0.880000 3.040000 7.160000 -5.229948 -32.757294 1100.392578
-0.880000 3.040000 7.200000 -3.525593 -10.253582 117.565742
-0.880000 3.080000 6.800000 2.397666 36.615532 1346.445923
-0.880000 3.080000 6.840000 -8.611984 59.698792 3638.112061
-0.880000 3.080000 6.880000 -41.002640 72.933640 7000.532227
-0.880000 3.080000 6.920000 -81.589272 60.297577 10292.607422
-0.880000 3.080000 6.960000 -108.420906 21.453503 12215.345703
-0.880000 3.080000 7.000000 -106.292130 -27.182949 12036.929688
-0.880000 3.080000 7.040000 -76.742981 -63.746109 9953.051758
-0.880000 3.080000 7.080000 -35.514832 -74.937866 6876.986816
-0.880000 3.080000 7.120000 -1.139608 -62.305904 3883.324463
-0.880000 3.080000 7.160000 15.811962 -37.967117 1691.520142
-0.880000 3.080000 7.200000 15.872025 -15.278560 485.355591
-0.880000 3.120000 6.800000 -15.023672 25.384388 870.077881
-0.880000 3.120000 6.840000 -31.687393 27.386143 1754.091675
-0.880000 3.120000 6.880000 -48.387276 17.295519 2640.463379
-0.880000 3.120000 6.920000 -57.494614 -1.338943 3307.423340
-0.880000 3.120000 6.960000 -56.741501 -22.492844 3725.525879
-0.880000 3.120000 7.000000 -46.835281 -42.056099 3962.259277
-0.880000 3.120000 7.040000 -28.185341 -56.702679 4009.607422
-0.880000 3.120000 7.080000 -2.428123 -61.140106 3744.008301
-0.880000 3.120000 7.120000 23.458897 -50.204033 3070.764648
-0.880000 3.120000 7.160000 37.982525 -25.522682 2094.079590
-0.880000 3.120000 7.200000 33.391449 1.358232 1116.833740
-0.880000 3.160000 6.800000 -21.356621 12.853222 621.310547
-0.880000 3.160000 6.840000 -26.632397 -2.408251 715.084229
-0.880000 3.160000 6.880000 -18.434582 -14.222908 542.124878
-0.880000 3.160000 6.920000 -8.234684 -13.767242 257.346985
-0.880000 3.160000 6.960000 -8.119194 -8.449741 137.319443
-0.880000 3.160000 7.000000 -15.015888 -12.547092 382.906433
-0.880000 3.160000 7.040000 -13.052036 -28.302317 971.376770
-0.880000 3.160000 7.080000 7.269604 -40.085487 1659.693481
-0.880000 3.160000 7.120000 34.834312 -30.199593 2125.444824
-0.880000 3.160000 7.160000 46.369209 0.115926 2150.116943
-0.880000 3.160000 7.200000 30.251780 28.558174 1730.739502
-0.880000 3.200000 6.800000 -24.741749 4.439684 631.864929
-0.880000 3.200000 6.840000 -11.182511 -14.019396 321.592010
-0.880000 3.200000 6.880000 11.332219 -9.699663 222.502655
-0.880000 3.200000 6.920000 16.556858 12.975033 442.481018
-0.880000 3.200000 6.960000 -3.223042 27.448250 763.794434
-0.880000 3.200000 7.000000 -26.627277 14.267272 912.566956
-0.880000 3.200000 7.040000 -25.364660 -15.683167 889.327698
-0.880000 3.200000 7.080000 4.085356 -30.859283 968.985474
-0.880000 3.200000 7.120000 34.515678 -12.565141 1349.214844
-0.880000 3.200000 7.160000 35.637367 23.863111 1839.470093
-0.880000 3.200000 7.200000 6.231021 44.021370 1976.706543
-0.840000 2.800000 6.800000 -8.341146 -3.479824 81.683899
-0.840000 2.800000 6.840000 -9.834902 1.205084 98.177521
-0.840000 2.800000 6.880000 -18.759365 -0.102617 351.924316
-0.840000 2.800000 6.920000 -24.405571 -12.917459 762.492676
-0.840000 2.800000 6.960000 -15.722733 -29.138002 1096.227539
-0.840000 2.800000 7.000000 5.327112 -33.463791 1148.203491
-0.840000 2.800000 7.040000 23.189842 -19.206736 906.667480
-0.840000 2.800000 7.080000 23.191393 3.204551 548.109863
-0.840000 2.800000 7.120000 6.628917 15.238885 276.166168
-0.840000 2.800000 7.160000 -9.844313 8.414989 167.722534
-0.840000 2.800000 7.200000 -10.693813 -7.245002 166.847687
-0.840000 2.840000 6.800000 0.270485 -21.412277 458.558777
-0.840000 2.840000 6.840000 2.636024 -19.223951 376.508942
-0.840000 2.840000 6.880000 3.245556 -21.848366 487.884705
-0.840000 2.840000 6.920000 10.143312 -27.314329 848.959351
-0.840000 2.840000 6.960000 24.456131 -26.007662 1274.500854
-0.840000 2.840000 7.000000 36.419212 -11.767694 1464.837646
-0.840000 2.840000 7.040000 34.247086 9.000966 1253.880249
-0.840000 2.840000 7.080000 17.265350 21.365818 754.590454
-0.840000 2.840000 7.120000 -1.321835 16.304686 267.590027
-0.840000 2.840000 7.160000 -6.416680 0.549409 41.475636
-0.840000 2.840000 7.200000 3.991314 -9.354506 103.437378
-0.840000 2.880000 6.800000 23.107807 -25.325529 1175.353271
-0.840000 2.880000 6.840000 30.997869 -20.818714 1394.286743
-0.840000 2.880000 6.880000 39.200699 -14.857815 1757.449463
-0.840000 2.880000 6.920000 47.416637 -3.653431 2261.685059
-0.840000 2.880000 6.960000 49.572945 14.467255 2666.778320
-0.840000 2.880000 7.000000 39.110180 33.371021 2643.231201
-0.840000 2.880000 7.040000 17.633116 41.815277 2059.444336
-0.840000 2.880000 7.080000 -3.181477 33.647545 1142.279053
-0.840000 2.880000 7.120000 -10.456989 15.284941 342.978027
-0.840000 2.880000 7.160000 -1.997965 1.505754 6.259159
-0.840000 2.880000 7.200000 11.091280 2.335671 128.471848
-0.840000 2.920000 6.800000 42.296616 -7.641456 1847.395508
-0.840000 2.920000 6.840000 52.006882 4.034609 2720.993896
-0.840000 2.920000 6.880000 57.276913 22.781239 3799.629639
-0.840000 2.920000 6.920000 51.559826 46.066650 4780.551758
-0.840000 2.920000 6.960000 31.383850 64.847290 5190.117188
-0.840000 2.920000 7.000000 2.243307 68.433899 4688.230957
-0.840000 2.920000 7.040000 -22.475471 53.475315 3364.756104
-0.840000 2.920000 7.080000 -30.643295 28.634296 1758.934448
-0.840000 2.920000 7.120000 -21.265207 9.139265 535.735229
-0.840000 2.920000 7.160000 -5.526268 4.922202 54.767715
-0.840000 2.920000 7.200000 2.788664 12.902838 174.259857
-0.840000 2.960000 6.800000 40.732887 20.218349 2067.949707
-0.840000 2.960000 6.840000 45.257111 38.832085 3556.136719
-0.840000 2.960000 6.880000 37.412144 63.419701 5421.726562
-0.840000 2.960000 6.920000 12.724335 82.731445 7006.400879
-0.840000 2.960000 6.960000 -22.065023 84.015205 7545.419922
-0.840000 2.960000 7.000000 -51.249454 63.584793 6669.532227
-0.840000 2.960000 7.040000 -60.970554 31.385975 4702.487793
-0.840000 2.960000 7.080000 -49.711128 4.477929 2491.248047
-0.840000 2.960000 7.120000 -29.064453 -5.557997 875.633789
-0.840000 2.960000 7.160000 -13.893724 -0.444194 193.232895
-0.840000 2.960000 7.200000 -10.659712 8.465902 185.300964
-0.840000 3.000000 6.800000 18.601837 37.227203 1731.892944
-0.840000 3.000000 6.840000 13.470625 56.463753 3369.613037
-0.840000 3.000000 6.880000 -7.606564 73.892799 5518.005859
-0.840000 3.000000 6.920000 -40.629448 75.698227 7380.973633
-0.840000 3.000000 6.960000 -70.768654 55.538857 8092.766602
-0.840000 3.000000 7.000000 -82.689072 21.015820 7279.146973
-0.840000 3.000000 7.040000 -72.028481 -11.185843 5313.225098
-0.840000 3.000000 7.080000 -48.075798 -27.454744 3065.045410
-0.840000 3.000000 7.120000 -25.645081 -26.159990 1342.015259
-0.840000 3.000000 7.160000 -13.840845 -16.172678 453.124512
-0.840000 3.000000 7.200000 -11.428417 -7.559281 187.751450
-0.840000 3.040000 6.800000 -6.570680 32.357231 1090.164185
-0.840000 3.040000 6.840000 -19.114014 44.320816 2329.680176
-0.840000 3.040000 6.880000 -42.679092 46.781013 4009.968018
-0.840000 3.040000 6.920000 -66.987282 32.228714 5525.985840
-0.840000 3.040000 6.960000 -78.961929 3.914656 6250.311035
-0.840000 3.040000 7.000000 -72.291519 -26.152973 5910.041992
-0.840000 3.040000 7.040000 -51.253174 -45.749649 4719.917969
-0.840000 3.040000 7.080000 -26.424444 -49.960930 3194.345703
-0.840000 3.040000 7.120000 -7.102294 -42.116531 1824.244873
-0.840000 3.040000 7.160000 3.173352 -29.119820 858.034058
-0.840000 3.040000 7.200000 5.696874 -16.370966 300.462891
-0.840000 3.080000 6.800000 -17.191174 14.368172 501.980774
-0.840000 3.080000 6.840000 -29.584101 15.586398 1118.154785
-0.840000 3.080000 6.880000 -43.133129 7.119854 1911.159180
-0.840000 3.080000 6.920000 -50.452171 -9.535702 2636.351318
-0.840000 3.080000 6.960000 -47.891701 -28.603214 3111.758789
-0.840000 3.080000 7.000000 -36.242634 -44.372318 3282.431152
-0.840000 3.080000 7.040000 -18.421225 -53.162952 3165.641113
-0.840000 3.080000 7.080000 1.907538 -52.671032 2777.876221
-0.840000 3.080000 7.120000 19.705639 -41.886250 2142.770020
-0.840000 3.080000 7.160000 28.797962 -23.141876 1364.869141
-0.840000 3.080000 7.200000 25.250965 -3.447704 649.497925
-0.840000 3.120000 6.800000 -12.493057 1.352603 157.906006
-0.840000 3.120000 6.840000 -17.318544 -5.052557 325.460297
-0.840000 3.120000 6.880000 -16.863546 -12.581121 442.663818
-0.840000 3.120000 6.920000 -14.088707 -17.463730 503.473541
-0.840000 3.120000 6.960000 -12.442911 -21.855288 632.479614
-0.840000 3.120000 7.000000 -9.362141 -29.717615 970.786316
-0.840000 3.120000 7.040000 1.645618 -38.697639 1500.215332
-0.840000 3.120000 7.080000 21.487310 -39.068726 1988.069824
-0.840000 3.120000 7.120000 39.935715 -23.306442 2138.051514
-0.840000 3.120000 7.160000 42.651878 3.355047 1830.439087
-0.840000 3.120000 7.200000 25.303473 24.236710 1227.683838
-0.840000 3.160000 6.800000 -7.141005 1.031324 52.057575
-0.840000 3.160000 6.840000 -1.668826 -6.175834 40.925907
-0.840000 3.160000 6.880000 6.324708 -3.383446 51.449635
-0.840000 3.160000 6.920000 5.078814 5.059260 51.390465
-0.840000 3.160000 6.960000 -5.493473 5.478322 60.190254
-0.840000 3.160000 7.000000 -11.146133 -8.109356 189.997940
-0.840000 3.160000 7.040000 1.197305 -23.751070 565.546875
-0.840000 3.160000 7.080000 26.243401 -21.938522 1170.014893
-0.840000 3.160000 7.120000 42.015575 2.793759 1773.113647
-0.840000 3.160000 7.160000 31.221140 32.787354 2049.770020
-0.840000 3.160000 7.200000 0.403571 42.644924 1818.752441
-0.840000 3.200000 6.800000 -13.149372 3.121278 182.648361
-0.840000 3.200000 6.840000 0.448300 1.024751 1.251087
-0.840000 3.200000 6.880000 6.177697 14.522423 249.064697
-0.840000 3.200000 6.920000 -6.898684 26.307047 739.652588
-0.840000 3.200000 6.960000 -26.601286 18.035114 1032.893799
-0.840000 3.200000 7.000000 -29.230015 -6.849062 901.303406
-0.840000 3.200000 7.040000 -6.549498 -23.607029 600.187744
-0.840000 3.200000 7.080000 21.983627 -11.902154 624.941162
-0.840000 3.200000 7.120000 27.417358 20.510635 1172.397705
-0.840000 3.200000 7.160000 2.016946 43.203846 1870.640381
-0.840000 3.200000 7.200000 -30.829239 33.784527 2091.836182
-0.800000 2.800000 6.800000 1.157867 -11.480854 133.150665
-0.800000 2.800000 6.840000 -2.018514 -0.789171 4.697189
-0.800000 2.800000 6.880000 -15.422262 -2.116812 242.327072
-0.800000 2.800000 6.920000 -21.125776 -19.659256 832.784790
-0.800000 2.800000 6.960000 -6.067576 -38.193459 1495.555664
-0.800000 2.800000 7.000000 22.187008 -37.267200 1881.107544
-0.800000 2.800000 7.040000 40.682449 -12.793175 1818.726929
-0.800000 2.800000 7.080000 33.363930 16.983904 1401.604858
-0.800000 2.800000 7.120000 7.508883 28.512007 869.317810
-0.800000 2.800000 7.160000 -13.254768 15.905371 428.669708
-0.800000 2.800000 7.200000 -12.453505 -3.998711 171.079468
-0.800000 2.840000 6.800000 19.446968 -14.473783 587.674927
-0.800000 2.840000 6.840000 13.419652 -1.235512 181.613556
-0.800000 2.840000 6.880000 0.671348 -2.848083 8.562282
-0.800000 2.840000 6.920000 -1.051419 -16.946068 288.274689
-0.800000 2.840000 6.960000 14.391125 -26.127251 889.737732
-0.800000 2.840000 7.000000 33.957005 -16.315798 1419.283447
-0.800000 2.840000 7.040000 38.367790 7.640803 1530.469116
-0.800000 2.840000 7.080000 22.229424 26.176739 1179.368896
-0.800000 2.840000 7.120000 -0.172449 24.887314 619.408142
-0.800000 2.840000 7.160000 -9.708271 8.979349 174.879242
-0.800000 2.840000 7.200000 -1.943613 -3.046093 13.056316
-0.800000 2.880000 6.800000 34.898079 1.150134 1219.198608
-0.800000 2.880000 6.840000 23.115959 15.052647 760.929749
-0.800000 2.880000 6.880000 8.527266 12.939167 240.136292
-0.800000 2.880000 6.920000 5.811629 1.482914 35.974068
-0.800000 2.880000 6.960000 16.055603 -3.685169 271.362854
-0.800000 2.880000 7.000000 26.228077 5.468660 717.818298
-0.800000 2.880000 7.040000 23.419739 21.244009 999.792114
-0.800000 2.880000 7.080000 8.399504 28.912636 906.492188
-0.800000 2.880000 7.120000 -5.853658 22.410477 536.494751
-0.800000 2.880000 7.160000 -8.422388 10.006590 171.068466
-0.800000 2.880000 7.200000 -1.578923 4.372932 21.615530
-0.800000 2.920000 6.800000 31.540230 25.979042 1669.696777
-0.800000 2.920000 6.840000 13.124331 35.687649 1445.856323
-0.800000 2.920000 6.880000 -3.800152 29.302246 873.062805
-0.800000 2.920000 6.920000 -7.846111 15.707495 308.286865
-0.800000 2.920000 6.960000 -0.452956 8.462616 71.821037
-0.800000 2.920000 7.000000 6.870878 12.793973 210.894714
-0.800000 2.920000 7.040000 4.732638 21.800903 497.677246
-0.800000 2.920000 7.080000 -5.349550 24.852406 646.259766
-0.800000 2.920000 7.120000 -14.079935 18.620949 544.984314
-0.800000 2.920000 7.160000 -14.844646 9.225800 305.478912
-0.800000 2.920000 7.200000 -9.806852 4.436374 115.855766
-0.800000 2.960000 6.800000 8.444798 39.982697 1669.930542
-0.800000 2.960000 6.840000 -12.773910 40.450775 1799.437988
-0.800000 2.960000 6.880000 -27.442198 26.635296 1462.513184
-0.800000 2.960000 6.920000 -27.495583 9.252115 841.608704
-0.800000 2.960000 6.960000 -17.012369 0.629793 289.817352
-0.800000 2.960000 7.000000 -7.768959 3.988994 76.268784
-0.800000 2.960000 7.040000 -8.061549 11.735486 202.710205
-0.800000 2.960000 7.080000 -15.819171 13.811682 441.008728
-0.800000 2.960000 7.120000 -22.135763 7.273308 542.893005
-0.800000 2.960000 7.160000 -20.617880 -2.123946 429.608124
-0.800000 2.960000 7.200000 -12.860753 -6.672554 209.921936
-0.800000 3.000000 6.800000 -17.225647 30.889793 1250.902222
-0.800000 3.000000 6.840000 -33.828201 21.480137 1605.743408
-0.800000 3.000000 6.880000 -39.452488 2.942158 1565.155029
-0.800000 3.000000 6.920000 -30.991119 -12.730446 1122.513672
-0.800000 3.000000 6.960000 -16.616863 -16.115591 535.832397
-0.800000 3.000000 7.000000 -8.362237 -8.777282 146.967682
-0.800000 3.000000 7.040000 -11.036322 -1.200304 123.241119
-0.800000 3.000000 7.080000 -18.433706 -2.303784 345.108948
-0.800000 3.000000 7.120000 -20.282650 -11.097839 534.547913
-0.800000 3.000000 7.160000 -12.609020 -18.475636 500.336517
-0.800000 3.000000 7.200000 -1.176236 -16.652044 278.674133
-0.800000 3.040000 6.800000 -25.458183 6.867873 695.286743
-0.800000 3.040000 6.840000 -31.582489 -6.892797 1044.964233
-0.800000 3.040000 6.880000 -25.926378 -21.750027 1145.240723
-0.800000 3.040000 6.920000 -12.110336 -27.479172 901.765137
-0.800000 3.040000 6.960000 -1.059381 -21.668472 470.644989
-0.800000 3.040000 7.000000 -0.436222 -12.451040 155.218689
-0.800000 3.040000 7.040000 -6.986712 -10.314044 155.193649
-0.800000 3.040000 7.080000 -10.064838 -17.278894 399.861145
-0.800000 3.040000 7.120000 -2.951941 -24.800453 623.776428
-0.800000 3.040000 7.160000 9.886951 -22.714355 613.693787
-0.800000 3.040000 7.200000 17.101391 -9.848427 389.449097
-0.800000 3.080000 6.800000 -12.907295 -10.692087 280.919006
-0.800000 3.080000 6.840000 -8.861736 -20.759640 509.493011
-0.800000 3.080000 6.880000 2.295863 -24.375866 599.453857
-0.800000 3.080000 6.920000 11.496826 -17.955387 454.572937
-0.800000 3.080000 6.960000 10.817882 -8.272516 185.461090
-0.800000 3.080000 7.000000 2.754063 -6.028411 43.926601
-0.800000 3.080000 7.040000 -1.452300 -14.008013 198.333603
-0.800000 3.080000 7.080000 6.297396 -22.924435 565.186951
-0.800000 3.080000 7.120000 21.307682 -20.430939 871.440552
-0.800000 3.080000 7.160000 29.624022 -4.415877 897.082642
-0.800000 3.080000 7.200000 21.824848 13.650974 662.673096
-0.800000 3.120000 6.800000 3.614923 -8.473750 84.872116
-0.800000 3.120000 6.840000 12.001776 -10.350965 251.185104
-0.800000 3.120000 6.880000 19.014425 -2.674917 368.703552
-0.800000 3.120000 6.920000 15.436657 8.451843 309.724030
-0.800000 3.120000 6.960000 2.924303 10.659736 122.181519
-0.800000 3.120000 7.000000 -5.326822 -0.693954 28.856609
-0.800000 3.120000 7.040000 2.124770 -15.078968 231.889923
-0.800000 3.120000 7.080000 21.250402 -15.847050 702.708557
-0.800000 3.120000 7.120000 34.175591 2.234495 1172.963867
-0.800000 3.120000 7.160000 26.347227 25.627031 1350.921143
-0.800000 3.120000 7.200000 1.917282 33.983383 1158.546387
-0.800000 3.160000 6.800000 4.587748 4.903889 45.095558
-0.800000 3.160000 6.840000 11.450891 9.618465 223.637787
-0.800000 3.160000 6.880000 8.849641 21.315924 532.684753
-0.800000 3.160000 6.920000 -6.166458 25.999630 714.005981
-0.800000 3.160000 6.960000 -20.548346 13.711311 610.234558
-0.800000 3.160000 7.000000 -17.417091 -7.558583 360.487244
-0.800000 3.160000 7.040000 4.452367 -16.923798 306.238495
-0.800000 3.160000 7.080000 25.784683 -1.844607 668.252502
-0.800000 3.160000 7.120000 24.397205 26.585312 1302.002441
-0.800000 3.160000 7.160000 -1.626132 42.213196 1784.598145
-0.800000 3.160000 7.200000 -30.053478 29.369373 1765.771729
-0.800000 3.200000 6.800000 -11.095215 7.743958 183.072662
-0.800000 3.200000 6.840000 -6.914664 14.769499 265.950684
-0.800000 3.200000 6.880000 -16.553036 22.913620 799.036987
-0.800000 3.200000 6.920000 -33.470840 16.075684 1378.724731
-0.800000 3.200000 6.960000 -38.029968 -6.552235 1489.210205
-0.800000 3.200000 7.000000 -19.495556 -25.520493 1031.372192
-0.800000 3.200000 7.040000 8.692220 -20.037260 477.046478
-0.800000 3.200000 7.080000 19.517460 8.191072 448.024902
-0.800000 3.200000 7.120000 0.147116 33.154480 1099.241089
-0.800000 3.200000 7.160000 -32.528275 29.439911 1924.796997
-0.800000 3.200000 7.200000 -46.960232 -1.056746 2206.380127
