#kx 	ky 	kz 	real 	imag 	intensity
2.800000 0.800000 -7.200000 -32.582039 -8.580539 1135.214844
2.800000 0.800000 -7.160000 -14.448689 -33.789024 1350.462769
2.800000 0.800000 -7.120000 16.570854 -32.170815 1309.554443
2.800000 0.800000 -7.080000 31.477589 -5.879935 1025.412231
2.800000 0.800000 -7.040000 17.732788 19.457897 693.061523
2.800000 0.800000 -7.000000 -9.386392 20.913839 525.493042
2.800000 0.800000 -6.960000 -23.771025 0.199928 565.101624
2.800000 0.800000 -6.920000 -14.896106 -20.692369 650.068115
2.800000 0.800000 -6.880000 4.094810 -23.723232 579.559204
2.800000 0.800000 -6.840000 13.295952 -12.140924 324.184357
2.800000 0.800000 -6.800000 7.862582 -3.490246 74.002014
2.800000 0.840000 -7.200000 -17.297899 -29.473265 1167.890625
2.800000 0.840000 -7.160000 10.778136 -39.826561 1702.323120
2.800000 0.840000 -7.120000 35.659676 -23.982754 1846.784912
2.800000 0.840000 -7.080000 37.699371 3.314320 1432.227295
2.800000 0.840000 -7.040000 19.037737 18.529701 705.785278
2.800000 0.840000 -7.000000 -0.349567 11.894921 141.611343
2.800000 0.840000 -6.960000 -3.369730 -5.298008 39.423965
2.800000 0.840000 -6.920000 8.678375 -14.595673 288.347839
2.800000 0.840000 -6.880000 20.782591 -9.323258 518.839233
2.800000 0.840000 -6.840000 21.879240 1.231684 480.218201
2.800000 0.840000 -6.800000 15.588906 4.870973 266.740356
2.800000 0.880000 -7.200000 5.373945 -29.436260 895.372681
2.800000 0.880000 -7.160000 30.032316 -24.432905 1498.906860
2.800000 0.880000 -7.120000 42.307613 -3.384018 1801.385742
2.800000 0.880000 -7.080000 35.564651 17.255869 1562.609497
2.800000 0.880000 -7.040000 19.232647 23.874735 939.897705
2.800000 0.880000 -7.000000 8.257553 17.061811 359.292603
2.800000 0.880000 -6.960000 8.962944 8.306568 149.333435
2.800000 0.880000 -6.920000 15.387457 7.119882 287.466553
2.800000 0.880000 -6.880000 18.122919 12.604800 487.321167
2.800000 0.880000 -6.840000 14.699678 17.189224 511.549988
2.800000 0.880000 -6.800000 10.498910 16.636513 387.000671
2.800000 0.920000 -7.200000 15.739280 -13.858745 439.789734
2.800000 0.920000 -7.160000 29.817101 -2.351290 894.588074
2.800000 0.920000 -7.120000 32.039436 14.993835 1251.340576
2.800000 0.920000 -7.080000 23.258007 27.610836 1303.293213
2.800000 0.920000 -7.040000 11.539050 30.602924 1069.688721
2.800000 0.920000 -7.000000 4.152104 27.189301 756.498047
2.800000 0.920000 -6.960000 2.050742 23.625568 562.373047
2.800000 0.920000 -6.920000 1.459354 22.792566 521.630798
2.800000 0.920000 -6.880000 -0.586571 22.922432 525.781921
2.800000 0.920000 -6.840000 -3.274153 21.504440 473.161011
2.800000 0.920000 -6.800000 -4.223747 18.952194 377.025696
2.800000 0.960000 -7.200000 9.046709 -0.599867 82.202782
2.800000 0.960000 -7.160000 14.961755 8.948046 303.921631
2.800000 0.960000 -7.120000 13.436970 20.114117 585.129883
2.800000 0.960000 -7.080000 5.978382 27.575218 796.133667
2.800000 0.960000 -7.040000 -3.050787 29.313900 868.612061
2.800000 0.960000 -7.000000 -10.132449 26.905901 826.593994
2.800000 0.960000 -6.960000 -14.467424 22.996986 738.167725
2.800000 0.960000 -6.920000 -16.945509 18.972330 647.099609
2.800000 0.960000 -6.880000 -18.180954 14.898504 552.512512
2.800000 0.960000 -6.840000 -17.960459 10.887799 441.122253
2.800000 0.960000 -6.800000 -16.225262 7.823391 324.464569
2.800000 1.000000 -7.200000 -2.822092 -1.002361 8.968933
2.800000 1.000000 -7.160000 0.669684 5.148987 26.960546
2.800000 1.000000 -7.120000 -1.466746 12.367867 155.115479
2.800000 1.000000 -7.080000 -7.958966 16.165659 324.673645
2.800000 1.000000 -7.040000 -14.826685 15.041816 446.086792
2.800000 1.000000 -7.000000 -19.072411 10.971251 484.125183
2.800000 1.000000 -6.960000 -20.650097 6.683473 471.095337
2.800000 1.000000 -6.920000 -21.135406 3.060799 456.073914
2.800000 1.000000 -6.880000 -21.177839 -0.745626 449.056854
2.800000 1.000000 -6.840000 -19.739788 -5.160995 416.295105
2.800000 1.000000 -6.800000 -15.805221 -8.744061 326.263611
2.800000 1.040000 -7.200000 -6.260919 -10.264729 144.563766
2.800000 1.040000 -7.160000 -3.706601 -4.489902 33.898109
2.800000 1.040000 -7.120000 -7.272749 -0.406224 53.057892
2.800000 1.040000 -7.080000 -12.030007 -1.942359 148.493835
2.800000 1.040000 -7.040000 -12.729994 -6.572178 205.246277
2.800000 1.040000 -7.000000 -9.571226 -8.935484 171.451233
2.800000 1.040000 -6.960000 -7.296275 -7.352875 107.300385
2.800000 1.040000 -6.920000 -9.065666 -5.652167 114.133301
2.800000 1.040000 -6.880000 -12.302200 -8.317530 220.525421
2.800000 1.040000 -6.840000 -11.415243 -14.686066 345.988281
2.800000 1.040000 -6.800000 -4.347672 -18.896156 375.966980
2.800000 1.080000 -7.200000 -0.132793 -15.733315 247.554825
2.800000 1.080000 -7.160000 -1.595401 -10.080471 104.161201
2.800000 1.080000 -7.120000 -6.147640 -12.041560 182.792664
2.800000 1.080000 -7.080000 -4.225410 -19.341690 391.955078
2.800000 1.080000 -7.040000 5.791176 -22.035959 519.121216
2.800000 1.080000 -7.000000 15.040652 -14.328561 431.528870
2.800000 1.080000 -6.960000 13.951786 -1.999862 198.651779
2.800000 1.080000 -6.920000 3.340005 3.260136 21.784119
2.800000 1.080000 -6.880000 -5.708122 -3.468384 44.612350
2.800000 1.080000 -6.840000 -3.406994 -14.611067 225.090881
2.800000 1.080000 -6.800000 8.266532 -17.816856 385.775909
2.800000 1.120000 -7.200000 5.361166 -12.161673 176.648376
2.800000 1.120000 -7.160000 -1.242908 -11.700719 138.451645
2.800000 1.120000 -7.120000 -1.307223 -21.789894 476.508331
2.800000 1.120000 -7.080000 12.709278 -29.115513 1009.238831
2.800000 1.120000 -7.040000 31.228867 -20.195827 1383.113525
2.800000 1.120000 -7.000000 36.550140 2.449638 1341.913452
2.800000 1.120000 -6.960000 21.864723 21.097687 923.178528
2.800000 1.120000 -6.920000 -0.483984 20.449394 418.411987
2.800000 1.120000 -6.880000 -10.919340 3.425137 130.963547
2.800000 1.120000 -6.840000 -2.252253 -11.877863 146.156281
2.800000 1.120000 -6.800000 13.729443 -10.797491 305.083405
2.800000 1.160000 -7.200000 2.156311 -6.832411 51.331516
2.800000 1.160000 -7.160000 -3.903298 -16.523155 288.250397
2.800000 1.160000 -7.120000 7.633330 -30.231949 972.238403
2.800000 1.160000 -7.080000 32.485222 -27.302622 1800.722900
2.800000 1.160000 -7.040000 48.520893 -1.352792 2356.107178
2.800000 1.160000 -7.000000 37.971893 30.343143 2362.571045
2.800000 1.160000 -6.960000 6.742809 42.487427 1850.646851
2.800000 1.160000 -6.920000 -20.148249 26.672178 1117.357056
2.800000 1.160000 -6.880000 -22.699028 -0.499923 515.495789
2.800000 1.160000 -6.840000 -4.589157 -14.418408 228.950867
2.800000 1.160000 -6.800000 12.546534 -6.473620 199.323273
2.800000 1.200000 -7.200000 -5.894885 -9.963121 134.013458
2.800000 1.200000 -7.160000 -2.193392 -27.441654 757.855347
2.800000 1.200000 -7.120000 22.082012 -34.405212 1671.333862
2.800000 1.200000 -7.080000 47.564346 -14.542461 2473.850098
2.800000 1.200000 -7.040000 48.427055 22.830311 2866.402832
2.800000 1.200000 -7.000000 18.743671 49.186287 2770.615967
2.800000 1.200000 -6.960000 -19.964859 43.569870 2296.929199
2.800000 1.200000 -6.920000 -38.487251 12.656850 1641.464355
2.800000 1.200000 -6.880000 -26.977493 -16.363766 995.557983
2.800000 1.200000 -6.840000 -2.084815 -22.178541 496.234161
2.800000 1.200000 -6.800000 11.784319 -7.815058 199.945312
2.840000 0.800000 -7.200000 -1.928469 -28.251163 801.847229
2.840000 0.800000 -7.160000 25.641273 -27.659908 1422.545410
2.840000 0.800000 -7.120000 41.126369 -2.709208 1698.718140
2.840000 0.800000 -7.080000 29.194965 24.425646 1448.958252
2.840000 0.800000 -7.040000 1.407332 29.699818 884.059753
2.840000 0.800000 -7.000000 -16.404711 11.350674 397.952332
2.840000 0.800000 -6.960000 -10.839457 -9.942863 216.354355
2.840000 0.800000 -6.920000 6.903378 -14.020184 244.222168
2.840000 0.800000 -6.880000 15.433041 -1.818780 241.486694
2.840000 0.800000 -6.840000 7.120515 8.183967 117.679047
2.840000 0.800000 -6.800000 -4.815173 2.243114 28.217451
2.840000 0.840000 -7.200000 16.455774 -25.363743 914.111938
2.840000 0.840000 -7.160000 41.002964 -14.147368 1881.391113
2.840000 0.840000 -7.120000 48.584476 13.007723 2529.652344
2.840000 0.840000 -7.080000 33.978043 35.781517 2434.824219
2.840000 0.840000 -7.040000 10.689451 39.731857 1692.884888
2.840000 0.840000 -7.000000 -3.742149 28.315165 815.752197
2.840000 0.840000 -6.960000 -4.209686 16.109116 277.225067
2.840000 0.840000 -6.920000 0.533850 12.456445 155.447998
2.840000 0.840000 -6.880000 0.759802 13.714651 188.668961
2.840000 0.840000 -6.840000 -2.874145 11.124176 132.007996
2.840000 0.840000 -6.800000 -2.012567 3.435915 15.855932
2.840000 0.880000 -7.200000 23.473118 -9.260801 636.749695
2.840000 0.880000 -7.160000 41.309792 7.253840 1759.117065
2.840000 0.880000 -7.120000 43.082207 34.049118 3015.418945
2.840000 0.880000 -7.080000 26.406883 56.003036 3833.663574
2.840000 0.880000 -7.040000 0.742901 62.328613 3885.407959
2.840000 0.880000 -7.000000 -21.175562 53.017822 3259.293945
2.840000 0.880000 -6.960000 -32.089737 35.827305 2313.347168
2.840000 0.880000 -6.920000 -32.157738 18.970869 1394.013916
2.840000 0.880000 -6.880000 -25.126350 6.945337 679.571228
2.840000 0.880000 -6.840000 -14.718420 1.318486 218.370285
2.840000 0.880000 -6.800000 -4.397304 2.592937 26.059601
2.840000 0.920000 -7.200000 14.103959 3.440904 210.761475
2.840000 0.920000 -7.160000 26.743067 21.290390 1168.472412
2.840000 0.920000 -7.120000 23.515268 48.314251 2887.234619
2.840000 0.920000 -7.080000 0.308240 69.762115 4866.848145
2.840000 0.920000 -7.040000 -34.100494 71.748123 6310.636719
2.840000 0.920000 -7.000000 -62.924484 51.115166 6572.250977
2.840000 0.920000 -6.960000 -72.215591 17.960737 5537.679688
2.840000 0.920000 -6.920000 -59.719101 -11.022367 3687.863770
2.840000 0.920000 -6.880000 -35.433826 -23.380875 1802.221313
2.840000 0.920000 -6.840000 -14.027924 -17.968887 519.663574
2.840000 0.920000 -6.800000 -5.144052 -3.750314 40.526123
2.840000 0.960000 -7.200000 0.232033 0.926176 0.911641
2.840000 0.960000 -7.160000 9.519191 20.477959 509.961792
2.840000 0.960000 -7.120000 -1.265760 47.301289 2239.013916
2.840000 0.960000 -7.080000 -34.036255 61.549927 4946.860352
2.840000 0.960000 -7.040000 -72.747093 47.854752 7582.216797
2.840000 0.960000 -7.000000 -93.711349 9.145820 8865.463867
2.840000 0.960000 -6.960000 -83.617821 -33.764542 8131.984375
2.840000 0.960000 -6.920000 -49.901840 -57.415405 5786.722656
2.840000 0.960000 -6.880000 -14.431769 -52.930092 3009.870605
2.840000 0.960000 -6.840000 3.686728 -30.782619 961.161621
2.840000 0.960000 -6.800000 1.227949 -10.038168 102.272675
2.840000 1.000000 -7.200000 -2.785283 -11.935287 150.208878
2.840000 1.000000 -7.160000 1.085074 10.655627 114.719772
2.840000 1.000000 -7.120000 -19.582840 32.141731 1416.578613
2.840000 1.000000 -7.080000 -56.430099 30.139576 4092.750244
2.840000 1.000000 -7.040000 -84.293381 -2.371352 7110.997559
2.840000 1.000000 -7.000000 -81.151390 -48.615356 8949.000977
2.840000 1.000000 -6.960000 -46.774734 -80.283043 8633.243164
2.840000 1.000000 -6.920000 -2.995279 -79.993301 6407.899902
2.840000 1.000000 -6.880000 24.466925 -53.897614 3503.583008
2.840000 1.000000 -6.840000 25.768084 -23.963118 1238.225098
2.840000 1.000000 -6.800000 11.159667 -8.535202 197.387848
2.840000 1.040000 -7.200000 7.596468 -19.872288 452.614136
2.840000 1.040000 -7.160000 1.848646 2.800302 11.259181
2.840000 1.040000 -7.120000 -25.148731 11.238567 758.764099
2.840000 1.040000 -7.080000 -52.738914 -8.869678 2860.064209
2.840000 1.040000 -7.040000 -55.929970 -48.126663 5444.337402
2.840000 1.040000 -7.000000 -27.527142 -79.866318 7136.372559
2.840000 1.040000 -6.960000 15.244006 -82.416206 7024.811035
2.840000 1.040000 -6.920000 45.610336 -56.547729 5277.948242
2.840000 1.040000 -6.880000 49.213123 -22.624870 2933.816162
2.840000 1.040000 -6.840000 33.056686 -1.713713 1095.681274
2.840000 1.040000 -6.800000 15.195437 0.666471 231.345505
2.840000 1.080000 -7.200000 19.293400 -14.097737 570.981506
2.840000 1.080000 -7.160000 3.705868 1.017274 14.768307
2.840000 1.080000 -7.120000 -19.309568 -6.859087 419.906494
2.840000 1.080000 -7.080000 -25.887157 -34.783508 1880.037354
2.840000 1.080000 -7.040000 -5.101283 -60.446774 3679.835693
2.840000 1.080000 -7.000000 30.537518 -62.061047 4784.113281
2.840000 1.080000 -6.960000 56.403160 -37.522598 4589.261719
2.840000 1.080000 -6.920000 57.372093 -4.798433 3314.582031
2.840000 1.080000 -6.880000 38.892822 15.360123 1748.584961
2.840000 1.080000 -6.840000 18.560831 16.583286 619.509827
2.840000 1.080000 -6.800000 8.754600 8.189036 143.703339
2.840000 1.120000 -7.200000 19.436886 -1.341509 379.592194
2.840000 1.120000 -7.160000 1.188412 -0.152556 1.435597
2.840000 1.120000 -7.120000 -7.072704 -18.157341 379.712158
2.840000 1.120000 -7.080000 7.461163 -37.055225 1428.758667
2.840000 1.120000 -7.040000 35.508068 -35.998016 2556.680176
2.840000 1.120000 -7.000000 54.296097 -11.810596 3087.556396
2.840000 1.120000 -6.960000 49.076851 18.350250 2745.269043
2.840000 1.120000 -6.920000 25.822309 33.752674 1806.034668
2.840000 1.120000 -6.880000 3.463674 28.569790 828.229919
2.840000 1.120000 -6.840000 -4.784049 14.122907 222.343628
2.840000 1.120000 -6.800000 -1.506169 4.783274 25.148258
2.840000 1.160000 -7.200000 8.288379 4.161111 86.012062
2.840000 1.160000 -7.160000 -1.869892 -7.135504 54.411911
2.840000 1.160000 -7.120000 7.507650 -22.364719 556.545471
2.840000 1.160000 -7.080000 30.445513 -20.812098 1360.072632
2.840000 1.160000 -7.040000 45.152153 2.765133 2046.362915
2.840000 1.160000 -7.000000 35.494362 31.896944 2277.264648
2.840000 1.160000 -6.960000 6.930120 44.021896 1985.953979
2.840000 1.160000 -6.920000 -19.126394 31.745514 1373.596680
2.840000 1.160000 -6.880000 -25.947672 8.255152 741.429199
2.840000 1.160000 -6.840000 -15.610848 -7.328810 297.410034
2.840000 1.160000 -6.800000 -3.337648 -8.193176 78.268036
2.840000 1.200000 -7.200000 -1.524861 -3.758447 16.451122
2.840000 1.200000 -7.160000 2.647864 -18.032372 332.177612
2.840000 1.200000 -7.120000 22.016380 -19.700949 872.848389
2.840000 1.200000 -7.080000 37.058685 0.397308 1373.504028
2.840000 1.200000 -7.040000 28.950630 29.183193 1689.797729
2.840000 1.200000 -7.000000 -0.948866 42.672100 1821.808472
2.840000 1.200000 -6.960000 -31.294724 28.785778 1807.980713
2.840000 1.200000 -6.920000 -40.514355 -1.466447 1643.563477
2.840000 1.200000 -6.880000 -25.960939 -25.220001 1310.018799
2.840000 1.200000 -6.840000 -3.762600 -29.056606 858.443542
2.840000 1.200000 -6.800000 8.697405 -18.750984 427.244263
2.880000 0.800000 -7.200000 33.716331 -12.829893 1301.397217
2.880000 0.800000 -7.160000 46.453346 12.954119 2325.722412
2.880000 0.800000 -7.120000 31.437817 41.624901 2720.968750
2.880000 0.800000 -7.080000 -1.299594 47.227608 2232.135986
2.880000 0.800000 -7.040000 -23.889944 25.702705 1231.358521
2.880000 0.800000 -7.000000 -19.350906 -0.899765 375.267151
2.880000 0.800000 -6.960000 1.447983 -7.892941 64.395180
2.880000 0.800000 -6.920000 12.694979 6.411953 202.275635
2.880000 0.800000 -6.880000 1.940602 20.491302 423.659393
2.880000 0.800000 -6.840000 -17.107063 14.352674 498.650848
2.880000 0.800000 -6.800000 -20.681950 -8.264338 496.042328
2.880000 0.840000 -7.200000 33.192108 6.530367 1144.361816
2.880000 0.840000 -7.160000 39.023655 29.932905 2418.824463
2.880000 0.840000 -7.120000 25.013758 52.458450 3377.576904
2.880000 0.840000 -7.080000 -0.068882 59.167881 3500.842773
2.880000 0.840000 -7.040000 -20.319500 49.484451 2861.593018
2.880000 0.840000 -7.000000 -28.201790 34.783463 2005.230225
2.880000 0.840000 -6.960000 -28.878227 24.577137 1437.987671
2.880000 0.840000 -6.920000 -30.323420 17.631187 1230.368530
2.880000 0.840000 -6.880000 -32.243111 7.324257 1093.262939
2.880000 0.840000 -6.840000 -27.143293 -6.639294 780.838562
2.880000 0.840000 -6.800000 -11.715487 -15.161264 367.116577
2.880000 0.880000 -7.200000 16.856710 17.913099 605.027832
2.880000 0.880000 -7.160000 22.610725 39.042549 2035.565552
2.880000 0.880000 -7.120000 10.581774 64.468277 4268.132812
2.880000 0.880000 -7.080000 -18.987286 79.308769 6650.397949
2.880000 0.880000 -7.040000 -54.821529 73.123657 8352.469727
2.880000 0.880000 -7.000000 -81.465027 46.276405 8778.056641
2.880000 0.880000 -6.960000 -87.925903 9.312462 7817.686523
2.880000 0.880000 -6.920000 -72.911812 -23.035389 5846.761719
2.880000 0.880000 -6.880000 -44.727562 -39.163578 3534.340820
2.880000 0.880000 -6.840000 -16.683416 -35.832382 1562.296021
2.880000 0.880000 -6.800000 -0.346901 -19.198656 368.708740
2.880000 0.920000 -7.200000 -1.242601 10.767927 117.492317
2.880000 0.920000 -7.160000 5.905821 36.323650 1354.286255
2.880000 0.920000 -7.120000 -13.674812 68.742332 4912.508789
2.880000 0.920000 -7.080000 -60.694569 81.739777 10365.221680
2.880000 0.920000 -7.040000 -112.395706 56.174644 15788.385742
2.880000 0.920000 -7.000000 -136.856461 -2.160736 18734.359375
2.880000 0.920000 -6.960000 -117.016388 -63.732956 17754.724609
2.880000 0.920000 -6.920000 -64.318130 -95.972649 13347.570312
2.880000 0.920000 -6.880000 -10.127644 -86.707199 7620.707520
2.880000 0.920000 -6.840000 17.827108 -51.014675 2920.302734
2.880000 0.920000 -6.800000 14.078944 -16.908718 484.121429
2.880000 0.960000 -7.200000 -4.248182 -7.934178 80.998238
2.880000 0.960000 -7.160000 -3.015665 26.454659 708.943176
2.880000 0.960000 -7.120000 -40.016701 57.233715 4877.034668
2.880000 0.960000 -7.080000 -101.564072 48.734081 12690.271484
2.880000 0.960000 -7.040000 -146.196869 -10.308432 21479.789062
2.880000 0.960000 -7.000000 -136.853409 -91.508453 27102.652344
2.880000 0.960000 -6.960000 -72.978775 -145.986267 26637.890625
2.880000 0.960000 -6.920000 7.180321 -142.662659 20404.191406
2.880000 0.960000 -6.880000 56.946571 -91.855324 11680.312500
2.880000 0.960000 -6.840000 57.054359 -33.779388 4396.247070
2.880000 0.960000 -6.800000 25.745829 -4.041231 679.179260
2.880000 1.000000 -7.200000 10.563631 -19.802582 503.732544
2.880000 1.000000 -7.160000 -3.645554 18.017838 337.932526
2.880000 1.000000 -7.120000 -55.872795 31.176189 4093.724121
2.880000 1.000000 -7.080000 -111.002914 -9.113701 12404.707031
2.880000 1.000000 -7.040000 -120.423996 -89.459618 22504.960938
2.880000 1.000000 -7.000000 -64.716469 -159.220856 29539.501953
2.880000 1.000000 -6.960000 26.334465 -170.542542 29778.261719
2.880000 1.000000 -6.920000 96.537750 -117.918930 23224.410156
2.880000 1.000000 -6.880000 108.676613 -41.096241 13499.507812
2.880000 1.000000 -6.840000 71.282593 10.151181 5184.254395
2.880000 1.000000 -6.800000 24.588531 15.627625 848.818542
2.880000 1.040000 -7.200000 28.799183 -13.038589 999.397705
2.880000 1.040000 -7.160000 -2.317765 15.144051 234.714310
2.880000 1.040000 -7.120000 -53.737549 1.444944 2889.812012
2.880000 1.040000 -7.080000 -79.228485 -59.348778 9799.429688
2.880000 1.040000 -7.040000 -45.227505 -128.890747 18658.351562
2.880000 1.040000 -7.000000 36.065853 -154.362854 25128.636719
2.880000 1.040000 -6.960000 113.463348 -113.462997 25747.783203
2.880000 1.040000 -6.920000 138.630219 -33.539398 20343.228516
2.880000 1.040000 -6.880000 104.606995 32.642220 12008.137695
2.880000 1.040000 -6.840000 46.534302 50.876545 4753.864258
2.880000 1.040000 -6.800000 7.155538 28.544760 866.005005
2.880000 1.080000 -7.200000 33.173168 6.158232 1138.382935
2.880000 1.080000 -7.160000 -4.656359 14.263499 225.129089
2.880000 1.080000 -7.120000 -36.721844 -19.541183 1730.351562
2.880000 1.080000 -7.080000 -26.194853 -74.817574 6283.839844
2.880000 1.080000 -7.040000 31.130688 -106.349945 12279.430664
2.880000 1.080000 -7.000000 99.035873 -83.061363 16707.294922
2.880000 1.080000 -6.960000 130.141693 -16.165199 17198.173828
2.880000 1.080000 -6.920000 105.520889 50.170235 13651.710938
2.880000 1.080000 -6.880000 48.137398 76.400757 8154.284668
2.880000 1.080000 -6.840000 -0.443819 57.930058 3356.088623
2.880000 1.080000 -6.800000 -15.658818 21.922421 725.791138
2.880000 1.120000 -7.200000 20.260078 20.261204 820.987183
2.880000 1.120000 -7.160000 -9.298445 9.180643 170.745285
2.880000 1.120000 -7.120000 -14.931330 -26.405697 920.205444
2.880000 1.120000 -7.080000 16.382959 -54.998356 3293.220459
2.880000 1.120000 -7.040000 64.555588 -46.575211 6336.673828
2.880000 1.120000 -7.000000 92.110252 -0.567699 8484.621094
2.880000 1.120000 -6.960000 76.631393 52.489372 8627.504883
2.880000 1.120000 -6.920000 29.419800 77.251846 6833.372070
2.880000 1.120000 -6.880000 -16.268339 62.560215 4178.439453
2.880000 1.120000 -6.840000 -34.422329 26.768217 1901.434204
2.880000 1.120000 -6.800000 -24.779922 -2.563790 620.617554
2.880000 1.160000 -7.200000 2.834961 17.875975 327.587494
2.880000 1.160000 -7.160000 -9.545933 -1.071315 92.272545
2.880000 1.160000 -7.120000 2.835432 -22.232710 502.333069
2.880000 1.160000 -7.080000 31.216427 -22.104536 1463.075806
2.880000 1.160000 -7.040000 50.006744 4.849361 2524.190918
2.880000 1.160000 -7.000000 39.903961 39.841003 3179.631836
2.880000 1.160000 -6.960000 5.503582 56.155754 3183.758057
2.880000 1.160000 -6.920000 -29.261833 42.381287 2652.428223
2.880000 1.160000 -6.880000 -42.444172 10.536601 1912.527588
2.880000 1.160000 -6.840000 -31.165010 -16.945271 1258.400024
2.880000 1.160000 -6.800000 -9.588270 -26.815639 811.013428
2.880000 1.200000 -7.200000 -3.717303 3.974920 29.618336
2.880000 1.200000 -7.160000 -1.181680 -10.142777 104.272301
2.880000 1.200000 -7.120000 13.811458 -13.088232 362.058167
2.880000 1.200000 -7.080000 24.835432 1.411486 618.791016
2.880000 1.200000 -7.040000 17.399014 22.029079 788.005981
2.880000 1.200000 -7.000000 -6.595337 29.778229 930.241394
2.880000 1.200000 -6.960000 -29.957802 15.548787 1139.234741
2.880000 1.200000 -6.920000 -35.546089 -11.834641 1403.583130
2.880000 1.200000 -6.880000 -20.637630 -34.171516 1593.604248
2.880000 1.200000 -6.840000 2.884808 -39.664391 1581.586060
2.880000 1.200000 -6.800000 20.838861 -30.520578 1365.763794
2.920000 0.800000 -7.200000 42.375938 27.310402 2541.578125
2.920000 0.800000 -7.160000 25.092789 57.975838 3990.845703
2.920000 0.800000 -7.120000 -14.261414 64.796417 4401.963379
2.920000 0.800000 -7.080000 -45.152031 38.184746 3496.780762
2.920000 0.800000 -7.040000 -43.214977 0.446552 1867.733765
2.920000 0.800000 -7.000000 -15.641510 -16.027580 501.540161
2.920000 0.800000 -6.960000 6.274971 -1.839058 42.757393
2.920000 0.800000 -6.920000 0.032979 20.463013 418.735992
2.920000 0.800000 -6.880000 -24.904762 21.235510 1071.194092
2.920000 0.800000 -6.840000 -38.261032 -4.461926 1483.815430
2.920000 0.800000 -6.800000 -21.901409 -32.113293 1510.935303
2.920000 0.840000 -7.200000 16.389334 40.083351 1875.285278
2.920000 0.840000 -7.160000 0.955524 57.787888 3340.353027
2.920000 0.840000 -7.120000 -25.162477 61.138542 4371.071777
2.920000 0.840000 -7.080000 -46.882767 47.658783 4469.353516
2.920000 0.840000 -7.040000 -55.137802 27.929386 3820.227783
2.920000 0.840000 -7.000000 -54.044373 12.912491 3087.526611
2.920000 0.840000 -6.960000 -52.754616 2.802887 2790.905762
2.920000 0.840000 -6.920000 -52.645508 -9.823151 2868.043945
2.920000 0.840000 -6.880000 -45.660522 -27.203535 2824.915527
2.920000 0.840000 -6.840000 -25.930725 -40.134827 2283.206787
2.920000 0.840000 -6.800000 -0.485288 -36.833664 1356.954224
2.920000 0.880000 -7.200000 -9.705206 28.058187 881.452942
2.920000 0.880000 -7.160000 -15.253963 45.698452 2321.031982
2.920000 0.880000 -7.120000 -38.607815 60.856110 5194.029297
2.920000 0.880000 -7.080000 -74.963562 58.175987 9003.981445
2.920000 0.880000 -7.040000 -108.095245 30.009274 12585.138672
2.920000 0.880000 -7.000000 -119.736893 -16.826073 14620.041016
2.920000 0.880000 -6.960000 -101.193970 -63.623726 14288.198242
2.920000 0.880000 -6.920000 -59.455982 -90.293030 11687.844727
2.920000 0.880000 -6.880000 -13.619736 -87.245872 7797.339355
2.920000 0.880000 -6.840000 16.436115 -60.913677 3980.622070
2.920000 0.880000 -6.800000 21.805080 -29.085476 1321.426392
2.920000 0.920000 -7.200000 -15.184645 1.022987 231.619949
2.920000 0.920000 -7.160000 -19.628521 31.535688 1379.778442
2.920000 0.920000 -7.120000 -59.815533 54.789757 6579.815430
2.920000 0.920000 -7.080000 -119.859604 37.772812 15793.109375
2.920000 0.920000 -7.040000 -158.969238 -27.488159 26026.818359
2.920000 0.920000 -7.000000 -142.661011 -111.203049 32718.281250
2.920000 0.920000 -6.960000 -72.471100 -165.247391 32558.759766
2.920000 0.920000 -6.920000 12.823547 -159.745865 25683.185547
2.920000 0.920000 -6.880000 66.567497 -105.362244 15532.433594
2.920000 0.920000 -6.840000 68.800835 -42.414898 6532.578125
2.920000 0.920000 -6.800000 36.809570 -7.748577 1414.984863
2.920000 0.960000 -7.200000 3.507769 -17.805555 329.342255
2.920000 0.960000 -7.160000 -16.939407 23.339441 831.672974
2.920000 0.960000 -7.120000 -80.706078 33.035805 7604.835449
2.920000 0.960000 -7.080000 -144.699249 -21.726429 21409.910156
2.920000 0.960000 -7.040000 -150.666931 -122.962830 37820.382812
2.920000 0.960000 -7.000000 -76.539978 -208.200455 49205.796875
2.920000 0.960000 -6.960000 39.734901 -219.245728 49647.550781
2.920000 0.960000 -6.920000 128.233795 -150.315872 39038.765625
2.920000 0.960000 -6.880000 142.805756 -51.603973 23056.455078
2.920000 0.960000 -6.840000 94.400238 14.100716 9110.235352
2.920000 0.960000 -6.800000 34.169044 20.914635 1604.945557
2.920000 1.000000 -7.200000 29.073271 -12.517562 1001.944458
2.920000 1.000000 -7.160000 -15.203921 21.662176 700.409119
2.920000 1.000000 -7.120000 -86.229721 -1.823944 7438.891602
2.920000 1.000000 -7.080000 -120.156944 -90.874420 22695.851562
2.920000 1.000000 -7.040000 -69.078705 -192.139374 41689.406250
2.920000 1.000000 -7.000000 50.811546 -229.913727 55442.132812
2.920000 1.000000 -6.960000 166.129349 -170.475662 56660.914062
2.920000 1.000000 -6.920000 205.273865 -52.167423 44858.800781
2.920000 1.000000 -6.880000 155.924728 47.293991 26549.242188
2.920000 1.000000 -6.840000 69.200256 75.298286 10458.507812
2.920000 1.000000 -6.800000 10.236830 41.167366 1799.544800
2.920000 1.040000 -7.200000 39.173744 11.447710 1665.632324
2.920000 1.040000 -7.160000 -18.381214 20.819176 771.307129
2.920000 1.040000 -7.120000 -69.348305 -34.300308 5985.698730
2.920000 1.040000 -7.080000 -54.322273 -126.695084 19002.554688
2.920000 1.040000 -7.040000 39.255516 -185.135071 35815.992188
2.920000 1.040000 -7.000000 157.088943 -154.066254 48413.343750
2.920000 1.040000 -6.960000 219.248596 -44.664413 50064.855469
2.920000 1.040000 -6.920000 186.723145 72.135735 40069.093750
2.920000 1.040000 -6.880000 91.792778 125.041939 24061.400391
2.920000 1.040000 -6.840000 5.660852 98.717659 9777.220703
2.920000 1.040000 -6.800000 -23.283979 36.815926 1897.556030
2.920000 1.080000 -7.200000 26.360889 33.365532 1808.155151
2.920000 1.080000 -7.160000 -23.604797 15.224188 788.962341
2.920000 1.080000 -7.120000 -38.579449 -49.046280 3893.911621
2.920000 1.080000 -7.080000 13.182529 -110.780434 12446.083984
2.920000 1.080000 -7.040000 107.259521 -110.943901 23813.152344
2.920000 1.080000 -7.000000 177.115723 -34.283142 32545.312500
2.920000 1.080000 -6.960000 169.382690 72.835556 33995.515625
2.920000 1.080000 -6.920000 89.585342 139.836411 27579.755859
2.920000 1.080000 -6.880000 -4.388916 130.322449 17003.203125
2.920000 1.080000 -6.840000 -53.328667 67.499893 7400.182129
2.920000 1.080000 -6.800000 -43.071053 6.391524 1895.967163
2.920000 1.120000 -7.200000 3.099950 36.807190 1364.379028
2.920000 1.120000 -7.160000 -24.773827 4.822234 636.996460
2.920000 1.120000 -7.120000 -10.499947 -43.626335 2013.505981
2.920000 1.120000 -7.080000 46.294399 -63.299706 6150.024414
2.920000 1.120000 -7.040000 105.005783 -26.163536 11710.745117
2.920000 1.120000 -7.000000 116.438217 49.564377 16014.486328
2.920000 1.120000 -6.960000 66.161903 111.644791 16841.957031
2.920000 1.120000 -6.920000 -12.193283 117.487968 13952.098633
2.920000 1.120000 -6.880000 -66.156570 68.724640 9099.767578
2.920000 1.120000 -6.840000 -67.851212 5.551680 4634.608398
2.920000 1.120000 -6.800000 -31.585323 -30.685526 1939.234131
2.920000 1.160000 -7.200000 -11.813984 23.327496 683.742310
2.920000 1.160000 -7.160000 -18.690872 -5.061904 374.971558
2.920000 1.160000 -7.120000 4.344698 -28.343544 822.232910
2.920000 1.160000 -7.080000 41.068253 -20.921242 2124.299805
2.920000 1.160000 -7.040000 58.782928 17.914772 3776.371582
2.920000 1.160000 -7.000000 37.322830 60.076756 5002.209961
2.920000 1.160000 -6.960000 -11.608505 71.805878 5290.841309
2.920000 1.160000 -6.920000 -53.609776 42.751522 4701.700684
2.920000 1.160000 -6.880000 -60.656261 -6.085709 3716.218018
2.920000 1.160000 -6.840000 -32.794411 -41.789864 2821.866211
2.920000 1.160000 -6.800000 6.227720 -46.582130 2208.679199
2.920000 1.200000 -7.200000 -10.816562 7.955556 180.288879
2.920000 1.200000 -7.160000 -8.108757 -8.686186 141.201752
2.920000 1.200000 -7.120000 7.627160 -14.898678 280.144165
2.920000 1.200000 -7.080000 21.190916 -3.567207 461.779907
2.920000 1.200000 -7.040000 17.587616 15.678833 555.150024
2.920000 1.200000 -7.000000 -3.245522 24.057365 589.290222
2.920000 1.200000 -6.960000 -25.085876 10.581837 741.276489
2.920000 1.200000 -6.920000 -29.169092 -17.603424 1160.716553
2.920000 1.200000 -6.880000 -10.159038 -41.160255 1797.372681
2.920000 1.200000 -6.840000 20.228683 -44.657570 2403.498291
2.920000 1.200000 -6.800000 44.063610 -27.723675 2710.203857
2.960000 0.800000 -7.200000 15.022816 59.450413 3760.036621
2.960000 0.800000 -7.160000 -25.696625 70.139893 5579.920898
2.960000 0.800000 -7.120000 -65.003799 43.323921 6102.456055
2.960000 0.800000 -7.080000 -70.286934 -4.850954 4963.784668
2.960000 0.800000 -7.040000 -38.449722 -36.528587 2812.718750
2.960000 0.800000 -7.000000 -0.804127 -29.373901 863.472717
2.960000 0.800000 -6.960000 7.966225 0.898552 64.268127
2.960000 0.800000 -6.920000 -15.259277 17.177437 527.909912
2.960000 0.800000 -6.880000 -40.043461 -0.410633 1603.647339
2.960000 0.800000 -6.840000 -35.203701 -34.628159 2438.409912
2.960000 0.800000 -6.800000 -1.300352 -50.404068 2542.260986
2.960000 0.840000 -7.200000 -20.955448 46.914066 2640.060547
2.960000 0.840000 -7.160000 -45.784904 45.861588 4199.542969
2.960000 0.840000 -7.120000 -66.647018 27.428101 5194.125977
2.960000 0.840000 -7.080000 -71.684219 1.186718 5140.035645
2.960000 0.840000 -7.040000 -62.984398 -18.662865 4315.336914
2.960000 0.840000 -7.000000 -52.419937 -27.968323 3530.076904
2.960000 0.840000 -6.960000 -46.848499 -34.830429 3407.940918
2.960000 0.840000 -6.920000 -40.400330 -47.031624 3844.160156
2.960000 0.840000 -6.880000 -23.133263 -60.023617 4137.982422
2.960000 0.840000 -6.840000 4.040411 -60.373634 3661.300781
2.960000 0.840000 -6.800000 26.344624 -41.617592 2426.062988
2.960000 0.880000 -7.200000 -33.204426 12.291698 1253.619751
2.960000 0.880000 -7.160000 -44.681976 21.549446 2460.857666
2.960000 0.880000 -7.120000 -70.685234 20.946905 5435.175293
2.960000 0.880000 -7.080000 -99.457550 -2.012272 9895.853516
2.960000 0.880000 -7.040000 -111.495438 -46.404404 14584.601562
2.960000 0.880000 -7.000000 -92.945312 -95.607025 17779.535156
2.960000 0.880000 -6.960000 -46.397278 -126.512421 18158.099609
2.960000 0.880000 -6.920000 9.080559 -124.201660 15508.509766
2.960000 0.880000 -6.880000 49.272743 -91.827049 10860.009766
2.960000 0.880000 -6.840000 59.893127 -48.482559 5937.745117
2.960000 0.880000 -6.800000 44.744598 -16.436424 2272.235107
2.960000 0.920000 -7.200000 -13.784563 -16.285526 455.232544
2.960000 0.920000 -7.160000 -33.102848 10.910637 1214.840576
2.960000 0.920000 -7.120000 -83.871323 9.975115 7133.901855
2.960000 0.920000 -7.080000 -129.619507 -42.346165 18594.414062
2.960000 0.920000 -7.040000 -124.982933 -128.102158 32030.894531
2.960000 0.920000 -7.000000 -55.497253 -195.968994 41483.792969
2.960000 0.920000 -6.960000 45.804123 -200.410889 42262.539062
2.960000 0.920000 -6.920000 121.852951 -138.587067 34054.515625
2.960000 0.920000 -6.880000 135.472595 -52.118679 21069.181641
2.960000 0.920000 -6.840000 95.387428 7.307056 9152.155273
2.960000 0.920000 -6.800000 43.303173 17.203939 2171.140381
2.960000 0.960000 -7.200000 18.837669 -16.477139 626.353882
2.960000 0.960000 -7.160000 -26.043697 12.726423 840.236023
2.960000 0.960000 -7.120000 -94.361443 -16.954786 9191.546875
2.960000 0.960000 -7.080000 -121.637138 -110.429665 26990.304688
2.960000 0.960000 -7.040000 -61.991714 -211.756134 48683.632812
2.960000 0.960000 -7.000000 65.014961 -244.932755 64219.000000
2.960000 0.960000 -6.960000 183.518951 -178.378967 65498.265625
2.960000 0.960000 -6.920000 221.635239 -53.497196 51984.128906
2.960000 0.960000 -6.880000 168.775925 49.784966 30963.855469
2.960000 0.960000 -6.840000 78.583420 78.471924 12333.197266
2.960000 0.960000 -6.800000 18.132259 43.228100 2197.447510
2.960000 1.000000 -7.200000 36.712322 9.244881 1433.262329
2.960000 1.000000 -7.160000 -29.167854 15.518787 1091.596436
2.960000 1.000000 -7.120000 -84.760162 -52.893463 9982.003906
2.960000 1.000000 -7.080000 -61.200577 -162.545181 30166.445312
2.960000 1.000000 -7.040000 54.505371 -229.083435 55450.054688
2.960000 1.000000 -7.000000 196.612411 -187.846359 73942.695312
2.960000 1.000000 -6.960000 270.016327 -53.838726 75807.429688
2.960000 1.000000 -6.920000 229.312088 87.250351 60196.660156
2.960000 1.000000 -6.880000 114.551872 150.266403 35702.125000
2.960000 1.000000 -6.840000 11.969658 117.937195 14052.454102
2.960000 1.000000 -6.800000 -20.522322 44.218742 2376.462891
2.960000 1.040000 -7.200000 26.898449 37.730812 2147.140625
2.960000 1.040000 -7.160000 -36.156620 10.338144 1414.178345
2.960000 1.040000 -7.120000 -52.198933 -77.212379 8686.480469
2.960000 1.040000 -7.080000 21.404734 -160.455963 26204.277344
2.960000 1.040000 -7.040000 152.382172 -159.697693 48723.679688
2.960000 1.040000 -7.000000 250.534424 -53.337151 65612.343750
2.960000 1.040000 -6.960000 242.095154 96.032410 67832.289062
2.960000 1.040000 -6.920000 133.418274 191.199554 54357.703125
2.960000 1.040000 -6.880000 3.927582 180.836761 32717.359375
2.960000 1.040000 -6.840000 -63.731853 96.414566 13357.517578
2.960000 1.040000 -6.800000 -49.379253 14.946840 2661.718506
2.960000 1.080000 -7.200000 0.463446 47.204311 2228.461914
2.960000 1.080000 -7.160000 -37.492680 -1.479301 1407.889404
2.960000 1.080000 -7.120000 -13.248369 -75.580635 5887.952148
2.960000 1.080000 -7.080000 77.108749 -107.284836 17455.794922
2.960000 1.080000 -7.040000 173.739365 -50.542145 32739.875000
2.960000 1.080000 -7.000000 198.840424 70.662079 44530.644531
2.960000 1.080000 -6.960000 124.974754 175.895782 46558.015625
2.960000 1.080000 -6.920000 1.051632 194.765076 37934.539062
2.960000 1.080000 -6.880000 -89.528145 124.832672 23598.484375
2.960000 1.080000 -6.840000 -98.704475 27.834148 10517.313477
2.960000 1.080000 -6.800000 -46.479969 -28.553631 2975.697266
2.960000 1.120000 -7.200000 -20.849579 35.264816 1678.312256
2.960000 1.120000 -7.160000 -30.288530 -11.780205 1056.168335
2.960000 1.120000 -7.120000 11.236696 -53.513351 2989.942139
2.960000 1.120000 -7.080000 81.391724 -43.116974 8483.686523
2.960000 1.120000 -7.040000 123.181976 27.882748 15951.246094
2.960000 1.120000 -7.000000 93.895210 114.278511 21875.888672
2.960000 1.120000 -6.960000 5.949402 152.166153 23189.933594
2.960000 1.120000 -6.920000 -80.914818 113.544724 19439.611328
2.960000 1.120000 -6.880000 -109.935211 29.301163 12944.309570
2.960000 1.120000 -6.840000 -72.884262 -40.098824 6920.031250
2.960000 1.120000 -6.800000 -9.813466 -56.367310 3273.577881
2.960000 1.160000 -7.200000 -25.252026 16.794338 919.714600
2.960000 1.160000 -7.160000 -19.754326 -14.746038 607.679077
2.960000 1.160000 -7.120000 14.578085 -29.728582 1096.309204
2.960000 1.160000 -7.080000 51.511402 -6.767487 2699.223389
2.960000 1.160000 -7.040000 55.326431 42.784828 4891.555664
2.960000 1.160000 -7.000000 14.546539 80.097824 6627.263672
2.960000 1.160000 -6.960000 -44.193085 71.867149 7117.916016
2.960000 1.160000 -6.920000 -77.282745 20.497543 6392.771973
2.960000 1.160000 -6.880000 -61.190754 -37.576954 5156.335938
2.960000 1.160000 -6.840000 -10.703102 -63.419876 4136.636719
2.960000 1.160000 -6.800000 37.126160 -46.646202 3554.219727
2.960000 1.200000 -7.200000 -18.597492 6.653832 390.140228
2.960000 1.200000 -7.160000 -12.649579 -11.849665 300.426392
2.960000 1.200000 -7.120000 7.098450 -17.874430 369.883240
2.960000 1.200000 -7.080000 23.304874 -4.018154 559.262756
2.960000 1.200000 -7.040000 19.363106 17.846743 693.436096
2.960000 1.200000 -7.000000 -3.345169 25.901819 682.094421
2.960000 1.200000 -6.960000 -24.573603 8.916245 683.361328
2.960000 1.200000 -6.920000 -22.851406 -21.991165 1005.798096
2.960000 1.200000 -6.880000 4.973581 -42.256748 1810.369385
2.960000 1.200000 -6.840000 40.863243 -35.003887 2895.076660
2.960000 1.200000 -6.800000 61.382111 -4.419149 3787.292236
3.000000 0.800000 -7.200000 -26.374702 58.307541 4095.394287
3.000000 0.800000 -7.160000 -67.386169 38.920517 6055.702637
3.000000 0.800000 -7.120000 -82.202530 -10.297947 6863.303711
3.000000 0.800000 -7.080000 -54.410519 -55.075806 5993.849121
3.000000 0.800000 -7.040000 -5.483181 -61.713566 3838.629395
3.000000 0.800000 -7.000000 23.937767 -30.743721 1518.193115
3.000000 0.800000 -6.960000 13.520081 3.048973 192.088806
3.000000 0.800000 -6.920000 -17.334335 5.510290 330.842499
3.000000 0.800000 -6.880000 -30.589088 -23.051508 1467.064331
3.000000 0.800000 -6.840000 -8.934120 -50.095612 2589.388916
3.000000 0.800000 -6.800000 27.729914 -45.846565 2870.855469
3.000000 0.840000 -7.200000 -48.417618 22.441574 2847.889893
3.000000 0.840000 -7.160000 -66.014542 3.498095 4370.156738
3.000000 0.840000 -7.120000 -68.531174 -25.740263 5359.083008
3.000000 0.840000 -7.080000 -52.968304 -49.755806 5281.281250
3.000000 0.840000 -7.040000 -30.846727 -58.086060 4325.510742
3.000000 0.840000 -7.000000 -15.757294 -55.255131 3301.421631
3.000000 0.840000 -6.960000 -9.097931 -53.829941 2980.435059
3.000000 0.840000 -6.920000 -0.436653 -58.666996 3442.007080
3.000000 0.840000 -6.880000 17.945284 -60.793007 4017.822998
3.000000 0.840000 -6.840000 39.361626 -48.445675 3896.320801
3.000000 0.840000 -6.800000 48.172913 -22.749786 2838.182129
3.000000 0.880000 -7.200000 -34.172905 -14.927341 1390.613037
3.000000 0.880000 -7.160000 -45.405254 -14.141733 2261.625732
3.000000 0.880000 -7.120000 -63.436462 -28.417700 4831.750488
3.000000 0.880000 -7.080000 -71.672234 -61.642445 8936.700195
3.000000 0.880000 -7.040000 -54.992554 -102.026230 13433.532227
3.000000 0.880000 -7.000000 -12.165466 -128.526596 16667.083984
3.000000 0.880000 -6.960000 41.272400 -124.916626 17307.574219
3.000000 0.880000 -6.920000 82.140755 -91.150581 15055.532227
3.000000 0.880000 -6.880000 94.255592 -43.783569 10801.117188
3.000000 0.880000 -6.840000 78.216560 -5.216482 6145.041992
3.000000 0.880000 -6.800000 49.655205 10.469441 2575.248535
3.000000 0.920000 -7.200000 1.799899 -24.436050 600.360168
3.000000 0.920000 -7.160000 -28.170599 -10.329940 900.290283
3.000000 0.920000 -7.120000 -69.652557 -37.954636 6292.032715
3.000000 0.920000 -7.080000 -78.018288 -106.064079 17336.441406
3.000000 0.920000 -7.040000 -25.484066 -173.208420 30650.593750
3.000000 0.920000 -7.000000 70.030716 -188.212219 40328.140625
3.000000 0.920000 -6.960000 154.526108 -132.952133 41554.585938
3.000000 0.920000 -6.920000 179.652222 -38.871178 33785.886719
3.000000 0.920000 -6.880000 140.021423 38.090267 21056.867188
3.000000 0.920000 -6.840000 73.704010 61.483990 9212.562500
3.000000 0.920000 -6.800000 27.749048 38.528900 2254.485840
3.000000 0.960000 -7.200000 28.083780 -1.825178 792.030029
3.000000 0.960000 -7.160000 -27.262697 -0.443615 743.451416
3.000000 0.960000 -7.120000 -69.473503 -63.472279 8855.297852
3.000000 0.960000 -7.080000 -40.203194 -157.825562 26525.205078
3.000000 0.960000 -7.040000 67.389847 -209.117798 48271.644531
3.000000 0.960000 -7.000000 192.579926 -164.121094 64022.761719
3.000000 0.960000 -6.960000 252.799591 -40.362675 65536.781250
3.000000 0.960000 -6.920000 211.824982 85.137314 52118.187500
3.000000 0.960000 -6.880000 107.984238 139.109833 31012.140625
3.000000 0.960000 -6.840000 17.682308 109.210953 12239.696289
3.000000 0.960000 -6.800000 -9.585640 44.703571 2090.293701
3.000000 1.000000 -7.200000 24.808933 30.564758 1549.687622
3.000000 1.000000 -7.160000 -36.367485 -0.742886 1323.145874
3.000000 1.000000 -7.120000 -46.420261 -91.038292 10442.811523
3.000000 1.000000 -7.080000 35.219971 -172.244751 30908.699219
3.000000 1.000000 -7.040000 171.749115 -164.126785 56435.359375
3.000000 1.000000 -7.000000 269.574860 -48.507313 75023.562500
3.000000 1.000000 -6.960000 255.500931 107.121956 76755.843750
3.000000 1.000000 -6.920000 140.008713 202.977142 60802.156250
3.000000 1.000000 -6.880000 6.967825 189.326477 35893.066406
3.000000 1.000000 -6.840000 -59.628750 101.984764 13956.480469
3.000000 1.000000 -6.800000 -42.190918 21.516968 2243.053467
3.000000 1.040000 -7.200000 -1.017240 46.188866 2134.446045
3.000000 1.040000 -7.160000 -40.330544 -12.637013 1786.246826
3.000000 1.040000 -7.120000 -5.822872 -97.637474 9566.982422
3.000000 1.040000 -7.080000 104.135361 -129.416443 27592.789062
3.000000 1.040000 -7.040000 217.429993 -56.385471 50455.121094
3.000000 1.040000 -7.000000 243.391846 90.206360 67376.781250
3.000000 1.040000 -6.960000 152.585175 214.482117 69284.812500
3.000000 1.040000 -6.920000 5.269506 235.052948 55277.656250
3.000000 1.040000 -6.880000 -99.937851 152.096680 33120.976562
3.000000 1.040000 -6.840000 -108.703537 40.557224 13461.347656
3.000000 1.040000 -6.800000 -48.007355 -20.278271 2715.914307
3.000000 1.080000 -7.200000 -26.160389 37.442772 2086.327148
3.000000 1.080000 -7.160000 -32.306911 -24.449106 1641.495361
3.000000 1.080000 -7.120000 28.450947 -75.756241 6548.464355
3.000000 1.080000 -7.080000 124.439392 -55.293930 18542.580078
3.000000 1.080000 -7.040000 178.973999 46.056377 34152.882812
3.000000 1.080000 -7.000000 136.026794 165.934677 46037.605469
3.000000 1.080000 -6.960000 14.238747 218.315262 47864.296875
3.000000 1.080000 -6.920000 -104.823334 166.913467 38848.039062
3.000000 1.080000 -6.880000 -145.304352 55.076580 24146.785156
3.000000 1.080000 -6.840000 -98.197205 -35.270573 10886.705078
3.000000 1.080000 -6.800000 -19.463928 -54.369442 3334.880615
3.000000 1.120000 -7.200000 -34.535469 17.881834 1512.458618
3.000000 1.120000 -7.160000 -19.357206 -26.149101 1058.476929
3.000000 1.120000 -7.120000 37.177025 -41.693584 3120.486328
3.000000 1.120000 -7.080000 93.722733 2.151474 8788.579102
3.000000 1.120000 -7.040000 95.510788 85.852463 16492.957031
3.000000 1.120000 -7.000000 26.080818 148.067596 22604.222656
3.000000 1.120000 -6.960000 -71.762215 137.049637 23932.417969
3.000000 1.120000 -6.920000 -129.468140 57.266872 20041.494141
3.000000 1.120000 -6.880000 -110.706589 -33.941025 13407.942383
3.000000 1.120000 -6.840000 -39.309753 -76.425224 7386.071777
3.000000 1.120000 -6.800000 27.158569 -55.784542 3849.502930
3.000000 1.160000 -7.200000 -29.340115 4.680846 882.752686
3.000000 1.160000 -7.160000 -12.546574 -19.864006 551.995239
3.000000 1.160000 -7.120000 23.579098 -19.327507 929.526367
3.000000 1.160000 -7.080000 47.333652 16.249453 2504.519287
3.000000 1.160000 -7.040000 30.177834 62.613739 4831.181641
3.000000 1.160000 -7.000000 -22.858429 78.954437 6756.311035
3.000000 1.160000 -6.960000 -72.717056 45.204437 7331.211914
3.000000 1.160000 -6.920000 -79.112381 -17.330582 6559.118164
3.000000 1.160000 -6.880000 -35.996502 -63.199158 5289.881836
3.000000 1.160000 -6.840000 24.205538 -61.753864 4399.447754
3.000000 1.160000 -6.800000 60.418964 -20.759853 4081.422607
3.000000 1.200000 -7.200000 -24.199059 1.557878 588.021423
3.000000 1.200000 -7.160000 -14.233949 -15.765659 451.161316
3.000000 1.200000 -7.120000 7.671488 -17.619452 369.296783
3.000000 1.200000 -7.080000 21.734543 0.326206 472.496765
3.000000 1.200000 -7.040000 13.279697 21.828875 652.850098
3.000000 1.200000 -7.000000 -10.631432 24.556152 716.031982
3.000000 1.200000 -6.960000 -25.854919 2.691025 675.718506
3.000000 1.200000 -6.920000 -13.792625 -25.519592 841.486084
3.000000 1.200000 -6.880000 20.277538 -33.685352 1545.881592
3.000000 1.200000 -6.840000 51.325333 -11.207113 2759.889160
3.000000 1.200000 -6.800000 56.736549 27.932512 3999.261230
3.040000 0.800000 -7.200000 -49.842365 28.064148 3271.857910
3.040000 0.800000 -7.160000 -70.009903 -10.107330 5003.544922
3.040000 0.800000 -7.120000 -53.766556 -56.850498 6122.821777
3.040000 0.800000 -7.080000 -6.359179 -77.146347 5991.998047
3.040000 0.800000 -7.040000 37.973511 -55.489368 4521.057617
3.040000 0.800000 -7.000000 46.942123 -12.743511 2365.959961
3.040000 0.800000 -6.960000 21.036064 12.962008 610.529663
3.040000 0.800000 -6.920000 -7.854179 2.917830 70.201859
3.040000 0.800000 -6.880000 -8.948982 -25.389450 724.708435
3.040000 0.800000 -6.840000 17.334856 -38.204754 1760.100464
3.040000 0.800000 -6.800000 42.377308 -20.635370 2221.654785
3.040000 0.840000 -7.200000 -46.340282 -11.237461 2273.702393
3.040000 0.840000 -7.160000 -47.838448 -35.756428 3567.039062
3.040000 0.840000 -7.120000 -31.702011 -59.786125 4579.398438
3.040000 0.840000 -7.080000 -3.575352 -68.769958 4742.090332
3.040000 0.840000 -7.040000 20.752331 -59.527050 3974.128906
3.040000 0.840000 -7.000000 30.679535 -43.359367 2821.268555
3.040000 0.840000 -6.960000 30.471413 -33.712200 2065.019531
3.040000 0.840000 -6.920000 32.578007 -32.143116 2094.506348
3.040000 0.840000 -6.880000 42.259964 -28.320511 2587.955811
3.040000 0.840000 -6.840000 51.215218 -13.853655 2814.922363
3.040000 0.840000 -6.800000 47.563553 6.113237 2299.663086
3.040000 0.880000 -7.200000 -14.470838 -30.371914 1131.858276
3.040000 0.880000 -7.160000 -21.604076 -34.849648 1681.234009
3.040000 0.880000 -7.120000 -25.571041 -53.805634 3548.924316
3.040000 0.880000 -7.080000 -12.263565 -80.180542 6579.314453
3.040000 0.880000 -7.040000 21.484722 -96.995979 9869.813477
3.040000 0.880000 -7.000000 63.916756 -89.968674 12179.713867
3.040000 0.880000 -6.960000 95.828712 -58.225990 12573.408203
3.040000 0.880000 -6.920000 103.317551 -15.169159 10904.620117
3.040000 0.880000 -6.880000 86.261444 20.421646 7858.080078
3.040000 0.880000 -6.840000 57.191257 35.991734 4566.244629
3.040000 0.880000 -6.800000 32.455406 31.669952 2056.339355
3.040000 0.920000 -7.200000 16.821968 -16.195301 545.266357
3.040000 0.920000 -7.160000 -12.801937 -19.332567 537.637756
3.040000 0.920000 -7.120000 -29.478777 -59.747513 4438.763672
3.040000 0.920000 -7.080000 -0.978767 -112.662788 12693.862305
3.040000 0.920000 -7.040000 70.841728 -133.220734 22766.314453
3.040000 0.920000 -7.000000 145.964447 -94.230217 30184.953125
3.040000 0.920000 -6.960000 176.409576 -11.514351 31252.917969
3.040000 0.920000 -6.920000 144.865128 67.026230 25478.419922
3.040000 0.920000 -6.880000 77.445923 99.355240 15869.334961
3.040000 0.920000 -6.840000 20.225750 80.520683 6892.661621
3.040000 0.920000 -6.800000 1.976326 40.924370 1678.709961
3.040000 0.960000 -7.200000 22.129745 15.007032 714.936646
3.040000 0.960000 -7.160000 -21.367805 -11.154753 581.011597
3.040000 0.960000 -7.120000 -22.074753 -79.374779 6787.650391
3.040000 0.960000 -7.080000 46.585880 -134.787262 20337.849609
3.040000 0.960000 -7.040000 151.498657 -118.543007 37004.289062
3.040000 0.960000 -7.000000 220.394196 -22.390659 49074.941406
3.040000 0.960000 -6.960000 201.415436 98.307556 50232.554688
3.040000 0.960000 -6.920000 107.661926 168.267822 39905.152344
3.040000 0.960000 -6.880000 5.249924 153.653442 23636.943359
3.040000 0.960000 -6.840000 -43.434135 85.352135 9171.510742
3.040000 0.960000 -6.800000 -28.131931 25.569111 1445.185059
3.040000 1.000000 -7.200000 1.458271 35.343628 1251.298584
3.040000 1.000000 -7.160000 -29.889629 -19.021629 1255.212402
3.040000 1.000000 -7.120000 6.915897 -92.488396 8601.933594
3.040000 1.000000 -7.080000 108.362450 -113.529396 24631.343750
3.040000 1.000000 -7.040000 206.721420 -40.133041 44344.406250
3.040000 1.000000 -7.000000 222.535889 94.636154 58478.226562
3.040000 1.000000 -6.960000 134.584564 203.414368 59490.414062
3.040000 1.000000 -6.920000 0.938964 216.499130 46872.757812
3.040000 1.000000 -6.880000 -90.211258 139.014740 27463.167969
3.040000 1.000000 -6.840000 -94.021072 40.792004 10503.949219
3.040000 1.000000 -6.800000 -38.874893 -8.396650 1581.761108
3.040000 1.040000 -7.200000 -23.969460 31.567776 1571.059448
3.040000 1.040000 -7.160000 -24.756695 -31.995937 1636.633911
3.040000 1.040000 -7.120000 42.603378 -79.545593 8142.549316
3.040000 1.040000 -7.080000 141.192764 -50.483288 22483.958984
3.040000 1.040000 -7.040000 191.622986 59.471214 40256.191406
3.040000 1.040000 -7.000000 140.208267 182.769958 53063.218750
3.040000 1.040000 -6.960000 11.158852 232.188797 54036.156250
3.040000 1.040000 -6.920000 -109.783539 175.178253 42739.843750
3.040000 1.040000 -6.880000 -147.390381 60.514965 25385.984375
3.040000 1.040000 -6.840000 -97.412407 -27.339228 10236.610352
3.040000 1.040000 -6.800000 -20.614792 -41.106701 2114.730469
3.040000 1.080000 -7.200000 -34.863125 13.605412 1400.544678
3.040000 1.080000 -7.160000 -10.286285 -34.607956 1303.518188
3.040000 1.080000 -7.120000 59.076263 -44.400616 5461.419434
3.040000 1.080000 -7.080000 121.807510 15.871933 15088.987305
3.040000 1.080000 -7.040000 115.671577 118.082741 27323.447266
3.040000 1.080000 -7.000000 26.736816 188.833038 36372.773438
3.040000 1.080000 -6.960000 -90.612602 170.860138 37403.832031
3.040000 1.080000 -6.920000 -156.453430 74.622299 30046.164062
3.040000 1.080000 -6.880000 -132.730881 -30.204632 18529.806641
3.040000 1.080000 -6.840000 -51.992935 -75.604843 8419.357422
3.040000 1.080000 -6.800000 17.684271 -50.144279 2827.182129
3.040000 1.120000 -7.200000 -30.804697 -0.388053 949.079956
3.040000 1.120000 -7.160000 -1.599461 -25.006180 627.867310
3.040000 1.120000 -7.120000 46.146088 -12.031507 2274.218506
3.040000 1.120000 -7.080000 68.988823 45.009682 6785.329102
3.040000 1.120000 -7.040000 33.538170 108.535744 12904.816406
3.040000 1.120000 -7.000000 -46.662270 124.581902 17698.017578
3.040000 1.120000 -6.960000 -116.051910 71.816475 18625.652344
3.040000 1.120000 -6.920000 -123.271690 -15.891800 15448.458008
3.040000 1.120000 -6.880000 -65.761658 -77.203041 10284.905273
3.040000 1.120000 -6.840000 10.008200 -75.645859 5822.459961
3.040000 1.120000 -6.800000 51.579971 -26.818945 3379.749268
3.040000 1.160000 -7.200000 -25.142170 -3.903556 647.366455
3.040000 1.160000 -7.160000 -6.062939 -16.077765 295.253723
3.040000 1.160000 -7.120000 19.703259 -3.881054 403.280975
3.040000 1.160000 -7.080000 24.563126 30.355301 1524.791504
3.040000 1.160000 -7.040000 -5.297768 58.114342 3405.343018
3.040000 1.160000 -7.000000 -51.164871 49.419579 5060.138672
3.040000 1.160000 -6.960000 -74.727409 3.404007 5595.772949
3.040000 1.160000 -6.920000 -52.582695 -47.065647 4980.114746
3.040000 1.160000 -6.880000 1.348274 -63.246349 4001.918457
3.040000 1.160000 -6.840000 47.940292 -34.341904 3477.638184
3.040000 1.160000 -6.800000 57.360504 15.294748 3524.156738
3.040000 1.200000 -7.200000 -26.651630 -5.725055 743.085632
3.040000 1.200000 -7.160000 -14.793680 -19.704601 607.124268
3.040000 1.200000 -7.120000 5.093666 -17.490864 331.875763
3.040000 1.200000 -7.080000 14.118233 0.536438 199.612259
3.040000 1.200000 -7.040000 3.241928 16.555580 284.597321
3.040000 1.200000 -7.000000 -15.563469 13.229370 417.237793
3.040000 1.200000 -6.960000 -20.219589 -7.289280 461.965393
3.040000 1.200000 -6.920000 -1.078587 -23.804628 567.823669
3.040000 1.200000 -6.880000 28.239655 -16.269018 1062.159058
3.040000 1.200000 -6.840000 43.014870 14.696438 2066.264404
3.040000 1.200000 -6.800000 30.040112 48.462643 3251.036133
3.080000 0.800000 -7.200000 -42.196320 -4.051414 1796.943359
3.080000 0.800000 -7.160000 -37.800278 -39.387589 2980.243164
3.080000 0.800000 -7.120000 -4.416451 -64.563545 4187.956055
3.080000 0.800000 -7.080000 39.841393 -57.163486 4855.000977
3.080000 0.800000 -7.040000 63.973637 -19.835011 4486.053711
3.080000 0.800000 -7.000000 52.299740 19.326139 3108.762451
3.080000 0.800000 -6.960000 19.512756 31.811565 1392.723389
3.080000 0.800000 -6.920000 -3.517380 14.752876 230.019318
3.080000 0.800000 -6.880000 0.653059 -8.309361 69.471954
3.080000 0.800000 -6.840000 20.989553 -12.363033 593.405945
3.080000 0.800000 -6.800000 32.063057 4.519356 1048.464233
3.080000 0.840000 -7.200000 -22.193886 -27.403902 1243.542480
3.080000 0.840000 -7.160000 -11.341335 -44.690914 2125.903809
3.080000 0.840000 -7.120000 12.639214 -53.924011 3067.548828
3.080000 0.840000 -7.080000 39.368500 -45.284981 3600.608398
3.080000 0.840000 -7.040000 53.722534 -22.330578 3384.765381
3.080000 0.840000 -7.000000 50.169857 0.196272 2517.053223
3.080000 0.840000 -6.960000 37.650272 10.255383 1522.715820
3.080000 0.840000 -6.920000 29.627037 9.261909 963.544312
3.080000 0.840000 -6.880000 30.303228 8.291771 987.039124
3.080000 0.840000 -6.840000 32.000664 14.449692 1232.836060
3.080000 0.840000 -6.800000 26.026356 22.990089 1205.915405
3.080000 0.880000 -7.200000 6.384738 -24.099379 621.544922
3.080000 0.880000 -7.160000 4.073263 -29.999372 916.553833
3.080000 0.880000 -7.120000 11.981506 -43.474648 2033.601440
3.080000 0.880000 -7.080000 34.569397 -51.299313 3826.662598
3.080000 0.880000 -7.040000 62.954281 -41.579903 5692.129883
3.080000 0.880000 -7.000000 81.705704 -14.070225 6873.793457
3.080000 0.880000 -6.960000 80.680489 19.548744 6891.494629
3.080000 0.880000 -6.920000 61.712391 44.504406 5789.061523
3.080000 0.880000 -6.880000 35.885303 52.632637 4057.949707
3.080000 0.880000 -6.840000 15.336052 45.837669 2336.286621
3.080000 0.880000 -6.800000 6.504640 32.645638 1108.047974
3.080000 0.920000 -7.200000 18.160202 -0.460375 330.004883
3.080000 0.920000 -7.160000 -0.252728 -15.452885 238.855515
3.080000 0.920000 -7.120000 7.380880 -48.212730 2378.944580
3.080000 0.920000 -7.080000 49.078114 -67.442802 6957.192871
3.080000 0.920000 -7.040000 101.953979 -46.470764 12554.146484
3.080000 0.920000 -7.000000 128.681992 11.894836 16700.541016
3.080000 0.920000 -6.960000 108.114120 75.161041 17337.845703
3.080000 0.920000 -6.920000 52.900520 106.570900 14155.821289
3.080000 0.920000 -6.880000 -1.387589 93.764824 8793.767578
3.080000 0.920000 -6.840000 -25.167772 55.899647 3758.187256
3.080000 0.920000 -6.800000 -16.005436 24.785198 870.479980
3.080000 0.960000 -7.200000 5.979047 20.178869 442.935760
3.080000 0.960000 -7.160000 -11.466688 -16.332500 398.235535
3.080000 0.960000 -7.120000 17.729990 -60.737427 4003.387451
3.080000 0.960000 -7.080000 85.587997 -66.063423 11689.681641
3.080000 0.960000 -7.040000 144.699600 -9.860727 21035.208984
3.080000 0.960000 -7.000000 145.702545 80.817757 27760.742188
3.080000 0.960000 -6.960000 80.544685 147.938629 28373.285156
3.080000 0.960000 -6.920000 -8.911449 149.869415 22540.255859
3.080000 0.960000 -6.880000 -65.771286 94.870415 13326.257812
3.080000 0.960000 -6.840000 -64.457558 30.651524 5094.292969
3.080000 0.960000 -6.800000 -26.756748 1.514418 718.217041
3.080000 1.000000 -7.200000 -15.176313 21.469570 691.262939
3.080000 1.000000 -7.160000 -11.993704 -27.726978 912.634277
3.080000 1.000000 -7.120000 43.317345 -59.663094 5436.077148
3.080000 1.000000 -7.080000 117.760071 -30.153214 14776.650391
3.080000 1.000000 -7.040000 149.941864 58.816139 25941.900391
3.080000 1.000000 -7.000000 102.831024 152.116211 33713.562500
3.080000 1.000000 -6.960000 -0.018331 184.326935 33976.417969
3.080000 1.000000 -6.920000 -91.187912 135.177307 26588.140625
3.080000 1.000000 -6.880000 -115.573776 45.983589 15471.788086
3.080000 1.000000 -6.840000 -74.265160 -18.134766 5844.183594
3.080000 1.000000 -6.800000 -16.689552 -23.792671 844.632324
3.080000 1.040000 -7.200000 -26.286705 7.906417 753.502258
3.080000 1.040000 -7.160000 0.242672 -32.694817 1069.009888
3.080000 1.040000 -7.120000 63.243694 -34.960278 5221.985840
3.080000 1.040000 -7.080000 114.665054 24.578548 13752.179688
3.080000 1.040000 -7.040000 101.857056 116.388023 23921.031250
3.080000 1.040000 -7.000000 17.636162 174.915619 30906.509766
3.080000 1.040000 -6.960000 -86.505989 153.286041 30979.898438
3.080000 1.040000 -6.920000 -140.958038 65.537949 24164.390625
3.080000 1.040000 -6.880000 -116.440918 -24.820385 14174.539062
3.080000 1.040000 -6.840000 -45.782890 -59.931274 5687.830566
3.080000 1.040000 -6.800000 10.070024 -34.244003 1274.057129
3.080000 1.080000 -7.200000 -23.392305 -4.244261 565.213684
3.080000 1.080000 -7.160000 10.709826 -23.285017 656.892395
3.080000 1.080000 -7.120000 57.458427 -1.615194 3304.079834
3.080000 1.080000 -7.080000 72.934143 61.267448 9073.089844
3.080000 1.080000 -7.040000 28.331501 123.888840 16151.118164
3.080000 1.080000 -7.000000 -57.064346 133.689606 21129.250000
3.080000 1.080000 -6.960000 -125.564262 74.633896 21336.601562
3.080000 1.080000 -6.920000 -128.809631 -14.825706 16811.722656
3.080000 1.080000 -6.880000 -69.549210 -73.231964 10200.013672
3.080000 1.080000 -6.840000 2.677744 -68.421967 4688.735840
3.080000 1.080000 -6.800000 37.181152 -21.094479 1827.415161
3.080000 1.120000 -7.200000 -17.811502 -6.515695 359.703918
3.080000 1.120000 -7.160000 6.473155 -10.072547 143.357941
3.080000 1.120000 -7.120000 29.352715 14.192679 1063.014038
3.080000 1.120000 -7.080000 22.304285 56.392456 3677.590332
3.080000 1.120000 -7.040000 -22.850372 81.976837 7242.341309
3.080000 1.120000 -7.000000 -78.742340 61.499245 9982.512695
3.080000 1.120000 -6.960000 -101.970764 1.230427 10399.550781
3.080000 1.120000 -6.920000 -71.595757 -57.722046 8457.787109
3.080000 1.120000 -6.880000 -9.272221 -73.905701 5548.026855
3.080000 1.120000 -6.840000 39.731159 -41.153992 3272.216064
3.080000 1.120000 -6.800000 46.344166 8.933705 2227.592773
3.080000 1.160000 -7.200000 -19.659563 -5.993383 422.419067
3.080000 1.160000 -7.160000 -7.695267 -9.725937 153.810974
3.080000 1.160000 -7.120000 3.813213 1.918631 18.221739
3.080000 1.160000 -7.080000 -1.845997 21.718672 475.108429
3.080000 1.160000 -7.040000 -26.284134 28.511978 1503.788574
3.080000 1.160000 -7.000000 -49.466202 8.683819 2522.313721
3.080000 1.160000 -6.960000 -46.854446 -26.700550 2908.258545
3.080000 1.160000 -6.920000 -14.143539 -48.914383 2592.656738
3.080000 1.160000 -6.880000 26.214319 -37.577782 2099.280273
3.080000 1.160000 -6.840000 44.543274 0.213448 1984.148804
3.080000 1.160000 -6.800000 30.217901 36.959099 2279.096680
3.080000 1.200000 -7.200000 -24.864414 -13.979058 813.653137
3.080000 1.200000 -7.160000 -13.772692 -25.123142 820.859375
3.080000 1.200000 -7.120000 2.494690 -22.422207 508.978851
3.080000 1.200000 -7.080000 9.235668 -8.563171 158.625473
3.080000 1.200000 -7.040000 2.249086 2.059147 9.298475
3.080000 1.200000 -7.000000 -7.276461 -0.690891 53.424210
3.080000 1.200000 -6.960000 -5.076309 -10.983746 146.411591
3.080000 1.200000 -6.920000 10.010834 -12.799706 264.049255
3.080000 1.200000 -6.880000 23.693117 2.880226 569.659485
3.080000 1.200000 -6.840000 20.335945 27.943981 1194.416748
3.080000 1.200000 -6.800000 -1.581539 44.655022 1996.572144
3.120000 0.800000 -7.200000 -17.872639 -14.427530 527.584839
3.120000 0.800000 -7.160000 -2.173818 -32.834366 1082.821045
3.120000 0.800000 -7.120000 27.587473 -35.627243 2030.369141
3.120000 0.800000 -7.080000 53.704147 -14.015673 3080.574707
3.120000 0.800000 -7.040000 56.647346 21.540577 3672.918457
3.120000 0.800000 -7.000000 33.327362 47.654228 3381.638672
3.120000 0.800000 -6.960000 1.313915 47.952888 2301.205811
3.120000 0.800000 -6.920000 -16.490988 27.434132 1024.584229
3.120000 0.800000 -6.880000 -12.142424 6.680977 192.073898
3.120000 0.800000 -6.840000 2.118622 1.704460 7.393743
3.120000 0.800000 -6.800000 8.391670 9.834298 167.133545
3.120000 0.840000 -7.200000 -0.314029 -18.858870 355.755554
3.120000 0.840000 -7.160000 12.236187 -24.946335 772.043945
3.120000 0.840000 -7.120000 31.668552 -21.324818 1457.645020
3.120000 0.840000 -7.080000 46.864235 -2.925875 2204.817383
3.120000 0.840000 -7.040000 45.996780 22.621429 2627.432861
3.120000 0.840000 -7.000000 28.660284 40.181686 2435.979736
3.120000 0.840000 -6.960000 7.191711 40.689735 1707.375244
3.120000 0.840000 -6.920000 -4.658764 29.015038 863.576477
3.120000 0.840000 -6.880000 -3.910946 17.959106 337.825012
3.120000 0.840000 -6.840000 1.181984 15.167371 231.446213
3.120000 0.840000 -6.800000 1.990161 17.109459 296.694336
3.120000 0.880000 -7.200000 11.332575 -6.841939 175.239380
3.120000 0.880000 -7.160000 12.434235 -11.541188 287.809204
3.120000 0.880000 -7.120000 23.963444 -14.832417 794.247192
3.120000 0.880000 -7.080000 40.060547 -6.159642 1642.788574
3.120000 0.880000 -7.040000 48.018234 14.980686 2530.171631
3.120000 0.880000 -7.000000 40.009140 38.044804 3048.138428
3.120000 0.880000 -6.960000 19.806684 50.584465 2951.092773
3.120000 0.880000 -6.920000 -1.157631 48.119701 2316.845703
3.120000 0.880000 -6.880000 -13.315886 35.973835 1471.429688
3.120000 0.880000 -6.840000 -14.773508 23.131975 753.344788
3.120000 0.880000 -6.800000 -9.663785 15.480066 333.021179
3.120000 0.920000 -7.200000 7.085384 7.733696 110.012718
3.120000 0.920000 -7.160000 2.948562 -7.740556 68.610222
3.120000 0.920000 -7.120000 19.921787 -21.165247 844.845276
3.120000 0.920000 -7.080000 48.035477 -13.398903 2486.937500
3.120000 0.920000 -7.040000 64.538383 18.466688 4506.221680
3.120000 0.920000 -7.000000 52.906792 56.985420 6046.466797
3.120000 0.920000 -6.960000 17.112507 77.884232 6358.791504
3.120000 0.920000 -6.920000 -21.365137 69.400574 5272.908691
3.120000 0.920000 -6.880000 -40.746845 40.761971 3321.843750
3.120000 0.920000 -6.840000 -35.152847 13.332281 1413.472412
3.120000 0.920000 -6.800000 -16.604311 3.341540 286.869049
3.120000 0.960000 -7.200000 -5.930164 10.874669 153.425278
3.120000 0.960000 -7.160000 -1.389886 -15.202952 233.061539
3.120000 0.960000 -7.120000 30.071154 -27.422710 1656.279297
3.120000 0.960000 -7.080000 66.568161 -5.348310 4459.924316
3.120000 0.960000 -7.040000 76.004517 44.617249 7767.385254
3.120000 0.960000 -7.000000 43.488766 90.783669 10132.947266
3.120000 0.960000 -6.960000 -13.946087 100.903229 10375.955078
3.120000 0.960000 -6.920000 -59.911476 68.936150 8341.578125
3.120000 0.960000 -6.880000 -68.103081 19.769913 5028.879395
3.120000 0.960000 -6.840000 -42.544548 -12.323821 1961.915161
3.120000 0.960000 -6.800000 -11.173031 -11.715730 262.094940
3.120000 1.000000 -7.200000 -13.559483 2.824358 191.836578
3.120000 1.000000 -7.160000 6.159715 -21.151825 485.341766
3.120000 1.000000 -7.120000 45.848686 -17.988178 2425.676514
3.120000 1.000000 -7.080000 73.994644 22.955830 6002.177734
3.120000 1.000000 -7.040000 60.235516 79.991531 10026.962891
3.120000 1.000000 -7.000000 3.950452 112.466782 12664.383789
3.120000 1.000000 -6.960000 -60.828983 94.142929 12563.055664
3.120000 1.000000 -6.920000 -91.732559 36.796257 9768.827148
3.120000 1.000000 -6.880000 -73.102448 -18.875357 5700.247070
3.120000 1.000000 -6.840000 -27.752237 -37.728664 2193.638916
3.120000 1.000000 -6.800000 5.188974 -18.380661 364.774139
3.120000 1.040000 -7.200000 -10.936170 -4.779479 142.443222
3.120000 1.040000 -7.160000 15.979595 -14.660223 470.269592
3.120000 1.040000 -7.120000 47.746807 5.621987 2311.364258
3.120000 1.040000 -7.080000 53.968582 52.645313 5684.136719
3.120000 1.040000 -7.040000 17.441660 95.543991 9432.866211
3.120000 1.040000 -7.000000 -45.361465 98.553963 11770.546875
3.120000 1.040000 -6.960000 -92.975616 53.089714 11462.982422
3.120000 1.040000 -6.920000 -92.649582 -11.527686 8716.833008
3.120000 1.040000 -6.880000 -48.723778 -51.424568 5018.493164
3.120000 1.040000 -6.840000 1.711353 -45.272629 2052.539551
3.120000 1.040000 -6.800000 22.337358 -10.429399 607.729919
3.120000 1.080000 -7.200000 -6.362307 -4.166974 57.842621
3.120000 1.080000 -7.160000 13.679247 -0.918070 187.964645
3.120000 1.080000 -7.120000 27.624859 23.445507 1312.824585
3.120000 1.080000 -7.080000 15.362634 57.772739 3573.699951
3.120000 1.080000 -7.040000 -25.741066 74.491119 6211.529297
3.120000 1.080000 -7.000000 -71.547066 52.802143 7907.048828
3.120000 1.080000 -6.960000 -87.877975 0.923689 7723.391602
3.120000 1.080000 -6.920000 -60.550888 -46.669815 5844.481445
3.120000 1.080000 -6.880000 -9.687225 -57.674347 3420.172607
3.120000 1.080000 -6.840000 27.295391 -29.943260 1641.637207
3.120000 1.080000 -6.800000 28.670229 8.273546 890.433594
3.120000 1.120000 -7.200000 -9.284847 -0.700306 86.698814
3.120000 1.120000 -7.160000 -1.746514 3.562030 15.738367
3.120000 1.120000 -7.120000 0.292336 17.369217 301.775146
3.120000 1.120000 -7.080000 -13.326233 31.900015 1195.199463
3.120000 1.120000 -7.040000 -39.325016 30.266186 2462.499023
3.120000 1.120000 -7.000000 -58.337570 4.922157 3427.499756
3.120000 1.120000 -6.960000 -50.826614 -30.380220 3506.302490
3.120000 1.120000 -6.920000 -17.163342 -49.397697 2734.712891
3.120000 1.120000 -6.880000 19.703930 -36.744110 1738.374512
3.120000 1.120000 -6.840000 33.826466 -2.704844 1151.545898
3.120000 1.120000 -6.800000 19.404036 26.294922 1067.939453
3.120000 1.160000 -7.200000 -17.255276 -5.480369 327.778992
3.120000 1.160000 -7.160000 -14.492345 -9.962231 309.274109
3.120000 1.160000 -7.120000 -9.747177 -8.518064 167.564880
3.120000 1.160000 -7.080000 -10.819174 -3.684963 130.633469
3.120000 1.160000 -7.040000 -17.645807 -4.636047 332.867432
3.120000 1.160000 -7.000000 -20.223593 -15.169453 639.106018
3.120000 1.160000 -6.960000 -9.521126 -26.548874 795.494568
3.120000 1.160000 -6.920000 10.566301 -24.860693 729.700806
3.120000 1.160000 -6.880000 24.585682 -5.921603 639.521118
3.120000 1.160000 -6.840000 20.043259 18.793217 754.917236
3.120000 1.160000 -6.800000 -0.200621 32.442299 1052.543091
3.120000 1.200000 -7.200000 -17.612377 -20.308159 722.617188
3.120000 1.200000 -7.160000 -8.192944 -30.620001 1004.708801
3.120000 1.200000 -7.120000 6.745633 -30.156445 954.914673
3.120000 1.200000 -7.080000 16.296566 -19.688856 653.229126
3.120000 1.200000 -7.040000 16.253052 -8.196869 331.350342
3.120000 1.200000 -7.000000 11.934963 -2.423634 148.317337
3.120000 1.200000 -6.960000 10.336502 -0.296722 106.931320
3.120000 1.200000 -6.920000 11.421279 4.772472 153.222107
3.120000 1.200000 -6.880000 8.648701 14.588602 287.627350
3.120000 1.200000 -6.840000 -2.517118 23.117561 540.757507
3.120000 1.200000 -6.800000 -18.533232 22.964808 870.863037
3.160000 0.800000 -7.200000 -1.599951 -2.863171 10.757593
3.160000 0.800000 -7.160000 9.075873 -6.580976 125.680725
3.160000 0.800000 -7.120000 24.145966 -0.552911 583.333374
3.160000 0.800000 -7.080000 33.038563 18.473219 1432.806396
3.160000 0.800000 -7.040000 24.990402 42.123058 2398.872314
3.160000 0.800000 -7.000000 0.474390 54.708179 2993.209961
3.160000 0.800000 -6.960000 -26.549438 46.484032 2865.637695
3.160000 0.800000 -6.920000 -39.505135 23.015093 2090.350098
3.160000 0.800000 -6.880000 -33.313393 0.579066 1110.117432
3.160000 0.800000 -6.840000 -17.730091 -8.408688 385.062164
3.160000 0.800000 -6.800000 -6.600543 -5.402915 72.758659
3.160000 0.840000 -7.200000 2.479689 -0.868829 6.903720
3.160000 0.840000 -7.160000 8.986697 -1.108394 81.989265
3.160000 0.840000 -7.120000 18.755024 6.184340 389.996979
3.160000 0.840000 -7.080000 21.916107 23.185066 1017.863037
3.160000 0.840000 -7.040000 10.333654 40.903774 1779.903198
3.160000 0.840000 -7.000000 -12.435736 46.038986 2274.235596
3.160000 0.840000 -6.960000 -32.489376 33.664474 2188.856445
3.160000 0.840000 -6.920000 -37.672100 12.407043 1573.121826
3.160000 0.840000 -6.880000 -28.102697 -3.516421 802.126831
3.160000 0.840000 -6.840000 -14.430768 -7.082455 258.408234
3.160000 0.840000 -6.800000 -6.364826 -2.852787 48.649406
3.160000 0.880000 -7.200000 1.068603 3.221915 11.522650
3.160000 0.880000 -7.160000 3.507876 0.552790 12.610774
3.160000 0.880000 -7.120000 10.880461 4.458959 138.266739
3.160000 0.880000 -7.080000 13.474840 17.225670 478.295013
3.160000 0.880000 -7.040000 4.151626 30.834835 968.023071
3.160000 0.880000 -7.000000 -13.804447 34.401272 1374.010254
3.160000 0.880000 -6.960000 -29.305004 24.536901 1460.842773
3.160000 0.880000 -6.920000 -33.425465 8.128004 1183.326172
3.160000 0.880000 -6.880000 -26.425797 -4.475836 718.355774
3.160000 0.880000 -6.840000 -15.547430 -8.132090 307.853455
3.160000 0.880000 -6.800000 -7.436439 -4.940223 79.706421
3.160000 0.920000 -7.200000 -3.438070 2.648473 18.834734
3.160000 0.920000 -7.160000 0.436575 -4.479868 20.259819
3.160000 0.920000 -7.120000 10.521387 -2.772552 118.386635
3.160000 0.920000 -7.080000 15.982983 9.630810 348.208221
3.160000 0.920000 -7.040000 9.070457 24.630310 688.925354
3.160000 0.920000 -7.000000 -8.150702 31.041615 1030.015747
3.160000 0.920000 -6.960000 -25.552124 23.726793 1215.871826
3.160000 0.920000 -6.920000 -33.013466 7.242696 1142.345581
3.160000 0.920000 -6.880000 -27.651047 -8.189495 831.648193
3.160000 0.920000 -6.840000 -14.907623 -14.265448 425.740234
3.160000 0.920000 -6.800000 -3.825922 -9.575836 106.334320
3.160000 0.960000 -7.200000 -4.006464 -2.155846 20.699425
3.160000 0.960000 -7.160000 5.367806 -9.128715 112.146774
3.160000 0.960000 -7.120000 18.556355 -4.167837 361.709167
3.160000 0.960000 -7.080000 23.948313 12.287057 724.493408
3.160000 0.960000 -7.040000 14.069592 30.213377 1110.801514
3.160000 0.960000 -7.000000 -7.847995 36.647537 1404.633057
3.160000 0.960000 -6.960000 -29.081675 25.517376 1496.880249
3.160000 0.960000 -6.920000 -36.366913 3.022656 1331.688843
3.160000 0.960000 -6.880000 -26.096050 -16.345287 948.172241
3.160000 0.960000 -6.840000 -7.385654 -20.740057 484.697845
3.160000 0.960000 -6.800000 5.014408 -10.155077 128.269882
3.160000 1.000000 -7.200000 1.033141 -4.009388 17.142572
3.160000 1.000000 -7.160000 13.019711 -4.760549 192.175720
3.160000 1.000000 -7.120000 23.642342 5.986829 594.802429
3.160000 1.000000 -7.080000 23.048035 24.800257 1146.264648
3.160000 1.000000 -7.040000 6.612665 40.204628 1660.139404
3.160000 1.000000 -7.000000 -18.916893 39.589806 1925.201538
3.160000 1.000000 -6.960000 -37.815208 19.925659 1827.021851
3.160000 1.000000 -6.920000 -36.939415 -7.422056 1419.607300
3.160000 1.000000 -6.880000 -17.417553 -24.215195 889.746826
3.160000 1.000000 -6.840000 5.024634 -20.337067 438.843231
3.160000 1.000000 -6.800000 13.085470 -2.868737 179.459198
3.160000 1.040000 -7.200000 4.787159 1.325662 24.674274
3.160000 1.040000 -7.160000 11.950645 6.862091 189.906219
3.160000 1.040000 -7.120000 14.600299 18.594179 558.912231
3.160000 1.040000 -7.080000 6.999774 32.440659 1101.393188
3.160000 1.040000 -7.040000 -11.763155 38.616573 1629.611572
3.160000 1.040000 -7.000000 -32.634506 28.444706 1874.112305
3.160000 1.040000 -6.960000 -40.815948 4.211875 1683.681519
3.160000 1.040000 -6.920000 -28.405258 -19.075199 1170.721924
3.160000 1.040000 -6.880000 -3.592395 -24.997120 637.761353
3.160000 1.040000 -6.840000 14.702463 -10.834368 333.545959
3.160000 1.040000 -6.800000 13.651532 8.974860 266.912445
3.160000 1.080000 -7.200000 -0.020005 8.278292 68.530510
3.160000 1.080000 -7.160000 -1.561156 12.968065 170.607925
3.160000 1.080000 -7.120000 -4.942077 17.672928 336.756500
3.160000 1.080000 -7.080000 -12.576385 21.430721 617.441284
3.160000 1.080000 -7.040000 -24.382166 18.859234 950.160706
3.160000 1.080000 -7.000000 -33.200752 5.914454 1137.270630
3.160000 1.080000 -6.960000 -29.428658 -12.326136 1017.979492
3.160000 1.080000 -6.920000 -11.786716 -22.802292 658.871216
3.160000 1.080000 -6.880000 8.198616 -16.155790 328.226868
3.160000 1.080000 -6.840000 15.338120 2.704182 242.570511
3.160000 1.080000 -6.800000 5.622623 17.822186 349.244202
3.160000 1.120000 -7.200000 -10.889013 6.646705 162.749298
3.160000 1.120000 -7.160000 -16.533491 3.150112 283.279541
3.160000 1.120000 -7.120000 -17.218552 -1.716071 299.423401
3.160000 1.120000 -7.080000 -15.997261 -4.279384 274.225464
3.160000 1.120000 -7.040000 -15.847276 -6.548903 294.024292
3.160000 1.120000 -7.000000 -14.414139 -11.380412 337.281189
3.160000 1.120000 -6.960000 -7.340876 -16.045351 311.341736
3.160000 1.120000 -6.920000 4.021715 -13.660695 202.788788
3.160000 1.120000 -6.880000 11.246912 -1.795498 129.716843
3.160000 1.120000 -6.840000 7.074220 12.461182 205.325638
3.160000 1.120000 -6.800000 -5.788440 18.460243 374.286621
3.160000 1.160000 -7.200000 -16.087681 -6.176681 296.964844
3.160000 1.160000 -7.160000 -16.789669 -17.492132 587.867676
3.160000 1.160000 -7.120000 -7.723963 -25.299486 699.723633
3.160000 1.160000 -7.080000 3.882180 -23.999899 591.066528
3.160000 1.160000 -7.040000 10.808618 -16.364563 384.625122
3.160000 1.160000 -7.000000 12.107978 -8.277159 215.114502
3.160000 1.160000 -6.960000 11.024141 -1.997307 125.520927
3.160000 1.160000 -6.920000 9.012370 4.074969 97.828194
3.160000 1.160000 -6.880000 4.154823 10.420172 125.842537
3.160000 1.160000 -6.840000 -4.591520 13.925804 215.010071
3.160000 1.160000 -6.800000 -13.907633 11.584561 327.624329
3.160000 1.200000 -7.200000 -6.707030 -19.947781 442.898193
3.160000 1.200000 -7.160000 1.801797 -30.806927 952.313171
3.160000 1.200000 -7.120000 18.404699 -31.769783 1348.052002
3.160000 1.200000 -7.080000 32.289726 -19.813103 1435.185547
3.160000 1.200000 -7.040000 35.040241 -1.446065 1229.909546
3.160000 1.200000 -7.000000 26.530340 13.787981 893.967346
3.160000 1.200000 -6.960000 12.800181 20.598902 588.159424
3.160000 1.200000 -6.920000 0.067511 19.665932 386.753418
3.160000 1.200000 -6.880000 -8.793550 14.411932 285.030304
3.160000 1.200000 -6.840000 -13.638873 7.812721 247.057465
3.160000 1.200000 -6.800000 -15.387403 1.801920 240.019104
3.200000 0.800000 -7.200000 -4.619565 12.126961 168.403564
3.200000 0.800000 -7.160000 -4.843618 10.744902 138.913544
3.200000 0.800000 -7.120000 -0.542937 11.949493 143.085175
3.200000 0.800000 -7.080000 2.205623 20.988626 445.387207
3.200000 0.800000 -7.040000 -5.776134 33.670120 1167.040771
3.200000 0.800000 -7.000000 -25.558634 37.790413 2081.359131
3.200000 0.800000 -6.960000 -45.926880 24.710724 2719.898193
3.200000 0.800000 -6.920000 -52.185493 -0.758039 2723.900391
3.200000 0.800000 -6.880000 -39.676556 -23.330360 2118.534912
3.200000 0.800000 -6.840000 -18.003508 -30.737085 1268.894775
3.200000 0.800000 -6.800000 -1.440601 -23.944918 575.434387
3.200000 0.840000 -7.200000 -9.657748 7.068974 143.242493
3.200000 0.840000 -7.160000 -8.926147 4.977921 104.455788
3.200000 0.840000 -7.120000 -5.198611 8.173893 93.838081
3.200000 0.840000 -7.080000 -6.979338 17.602299 358.552063
3.200000 0.840000 -7.040000 -19.573042 24.681036 992.257568
3.200000 0.840000 -7.000000 -37.362167 19.166355 1763.280762
3.200000 0.840000 -6.960000 -47.395432 0.234422 2246.381836
3.200000 0.840000 -6.920000 -41.299210 -21.280512 2158.484863
3.200000 0.840000 -6.880000 -23.165010 -32.334427 1582.132812
3.200000 0.840000 -6.840000 -5.240777 -29.077061 872.941223
3.200000 0.840000 -6.800000 3.678632 -18.553967 357.781982
3.200000 0.880000 -7.200000 -9.970170 -1.172786 100.779716
3.200000 0.880000 -7.160000 -7.733933 -2.461042 65.870461
3.200000 0.880000 -7.120000 -6.312070 1.806949 43.107292
3.200000 0.880000 -7.080000 -11.741116 7.628875 196.053528
3.200000 0.880000 -7.040000 -23.060278 7.003500 580.825439
3.200000 0.880000 -7.000000 -32.139420 -3.601234 1045.911133
3.200000 0.880000 -6.960000 -31.162565 -18.979902 1331.342163
3.200000 0.880000 -6.920000 -19.959297 -29.669983 1278.681396
3.200000 0.880000 -6.880000 -5.727020 -30.296671 950.687012
3.200000 0.880000 -6.840000 3.955311 -23.201767 553.966431
3.200000 0.880000 -6.800000 7.075768 -14.414598 257.847168
3.200000 0.920000 -7.200000 -3.055732 -7.588772 66.926956
3.200000 0.920000 -7.160000 -0.649994 -6.107795 37.727657
3.200000 0.920000 -7.120000 -2.324203 -2.561441 11.962900
3.200000 0.920000 -7.080000 -7.987885 -2.152610 68.440041
3.200000 0.920000 -7.040000 -12.961744 -7.299944 221.296005
3.200000 0.920000 -7.000000 -12.804604 -15.281244 397.474304
3.200000 0.920000 -6.960000 -7.336429 -21.177944 502.328491
3.200000 0.920000 -6.920000 0.026718 -22.354843 499.739716
3.200000 0.920000 -6.880000 6.018543 -19.664358 422.909851
3.200000 0.920000 -6.840000 9.659783 -15.023245 319.009308
3.200000 0.920000 -6.800000 10.959065 -9.221251 205.132568
3.200000 0.960000 -7.200000 7.464136 -5.740936 88.671661
3.200000 0.960000 -7.160000 6.774286 -1.333047 47.667969
3.200000 0.960000 -7.120000 2.297067 -0.652439 5.702192
3.200000 0.960000 -7.080000 -0.376616 -4.731623 22.530098
3.200000 0.960000 -7.040000 1.762690 -9.214160 88.007812
3.200000 0.960000 -7.000000 6.182242 -9.974359 137.707947
3.200000 0.960000 -6.960000 8.635674 -7.693829 133.769867
3.200000 0.960000 -6.920000 8.507489 -6.035390 108.803314
3.200000 0.960000 -6.880000 8.849699 -6.223884 117.053894
3.200000 0.960000 -6.840000 11.284861 -5.311351 155.558533
3.200000 0.960000 -6.800000 12.648962 -0.679677 160.458206
3.200000 1.000000 -7.200000 12.684206 5.028851 186.178421
3.200000 1.000000 -7.160000 6.104468 9.176436 121.471519
3.200000 1.000000 -7.120000 0.495105 4.919511 24.446720
3.200000 1.000000 -7.080000 2.499933 -1.586003 8.765073
3.200000 1.000000 -7.040000 9.285049 -2.249896 91.274178
3.200000 1.000000 -7.000000 12.753096 3.444140 174.503555
3.200000 1.000000 -6.960000 9.542168 8.598269 164.983185
3.200000 1.000000 -6.920000 4.571979 7.896826 83.262856
3.200000 1.000000 -6.880000 4.172589 4.064980 33.934563
3.200000 1.000000 -6.840000 7.664816 3.827304 73.397659
3.200000 1.000000 -6.800000 8.161959 8.504718 138.947784
3.200000 1.040000 -7.200000 6.399323 16.558731 315.142914
3.200000 1.040000 -7.160000 -5.270409 15.363329 263.809082
3.200000 1.040000 -7.120000 -8.731157 5.182431 103.090698
3.200000 1.040000 -7.080000 -1.260494 -1.703573 4.491006
3.200000 1.040000 -7.040000 7.829827 1.979187 65.223373
3.200000 1.040000 -7.000000 8.730155 11.228155 202.287079
3.200000 1.040000 -6.960000 1.936940 15.915530 257.055847
3.200000 1.040000 -6.920000 -3.904140 12.865997 180.776199
3.200000 1.040000 -6.880000 -3.336033 8.341625 80.711823
3.200000 1.040000 -6.840000 -0.276969 8.835223 78.137886
3.200000 1.040000 -6.800000 -1.714780 12.318470 154.685181
3.200000 1.080000 -7.200000 -7.472122 18.196047 386.928741
3.200000 1.080000 -7.160000 -19.227341 8.553844 442.858887
3.200000 1.080000 -7.120000 -16.537502 -5.930432 308.658997
3.200000 1.080000 -7.080000 -3.159689 -10.684064 124.132858
3.200000 1.080000 -7.040000 7.285926 -2.364669 58.676376
3.200000 1.080000 -7.000000 6.306645 9.528973 130.575104
3.200000 1.080000 -6.960000 -2.111137 14.507894 214.935867
3.200000 1.080000 -6.920000 -8.496223 11.736385 209.928558
3.200000 1.080000 -6.880000 -9.224945 8.046203 149.840988
3.200000 1.080000 -6.840000 -8.587410 7.782487 134.310715
3.200000 1.080000 -6.800000 -10.670128 8.030972 178.348145
3.200000 1.120000 -7.200000 -16.964050 7.371571 342.119049
3.200000 1.120000 -7.160000 -22.712990 -8.824371 593.749390
3.200000 1.120000 -7.120000 -11.607134 -22.966396 662.180908
3.200000 1.120000 -7.080000 6.663239 -22.125900 533.954224
3.200000 1.120000 -7.040000 17.001404 -7.745829 349.045593
3.200000 1.120000 -7.000000 13.277506 7.879646 238.380981
3.200000 1.120000 -6.960000 1.637082 14.592722 215.627579
3.200000 1.120000 -6.920000 -8.250264 12.213091 217.226440
3.200000 1.120000 -6.880000 -12.474436 6.837645 202.364929
3.200000 1.120000 -6.840000 -13.214877 2.689100 181.864243
3.200000 1.120000 -6.800000 -12.825033 -0.315520 164.581024
3.200000 1.160000 -7.200000 -13.016455 -6.612968 213.159439
3.200000 1.160000 -7.160000 -10.188541 -23.352674 649.153809
3.200000 1.160000 -7.120000 7.493818 -31.630827 1056.666504
3.200000 1.160000 -7.080000 26.795399 -22.406380 1220.039307
3.200000 1.160000 -7.040000 33.279781 -1.349277 1109.364380
3.200000 1.160000 -7.000000 23.383837 17.443283 851.071960
3.200000 1.160000 -6.960000 5.320979 23.766815 593.174316
3.200000 1.160000 -6.920000 -9.614368 17.747713 407.417419
3.200000 1.160000 -6.880000 -15.554089 6.599466 285.482635
3.200000 1.160000 -6.840000 -13.650690 -2.403887 192.120010
3.200000 1.160000 -6.800000 -8.537705 -5.867845 107.324005
3.200000 1.200000 -7.200000 1.146257 -10.575163 113.147972
3.200000 1.200000 -7.160000 9.603417 -22.202442 585.174072
3.200000 1.200000 -7.120000 28.237640 -22.023106 1282.381470
3.200000 1.200000 -7.080000 42.946075 -5.173008 1871.125366
3.200000 1.200000 -7.040000 41.286076 19.556232 2086.986328
3.200000 1.200000 -7.000000 22.670990 36.999298 1882.921875
3.200000 1.200000 -6.960000 -1.815438 37.506287 1410.017334
3.200000 1.200000 -6.920000 -18.506969 23.296856 885.251343
3.200000 1.200000 -6.880000 -20.856071 5.272566 462.775665
3.200000 1.200000 -6.840000 -12.559608 -5.693445 190.159073
3.200000 1.200000 -6.800000 -3.282413 -5.915104 45.762699
