#kx 	ky 	kz 	real 	imag 	intensity
4.800000 4.800000 -7.200000 -16.854458 -31.117817 1252.391357
4.800000 4.800000 -7.160000 3.463915 -40.893528 1684.279297
4.800000 4.800000 -7.120000 24.326557 -31.840805 1605.618164
4.800000 4.800000 -7.080000 30.141954 -11.705066 1045.546021
4.800000 4.800000 -7.040000 19.196011 2.281044 373.689972
4.800000 4.800000 -7.000000 4.950024 -0.060642 24.506411
4.800000 4.800000 -6.960000 2.377393 -12.567210 163.586761
4.800000 4.800000 -6.920000 13.456040 -19.962585 579.569824
4.800000 4.800000 -6.880000 26.460136 -13.607080 885.291443
4.800000 4.800000 -6.840000 29.015068 0.682072 842.339355
4.800000 4.800000 -6.800000 20.558424 10.201199 526.713257
4.800000 4.840000 -7.200000 5.408278 -37.542358 1438.678223
4.800000 4.840000 -7.160000 26.165066 -38.169193 2141.498047
4.800000 4.840000 -7.120000 41.720852 -24.461779 2339.008057
4.800000 4.840000 -7.080000 43.674042 -5.942423 1942.734253
4.800000 4.840000 -7.040000 34.745586 5.798784 1240.881592
4.800000 4.840000 -7.000000 24.969181 6.880857 670.806213
4.800000 4.840000 -6.960000 21.943260 2.835275 489.545441
4.800000 4.840000 -6.920000 24.912418 1.652492 623.359314
4.800000 4.840000 -6.880000 27.621996 5.962129 798.521667
4.800000 4.840000 -6.840000 25.750986 11.951433 805.950073
4.800000 4.840000 -6.800000 20.818623 14.902902 655.511536
4.800000 4.880000 -7.200000 21.371046 -24.778555 1070.698486
4.800000 4.880000 -7.160000 37.991493 -21.060329 1886.890991
4.800000 4.880000 -7.120000 49.500023 -7.017011 2499.490723
4.800000 4.880000 -7.080000 50.343002 10.874838 2652.680176
4.800000 4.880000 -7.040000 41.385124 24.537769 2314.830566
4.800000 4.880000 -7.000000 28.611017 29.393499 1682.568115
4.800000 4.880000 -6.960000 18.758678 26.516075 1054.990234
4.800000 4.880000 -6.920000 15.197407 20.941055 669.488953
4.800000 4.880000 -6.880000 16.608973 17.791229 592.385803
4.800000 4.880000 -6.840000 18.888363 19.057447 719.956543
4.800000 4.880000 -6.800000 18.514811 23.072241 875.126526
4.800000 4.920000 -7.200000 19.568588 -8.164744 449.592712
4.800000 4.920000 -7.160000 34.118591 -4.454001 1183.916382
4.800000 4.920000 -7.120000 44.401733 10.187510 2075.299316
4.800000 4.920000 -7.080000 42.794407 29.838158 2721.676758
4.800000 4.920000 -7.040000 28.694298 44.108261 2768.901367
4.800000 4.920000 -7.000000 9.998654 45.467323 2167.250732
4.800000 4.920000 -6.960000 -2.293475 35.297905 1251.202148
4.800000 4.920000 -6.920000 -2.585742 23.000351 535.702209
4.800000 4.920000 -6.880000 5.044967 18.243504 358.277100
4.800000 4.920000 -6.840000 10.963678 23.064114 652.155518
4.800000 4.920000 -6.800000 8.766867 31.036673 1040.132935
4.800000 4.960000 -7.200000 7.599324 -3.624879 70.889465
4.800000 4.960000 -7.160000 23.606968 1.667557 560.069702
4.800000 4.960000 -7.120000 31.440582 19.615574 1373.281006
4.800000 4.960000 -7.080000 23.174814 39.272243 2079.381104
4.800000 4.960000 -7.040000 3.108115 47.070396 2225.282715
4.800000 4.960000 -7.000000 -14.935718 38.395020 1697.253174
4.800000 4.960000 -6.960000 -19.237974 21.830381 846.665161
4.800000 4.960000 -6.920000 -10.270975 11.508747 237.944183
4.800000 4.960000 -6.880000 0.445680 14.404368 207.684448
4.800000 4.960000 -6.840000 1.663176 24.785267 617.075623
4.800000 4.960000 -6.800000 -7.310099 30.972860 1012.755615
4.800000 5.000000 -7.200000 1.563609 -11.208384 128.072739
4.800000 5.000000 -7.160000 17.007053 0.311877 289.337128
4.800000 5.000000 -7.120000 17.254330 20.321150 710.661011
4.800000 5.000000 -7.080000 1.660834 32.846508 1081.651489
4.800000 5.000000 -7.040000 -16.768658 28.464296 1091.404053
4.800000 5.000000 -7.000000 -23.276844 12.888970 707.937012
4.800000 5.000000 -6.960000 -14.970164 1.189070 225.519699
4.800000 5.000000 -6.920000 -2.781096 3.203558 17.997280
4.800000 5.000000 -6.880000 -0.033090 14.651690 214.673126
4.800000 5.000000 -6.840000 -9.369516 22.534704 595.600708
4.800000 5.000000 -6.800000 -21.197380 18.815807 803.363525
4.800000 5.040000 -7.200000 7.375901 -17.271992 352.725616
4.800000 5.040000 -7.160000 14.797943 0.117066 218.992828
4.800000 5.040000 -7.120000 5.207581 14.442045 235.691559
4.800000 5.040000 -7.080000 -10.223858 13.414668 284.480591
4.800000 5.040000 -7.040000 -15.639275 0.509661 244.846664
4.800000 5.040000 -7.000000 -6.514566 -9.104227 125.326523
4.800000 5.040000 -6.960000 6.169602 -4.483616 58.166801
4.800000 5.040000 -6.920000 7.794126 9.910935 158.975037
4.800000 5.040000 -6.880000 -4.609715 19.264523 392.371307
4.800000 5.040000 -6.840000 -19.619284 14.035795 581.919800
4.800000 5.040000 -6.800000 -23.737831 -0.461268 563.697388
4.800000 5.080000 -7.200000 14.944365 -11.778245 362.061096
4.800000 5.080000 -7.160000 9.642964 2.679634 100.167198
4.800000 5.080000 -7.120000 -3.145586 2.917767 18.408077
4.800000 5.080000 -7.080000 -6.331937 -9.202385 124.777313
4.800000 5.080000 -7.040000 6.094780 -17.351170 338.209412
4.800000 5.080000 -7.000000 21.887037 -8.472908 550.832581
4.800000 5.080000 -6.960000 23.118174 12.414549 688.570984
4.800000 5.080000 -6.920000 5.423000 26.514511 732.428223
4.800000 5.080000 -6.880000 -16.724842 20.427433 697.000366
4.800000 5.080000 -6.840000 -24.450338 -0.090307 597.827209
4.800000 5.080000 -6.800000 -13.313505 -16.277851 442.217865
4.800000 5.120000 -7.200000 11.124371 -0.500957 124.002579
4.800000 5.120000 -7.160000 -1.379279 0.183934 1.936242
4.800000 5.120000 -7.120000 -4.430408 -13.499795 201.872986
4.800000 5.120000 -7.080000 11.288690 -24.011976 704.009521
4.800000 5.120000 -7.040000 33.481033 -13.807422 1311.624512
4.800000 5.120000 -7.000000 39.156185 14.478395 1742.830688
4.800000 5.120000 -6.960000 18.530365 38.171059 1800.404053
4.800000 5.120000 -6.920000 -13.375607 36.334549 1499.106323
4.800000 5.120000 -6.880000 -30.443638 10.833035 1044.169678
4.800000 5.120000 -6.840000 -20.718866 -15.439663 667.654602
4.800000 5.120000 -6.800000 2.987141 -21.280123 461.766632
4.800000 5.160000 -7.200000 -3.944884 1.481155 17.755932
4.800000 5.160000 -7.160000 -10.057276 -13.927864 295.134186
4.800000 5.160000 -7.120000 5.555663 -30.031420 932.751587
4.800000 5.160000 -7.080000 34.167130 -24.406464 1763.068115
4.800000 5.160000 -7.040000 49.497314 6.936920 2498.104980
4.800000 5.160000 -7.000000 33.095917 41.838364 2845.788574
4.800000 5.160000 -6.960000 -5.546055 51.315979 2664.088379
4.800000 5.160000 -6.920000 -36.075905 27.515612 2058.579834
4.800000 5.160000 -6.880000 -35.534027 -8.350513 1332.398193
4.800000 5.160000 -6.840000 -9.282207 -26.532078 790.110535
4.800000 5.160000 -6.800000 16.290535 -16.562614 539.701721
4.800000 5.200000 -7.200000 -15.775616 -12.668010 409.348511
4.800000 5.200000 -7.160000 -4.697616 -34.190830 1191.080444
4.800000 5.200000 -7.120000 26.071583 -37.682373 2099.688477
4.800000 5.200000 -7.080000 51.993324 -10.931264 2822.798096
4.800000 5.200000 -7.040000 47.277977 30.601181 3171.639160
4.800000 5.200000 -7.000000 10.622506 54.805222 3116.449951
4.800000 5.200000 -6.960000 -30.989935 42.041634 2727.875000
4.800000 5.200000 -6.920000 -45.965225 3.866325 2127.750488
4.800000 5.200000 -6.880000 -26.557589 -27.752821 1475.524536
4.800000 5.200000 -6.840000 5.917224 -30.050835 938.066223
4.800000 5.200000 -6.800000 23.274334 -8.295638 610.512268
4.840000 4.800000 -7.200000 24.140114 -28.661146 1404.206421
4.840000 4.800000 -7.160000 41.245388 -16.375372 1969.334839
4.840000 4.800000 -7.120000 43.558170 5.072226 1923.041626
4.840000 4.800000 -7.080000 29.927610 19.615450 1280.427734
4.840000 4.800000 -7.040000 13.374657 17.920853 500.038391
4.840000 4.800000 -7.000000 8.115644 6.228231 104.654556
4.840000 4.800000 -6.960000 15.610668 -0.766533 244.280533
4.840000 4.800000 -6.920000 24.221935 4.660617 608.423523
4.840000 4.800000 -6.880000 22.418240 15.911601 755.756470
4.840000 4.800000 -6.840000 11.072886 20.202530 530.751038
4.840000 4.800000 -6.800000 1.805848 12.876456 169.064224
4.840000 4.840000 -7.200000 36.283390 -11.863299 1457.222290
4.840000 4.840000 -7.160000 47.268333 1.300605 2235.987061
4.840000 4.840000 -7.120000 47.841007 19.224285 2658.335205
4.840000 4.840000 -7.080000 38.317204 33.189323 2569.739258
4.840000 4.840000 -7.040000 24.949266 38.654087 2116.604248
4.840000 4.840000 -7.000000 13.717506 37.305962 1579.904785
4.840000 4.840000 -6.960000 6.242311 33.166809 1139.003662
4.840000 4.840000 -6.920000 1.259704 28.138763 793.376831
4.840000 4.840000 -6.880000 -1.525779 21.898468 481.870911
4.840000 4.840000 -6.840000 -0.533284 15.118005 228.838455
4.840000 4.840000 -6.800000 4.718750 11.037408 144.090973
4.840000 4.880000 -7.200000 29.017803 7.698459 901.299194
4.840000 4.880000 -7.160000 38.541584 17.581717 1794.570557
4.840000 4.880000 -7.120000 41.232719 35.614021 2968.495605
4.840000 4.880000 -7.080000 31.205151 55.166992 4017.158447
4.840000 4.880000 -7.040000 9.276878 66.140228 4460.590332
4.840000 4.880000 -7.000000 -15.865494 61.406281 4022.445068
4.840000 4.880000 -6.960000 -32.210285 42.402512 2835.475586
4.840000 4.880000 -6.920000 -32.274391 19.280968 1413.392090
4.840000 4.880000 -6.880000 -18.519756 4.517660 363.390625
4.840000 4.880000 -6.840000 -1.654071 4.366140 21.799131
4.840000 4.880000 -6.800000 7.304519 14.946208 276.745117
4.840000 4.920000 -7.200000 9.571560 11.758493 229.876923
4.840000 4.920000 -7.160000 23.055372 21.694555 1002.203857
4.840000 4.920000 -7.120000 25.058037 45.337280 2683.374268
4.840000 4.920000 -7.080000 5.553516 68.381493 4706.869629
4.840000 4.920000 -7.040000 -29.328655 72.028976 6048.343262
4.840000 4.920000 -7.000000 -59.115223 49.018196 5897.393066
4.840000 4.920000 -6.960000 -64.374733 11.753934 4282.261230
4.840000 4.920000 -6.920000 -42.881058 -16.221354 2101.917480
4.840000 4.920000 -6.880000 -11.747493 -18.921972 496.044617
4.840000 4.920000 -6.840000 6.951059 -0.177979 48.348904
4.840000 4.920000 -6.800000 4.016667 21.436417 475.653564
4.840000 4.960000 -7.200000 -2.511734 -1.990227 10.269811
4.840000 4.960000 -7.160000 13.178556 15.380177 410.224182
4.840000 4.960000 -7.120000 6.379566 44.138912 1988.942383
4.840000 4.960000 -7.080000 -25.936356 59.649414 4230.747070
4.840000 4.960000 -7.040000 -63.587463 43.717812 5954.612305
4.840000 4.960000 -7.000000 -78.225349 2.561369 6125.765625
4.840000 4.960000 -6.960000 -57.777454 -36.191422 4648.053223
4.840000 4.960000 -6.920000 -17.594400 -46.277283 2451.149902
4.840000 4.960000 -6.880000 12.708590 -24.793650 776.233276
4.840000 4.960000 -6.840000 14.621116 6.990837 262.648834
4.840000 4.960000 -6.800000 -5.451083 24.024349 606.883667
4.840000 5.000000 -7.200000 3.850270 -17.529911 322.122375
4.840000 5.000000 -7.160000 12.344669 9.300774 238.895233
4.840000 5.000000 -7.120000 -8.229124 33.833801 1212.444580
4.840000 5.000000 -7.080000 -44.683533 30.779612 2944.002441
4.840000 5.000000 -7.040000 -66.835663 -3.301692 4477.907227
4.840000 5.000000 -7.000000 -53.897552 -44.455826 4881.266602
4.840000 5.000000 -6.960000 -13.861267 -61.303772 3950.287109
4.840000 5.000000 -6.920000 23.099159 -42.508278 2340.524902
4.840000 5.000000 -6.880000 31.295444 -5.799628 1013.040527
4.840000 5.000000 -6.840000 10.829392 19.488907 497.093262
4.840000 5.000000 -6.800000 -16.017666 18.637358 603.916748
4.840000 5.040000 -7.200000 19.661716 -17.952036 708.858704
4.840000 5.040000 -7.160000 12.751173 9.789868 258.433929
4.840000 5.040000 -7.120000 -15.922142 18.417635 592.723877
4.840000 5.040000 -7.080000 -40.274887 -3.170918 1632.121216
4.840000 5.040000 -7.040000 -35.772251 -38.496502 2761.634766
4.840000 5.040000 -7.000000 -2.721486 -57.222771 3281.852051
4.840000 5.040000 -6.960000 33.214096 -42.685516 2925.229492
4.840000 5.040000 -6.920000 44.285164 -6.780303 2007.148315
4.840000 5.040000 -6.880000 25.135223 21.934116 1112.885010
4.840000 5.040000 -6.840000 -4.766736 24.538452 624.857361
4.840000 5.040000 -6.800000 -21.489473 6.522863 504.345184
4.840000 5.080000 -7.200000 26.052517 -3.653512 692.081787
4.840000 5.080000 -7.160000 6.356860 11.427605 170.999817
4.840000 5.080000 -7.120000 -15.834157 0.924153 251.574585
4.840000 5.080000 -7.080000 -16.695627 -25.481520 928.051819
4.840000 5.080000 -7.040000 8.198057 -41.601803 1797.918091
4.840000 5.080000 -7.000000 38.520702 -29.415302 2349.104492
4.840000 5.080000 -6.960000 47.945034 3.517955 2311.102295
4.840000 5.080000 -6.920000 28.635857 31.259565 1797.172607
4.840000 5.080000 -6.880000 -2.572315 33.836781 1151.544556
4.840000 5.080000 -6.840000 -21.463703 14.302484 665.251587
4.840000 5.080000 -6.800000 -18.700394 -7.400500 404.472107
4.840000 5.120000 -7.200000 14.982113 8.444857 295.779297
4.840000 5.120000 -7.160000 -3.856285 4.156374 32.146374
4.840000 5.120000 -7.120000 -6.793620 -15.517511 286.946411
4.840000 5.120000 -7.080000 12.739206 -28.405832 969.178711
4.840000 5.120000 -7.040000 38.239666 -16.730429 1742.179321
4.840000 5.120000 -7.000000 44.987778 14.443119 2232.503906
4.840000 5.120000 -6.960000 23.925989 40.893074 2244.696533
4.840000 5.120000 -6.920000 -9.456866 41.870773 1842.593994
4.840000 5.120000 -6.880000 -30.053204 18.977797 1263.351807
4.840000 5.120000 -6.840000 -26.298458 -7.217849 743.706238
4.840000 5.120000 -6.800000 -8.319477 -18.001713 393.275391
4.840000 5.160000 -7.200000 -2.114604 3.493021 16.672745
4.840000 5.160000 -7.160000 -5.842239 -13.270000 210.224640
4.840000 5.160000 -7.120000 11.082579 -25.490349 772.581421
4.840000 5.160000 -7.080000 35.265167 -15.197086 1474.583496
4.840000 5.160000 -7.040000 42.646454 15.351274 2054.381592
4.840000 5.160000 -7.000000 21.604443 43.302940 2341.896484
4.840000 5.160000 -6.960000 -14.614944 45.619617 2294.746094
4.840000 5.160000 -6.920000 -39.345760 20.510063 1968.751587
4.840000 5.160000 -6.880000 -36.675270 -11.506852 1477.483154
4.840000 5.160000 -6.840000 -14.297030 -27.413906 955.927368
4.840000 5.160000 -6.800000 6.716293 -21.796112 520.179077
4.840000 5.200000 -7.200000 -6.760770 -15.275704 279.055145
4.840000 5.200000 -7.160000 8.012222 -29.235725 918.923340
4.840000 5.200000 -7.120000 32.780193 -23.088795 1607.633545
4.840000 5.200000 -7.080000 44.908989 5.205485 2043.914307
4.840000 5.200000 -7.040000 28.957249 36.314861 2157.291504
4.840000 5.200000 -7.000000 -7.313536 45.139660 2091.076660
4.840000 5.200000 -6.960000 -38.062099 23.500317 2000.988281
4.840000 5.200000 -6.920000 -41.794243 -12.176722 1895.031372
4.840000 5.200000 -6.880000 -19.548162 -35.878189 1669.375122
4.840000 5.200000 -6.840000 8.362133 -34.644863 1270.191895
4.840000 5.200000 -6.800000 22.352234 -16.947811 786.850647
4.880000 4.800000 -7.200000 48.761192 10.535669 2488.654053
4.880000 4.800000 -7.160000 44.621101 35.102734 3223.244629
4.880000 4.800000 -7.120000 22.952808 49.437992 2970.946289
4.880000 4.800000 -7.080000 -0.610947 43.273560 1872.974243
4.880000 4.800000 -7.040000 -8.982330 24.599087 685.797302
4.880000 4.800000 -7.000000 -0.376862 11.775148 138.796143
4.880000 4.800000 -6.960000 10.636547 14.868542 334.209656
4.880000 4.800000 -6.920000 9.064812 25.918964 753.963562
4.880000 4.800000 -6.880000 -4.590240 28.440229 829.916992
4.880000 4.800000 -6.840000 -15.403679 15.691862 483.507874
4.880000 4.800000 -6.800000 -10.544130 -1.973757 115.074402
4.880000 4.840000 -7.200000 32.865051 32.728966 2151.296875
4.880000 4.840000 -7.160000 26.145441 46.792614 2873.132812
4.880000 4.840000 -7.120000 12.615291 55.436325 3232.331543
4.880000 4.840000 -7.080000 -2.385742 56.392391 3185.793457
4.880000 4.840000 -7.040000 -14.915466 51.875797 2913.569580
4.880000 4.840000 -7.000000 -24.750355 44.480850 2591.125977
4.880000 4.840000 -6.960000 -32.452255 34.003525 2209.388672
4.880000 4.840000 -6.920000 -35.631424 19.510597 1650.261719
4.880000 4.840000 -6.880000 -30.148304 3.945403 924.486450
4.880000 4.840000 -6.840000 -15.756190 -5.408208 277.506256
4.880000 4.840000 -6.800000 0.654999 -2.799398 8.265655
4.880000 4.880000 -7.200000 4.071938 34.697166 1220.473999
4.880000 4.880000 -7.160000 5.184896 43.343582 1905.549316
4.880000 4.880000 -7.120000 -1.907366 58.117950 3381.333984
4.880000 4.880000 -7.080000 -22.965755 69.493195 5356.729980
4.880000 4.880000 -7.040000 -53.061943 64.799026 7014.483887
4.880000 4.880000 -7.000000 -77.025452 39.039005 7456.964355
4.880000 4.880000 -6.960000 -79.473381 1.558804 6318.447754
4.880000 4.880000 -6.920000 -57.164948 -28.459871 4077.795654
4.880000 4.880000 -6.880000 -22.976648 -35.474342 1786.355347
4.880000 4.880000 -6.840000 2.970888 -19.225651 378.451813
4.880000 4.880000 -6.800000 8.185589 5.559529 97.912231
4.880000 4.920000 -7.200000 -15.031254 13.294465 402.681396
4.880000 4.920000 -7.160000 -5.774782 28.673853 855.537903
4.880000 4.920000 -7.120000 -18.499466 53.637348 3219.195312
4.880000 4.920000 -7.080000 -56.223240 62.954826 7124.362793
4.880000 4.920000 -7.040000 -97.274918 37.512684 10869.610352
4.880000 4.920000 -7.000000 -110.422096 -15.720108 12440.161133
4.880000 4.920000 -6.960000 -81.479324 -65.504890 10929.771484
4.880000 4.920000 -6.920000 -27.154472 -80.478127 7214.094238
4.880000 4.920000 -6.880000 17.549568 -54.724434 3302.750977
4.880000 4.920000 -6.840000 27.629757 -11.570757 897.285889
4.880000 4.920000 -6.800000 6.557251 17.417698 346.373718
4.880000 4.960000 -7.200000 -9.143754 -13.361579 262.140045
4.880000 4.960000 -7.160000 -3.252426 15.383872 247.241791
4.880000 4.960000 -7.120000 -32.222473 40.941658 2714.507080
4.880000 4.960000 -7.080000 -80.770294 30.661797 7463.986328
4.880000 4.960000 -7.040000 -109.474136 -21.658613 12453.682617
4.880000 4.960000 -7.000000 -88.335510 -84.975761 15024.042969
4.880000 4.960000 -6.960000 -25.339199 -114.602524 13775.813477
4.880000 4.960000 -6.920000 37.998192 -90.123062 9566.029297
4.880000 4.960000 -6.880000 61.173004 -32.531250 4800.418945
4.880000 4.960000 -6.840000 37.547001 15.238382 1641.985474
4.880000 4.960000 -6.800000 -4.315340 25.263098 656.846252
4.880000 5.000000 -7.200000 14.448314 -22.459560 713.185608
4.880000 5.000000 -7.160000 4.013416 12.533651 173.199936
4.880000 5.000000 -7.120000 -38.670296 22.697525 2010.569336
4.880000 5.000000 -7.080000 -78.285416 -13.058775 6299.138184
4.880000 5.000000 -7.040000 -74.325226 -75.544365 11231.190430
4.880000 5.000000 -7.000000 -19.102472 -117.597260 14194.019531
4.880000 5.000000 -6.960000 51.966236 -104.395302 13598.869141
4.880000 5.000000 -6.920000 89.468155 -44.505997 9985.333984
4.880000 5.000000 -6.880000 71.935379 17.942190 5496.621094
4.880000 5.000000 -6.840000 21.504206 42.150154 2239.066406
4.880000 5.000000 -6.800000 -19.717609 23.294182 931.403015
4.880000 5.040000 -7.200000 32.813679 -8.334244 1146.197144
4.880000 5.040000 -7.160000 4.520290 16.757637 301.251404
4.880000 5.040000 -7.120000 -36.071949 3.338494 1312.331055
4.880000 5.040000 -7.080000 -48.759331 -45.000343 4402.503418
4.880000 5.040000 -7.040000 -12.744133 -90.074791 8275.880859
4.880000 5.040000 -7.000000 51.031147 -91.026718 10890.041016
4.880000 5.040000 -6.960000 95.646538 -41.510479 10871.379883
4.880000 5.040000 -6.920000 88.726257 23.683014 8433.233398
4.880000 5.040000 -6.880000 39.608868 59.247341 5079.109863
4.880000 5.040000 -6.840000 -11.823982 47.707775 2415.838379
4.880000 5.040000 -6.800000 -31.906176 9.713579 1112.357666
4.880000 5.080000 -7.200000 29.827467 12.748498 1052.202026
4.880000 5.080000 -7.160000 -3.536479 16.488701 284.383942
4.880000 5.080000 -7.120000 -24.961073 -12.885469 789.090515
4.880000 5.080000 -7.080000 -9.130760 -51.237507 2708.653076
4.880000 5.080000 -7.040000 37.379078 -61.750507 5210.320801
4.880000 5.080000 -7.000000 78.668442 -28.529911 7002.679688
4.880000 5.080000 -6.960000 80.367966 27.317802 7205.271973
4.880000 5.080000 -6.920000 40.048027 65.492836 5893.156250
4.880000 5.080000 -6.880000 -11.718824 61.454956 3914.042480
4.880000 5.080000 -6.840000 -39.582130 25.302298 2206.951172
4.880000 5.080000 -6.800000 -32.749645 -11.661139 1208.521484
4.880000 5.120000 -7.200000 11.212842 19.597229 509.779236
4.880000 5.120000 -7.160000 -10.148952 5.096509 128.975647
4.880000 5.120000 -7.120000 -7.335506 -22.259329 549.287354
4.880000 5.120000 -7.080000 21.425972 -35.173813 1696.269409
4.880000 5.120000 -7.040000 52.797249 -16.032297 3044.583984
4.880000 5.120000 -7.000000 57.736977 25.107788 3963.959473
4.880000 5.120000 -6.960000 27.849419 57.740376 4109.541016
4.880000 5.120000 -6.920000 -16.670958 57.385311 3570.994873
4.880000 5.120000 -6.880000 -45.064339 26.194616 2716.952637
4.880000 5.120000 -6.840000 -42.167427 -11.306034 1905.918335
4.880000 5.120000 -6.800000 -17.917437 -31.341686 1303.335815
4.880000 5.160000 -7.200000 -2.784555 7.024521 57.097645
4.880000 5.160000 -7.160000 -4.281507 -11.004530 139.430984
4.880000 5.160000 -7.120000 12.927397 -21.679173 637.104126
4.880000 5.160000 -7.080000 34.538326 -10.569929 1304.619385
4.880000 5.160000 -7.040000 38.977852 18.062593 1845.530273
4.880000 5.160000 -7.000000 17.079794 42.722717 2116.949951
4.880000 5.160000 -6.960000 -18.347029 42.781200 2166.844482
4.880000 5.160000 -6.920000 -42.871346 16.542685 2111.612793
4.880000 5.160000 -6.880000 -41.038425 -17.827961 2001.988525
4.880000 5.160000 -6.840000 -17.790445 -38.633629 1809.057129
4.880000 5.160000 -6.800000 8.870070 -37.834740 1510.145630
4.880000 5.200000 -7.200000 1.429977 -10.581930 114.022087
4.880000 5.200000 -7.160000 13.756345 -18.182346 519.834717
4.880000 5.200000 -7.120000 29.677395 -10.380089 988.494019
4.880000 5.200000 -7.080000 33.586723 10.900123 1246.880615
4.880000 5.200000 -7.040000 17.297804 30.376293 1221.933228
4.880000 5.200000 -7.000000 -11.029503 31.238972 1097.523315
4.880000 5.200000 -6.960000 -32.190765 9.827888 1132.832764
4.880000 5.200000 -6.920000 -31.420317 -20.672241 1414.577881
4.880000 5.200000 -6.880000 -9.969137 -41.010529 1781.247070
4.880000 5.200000 -6.840000 17.417234 -40.919167 1977.738281
4.880000 5.200000 -6.800000 35.495731 -24.781116 1874.050659
4.920000 4.800000 -7.200000 32.150299 57.951027 4391.963379
4.920000 4.800000 -7.160000 3.070168 73.615456 5428.661133
4.920000 4.800000 -7.120000 -30.199223 63.166363 4901.982422
4.920000 4.800000 -7.080000 -44.605061 33.297264 3098.319336
4.920000 4.800000 -7.040000 -33.316399 7.412447 1164.926758
4.920000 4.800000 -7.000000 -12.433430 3.206795 164.873718
4.920000 4.800000 -6.960000 -4.386389 15.719028 266.328278
4.920000 4.800000 -6.920000 -15.064714 23.801247 793.444946
4.920000 4.800000 -6.880000 -28.768040 13.142000 1000.312256
4.920000 4.800000 -6.840000 -25.905815 -8.669776 746.276306
4.920000 4.800000 -6.800000 -4.259756 -20.718224 447.390289
4.920000 4.840000 -7.200000 -7.221449 59.437572 3584.974365
4.920000 4.840000 -7.160000 -26.440996 59.862785 4282.679199
4.920000 4.840000 -7.120000 -42.655312 50.585938 4378.412598
4.920000 4.840000 -7.080000 -51.453350 36.877289 4007.381836
4.920000 4.840000 -7.040000 -54.571465 24.070913 3557.453613
4.920000 4.840000 -7.000000 -55.989582 12.250702 3284.912842
4.920000 4.840000 -6.960000 -55.391579 -2.048004 3072.421387
4.920000 4.840000 -6.920000 -47.469620 -18.686619 2602.554443
4.920000 4.840000 -6.880000 -28.962509 -30.348194 1759.839844
4.920000 4.840000 -6.840000 -5.600505 -28.183481 825.674255
4.920000 4.840000 -6.800000 10.147449 -11.626338 238.142471
4.920000 4.880000 -7.200000 -35.335548 30.521055 2180.135742
4.920000 4.880000 -7.160000 -38.151749 32.564140 2515.979004
4.920000 4.880000 -7.120000 -50.081421 37.737000 3932.229980
4.920000 4.880000 -7.080000 -72.975784 33.345520 6437.389160
4.920000 4.880000 -7.040000 -95.027740 9.019920 9111.630859
4.920000 4.880000 -7.000000 -97.942902 -31.253059 10569.565430
4.920000 4.880000 -6.960000 -72.268448 -68.241333 9879.607422
4.920000 4.880000 -6.920000 -27.663437 -80.538818 7251.767090
4.920000 4.880000 -6.880000 12.153376 -61.505997 3930.692139
4.920000 4.880000 -6.840000 26.763607 -25.210718 1351.870972
4.920000 4.880000 -6.800000 14.234404 4.454693 222.462524
4.920000 4.920000 -7.200000 -31.763058 -8.479866 1080.799927
4.920000 4.920000 -7.160000 -29.450903 9.471071 957.056885
4.920000 4.920000 -7.120000 -55.112328 24.218166 3623.888184
4.920000 4.920000 -7.080000 -95.524895 7.506372 9181.351562
4.920000 4.920000 -7.040000 -115.662857 -45.629379 15459.936523
4.920000 4.920000 -7.000000 -88.751526 -106.500702 19219.232422
4.920000 4.920000 -6.960000 -22.631592 -133.608231 18363.349609
4.920000 4.920000 -6.920000 43.381096 -107.474091 13432.599609
4.920000 4.920000 -6.880000 69.859451 -47.534386 7139.860352
4.920000 4.920000 -6.840000 48.682930 4.560703 2390.827637
4.920000 4.920000 -6.800000 6.397823 19.570442 423.934326
4.920000 4.960000 -7.200000 -1.410446 -28.694740 825.377502
4.920000 4.960000 -7.160000 -12.469013 2.752499 163.052536
4.920000 4.960000 -7.120000 -56.881248 8.147652 3301.860596
4.920000 4.960000 -7.080000 -96.632706 -36.056137 10637.924805
4.920000 4.960000 -7.040000 -86.679108 -108.913437 19375.404297
4.920000 4.960000 -7.000000 -17.977114 -157.218536 25040.843750
4.920000 4.960000 -6.960000 69.323639 -140.529510 24554.310547
4.920000 4.960000 -6.920000 117.603424 -67.569397 18396.189453
4.920000 4.960000 -6.880000 100.005035 10.721483 10115.957031
4.920000 4.960000 -6.840000 40.558887 44.948002 3665.346191
4.920000 4.960000 -6.800000 -10.913304 26.547813 823.886597
4.920000 5.000000 -7.200000 29.654310 -17.862419 1198.444092
4.920000 5.000000 -7.160000 -2.928783 9.615499 101.035606
4.920000 5.000000 -7.120000 -52.131100 -9.649884 2810.771973
4.920000 5.000000 -7.080000 -66.813148 -74.366051 9994.306641
4.920000 5.000000 -7.040000 -17.141563 -136.798355 19007.623047
4.920000 5.000000 -7.000000 72.703438 -141.426727 25287.308594
4.920000 5.000000 -6.960000 140.658661 -75.365128 25464.761719
4.920000 5.000000 -6.920000 139.267059 17.902737 19715.822266
4.920000 5.000000 -6.880000 75.721527 75.571121 11444.744141
4.920000 5.000000 -6.840000 2.316667 68.303177 4670.690918
4.920000 5.000000 -6.800000 -31.402163 19.625475 1371.255127
4.920000 5.040000 -7.200000 37.707474 9.976191 1521.378052
4.920000 5.040000 -7.160000 -6.417590 16.546164 314.960999
4.920000 5.040000 -7.120000 -39.107014 -24.839291 2146.348877
4.920000 5.040000 -7.080000 -19.306519 -85.568695 7694.743164
4.920000 5.040000 -7.040000 51.800671 -110.833221 14967.312500
4.920000 5.040000 -7.000000 125.101349 -68.473015 20338.902344
4.920000 5.040000 -6.960000 143.696823 18.922226 21006.828125
4.920000 5.040000 -6.920000 92.627937 91.195740 16896.597656
4.920000 5.040000 -6.880000 11.129156 101.958191 10519.331055
4.920000 5.040000 -6.840000 -43.486107 55.682899 4991.626953
4.920000 5.040000 -6.800000 -44.340401 -2.638622 1973.033447
4.920000 5.080000 -7.200000 21.565502 29.107449 1312.314453
4.920000 5.080000 -7.160000 -14.777779 12.833061 383.070190
4.920000 5.080000 -7.120000 -20.041857 -32.406673 1451.868530
4.920000 5.080000 -7.080000 21.305979 -66.862251 4924.505371
4.920000 5.080000 -7.040000 82.558052 -52.150211 9535.476562
4.920000 5.080000 -7.000000 113.657730 11.449736 13049.176758
4.920000 5.080000 -6.960000 84.774605 81.047493 13755.429688
4.920000 5.080000 -6.920000 13.641956 106.725311 11576.394531
4.920000 5.080000 -6.880000 -49.834663 73.816956 7932.436523
4.920000 5.080000 -6.840000 -66.619522 12.424820 4592.536621
4.920000 5.080000 -6.800000 -38.201149 -32.597767 2521.942139
4.920000 5.120000 -7.200000 0.579329 26.092918 681.176025
4.920000 5.120000 -7.160000 -15.469706 0.344491 239.430466
4.920000 5.120000 -7.120000 -0.190085 -30.004993 900.335754
4.920000 5.120000 -7.080000 39.231579 -34.122444 2703.458008
4.920000 5.120000 -7.040000 70.187355 0.471569 4926.486816
4.920000 5.120000 -7.000000 61.638718 52.510220 6556.654785
4.920000 5.120000 -6.960000 12.981533 82.443939 6965.522949
4.920000 5.120000 -6.920000 -43.374809 66.091553 6249.467285
4.920000 5.120000 -6.880000 -69.136124 15.122419 5008.491211
4.920000 5.120000 -6.840000 -51.425568 -34.480728 3833.509766
4.920000 5.120000 -6.800000 -9.607347 -53.576546 2962.747314
4.920000 5.160000 -7.200000 -5.895439 9.697890 128.805267
4.920000 5.160000 -7.160000 -4.232298 -9.409241 106.446159
4.920000 5.160000 -7.120000 14.999193 -19.045994 587.725708
4.920000 5.160000 -7.080000 36.701569 -5.989620 1382.880615
4.920000 5.160000 -7.040000 38.989964 24.138117 2102.865967
4.920000 5.160000 -7.000000 13.152744 48.060658 2482.821533
4.920000 5.160000 -6.960000 -25.973446 43.624977 2577.758545
4.920000 5.160000 -6.920000 -50.601425 9.566845 2652.028564
4.920000 5.160000 -6.880000 -42.747021 -32.512508 2884.371094
4.920000 5.160000 -6.840000 -8.301174 -55.874935 3190.917725
4.920000 5.160000 -6.800000 29.765741 -49.346218 3321.048584
4.920000 5.200000 -7.200000 3.825140 -1.159704 15.976609
4.920000 5.200000 -7.160000 11.191958 -7.178196 176.786438
4.920000 5.200000 -7.120000 22.109182 -3.603162 501.798737
4.920000 5.200000 -7.080000 25.997023 10.245699 780.819580
4.920000 5.200000 -7.040000 14.974905 24.480911 823.562805
4.920000 5.200000 -7.000000 -6.970825 25.021933 674.689514
4.920000 5.200000 -6.960000 -24.452295 6.044500 634.450745
4.920000 5.200000 -6.920000 -22.221045 -23.015121 1023.470581
4.920000 5.200000 -6.880000 1.955314 -43.390862 1886.590088
4.920000 5.200000 -6.840000 34.790878 -41.221008 2909.576660
4.920000 5.200000 -6.800000 57.600616 -17.621220 3628.338379
4.960000 4.800000 -7.200000 -15.911779 76.841286 6157.767578
4.960000 4.800000 -7.160000 -55.570183 67.043839 7582.921875
4.960000 4.800000 -7.120000 -78.248375 29.783846 7009.885742
4.960000 4.800000 -7.080000 -67.849541 -10.990536 4724.352051
4.960000 4.800000 -7.040000 -35.702080 -28.194260 2069.554688
4.960000 4.800000 -7.000000 -10.153906 -16.969864 391.078094
4.960000 4.800000 -6.960000 -9.018559 1.864510 84.810791
4.960000 4.800000 -6.920000 -23.245388 4.131269 557.415466
4.960000 4.800000 -6.880000 -28.491390 -13.030245 981.546631
4.960000 4.800000 -6.840000 -11.766718 -29.740675 1022.963379
4.960000 4.800000 -6.800000 15.216881 -25.719257 893.033691
4.960000 4.840000 -7.200000 -54.606201 45.716778 5071.860840
4.960000 4.840000 -7.160000 -71.842239 27.342478 5908.917969
4.960000 4.840000 -7.120000 -76.266449 3.088110 5826.107910
4.960000 4.840000 -7.080000 -68.726303 -17.123165 5016.507324
4.960000 4.840000 -7.040000 -56.839180 -28.884483 4065.005859
4.960000 4.840000 -7.000000 -46.552044 -35.870087 3453.755859
4.960000 4.840000 -6.960000 -36.224781 -43.254181 3183.158936
4.960000 4.840000 -6.920000 -20.362747 -49.555550 2870.394043
4.960000 4.840000 -6.880000 0.999630 -46.965801 2206.785645
4.960000 4.840000 -6.840000 18.614176 -30.754366 1292.318604
4.960000 4.840000 -6.800000 21.653095 -7.268812 521.692139
4.960000 4.880000 -7.200000 -57.627121 -3.750795 3334.953369
4.960000 4.880000 -7.160000 -57.999992 -8.362789 3433.935303
4.960000 4.880000 -7.120000 -66.219101 -13.598518 4569.889160
4.960000 4.880000 -7.080000 -77.664749 -30.995888 6992.558594
4.960000 4.880000 -7.040000 -77.270172 -62.607410 9890.367188
4.960000 4.880000 -7.000000 -52.771057 -94.775055 11767.095703
4.960000 4.880000 -6.960000 -8.178185 -106.578171 11425.789062
4.960000 4.880000 -6.920000 35.641472 -86.949196 8830.477539
4.960000 4.880000 -6.880000 55.586575 -45.474678 5157.813477
4.960000 4.880000 -6.840000 44.241039 -6.411045 1998.370972
4.960000 4.880000 -6.800000 15.399082 9.742922 332.056244
4.960000 4.920000 -7.200000 -24.274794 -36.952728 1954.769775
4.960000 4.920000 -7.160000 -29.321482 -21.077408 1304.006348
4.960000 4.920000 -7.120000 -57.071747 -23.357775 3802.770020
4.960000 4.920000 -7.080000 -79.109337 -61.040676 9984.250977
4.960000 4.920000 -7.040000 -61.864449 -117.226624 17569.291016
4.960000 4.920000 -7.000000 0.010757 -150.528168 22658.728516
4.960000 4.920000 -6.960000 73.603203 -130.260620 22385.261719
4.960000 4.920000 -6.920000 112.817642 -64.902489 16940.152344
4.960000 4.920000 -6.880000 96.582939 3.488161 9340.430664
4.960000 4.920000 -6.840000 45.137062 34.152767 3203.765869
4.960000 4.920000 -6.800000 0.278010 19.665874 386.823914
4.960000 4.960000 -7.200000 18.399048 -33.301506 1447.515381
4.960000 4.960000 -7.160000 -8.050207 -11.616102 199.739670
4.960000 4.960000 -7.120000 -49.147293 -32.785339 3490.334717
4.960000 4.960000 -7.080000 -56.235962 -95.246964 12234.467773
4.960000 4.960000 -7.040000 -1.572142 -152.523102 23265.767578
4.960000 4.960000 -7.000000 89.899002 -151.250336 30958.494141
4.960000 4.960000 -6.960000 156.832886 -80.452400 31069.144531
4.960000 4.960000 -6.920000 153.294006 15.573545 23741.587891
4.960000 4.960000 -6.880000 87.837883 74.271606 13231.765625
4.960000 4.960000 -6.840000 13.562597 67.105209 4687.052734
4.960000 4.960000 -6.800000 -19.696148 18.657026 736.022827
4.960000 5.000000 -7.200000 39.481667 -2.211851 1563.694336
4.960000 5.000000 -7.160000 -4.972111 3.587807 37.594242
4.960000 5.000000 -7.120000 -37.219387 -42.867203 3222.879883
4.960000 5.000000 -7.080000 -10.763526 -110.196518 12259.125977
4.960000 5.000000 -7.040000 73.377068 -136.372833 23981.742188
4.960000 5.000000 -7.000000 159.162903 -84.629448 32494.972656
4.960000 5.000000 -6.960000 181.162048 19.067757 33183.265625
4.960000 5.000000 -6.920000 122.036850 105.193466 25958.658203
4.960000 5.000000 -6.880000 27.230518 119.847473 15104.917969
4.960000 5.000000 -6.840000 -36.482727 68.180290 5979.541016
4.960000 5.000000 -6.800000 -37.705139 2.932991 1430.279907
4.960000 5.040000 -7.200000 29.661249 28.040052 1666.034180
4.960000 5.040000 -7.160000 -13.451767 8.947696 261.011292
4.960000 5.040000 -7.120000 -19.090008 -48.085030 2676.598633
4.960000 5.040000 -7.080000 35.563587 -93.163048 9944.122070
4.960000 5.040000 -7.040000 118.313141 -74.828339 19597.279297
4.960000 5.040000 -7.000000 163.690582 9.559212 26885.986328
4.960000 5.040000 -6.960000 129.931946 105.382492 27987.781250
4.960000 5.040000 -6.920000 37.459045 145.752106 22646.855469
4.960000 5.040000 -6.880000 -48.610420 108.416031 14117.008789
4.960000 5.040000 -6.840000 -75.018867 31.208168 6601.780273
4.960000 5.040000 -6.800000 -41.847351 -26.147236 2434.878662
4.960000 5.080000 -7.200000 5.175879 36.365189 1349.216675
4.960000 5.080000 -7.160000 -19.220856 2.351574 374.971191
4.960000 5.080000 -7.120000 0.432638 -43.270126 1872.490967
4.960000 5.080000 -7.080000 59.520126 -54.243553 6485.008789
4.960000 5.080000 -7.040000 112.328987 -6.344872 12658.059570
4.960000 5.080000 -7.000000 109.139328 74.417702 17449.386719
4.960000 5.080000 -6.960000 42.172535 129.391403 18520.658203
4.960000 5.080000 -6.920000 -44.490223 117.099762 15691.734375
4.960000 5.080000 -6.880000 -92.026421 48.709515 10841.478516
4.960000 5.080000 -6.840000 -76.002419 -24.148396 6359.512695
4.960000 5.080000 -6.800000 -21.693108 -55.591812 3561.040283
4.960000 5.120000 -7.200000 -10.916483 24.686146 728.575439
4.960000 5.120000 -7.160000 -14.698021 -6.480637 258.030457
4.960000 5.120000 -7.120000 13.796068 -29.658876 1069.980469
4.960000 5.120000 -7.080000 55.671440 -16.578537 3374.157227
4.960000 5.120000 -7.040000 72.545273 32.683380 6331.019531
4.960000 5.120000 -7.000000 40.630104 83.274277 8585.410156
4.960000 5.120000 -6.960000 -24.251453 92.960594 9229.804688
4.960000 5.120000 -6.920000 -76.961807 49.443989 8367.828125
4.960000 5.120000 -6.880000 -80.732040 -18.045868 6843.315430
4.960000 5.120000 -6.840000 -37.074371 -64.053848 5477.404297
4.960000 5.120000 -6.800000 19.295294 -64.453476 4526.558594
4.960000 5.160000 -7.200000 -9.945955 10.658014 212.515289
4.960000 5.160000 -7.160000 -4.221723 -7.747937 77.853470
4.960000 5.160000 -7.120000 17.496719 -13.827296 497.329315
4.960000 5.160000 -7.080000 37.491592 4.093126 1422.373169
4.960000 5.160000 -7.040000 33.208515 36.040100 2401.694336
4.960000 5.160000 -7.000000 -0.112896 54.577980 2978.768555
4.960000 5.160000 -6.960000 -40.628906 38.276932 3115.831543
4.960000 5.160000 -6.920000 -56.169098 -7.173119 3206.421143
4.960000 5.160000 -6.880000 -31.757555 -51.439503 3654.564697
4.960000 5.160000 -6.840000 17.407379 -64.329025 4441.240234
4.960000 5.160000 -6.800000 59.447170 -39.728497 5112.319336
4.960000 5.200000 -7.200000 -1.455584 7.718303 61.690922
4.960000 5.200000 -7.160000 2.724484 -0.786733 8.041763
4.960000 5.200000 -7.120000 14.056671 -1.728776 200.578659
4.960000 5.200000 -7.080000 21.507708 9.511054 553.041626
4.960000 5.200000 -7.040000 13.885593 24.038828 770.674927
4.960000 5.200000 -7.000000 -6.502573 25.270710 680.892212
4.960000 5.200000 -6.960000 -22.160927 5.318398 519.392029
4.960000 5.200000 -6.920000 -14.862153 -24.458652 819.109314
4.960000 5.200000 -6.880000 16.743999 -40.733757 1939.600586
4.960000 5.200000 -6.840000 53.773201 -27.746933 3661.449463
4.960000 5.200000 -6.800000 71.907806 9.098170 5253.509277
5.000000 4.800000 -7.200000 -60.466408 54.731735 6651.749023
5.000000 4.800000 -7.160000 -89.097092 19.909443 8334.677734
5.000000 4.800000 -7.120000 -85.188179 -28.754869 8083.868164
5.000000 4.800000 -7.080000 -48.856178 -60.076618 5996.125977
5.000000 4.800000 -7.040000 -6.439344 -56.187508 3198.501221
5.000000 4.800000 -7.000000 13.240768 -28.883316 1009.563904
5.000000 4.800000 -6.960000 5.148804 -7.177814 78.031197
5.000000 4.800000 -6.920000 -9.816170 -8.608269 170.459473
5.000000 4.800000 -6.880000 -8.272970 -23.722988 631.222168
5.000000 4.800000 -6.840000 11.604109 -28.895187 969.587158
5.000000 4.800000 -6.800000 30.151760 -12.572866 1067.205566
5.000000 4.840000 -7.200000 -74.990646 2.870640 5631.837891
5.000000 4.840000 -7.160000 -77.413132 -26.760332 6708.908203
5.000000 4.840000 -7.120000 -62.577576 -53.193272 6745.477051
5.000000 4.840000 -7.080000 -37.727890 -66.066956 5788.236328
5.000000 4.840000 -7.040000 -14.673429 -64.677803 4398.527832
5.000000 4.840000 -7.000000 0.274063 -56.846207 3231.566406
5.000000 4.840000 -6.960000 9.965233 -49.701302 2569.525391
5.000000 4.840000 -6.920000 19.975048 -42.658031 2218.710205
5.000000 4.840000 -6.880000 29.853096 -30.381229 1814.226440
5.000000 4.840000 -6.840000 32.590210 -12.037170 1207.015259
5.000000 4.840000 -6.800000 23.285349 4.549669 562.906921
5.000000 4.880000 -7.200000 -46.590721 -41.846138 3921.794434
5.000000 4.880000 -7.160000 -40.760422 -48.840351 4046.791992
5.000000 4.880000 -7.120000 -38.662151 -58.488789 4915.700195
5.000000 4.880000 -7.080000 -32.049068 -75.819534 6775.744141
5.000000 4.880000 -7.040000 -10.751751 -94.307869 9009.575195
5.000000 4.880000 -7.000000 25.212811 -98.910980 10419.067383
5.000000 4.880000 -6.960000 61.493042 -78.976479 10018.678711
5.000000 4.880000 -6.920000 78.599670 -39.602959 7746.302734
5.000000 4.880000 -6.880000 67.431076 -0.361046 4547.080566
5.000000 4.880000 -6.840000 37.437675 18.776566 1754.139038
5.000000 4.880000 -6.800000 9.711917 12.573355 252.410583
5.000000 4.920000 -7.200000 2.325179 -49.688850 2474.388428
5.000000 4.920000 -7.160000 -6.907063 -40.026005 1649.788574
5.000000 4.920000 -7.120000 -24.035013 -55.343697 3640.606689
5.000000 4.920000 -7.080000 -18.273317 -93.579788 9091.090820
5.000000 4.920000 -7.040000 26.311146 -123.707977 15995.940430
5.000000 4.920000 -7.000000 90.578186 -111.945312 20736.160156
5.000000 4.920000 -6.960000 132.693527 -54.282257 20554.136719
5.000000 4.920000 -6.920000 123.505447 16.416309 15523.090820
5.000000 4.920000 -6.880000 72.075684 56.817013 8423.077148
5.000000 4.920000 -6.840000 17.442053 48.899292 2695.366211
5.000000 4.920000 -6.800000 -5.129223 12.278027 177.058868
5.000000 4.960000 -7.200000 36.238083 -21.279343 1766.009033
5.000000 4.960000 -7.160000 5.244406 -17.067698 318.810089
5.000000 4.960000 -7.120000 -14.962992 -54.339497 3176.672119
5.000000 4.960000 -7.080000 13.521225 -105.797424 11375.917969
5.000000 4.960000 -7.040000 87.400597 -119.564819 21934.609375
5.000000 4.960000 -7.000000 157.611740 -67.309273 29372.000000
5.000000 4.960000 -6.960000 169.822678 25.388500 29484.318359
5.000000 4.960000 -6.920000 112.999352 97.903168 22353.882812
5.000000 4.960000 -6.880000 29.493244 106.190170 12146.204102
5.000000 4.960000 -6.840000 -22.774984 58.611687 3954.029785
5.000000 4.960000 -6.800000 -19.314846 3.496887 385.291473
5.000000 5.000000 -7.200000 36.490524 16.491514 1603.528320
5.000000 5.000000 -7.160000 -1.674765 -1.285545 4.457463
5.000000 5.000000 -7.120000 -2.956463 -54.949772 3028.218262
5.000000 5.000000 -7.080000 54.206322 -94.572693 11882.319336
5.000000 5.000000 -7.040000 136.108414 -70.078506 23436.496094
5.000000 5.000000 -7.000000 177.333054 18.484932 31788.705078
5.000000 5.000000 -6.960000 138.575058 114.535484 32321.423828
5.000000 5.000000 -6.920000 43.667030 151.941864 24993.140625
5.000000 5.000000 -6.880000 -40.680038 111.862747 14168.139648
5.000000 5.000000 -6.840000 -63.016754 35.669579 5243.430176
5.000000 5.000000 -6.800000 -27.562840 -16.052631 1017.397095
5.000000 5.040000 -7.200000 13.078672 36.325668 1490.605835
5.000000 5.040000 -7.160000 -11.829144 -0.286591 140.010773
5.000000 5.040000 -7.120000 12.783043 -49.362114 2600.024658
5.000000 5.040000 -7.080000 81.113892 -58.017960 9945.546875
5.000000 5.040000 -7.040000 140.239624 0.475946 19667.378906
5.000000 5.040000 -7.000000 133.894363 94.816971 26917.958984
5.000000 5.040000 -6.960000 55.178825 157.454498 27836.623047
5.000000 5.040000 -6.920000 -43.777393 142.636383 22261.599609
5.000000 5.040000 -6.880000 -96.284439 65.838654 13605.421875
5.000000 5.040000 -6.840000 -77.409988 -12.676189 6152.991699
5.000000 5.040000 -6.800000 -19.308594 -42.418274 2172.131836
5.000000 5.080000 -7.200000 -9.882193 32.237644 1136.923462
5.000000 5.080000 -7.160000 -13.743235 -6.214394 227.495178
5.000000 5.080000 -7.120000 24.188751 -34.326099 1763.376831
5.000000 5.080000 -7.080000 79.110420 -14.826521 6478.284180
5.000000 5.080000 -7.040000 100.569893 51.857986 12803.554688
5.000000 5.080000 -7.000000 57.909630 119.709282 17683.837891
5.000000 5.080000 -6.960000 -27.444290 133.958145 18697.974609
5.000000 5.080000 -6.920000 -96.744591 79.780655 15724.468750
5.000000 5.080000 -6.880000 -103.773880 -4.070395 10785.586914
5.000000 5.080000 -6.840000 -52.660496 -59.860691 6356.430176
5.000000 5.080000 -6.800000 11.090658 -59.684921 3685.292480
5.000000 5.120000 -7.200000 -17.647060 18.381695 649.305420
5.000000 5.120000 -7.160000 -8.953081 -8.368496 150.189392
5.000000 5.120000 -7.120000 24.221739 -16.423454 856.422485
5.000000 5.120000 -7.080000 54.712105 12.202046 3142.304199
5.000000 5.120000 -7.040000 48.287537 62.364960 6221.074219
5.000000 5.120000 -7.000000 -2.200886 92.904991 8636.180664
5.000000 5.120000 -6.960000 -64.475983 72.108902 9356.845703
5.000000 5.120000 -6.920000 -91.777916 8.340065 8492.742188
5.000000 5.120000 -6.880000 -63.142380 -55.001324 7012.105469
5.000000 5.120000 -6.840000 -0.650526 -76.275658 5818.399414
5.000000 5.120000 -6.800000 51.919800 -48.994057 5096.083008
5.000000 5.160000 -7.200000 -14.289206 10.462635 313.648132
5.000000 5.160000 -7.160000 -5.738750 -4.700438 55.027370
5.000000 5.160000 -7.120000 15.213478 -5.298762 259.526794
5.000000 5.160000 -7.080000 28.612680 16.064470 1076.752686
5.000000 5.160000 -7.040000 15.204094 43.575493 2129.988037
5.000000 5.160000 -7.000000 -21.251324 49.048210 2857.345459
5.000000 5.160000 -6.960000 -52.200596 18.875526 3081.187500
5.000000 5.160000 -6.920000 -48.106133 -29.701519 3196.380127
5.000000 5.160000 -6.880000 -5.849417 -60.947582 3748.823242
5.000000 5.160000 -6.840000 47.177452 -51.014900 4828.231934
5.000000 5.160000 -6.800000 76.449043 -7.381963 5898.949219
5.000000 5.200000 -7.200000 -12.279341 10.747482 266.290588
5.000000 5.200000 -7.160000 -7.946651 -1.211182 64.616226
5.000000 5.200000 -7.120000 6.166447 -3.694347 51.673271
5.000000 5.200000 -7.080000 15.558922 8.425608 313.070923
5.000000 5.200000 -7.040000 7.871773 23.130554 596.987305
5.000000 5.200000 -7.000000 -11.407785 21.894108 609.489502
5.000000 5.200000 -6.960000 -21.224007 -0.058006 450.461823
5.000000 5.200000 -6.920000 -5.027813 -25.488926 674.964294
5.000000 5.200000 -6.880000 31.173571 -29.131413 1820.430664
5.000000 5.200000 -6.840000 61.764404 -1.126604 3816.110840
5.000000 5.200000 -6.800000 63.293697 43.217491 5873.843750
5.040000 4.800000 -7.200000 -73.007225 12.038942 5474.990723
5.040000 4.800000 -7.160000 -77.692734 -31.823391 7048.888672
5.040000 4.800000 -7.120000 -48.192036 -70.645020 7313.191406
5.040000 4.800000 -7.080000 0.359704 -78.281944 6128.192383
5.040000 4.800000 -7.040000 36.982399 -51.817493 4052.750488
5.040000 4.800000 -7.000000 41.859009 -14.599417 1965.319580
5.040000 4.800000 -6.960000 22.915348 5.516356 555.543335
5.040000 4.800000 -6.920000 5.644379 1.173731 33.236656
5.040000 4.800000 -6.880000 7.166508 -10.968058 171.657135
5.040000 4.800000 -6.840000 21.181820 -10.282115 554.391357
5.040000 4.800000 -6.800000 27.989323 6.177373 821.562073
5.040000 4.840000 -7.200000 -58.890205 -36.358532 4789.999023
5.040000 4.840000 -7.160000 -44.111622 -63.497459 5977.762695
5.040000 4.840000 -7.120000 -14.397568 -78.398125 6353.556152
5.040000 4.840000 -7.080000 17.965675 -73.528015 5729.134766
5.040000 4.840000 -7.040000 39.286114 -53.393955 4394.313477
5.040000 4.840000 -7.000000 44.750557 -30.420156 2927.998291
5.040000 4.840000 -6.960000 40.208710 -14.290112 1820.947632
5.040000 4.840000 -6.920000 34.327271 -5.469788 1208.280029
5.040000 4.840000 -6.880000 30.007620 1.194408 901.883911
5.040000 4.840000 -6.840000 24.079315 8.069457 644.929565
5.040000 4.840000 -6.800000 14.422532 11.602798 342.634369
5.040000 4.880000 -7.200000 -14.401148 -57.211189 3480.513184
5.040000 4.880000 -7.160000 -2.973186 -61.623425 3806.286377
5.040000 4.880000 -7.120000 9.310690 -66.676575 4532.454590
5.040000 4.880000 -7.080000 27.576561 -70.237152 5693.724121
5.040000 4.880000 -7.040000 51.926498 -64.433128 6847.989258
5.040000 4.880000 -7.000000 73.685555 -43.315666 7305.808105
5.040000 4.880000 -6.960000 80.495018 -10.717754 6594.317871
5.040000 4.880000 -6.920000 66.556747 19.718109 4818.604492
5.040000 4.880000 -6.880000 38.903362 33.578316 2640.974854
5.040000 4.880000 -6.840000 13.544079 26.604807 891.257812
5.040000 4.880000 -6.800000 4.012354 8.160877 82.698898
5.040000 4.920000 -7.200000 27.288977 -39.199303 2281.273438
5.040000 4.920000 -7.160000 19.362146 -36.378471 1698.285889
5.040000 4.920000 -7.120000 17.828979 -52.496639 3073.769775
5.040000 4.920000 -7.080000 41.187836 -71.532707 6813.366211
5.040000 4.920000 -7.040000 84.171204 -66.176865 11464.168945
5.040000 4.920000 -7.000000 117.759445 -24.939068 14489.244141
5.040000 4.920000 -6.960000 113.695541 33.154057 14025.867188
5.040000 4.920000 -6.920000 70.912262 72.206055 10242.263672
5.040000 4.920000 -6.880000 18.200979 69.798462 5203.100586
5.040000 4.920000 -6.840000 -10.002255 35.706535 1375.001831
5.040000 4.920000 -6.800000 -2.093684 1.895638 7.976959
5.040000 4.960000 -7.200000 39.726006 -1.348546 1579.974121
5.040000 4.960000 -7.160000 17.268101 -11.556129 431.731445
5.040000 4.960000 -7.120000 21.113483 -45.073792 2477.425781
5.040000 4.960000 -7.080000 64.569534 -65.385635 8444.505859
5.040000 4.960000 -7.040000 120.694939 -38.490726 16048.804688
5.040000 4.960000 -7.000000 142.221298 31.281162 21205.410156
5.040000 4.960000 -6.960000 104.561081 99.776657 20888.400391
5.040000 4.960000 -6.920000 30.393143 120.077774 15342.415039
5.040000 4.960000 -6.880000 -29.015207 83.545403 7821.716797
5.040000 4.960000 -6.840000 -38.350739 25.810839 2136.978516
5.040000 4.960000 -6.800000 -6.281563 -7.005608 88.536568
5.040000 5.000000 -7.200000 23.144339 27.233231 1277.309326
5.040000 5.000000 -7.160000 4.590405 -1.681004 23.897587
5.040000 5.000000 -7.120000 28.035046 -39.292095 2329.832520
5.040000 5.000000 -7.080000 86.245590 -40.322990 9064.245117
5.040000 5.000000 -7.040000 132.201233 15.410418 17714.646484
5.040000 5.000000 -7.000000 119.269028 97.383041 23708.558594
5.040000 5.000000 -6.960000 46.129185 146.634827 23629.673828
5.040000 5.000000 -6.920000 -38.515633 127.350433 17701.585938
5.040000 5.000000 -6.880000 -77.831543 58.503918 9480.457031
5.040000 5.000000 -6.840000 -55.488167 -4.841892 3102.380615
5.040000 5.000000 -6.800000 -5.138237 -21.369772 483.068634
5.040000 5.040000 -7.200000 -1.841074 32.627274 1067.928467
5.040000 5.040000 -7.160000 -3.519278 -3.209444 22.685846
5.040000 5.040000 -7.120000 35.295647 -26.791885 1963.587891
5.040000 5.040000 -7.080000 87.786057 -2.278235 7711.582031
5.040000 5.040000 -7.040000 103.724236 66.653717 15201.434570
5.040000 5.040000 -7.000000 55.885269 132.060867 20563.236328
5.040000 5.040000 -6.960000 -30.255911 141.222977 20859.349609
5.040000 5.040000 -6.920000 -95.324959 84.355255 16202.656250
5.040000 5.040000 -6.880000 -97.287415 3.941113 9480.373047
5.040000 5.040000 -6.840000 -46.241695 -43.634090 4042.228271
5.040000 5.040000 -6.800000 9.561738 -36.479950 1422.213623
5.040000 5.080000 -7.200000 -16.644857 22.701803 792.423157
5.040000 5.080000 -7.160000 -4.605627 -4.988404 46.095978
5.040000 5.080000 -7.120000 33.211246 -9.267166 1188.867310
5.040000 5.080000 -7.080000 64.149872 27.675133 4881.119141
5.040000 5.080000 -7.040000 50.999527 85.217888 9863.040039
5.040000 5.080000 -7.000000 -10.054333 116.301208 13627.060547
5.040000 5.080000 -6.960000 -79.646301 88.843994 14236.789062
5.040000 5.080000 -6.920000 -106.913834 17.096027 11722.841797
5.040000 5.080000 -6.880000 -73.841476 -49.068806 7860.311523
5.040000 5.080000 -6.840000 -9.557911 -67.434433 4638.756348
5.040000 5.080000 -6.800000 38.254532 -37.543659 2872.935547
5.040000 5.120000 -7.200000 -19.336792 12.814322 538.118408
5.040000 5.120000 -7.160000 -5.881361 -2.933829 43.197762
5.040000 5.120000 -7.120000 19.648014 2.138070 390.615814
5.040000 5.120000 -7.080000 30.949112 33.114342 2054.407227
5.040000 5.120000 -7.040000 7.131233 66.683563 4497.552246
5.040000 5.120000 -7.000000 -42.223442 68.635818 6493.694336
5.040000 5.120000 -6.960000 -79.966583 26.854168 7115.800781
5.040000 5.120000 -6.920000 -72.994873 -33.478004 6449.028320
5.040000 5.120000 -6.880000 -22.734365 -69.649170 5367.858398
5.040000 5.120000 -6.840000 35.726788 -58.123695 4654.767578
5.040000 5.120000 -6.800000 64.828720 -12.789281 4366.329102
5.040000 5.160000 -7.200000 -19.519089 8.889448 460.017090
5.040000 5.160000 -7.160000 -11.515879 -2.518401 138.957809
5.040000 5.160000 -7.120000 4.538702 -0.148272 20.621799
5.040000 5.160000 -7.080000 10.047770 18.071337 427.530884
5.040000 5.160000 -7.040000 -6.910702 34.095024 1210.228516
5.040000 5.160000 -7.000000 -34.968494 25.974762 1897.483887
5.040000 5.160000 -6.960000 -46.450005 -8.011856 2221.792969
5.040000 5.160000 -6.920000 -23.439457 -43.360203 2429.515381
5.040000 5.160000 -6.880000 23.110647 -49.738380 3008.008545
5.040000 5.160000 -6.840000 61.310158 -18.460693 4099.732910
5.040000 5.160000 -6.800000 65.863228 30.082199 5242.903320
5.040000 5.200000 -7.200000 -23.280287 5.180519 568.809509
5.040000 5.200000 -7.160000 -16.577278 -8.925628 354.472992
5.040000 5.200000 -7.120000 -0.327200 -10.829318 117.381195
5.040000 5.200000 -7.080000 9.058205 1.714046 84.989029
5.040000 5.200000 -7.040000 1.992445 14.144093 204.025192
5.040000 5.200000 -7.000000 -11.994186 10.536026 254.868347
5.040000 5.200000 -6.960000 -12.912838 -7.646780 225.214630
5.040000 5.200000 -6.920000 8.198696 -20.467419 486.133850
5.040000 5.200000 -6.880000 37.648926 -8.575151 1490.974854
5.040000 5.200000 -6.840000 50.294296 26.869617 3251.492676
5.040000 5.200000 -6.800000 32.502163 63.927246 5143.083496
5.080000 4.800000 -7.200000 -54.078846 -19.266796 3295.730957
5.080000 4.800000 -7.160000 -38.426327 -53.730713 4363.572266
5.080000 4.800000 -7.120000 1.414020 -70.519135 4974.947754
5.080000 4.800000 -7.080000 43.837410 -54.717613 4915.735352
5.080000 4.800000 -7.040000 62.662384 -15.276576 4159.948242
5.080000 4.800000 -7.000000 49.517010 21.270683 2904.376221
5.080000 4.800000 -6.960000 20.449064 33.481804 1539.195435
5.080000 4.800000 -6.920000 0.212725 22.401236 501.860626
5.080000 4.800000 -6.880000 -0.088447 7.228906 52.264900
5.080000 4.800000 -6.840000 9.792442 4.786983 118.807129
5.080000 4.800000 -6.800000 12.822382 14.110962 363.532715
5.080000 4.840000 -7.200000 -26.137907 -48.061207 2993.069824
5.080000 4.840000 -7.160000 -2.247149 -62.986942 3972.404541
5.080000 4.840000 -7.120000 30.021000 -60.798424 4597.708496
5.080000 4.840000 -7.080000 55.702747 -38.426044 4579.356934
5.080000 4.840000 -7.040000 61.959793 -6.024496 3875.310303
5.080000 4.840000 -7.000000 48.320374 19.963131 2733.385010
5.080000 4.840000 -6.960000 26.487198 29.319145 1561.183960
5.080000 4.840000 -6.920000 9.981606 24.498201 699.794312
5.080000 4.840000 -6.880000 3.897346 15.619020 259.143066
5.080000 4.840000 -6.840000 4.065938 10.152797 119.611137
5.080000 4.840000 -6.800000 4.709926 7.987705 85.986832
5.080000 4.880000 -7.200000 12.543013 -45.785450 2253.634521
5.080000 4.880000 -7.160000 26.051022 -45.100079 2712.672852
5.080000 4.880000 -7.120000 41.697441 -39.933002 3333.321289
5.080000 4.880000 -7.080000 56.978668 -26.506430 3949.159424
5.080000 4.880000 -7.040000 65.132431 -4.217046 4260.017090
5.080000 4.880000 -7.000000 59.768673 20.943115 4010.908203
5.080000 4.880000 -6.960000 40.922363 38.686954 3171.320312
5.080000 4.880000 -6.920000 16.825556 41.279568 1987.102051
5.080000 4.880000 -6.880000 -0.767361 29.400444 864.974976
5.080000 4.880000 -6.840000 -4.250921 12.070459 163.766312
5.080000 4.880000 -6.800000 5.062771 0.690303 26.108168
5.080000 4.920000 -7.200000 34.478668 -18.042248 1514.301270
5.080000 4.920000 -7.160000 31.959064 -18.318268 1356.940674
5.080000 4.920000 -7.120000 39.837685 -24.332600 2179.116455
5.080000 4.920000 -7.080000 60.106544 -20.629171 4038.359375
5.080000 4.920000 -7.040000 78.169716 3.504282 6122.784180
5.080000 4.920000 -7.000000 74.725029 40.382362 7214.565430
5.080000 4.920000 -6.960000 44.767101 67.413773 6548.709961
5.080000 4.920000 -6.920000 4.925323 66.137390 4398.413086
5.080000 4.920000 -6.880000 -19.222645 39.185837 1905.039795
5.080000 4.920000 -6.840000 -14.660343 8.783192 292.070129
5.080000 4.920000 -6.800000 8.548186 -2.116555 77.551292
5.080000 4.960000 -7.200000 29.728489 11.965133 1026.947510
5.080000 4.960000 -7.160000 21.648890 -1.080758 469.842438
5.080000 4.960000 -7.120000 36.880165 -16.842909 1643.830200
5.080000 4.960000 -7.080000 68.684067 -9.662343 4810.861816
5.080000 4.960000 -7.040000 88.317436 28.874977 8633.734375
5.080000 4.960000 -7.000000 70.759323 77.016655 10938.447266
5.080000 4.960000 -6.960000 20.434124 99.320938 10282.202148
5.080000 4.960000 -6.920000 -29.577709 78.546082 7044.327637
5.080000 4.960000 -6.880000 -45.811760 32.175117 3133.955566
5.080000 4.960000 -6.840000 -23.667795 -2.986643 569.084595
5.080000 4.960000 -6.800000 10.197596 -3.514318 116.341385
5.080000 5.000000 -7.200000 9.860832 25.963078 771.317444
5.080000 5.000000 -7.160000 9.865167 3.358239 108.599281
5.080000 5.000000 -7.120000 37.264687 -8.982561 1469.343262
5.080000 5.000000 -7.080000 71.259499 13.088274 5249.218750
5.080000 5.000000 -7.040000 76.219856 63.986420 9903.728516
5.080000 5.000000 -7.000000 35.816666 107.434120 12824.923828
5.080000 5.000000 -6.960000 -27.576284 107.195679 12251.364258
5.080000 5.000000 -6.920000 -69.841454 61.021587 8601.462891
5.080000 5.000000 -6.880000 -63.909485 4.060204 4100.907715
5.080000 5.000000 -6.840000 -23.121597 -22.634861 1046.945190
5.080000 5.000000 -6.800000 13.205704 -8.020794 238.723755
5.080000 5.040000 -7.200000 -7.696330 23.632072 617.708374
5.080000 5.040000 -7.160000 3.274016 3.399793 22.277777
5.080000 5.040000 -7.120000 33.644756 3.824709 1146.598022
5.080000 5.040000 -7.080000 55.245090 37.541916 4461.415527
5.080000 5.040000 -7.040000 38.684593 84.755936 8680.066406
5.080000 5.040000 -7.000000 -15.520737 106.001678 11477.249023
5.080000 5.040000 -6.960000 -71.829292 77.864265 11222.291016
5.080000 5.040000 -6.920000 -89.103554 16.939718 8226.397461
5.080000 5.040000 -6.880000 -57.421371 -33.226120 4401.188965
5.080000 5.040000 -6.840000 -6.207575 -40.666145 1692.269287
5.080000 5.040000 -6.800000 24.142681 -11.641905 718.403015
5.080000 5.080000 -7.200000 -16.097696 15.994886 514.972229
5.080000 5.080000 -7.160000 -2.474770 4.704778 28.259418
5.080000 5.080000 -7.120000 19.323948 13.916830 567.093140
5.080000 5.080000 -7.080000 24.392368 45.108044 2629.723145
5.080000 5.080000 -7.040000 -3.759806 74.026566 5494.068848
5.080000 5.080000 -7.000000 -51.939034 70.041061 7603.413574
5.080000 5.080000 -6.960000 -84.097839 26.544432 7777.053711
5.080000 5.080000 -6.920000 -72.847221 -28.911264 6142.579102
5.080000 5.080000 -6.880000 -25.293659 -57.302391 3923.333252
5.080000 5.080000 -6.840000 23.098186 -42.450829 2335.599121
5.080000 5.080000 -6.800000 40.813431 -3.376076 1677.133911
5.080000 5.120000 -7.200000 -20.217854 10.309513 515.047668
5.080000 5.120000 -7.160000 -11.831700 3.363596 151.302917
5.080000 5.120000 -7.120000 0.269056 10.240587 104.942017
5.080000 5.120000 -7.080000 -1.443663 28.938377 839.513855
5.080000 5.120000 -7.040000 -24.382851 39.801418 2178.676270
5.080000 5.120000 -7.000000 -52.962540 23.974380 3379.801514
5.080000 5.120000 -6.960000 -59.804665 -14.781065 3795.077881
5.080000 5.120000 -6.920000 -31.965887 -49.222153 3444.638184
5.080000 5.120000 -6.880000 14.551776 -52.002457 2916.009766
5.080000 5.120000 -6.840000 47.931778 -20.614933 2722.430664
5.080000 5.120000 -6.800000 48.646744 21.222271 2816.890381
5.080000 5.160000 -7.200000 -25.211153 4.083018 652.273254
5.080000 5.160000 -7.160000 -20.220238 -6.508545 451.219147
5.080000 5.160000 -7.120000 -8.869014 -6.809072 125.022873
5.080000 5.160000 -7.080000 -5.287701 2.965431 36.753559
5.080000 5.160000 -7.040000 -15.164928 8.540274 302.911316
5.080000 5.160000 -7.000000 -26.606972 -2.430176 713.836731
5.080000 5.160000 -6.960000 -21.175470 -24.253725 1036.643677
5.080000 5.160000 -6.920000 5.717451 -35.899143 1321.437744
5.080000 5.160000 -6.880000 37.256142 -21.082567 1832.494751
5.080000 5.160000 -6.840000 49.499458 14.939107 2673.373291
5.080000 5.160000 -6.800000 33.122520 49.540749 3551.387207
5.080000 5.200000 -7.200000 -28.108860 -7.337560 843.947815
5.080000 5.200000 -7.160000 -18.365992 -21.928070 818.149902
5.080000 5.200000 -7.120000 -0.617254 -23.056324 531.975037
5.080000 5.200000 -7.080000 9.869169 -11.199091 222.820145
5.080000 5.200000 -7.040000 6.976798 0.153568 48.699287
5.080000 5.200000 -7.000000 0.210924 0.157000 0.069138
5.080000 5.200000 -6.960000 3.350037 -6.679689 55.840996
5.080000 5.200000 -6.920000 17.913860 -5.153884 347.468933
5.080000 5.200000 -6.880000 29.872246 13.570281 1076.503662
5.080000 5.200000 -6.840000 23.428200 41.113449 2239.196289
5.080000 5.200000 -6.800000 -3.012421 58.895191 3477.718262
5.120000 4.800000 -7.200000 -27.190880 -23.838552 1307.620605
5.120000 4.800000 -7.160000 -5.737567 -41.059132 1718.771973
5.120000 4.800000 -7.120000 27.575586 -38.902222 2273.795898
5.120000 4.800000 -7.080000 52.896420 -11.691105 2934.713135
5.120000 4.800000 -7.040000 52.046669 26.763622 3425.147217
5.120000 4.800000 -7.000000 25.092052 52.407032 3376.108154
5.120000 4.800000 -6.960000 -8.535170 50.761974 2649.627197
5.120000 4.800000 -6.920000 -26.492050 28.736889 1527.637451
5.120000 4.800000 -6.880000 -22.176928 6.991941 540.703369
5.120000 4.800000 -6.840000 -7.867997 0.517910 62.173611
5.120000 4.800000 -6.800000 -0.197889 6.672714 44.564278
5.120000 4.840000 -7.200000 -3.846734 -35.144077 1249.903564
5.120000 4.840000 -7.160000 18.068592 -37.819473 1756.786499
5.120000 4.840000 -7.120000 41.699341 -23.574423 2294.588379
5.120000 4.840000 -7.080000 51.857536 6.002449 2725.233398
5.120000 4.840000 -7.040000 39.414078 36.202961 2864.124023
5.120000 4.840000 -7.000000 10.669983 49.616810 2575.676514
5.120000 4.840000 -6.960000 -16.569427 40.283997 1897.346313
5.120000 4.840000 -6.920000 -27.200382 18.188511 1070.682739
5.120000 4.840000 -6.880000 -20.108797 -0.147363 404.385437
5.120000 4.840000 -6.840000 -6.276607 -5.510242 69.758560
5.120000 4.840000 -6.800000 3.116255 -1.113437 10.950787
5.120000 4.880000 -7.200000 18.694799 -25.260300 987.578247
5.120000 4.880000 -7.160000 30.648243 -20.203804 1347.508545
5.120000 4.880000 -7.120000 41.393864 -6.500778 1755.712036
5.120000 4.880000 -7.080000 42.941113 14.472433 2053.390381
5.120000 4.880000 -7.040000 30.512974 34.044514 2090.070557
5.120000 4.880000 -7.000000 8.160130 41.713623 1806.614136
5.120000 4.880000 -6.960000 -12.772264 33.410374 1279.383789
5.120000 4.880000 -6.920000 -21.572086 15.057291 692.076904
5.120000 4.880000 -6.880000 -15.606155 -1.756662 246.637955
5.120000 4.880000 -6.840000 -1.192735 -7.991085 65.280060
5.120000 4.880000 -6.800000 11.971754 -2.240441 148.342468
5.120000 4.920000 -7.200000 25.990751 -4.428467 695.130493
5.120000 4.920000 -7.160000 28.491188 -2.459193 817.795410
5.120000 4.920000 -7.120000 34.435799 3.037045 1195.047852
5.120000 4.920000 -7.080000 38.148544 16.103848 1714.645264
5.120000 4.920000 -7.040000 31.619528 33.165710 2099.758789
5.120000 4.920000 -7.000000 12.987848 43.747871 2082.560547
5.120000 4.920000 -6.960000 -9.212679 38.925369 1600.057739
5.120000 4.920000 -6.920000 -21.338184 20.222645 864.273438
5.120000 4.920000 -6.880000 -15.695843 0.210790 246.403915
5.120000 4.920000 -6.840000 2.337880 -6.755268 51.099331
5.120000 4.920000 -6.800000 17.934616 4.015390 337.773804
5.120000 4.960000 -7.200000 18.274925 12.450001 488.975403
5.120000 4.960000 -7.160000 19.434118 7.491897 433.813477
5.120000 4.960000 -7.120000 29.118635 8.043743 912.596680
5.120000 4.960000 -7.080000 37.842155 21.706799 1903.213745
5.120000 4.960000 -7.040000 32.137161 43.373005 2914.014648
5.120000 4.960000 -7.000000 8.639899 56.738243 3293.876221
5.120000 4.960000 -6.960000 -19.517399 48.526688 2735.768311
5.120000 4.960000 -6.920000 -32.381737 22.371746 1549.071899
5.120000 4.960000 -6.880000 -21.153513 -2.221043 452.404144
5.120000 4.960000 -6.840000 2.757852 -6.434790 49.012260
5.120000 4.960000 -6.800000 17.206430 10.898062 414.829010
5.120000 5.000000 -7.200000 5.249059 19.009628 388.918579
5.120000 5.000000 -7.160000 10.417650 11.860238 249.192688
5.120000 5.000000 -7.120000 23.698860 14.917600 784.170776
5.120000 5.000000 -7.080000 30.992954 33.686012 2095.310547
5.120000 5.000000 -7.040000 18.071581 57.043808 3580.578125
5.120000 5.000000 -7.000000 -12.994480 64.278641 4300.600098
5.120000 5.000000 -6.960000 -41.673012 44.644775 3729.795898
5.120000 5.000000 -6.920000 -46.079449 10.063489 2224.589600
5.120000 5.000000 -6.880000 -23.821234 -13.610968 752.709595
5.120000 5.000000 -6.840000 4.587631 -9.886303 118.785339
5.120000 5.000000 -6.800000 14.374998 13.024063 376.266785
5.120000 5.040000 -7.200000 -5.844455 18.498867 376.365723
5.120000 5.040000 -7.160000 0.795223 14.370382 207.140274
5.120000 5.040000 -7.120000 11.257704 21.362373 583.086853
5.120000 5.040000 -7.080000 11.169021 40.201736 1740.926636
5.120000 5.040000 -7.040000 -8.807470 55.948536 3207.810303
5.120000 5.040000 -7.000000 -39.379890 50.079922 4058.774414
5.120000 5.040000 -6.960000 -57.283264 20.125156 3686.394287
5.120000 5.040000 -6.920000 -46.372028 -14.314000 2355.255615
5.120000 5.040000 -6.880000 -14.379443 -27.815041 980.444824
5.120000 5.040000 -6.840000 12.911883 -12.815701 330.958923
5.120000 5.040000 -6.800000 15.638592 13.348587 422.750305
5.120000 5.080000 -7.200000 -14.926507 15.114122 451.237305
5.120000 5.080000 -7.160000 -12.009635 12.451891 299.280945
5.120000 5.080000 -7.120000 -7.210366 17.318382 351.915741
5.120000 5.080000 -7.080000 -11.560513 28.390881 939.687561
5.120000 5.080000 -7.040000 -29.130693 32.419765 1899.638428
5.120000 5.080000 -7.000000 -48.054070 17.494595 2615.254395
5.120000 5.080000 -6.960000 -49.345764 -11.572456 2568.926270
5.120000 5.080000 -6.920000 -26.251808 -34.001137 1845.234619
5.120000 5.080000 -6.880000 6.568720 -31.643744 1044.474609
5.120000 5.080000 -6.840000 25.342165 -6.880882 689.571899
5.120000 5.080000 -6.800000 19.425493 19.373375 752.677490
5.120000 5.120000 -7.200000 -23.483799 8.016889 615.759338
5.120000 5.120000 -7.160000 -23.798975 0.759430 566.967957
5.120000 5.120000 -7.120000 -19.126293 -1.556263 368.237061
5.120000 5.120000 -7.080000 -18.487232 1.535869 344.136627
5.120000 5.120000 -7.040000 -25.013277 0.737520 626.207947
5.120000 5.120000 -7.000000 -29.673561 -11.026436 1002.102478
5.120000 5.120000 -6.960000 -20.361691 -27.440407 1167.574463
5.120000 5.120000 -6.920000 3.163619 -32.648815 1075.953735
5.120000 5.120000 -6.880000 25.910727 -17.324696 971.510803
5.120000 5.120000 -6.840000 31.070705 10.472673 1075.065674
5.120000 5.120000 -6.800000 16.251156 32.238861 1303.444214
5.120000 5.160000 -7.200000 -28.174278 -5.063622 819.430237
5.120000 5.160000 -7.160000 -24.681595 -18.806812 962.877319
5.120000 5.160000 -7.120000 -12.421700 -24.659447 762.386963
5.120000 5.160000 -7.080000 -2.274070 -20.709322 434.047394
5.120000 5.160000 -7.040000 0.439635 -15.178217 230.571548
5.120000 5.160000 -7.000000 1.283244 -14.994953 226.495331
5.120000 5.160000 -6.960000 8.416227 -16.634604 347.542908
5.120000 5.160000 -6.920000 20.962025 -10.208346 543.616821
5.120000 5.160000 -6.880000 28.110561 8.065811 855.260986
5.120000 5.160000 -6.840000 20.295601 29.739742 1296.363647
5.120000 5.160000 -6.800000 -0.344408 41.651665 1734.979858
5.120000 5.200000 -7.200000 -22.920792 -20.651527 951.848267
5.120000 5.200000 -7.160000 -10.074717 -34.357651 1281.947998
5.120000 5.200000 -7.120000 9.853245 -34.233063 1268.989014
5.120000 5.200000 -7.080000 23.437477 -21.023748 991.313293
5.120000 5.200000 -7.040000 24.997334 -5.317125 653.138550
5.120000 5.200000 -7.000000 19.941223 4.385212 416.882446
5.120000 5.200000 -6.960000 16.241959 9.238616 349.153229
5.120000 5.200000 -6.920000 14.795589 15.818602 469.137634
5.120000 5.200000 -6.880000 9.476019 26.328539 782.986877
5.120000 5.200000 -6.840000 -4.324501 35.024559 1245.421021
5.120000 5.200000 -6.800000 -23.318968 34.355072 1724.045166
5.160000 4.800000 -7.200000 -14.061344 -11.177233 322.651947
5.160000 4.800000 -7.160000 0.307144 -16.715876 279.514832
5.160000 4.800000 -7.120000 19.947014 -8.138411 464.117096
5.160000 4.800000 -7.080000 29.338470 16.748329 1141.252441
5.160000 4.800000 -7.040000 16.125801 44.186028 2212.446533
5.160000 4.800000 -7.000000 -15.039577 53.970314 3138.983643
5.160000 4.800000 -6.960000 -43.674984 37.565346 3318.659424
5.160000 4.800000 -6.920000 -50.500687 6.943466 2598.531006
5.160000 4.800000 -6.880000 -34.311436 -15.702807 1423.852783
5.160000 4.800000 -6.840000 -11.778182 -17.844627 457.156311
5.160000 4.800000 -6.800000 -0.457070 -6.288841 39.758434
5.160000 4.840000 -7.200000 -2.245013 -18.239874 337.733063
5.160000 4.840000 -7.160000 11.708738 -15.999641 393.083069
5.160000 4.840000 -7.120000 23.693375 -0.069664 561.380859
5.160000 4.840000 -7.080000 20.258404 24.349186 1003.285767
5.160000 4.840000 -7.040000 -2.269593 40.854259 1674.221558
5.160000 4.840000 -7.000000 -31.368843 35.598999 2251.292969
5.160000 4.840000 -6.960000 -47.364616 10.703030 2357.961914
5.160000 4.840000 -6.920000 -40.227039 -16.504652 1890.618286
5.160000 4.840000 -6.880000 -17.812750 -28.331562 1119.971436
5.160000 4.840000 -6.840000 2.406445 -21.289330 459.026550
5.160000 4.840000 -6.800000 9.416191 -6.354609 129.045715
5.160000 4.880000 -7.200000 10.080014 -14.725641 318.451202
5.160000 4.880000 -7.160000 18.796400 -8.035148 417.868256
5.160000 4.880000 -7.120000 21.270653 7.137276 503.381378
5.160000 4.880000 -7.080000 10.598266 22.541664 620.449829
5.160000 4.880000 -7.040000 -9.929605 26.326971 791.706421
5.160000 4.880000 -7.000000 -27.710154 13.727319 956.291870
5.160000 4.880000 -6.960000 -30.762739 -7.757561 1006.525879
5.160000 4.880000 -6.920000 -17.640762 -24.027451 888.514893
5.160000 4.880000 -6.880000 1.923647 -25.598183 658.967407
5.160000 4.880000 -6.840000 15.652914 -13.971008 440.202789
5.160000 4.880000 -6.800000 17.913397 1.879131 324.420929
5.160000 4.920000 -7.200000 16.482777 -4.574334 292.606445
5.160000 4.920000 -7.160000 19.752100 2.206366 395.013489
5.160000 4.920000 -7.120000 17.111658 11.648069 428.486359
5.160000 4.920000 -7.080000 7.589217 17.878077 377.221832
5.160000 4.920000 -7.040000 -4.488224 16.033583 277.219940
5.160000 4.920000 -7.000000 -12.190483 6.225621 187.366241
5.160000 4.920000 -6.960000 -10.750401 -6.138223 153.248917
5.160000 4.920000 -6.920000 -0.784453 -13.711555 188.622131
5.160000 4.920000 -6.880000 12.033450 -11.671877 281.036621
5.160000 4.920000 -6.840000 20.216702 -0.428488 408.898621
5.160000 4.920000 -6.800000 18.486389 14.630321 555.792847
5.160000 4.960000 -7.200000 15.580176 6.964616 291.247772
5.160000 4.960000 -7.160000 15.231557 12.098146 378.365479
5.160000 4.960000 -7.120000 11.943711 16.221764 405.797852
5.160000 4.960000 -7.080000 6.992801 18.261505 382.381836
5.160000 4.960000 -7.040000 1.315639 17.688498 314.613831
5.160000 4.960000 -7.000000 -3.622335 13.719553 201.347443
5.160000 4.960000 -6.960000 -4.897655 6.788900 70.076202
5.160000 4.960000 -6.920000 -0.022783 0.609308 0.371776
5.160000 4.960000 -6.880000 9.149869 0.996388 84.712891
5.160000 4.960000 -6.840000 15.285891 10.560486 345.182312
5.160000 4.960000 -6.800000 10.522343 24.062748 689.735596
5.160000 5.000000 -7.200000 8.283939 16.348564 335.899200
5.160000 5.000000 -7.160000 4.775203 19.592999 406.688141
5.160000 5.000000 -7.120000 1.830491 20.128431 408.504456
5.160000 5.000000 -7.080000 -0.170314 20.943811 438.672272
5.160000 5.000000 -7.040000 -4.030052 22.154604 507.067780
5.160000 5.000000 -7.000000 -10.077711 19.973820 500.513733
5.160000 5.000000 -6.960000 -13.357784 12.360165 331.204071
5.160000 5.000000 -6.920000 -8.694748 4.131371 92.666862
5.160000 5.000000 -6.880000 1.602532 3.776883 16.832952
5.160000 5.000000 -6.840000 7.338682 13.802740 244.371887
5.160000 5.000000 -6.800000 0.122317 25.452162 647.827515
5.160000 5.040000 -7.200000 -4.105284 20.517124 437.805756
5.160000 5.040000 -7.160000 -11.123272 19.988535 523.268738
5.160000 5.040000 -7.120000 -13.683120 16.213457 450.103943
5.160000 5.040000 -7.080000 -13.539802 14.727556 400.227142
5.160000 5.040000 -7.040000 -15.662753 14.840209 465.553650
5.160000 5.040000 -7.000000 -19.907970 11.266520 523.261780
5.160000 5.040000 -6.960000 -19.919514 2.757040 404.388275
5.160000 5.040000 -6.920000 -11.462749 -3.797936 145.818939
5.160000 5.040000 -6.880000 0.065211 -0.263062 0.073454
5.160000 5.040000 -6.840000 3.423101 12.073983 157.498688
5.160000 5.040000 -6.800000 -6.032535 21.401882 494.432037
5.160000 5.080000 -7.200000 -18.235991 16.021608 589.243286
5.160000 5.080000 -7.160000 -26.426249 8.374709 768.482361
5.160000 5.080000 -7.120000 -25.534351 -1.073125 653.154724
5.160000 5.080000 -7.080000 -20.095297 -5.198249 430.842743
5.160000 5.080000 -7.040000 -16.685709 -5.359419 307.136230
5.160000 5.080000 -7.000000 -15.330458 -6.992452 283.917297
5.160000 5.080000 -6.960000 -10.775527 -10.545959 227.329254
5.160000 5.080000 -6.920000 -1.410993 -9.892137 99.845261
5.160000 5.080000 -6.880000 6.176207 -0.615941 38.524910
5.160000 5.080000 -6.840000 3.902651 12.346496 167.666641
5.160000 5.080000 -6.800000 -7.393939 18.299265 389.533447
5.160000 5.120000 -7.200000 -27.299944 2.056789 749.517334
5.160000 5.120000 -7.160000 -30.661190 -13.266739 1116.114990
5.160000 5.120000 -7.120000 -21.289854 -25.584002 1107.799072
5.160000 5.120000 -7.080000 -7.491878 -27.541162 814.643860
5.160000 5.120000 -7.040000 2.138266 -21.911518 484.686798
5.160000 5.120000 -7.000000 6.494730 -15.267761 275.286041
5.160000 5.120000 -6.960000 9.461057 -9.604523 181.758453
5.160000 5.120000 -6.920000 12.170188 -2.005593 152.135880
5.160000 5.120000 -6.880000 10.774633 8.559553 189.358673
5.160000 5.120000 -6.840000 2.360303 17.322081 305.625488
5.160000 5.120000 -6.800000 -9.288957 18.529203 429.616089
5.160000 5.160000 -7.200000 -24.475145 -15.760015 847.410767
5.160000 5.160000 -7.160000 -17.736702 -33.316254 1424.563354
5.160000 5.160000 -7.120000 1.204164 -40.880352 1672.653076
5.160000 5.160000 -7.080000 20.232525 -33.510567 1532.313232
5.160000 5.160000 -7.040000 29.605534 -17.226223 1173.230347
5.160000 5.160000 -7.000000 28.491898 -1.261520 813.379639
5.160000 5.160000 -6.960000 21.806269 9.879458 573.117065
5.160000 5.160000 -6.920000 13.403852 16.889616 464.922363
5.160000 5.160000 -6.880000 3.845639 20.953964 453.857544
5.160000 5.160000 -6.840000 -6.574214 21.252878 494.905151
5.160000 5.160000 -6.800000 -15.510311 17.318827 540.511536
5.160000 5.200000 -7.200000 -9.566557 -26.965019 818.631226
5.160000 5.200000 -7.160000 6.040154 -38.207802 1496.319580
5.160000 5.200000 -7.120000 28.145000 -34.597767 1989.146484
5.160000 5.200000 -7.080000 43.301033 -16.013340 2131.406494
5.160000 5.200000 -7.040000 43.486359 7.804144 1951.968018
5.160000 5.200000 -7.000000 30.614954 25.772408 1601.492432
5.160000 5.200000 -6.960000 12.628477 32.783180 1234.215332
5.160000 5.200000 -6.920000 -3.211991 30.448124 937.405151
5.160000 5.200000 -6.880000 -13.756767 23.302097 732.236389
5.160000 5.200000 -6.840000 -19.328657 15.276983 606.983215
5.160000 5.200000 -6.800000 -21.916103 8.506643 552.678589
5.200000 4.800000 -7.200000 -17.456041 -0.301093 304.804047
5.200000 4.800000 -7.160000 -12.850821 -5.518136 195.593399
5.200000 4.800000 -7.120000 -2.564371 -1.358880 8.422554
5.200000 4.800000 -7.080000 -0.199660 14.501431 210.331360
5.200000 4.800000 -7.040000 -15.421416 29.139841 1086.950439
5.200000 4.800000 -7.000000 -40.887360 25.613773 2327.841553
5.200000 4.800000 -6.960000 -56.393787 1.022114 3181.303955
5.200000 4.800000 -6.920000 -47.763306 -28.235264 3078.563477
5.200000 4.800000 -6.880000 -21.154526 -40.954529 2124.787354
5.200000 4.800000 -6.840000 2.777380 -31.066391 972.834534
5.200000 4.800000 -6.800000 9.124266 -12.107627 229.846863
5.200000 4.840000 -7.200000 -11.223425 -13.063019 296.607727
5.200000 4.840000 -7.160000 -3.403128 -13.717938 199.763123
5.200000 4.840000 -7.120000 2.294262 -3.699237 18.947992
5.200000 4.840000 -7.080000 -5.032042 10.019962 125.721092
5.200000 4.840000 -7.040000 -24.361525 12.654761 753.626892
5.200000 4.840000 -7.000000 -40.898056 -3.309857 1683.606201
5.200000 4.840000 -6.960000 -39.143005 -28.740829 2358.210205
5.200000 4.840000 -6.920000 -18.120060 -44.900185 2344.363281
5.200000 4.840000 -6.880000 7.172936 -40.526382 1693.838745
5.200000 4.840000 -6.840000 19.853899 -21.591915 860.388062
5.200000 4.840000 -6.800000 16.241941 -3.941611 279.336945
5.200000 4.880000 -7.200000 2.782521 -17.466291 312.813782
5.200000 4.880000 -7.160000 9.135252 -11.918469 225.502747
5.200000 4.880000 -7.120000 6.934584 -1.474352 50.262165
5.200000 4.880000 -7.080000 -5.233549 3.175759 37.475479
5.200000 4.880000 -7.040000 -18.046844 -5.356116 354.376587
5.200000 4.880000 -7.000000 -19.341368 -22.892731 898.165649
5.200000 4.880000 -6.960000 -5.609558 -36.394814 1356.049561
5.200000 4.880000 -6.920000 14.408455 -35.392094 1460.203857
5.200000 4.880000 -6.880000 27.541019 -20.812197 1191.655273
5.200000 4.880000 -6.840000 27.365753 -2.939447 757.524780
5.200000 4.880000 -6.800000 17.861809 8.600752 393.017151
5.200000 4.920000 -7.200000 16.325745 -9.791988 362.412964
5.200000 4.920000 -7.160000 16.358845 -0.231355 267.665344
5.200000 4.920000 -7.120000 7.756943 4.885131 84.034668
5.200000 4.920000 -7.080000 -1.628634 -0.171800 2.681965
5.200000 4.920000 -7.040000 -2.604551 -11.751814 144.888824
5.200000 4.920000 -7.000000 6.882921 -20.207733 455.727081
5.200000 4.920000 -6.960000 20.330652 -18.559565 757.792847
5.200000 4.920000 -6.920000 28.971479 -7.782163 899.908691
5.200000 4.920000 -6.880000 28.745066 5.605697 857.702637
5.200000 4.920000 -6.840000 21.513016 15.788760 712.094788
5.200000 4.920000 -6.800000 11.025647 20.905615 558.609619
5.200000 4.960000 -7.200000 20.205542 6.508317 450.622101
5.200000 4.960000 -7.160000 11.591685 14.725096 351.195618
5.200000 4.960000 -7.120000 1.086802 11.377790 130.635254
5.200000 4.960000 -7.080000 -0.686464 0.845800 1.186611
5.200000 4.960000 -7.040000 7.799526 -6.046283 97.390152
5.200000 4.960000 -7.000000 18.670326 -2.924448 357.133484
5.200000 4.960000 -6.960000 23.420399 7.214275 600.560852
5.200000 4.960000 -6.920000 20.443024 17.043633 708.402588
5.200000 4.960000 -6.880000 13.769634 22.769194 708.039001
5.200000 4.960000 -6.840000 6.406834 25.589808 695.885803
5.200000 4.960000 -6.800000 -2.584932 26.513243 709.633911
5.200000 5.000000 -7.200000 10.234954 21.564602 569.786316
5.200000 5.000000 -7.160000 -5.014526 22.288876 521.939453
5.200000 5.000000 -7.120000 -12.261533 10.452579 259.601593
5.200000 5.000000 -7.080000 -5.586875 -0.742975 31.765188
5.200000 5.000000 -7.040000 7.067217 -0.481795 50.177681
5.200000 5.000000 -7.000000 13.654174 9.784111 282.165283
5.200000 5.000000 -6.960000 10.209456 20.282021 515.593384
5.200000 5.000000 -6.920000 2.306686 24.441792 602.721985
5.200000 5.000000 -6.880000 -3.899186 24.128124 597.370056
5.200000 5.000000 -6.840000 -8.841591 23.709206 640.300110
5.200000 5.000000 -6.800000 -16.229832 22.116529 752.548340
5.200000 5.040000 -7.200000 -8.703382 24.833927 692.472778
5.200000 5.040000 -7.160000 -24.422134 14.469510 805.807373
5.200000 5.040000 -7.120000 -23.898239 -3.219356 581.490112
5.200000 5.040000 -7.080000 -9.630589 -11.676002 229.077271
5.200000 5.040000 -7.040000 4.187670 -5.160454 44.166866
5.200000 5.040000 -7.000000 6.872821 8.071459 112.384109
5.200000 5.040000 -6.960000 0.031742 16.766390 281.112823
5.200000 5.040000 -6.920000 -7.913058 17.941778 384.523895
5.200000 5.040000 -6.880000 -12.701118 16.303762 427.131104
5.200000 5.040000 -6.840000 -16.958952 15.010575 512.923401
5.200000 5.040000 -6.800000 -22.797409 11.008078 640.899658
5.200000 5.080000 -7.200000 -24.689682 12.850913 774.726318
5.200000 5.080000 -7.160000 -33.314056 -6.976162 1158.493164
5.200000 5.080000 -7.120000 -22.250027 -25.446632 1142.594849
5.200000 5.080000 -7.080000 -1.622526 -27.996235 786.421753
5.200000 5.080000 -7.040000 12.457016 -15.093774 382.999268
5.200000 5.080000 -7.000000 12.652683 1.349202 161.910736
5.200000 5.080000 -6.960000 3.804239 11.005464 135.592468
5.200000 5.080000 -6.920000 -5.676186 12.756471 194.946625
5.200000 5.080000 -6.880000 -12.447168 10.803463 271.646820
5.200000 5.080000 -6.840000 -17.625835 7.129684 361.502472
5.200000 5.080000 -6.800000 -20.655743 0.658137 427.092834
5.200000 5.120000 -7.200000 -26.887585 -7.163189 774.253479
5.200000 5.120000 -7.160000 -23.793028 -29.727779 1449.848999
5.200000 5.120000 -7.120000 -2.969367 -42.398560 1806.454956
5.200000 5.120000 -7.080000 20.914660 -35.472248 1695.703369
5.200000 5.120000 -7.040000 32.582588 -14.570130 1273.913696
5.200000 5.120000 -7.000000 27.764545 6.569122 814.023376
5.200000 5.120000 -6.960000 13.159343 17.946915 495.260040
5.200000 5.120000 -6.920000 -1.894435 18.414547 342.684448
5.200000 5.120000 -6.880000 -12.084485 12.153374 293.739258
5.200000 5.120000 -6.840000 -16.199486 3.553385 275.049896
5.200000 5.120000 -6.800000 -14.577101 -3.894049 227.655487
5.200000 5.160000 -7.200000 -13.994630 -21.893854 675.190552
5.200000 5.160000 -7.160000 -0.653160 -39.011509 1522.324463
5.200000 5.160000 -7.120000 24.511238 -40.766792 2262.732178
5.200000 5.160000 -7.080000 45.438038 -22.903477 2589.184570
5.200000 5.160000 -7.040000 49.125313 5.028840 2438.585693
5.200000 5.160000 -7.000000 34.455429 27.923527 1966.899902
5.200000 5.160000 -6.960000 10.936419 35.814682 1402.296631
5.200000 5.160000 -6.920000 -9.255696 28.714619 910.197205
5.200000 5.160000 -6.880000 -18.655485 14.107023 547.035217
5.200000 5.160000 -6.840000 -17.119652 1.179403 294.473480
5.200000 5.160000 -6.800000 -10.272476 -4.085418 122.214401
5.200000 5.200000 -7.200000 4.328251 -21.995281 502.526154
5.200000 5.200000 -7.160000 21.116407 -29.181973 1297.490234
5.200000 5.200000 -7.120000 42.626198 -20.054180 2219.162842
5.200000 5.200000 -7.080000 53.915070 4.925996 2931.100098
5.200000 5.200000 -7.040000 45.432491 33.565777 3190.772705
5.200000 5.200000 -7.000000 20.069983 50.462669 2949.285156
5.200000 5.200000 -6.960000 -8.969611 47.535885 2340.114258
5.200000 5.200000 -6.920000 -27.323105 28.922522 1583.064331
5.200000 5.200000 -6.880000 -28.783850 7.347173 882.490967
5.200000 5.200000 -6.840000 -18.510174 -5.029277 367.920166
5.200000 5.200000 -6.800000 -8.254175 -4.760542 90.794174
