#kx 	ky 	kz 	real 	imag 	intensity
2.800000 -1.200000 -5.200000 -34.574203 -1.042171 1196.461670
2.800000 -1.200000 -5.160000 -16.855137 -23.405846 831.929260
2.800000 -1.200000 -5.120000 10.140476 -18.099655 430.426758
2.800000 -1.200000 -5.080000 17.430624 8.442217 375.097687
2.800000 -1.200000 -5.040000 -3.153914 28.111210 800.187317
2.800000 -1.200000 -5.000000 -31.418537 20.677938 1414.701660
2.800000 -1.200000 -4.960000 -40.881443 -6.205891 1709.805420
2.800000 -1.200000 -4.920000 -25.923038 -26.979300 1399.886475
2.800000 -1.200000 -4.880000 -5.234178 -25.850910 695.666138
2.800000 -1.200000 -4.840000 0.358642 -11.740315 137.963638
2.800000 -1.200000 -4.800000 -9.863487 -5.643419 129.136566
2.800000 -1.160000 -5.200000 -21.213314 -23.478645 1001.251465
2.800000 -1.160000 -5.160000 4.683611 -30.866859 974.699219
2.800000 -1.160000 -5.120000 23.606709 -13.577499 741.625183
2.800000 -1.160000 -5.080000 18.425049 10.112991 441.755005
2.800000 -1.160000 -5.040000 -3.752700 17.004070 303.221161
2.800000 -1.160000 -5.000000 -20.350056 2.046021 418.310944
2.800000 -1.160000 -4.960000 -16.884802 -18.578117 630.242981
2.800000 -1.160000 -4.920000 -0.107865 -26.010756 676.571045
2.800000 -1.160000 -4.880000 11.940827 -17.812609 459.872375
2.800000 -1.160000 -4.840000 10.213261 -7.679439 163.284470
2.800000 -1.160000 -4.800000 2.746505 -8.123030 73.526901
2.800000 -1.120000 -5.200000 1.870083 -26.224495 691.221313
2.800000 -1.120000 -5.160000 23.079626 -18.772066 885.059570
2.800000 -1.120000 -5.120000 29.209492 1.239719 854.731323
2.800000 -1.120000 -5.080000 17.742561 15.858184 566.280518
2.800000 -1.120000 -5.040000 1.872425 14.399593 210.854263
2.800000 -1.120000 -5.000000 -3.922482 2.337048 20.847652
2.800000 -1.120000 -4.960000 2.372299 -6.688965 50.370060
2.800000 -1.120000 -4.920000 10.979261 -5.656266 152.537537
2.800000 -1.120000 -4.880000 12.838861 0.344790 164.955246
2.800000 -1.120000 -4.840000 9.094900 2.351036 88.244576
2.800000 -1.120000 -4.800000 7.710962 -1.354333 61.293156
2.800000 -1.080000 -5.200000 15.118422 -11.646163 364.199768
2.800000 -1.080000 -5.160000 24.640320 1.607743 609.730225
2.800000 -1.080000 -5.120000 21.533222 16.046408 721.166870
2.800000 -1.080000 -5.080000 10.945954 22.252808 615.001343
2.800000 -1.080000 -5.040000 2.190502 19.633129 390.258057
2.800000 -1.080000 -5.000000 -0.436598 14.533888 211.424515
2.800000 -1.080000 -4.960000 0.139349 12.138123 147.353439
2.800000 -1.080000 -4.920000 -0.473606 11.663042 136.250854
2.800000 -1.080000 -4.880000 -2.236615 9.493927 95.137100
2.800000 -1.080000 -4.840000 -1.510666 5.258914 29.938288
2.800000 -1.080000 -4.800000 3.161451 2.974646 18.843292
2.800000 -1.040000 -5.200000 10.884707 3.979796 134.315643
2.800000 -1.040000 -5.160000 11.071622 13.935772 316.786560
2.800000 -1.040000 -5.120000 5.480827 20.815758 463.335236
2.800000 -1.040000 -5.080000 -1.540181 22.851376 524.557495
2.800000 -1.040000 -5.040000 -7.289099 21.946882 534.796631
2.800000 -1.040000 -5.000000 -12.138574 19.841446 541.027954
2.800000 -1.040000 -4.960000 -16.741940 15.864315 531.969055
2.800000 -1.040000 -4.920000 -19.316036 8.972967 453.623383
2.800000 -1.040000 -4.880000 -16.992552 1.064560 289.880127
2.800000 -1.040000 -4.840000 -9.864132 -3.308032 108.244179
2.800000 -1.040000 -4.800000 -2.427743 -1.281241 7.535514
2.800000 -1.000000 -5.200000 -1.913486 7.356214 57.775314
2.800000 -1.000000 -5.160000 -4.593668 11.479720 152.885773
2.800000 -1.000000 -5.120000 -8.909945 13.452003 260.343475
2.800000 -1.000000 -5.080000 -13.565998 13.505932 366.446503
2.800000 -1.000000 -5.040000 -18.460785 11.926995 483.053772
2.800000 -1.000000 -5.000000 -23.359625 7.841339 607.158630
2.800000 -1.000000 -4.960000 -26.265919 0.455986 690.106445
2.800000 -1.000000 -4.920000 -24.297413 -8.586721 664.096069
2.800000 -1.000000 -4.880000 -16.780790 -15.031124 507.529602
2.800000 -1.000000 -4.840000 -7.119955 -15.192744 281.513214
2.800000 -1.000000 -4.800000 -0.687679 -9.561015 91.885910
2.800000 -0.960000 -5.200000 -9.386905 -0.433342 88.301765
2.800000 -0.960000 -5.160000 -11.534670 0.532480 133.332153
2.800000 -0.960000 -5.120000 -14.696467 -0.482854 216.219315
2.800000 -0.960000 -5.080000 -17.131542 -3.572539 306.252777
2.800000 -0.960000 -5.040000 -17.962133 -7.697831 381.894836
2.800000 -0.960000 -5.000000 -17.258686 -12.099127 444.251099
2.800000 -0.960000 -4.960000 -14.916947 -16.583389 497.524109
2.800000 -0.960000 -4.920000 -10.301519 -20.448872 524.277649
2.800000 -0.960000 -4.880000 -3.458561 -21.888111 491.051056
2.800000 -0.960000 -4.840000 3.642602 -19.223328 382.804871
2.800000 -0.960000 -4.800000 7.861396 -12.929318 228.968826
2.800000 -0.920000 -5.200000 -6.930429 -8.393661 118.484375
2.800000 -0.920000 -5.160000 -9.675422 -8.817032 171.353836
2.800000 -0.920000 -5.120000 -11.514574 -13.870919 324.987823
2.800000 -0.920000 -5.080000 -8.154974 -20.371124 481.486298
2.800000 -0.920000 -5.040000 -0.569737 -22.928221 526.027893
2.800000 -0.920000 -5.000000 6.056075 -19.925682 433.708862
2.800000 -0.920000 -4.960000 8.065317 -15.061426 291.895905
2.800000 -0.920000 -4.920000 7.111253 -12.880166 216.468597
2.800000 -0.920000 -4.880000 7.698106 -13.586138 243.843979
2.800000 -0.920000 -4.840000 11.560438 -13.086580 304.902344
2.800000 -0.920000 -4.800000 15.340403 -8.097663 300.900085
2.800000 -0.880000 -5.200000 -1.531042 -9.067767 84.568489
2.800000 -0.880000 -5.160000 -5.818973 -13.125488 206.138885
2.800000 -0.880000 -5.120000 -2.774814 -22.924000 533.209351
2.800000 -0.880000 -5.080000 10.210657 -28.004250 888.495483
2.800000 -0.880000 -5.040000 24.463593 -20.740791 1028.647705
2.800000 -0.880000 -5.000000 28.583187 -5.165838 843.684509
2.800000 -0.880000 -4.960000 20.305214 6.646893 456.482910
2.800000 -0.880000 -4.920000 8.772651 6.839482 123.737915
2.800000 -0.880000 -4.880000 4.826843 -0.629558 23.694759
2.800000 -0.880000 -4.840000 9.932864 -4.964509 123.308136
2.800000 -0.880000 -4.800000 15.540770 -0.359608 241.644836
2.800000 -0.840000 -5.200000 -1.555384 -5.873981 36.922878
2.800000 -0.840000 -5.160000 -3.869130 -16.405991 284.126709
2.800000 -0.840000 -5.120000 8.556639 -27.002865 802.370789
2.800000 -0.840000 -5.080000 29.277740 -22.495064 1363.213989
2.800000 -0.840000 -5.040000 40.636040 -1.073404 1652.439941
2.800000 -0.840000 -5.000000 31.555758 22.248333 1490.754150
2.800000 -0.840000 -4.960000 9.189583 29.845068 975.176514
2.800000 -0.840000 -4.920000 -7.988756 18.598228 409.714325
2.800000 -0.840000 -4.880000 -8.290395 2.046082 72.917099
2.800000 -0.840000 -4.840000 2.819882 -4.073084 24.541746
2.800000 -0.840000 -4.800000 10.246467 2.726674 112.424835
2.800000 -0.800000 -5.200000 -6.574409 -7.382501 97.724174
2.800000 -0.800000 -5.160000 -0.731055 -22.304928 498.044250
2.800000 -0.800000 -5.120000 20.850332 -25.812653 1101.029419
2.800000 -0.800000 -5.080000 40.329788 -7.191801 1678.213867
2.800000 -0.800000 -5.040000 38.178581 22.900654 1982.044067
2.800000 -0.800000 -5.000000 13.132509 41.299164 1878.083740
2.800000 -0.800000 -4.960000 -15.749334 34.338497 1427.173950
2.800000 -0.800000 -4.920000 -27.158251 10.455985 846.898193
2.800000 -0.800000 -4.880000 -17.053061 -9.065674 372.993317
2.800000 -0.800000 -4.840000 -0.167503 -10.907436 119.000229
2.800000 -0.800000 -4.800000 6.594357 -0.582746 43.825142
2.840000 -1.200000 -5.200000 -12.819496 -21.281271 617.231934
2.840000 -1.200000 -5.160000 10.407905 -20.144522 514.126221
2.840000 -1.200000 -5.120000 19.863451 2.079443 398.880768
2.840000 -1.200000 -5.080000 3.697927 21.818460 489.719910
2.840000 -1.200000 -5.040000 -22.644766 17.576027 821.702148
2.840000 -1.200000 -5.000000 -33.109947 -7.071537 1146.275146
2.840000 -1.200000 -4.960000 -18.852665 -27.875555 1132.469482
2.840000 -1.200000 -4.920000 3.202379 -26.372761 705.777771
2.840000 -1.200000 -4.880000 9.837461 -9.114599 179.851562
2.840000 -1.200000 -4.840000 -3.077073 1.004365 10.477125
2.840000 -1.200000 -4.800000 -17.139771 -9.195380 378.326752
2.840000 -1.160000 -5.200000 5.579197 -24.379072 625.466614
2.840000 -1.160000 -5.160000 26.384783 -14.225420 898.519287
2.840000 -1.160000 -5.120000 30.106655 8.432785 977.522583
2.840000 -1.160000 -5.080000 14.972675 23.737572 787.653320
2.840000 -1.160000 -5.040000 -3.688616 20.915606 451.068451
2.840000 -1.160000 -5.000000 -10.490578 7.381489 164.538605
2.840000 -1.160000 -4.960000 -5.005180 -1.730904 28.047857
2.840000 -1.160000 -4.920000 0.908836 -0.595686 1.180825
2.840000 -1.160000 -4.880000 -1.327340 2.816532 9.694685
2.840000 -1.160000 -4.840000 -7.137486 -1.490986 53.166740
2.840000 -1.160000 -4.800000 -5.430778 -12.341291 181.800827
2.840000 -1.120000 -5.200000 17.787664 -12.210566 465.498901
2.840000 -1.120000 -5.160000 33.416157 3.236348 1127.113525
2.840000 -1.120000 -5.120000 33.688526 26.540890 1839.335571
2.840000 -1.120000 -5.080000 18.304571 44.053772 2275.792236
2.840000 -1.120000 -5.040000 -3.467693 47.706993 2287.982178
2.840000 -1.120000 -5.000000 -21.360607 38.782246 1960.338135
2.840000 -1.120000 -4.960000 -30.444338 23.621801 1484.847168
2.840000 -1.120000 -4.920000 -30.805300 7.876328 1011.003052
2.840000 -1.120000 -4.880000 -24.090115 -5.023523 605.569397
2.840000 -1.120000 -4.840000 -12.283773 -12.204647 299.844482
2.840000 -1.120000 -4.800000 0.701560 -11.233556 126.684967
2.840000 -1.080000 -5.200000 14.785503 2.529738 225.010696
2.840000 -1.080000 -5.160000 25.594006 20.787088 1087.156128
2.840000 -1.080000 -5.120000 20.850027 46.711441 2616.682373
2.840000 -1.080000 -5.080000 -2.896500 66.584206 4441.846191
2.840000 -1.080000 -5.040000 -37.417152 67.195641 5915.297363
2.840000 -1.080000 -5.000000 -66.442947 44.915833 6432.097168
2.840000 -1.080000 -4.960000 -75.360077 9.169353 5763.218262
2.840000 -1.080000 -4.920000 -60.633865 -22.750784 4194.063477
2.840000 -1.080000 -4.880000 -32.145821 -36.511726 2366.459961
2.840000 -1.080000 -4.840000 -6.377372 -29.660671 920.426331
2.840000 -1.080000 -4.800000 4.722987 -12.058945 167.724762
2.840000 -1.040000 -5.200000 2.733545 6.450430 49.080315
2.840000 -1.040000 -5.160000 8.645931 27.355919 823.098450
2.840000 -1.040000 -5.120000 -5.958794 53.943645 2945.424316
2.840000 -1.040000 -5.080000 -42.712708 66.208336 6207.919434
2.840000 -1.040000 -5.040000 -84.771210 48.109669 9500.698242
2.840000 -1.040000 -5.000000 -106.478561 2.633757 11344.620117
2.840000 -1.040000 -4.960000 -92.630775 -47.251141 10813.130859
2.840000 -1.040000 -4.920000 -51.131123 -74.487602 8162.794434
2.840000 -1.040000 -4.880000 -7.390696 -67.944168 4671.032715
2.840000 -1.040000 -4.840000 15.215464 -39.529938 1794.126343
2.840000 -1.040000 -4.800000 11.976641 -12.664169 303.821106
2.840000 -1.000000 -5.200000 -4.627446 -1.443245 23.496214
2.840000 -1.000000 -5.160000 -6.054178 21.278313 489.419678
2.840000 -1.000000 -5.120000 -32.467350 40.621300 2704.218750
2.840000 -1.000000 -5.080000 -74.659782 33.248898 6679.572266
2.840000 -1.000000 -5.040000 -104.993889 -8.268973 11092.092773
2.840000 -1.000000 -5.000000 -98.438515 -64.948303 13908.423828
2.840000 -1.000000 -4.960000 -54.241405 -103.673927 13690.413086
2.840000 -1.000000 -4.920000 1.935843 -102.836502 10579.092773
2.840000 -1.000000 -4.880000 38.086403 -68.778046 6180.993652
2.840000 -1.000000 -4.840000 40.390331 -28.628117 2450.947998
2.840000 -1.000000 -4.800000 20.687473 -6.956710 476.367371
2.840000 -0.960000 -5.200000 -0.549062 -10.267906 105.731369
2.840000 -0.960000 -5.160000 -11.587378 9.820698 230.713425
2.840000 -0.960000 -5.120000 -43.548283 13.251913 2072.066162
2.840000 -0.960000 -5.080000 -74.279114 -15.240810 5749.668945
2.840000 -0.960000 -5.040000 -75.658157 -65.465752 10009.921875
2.840000 -0.960000 -5.000000 -38.332291 -106.662621 12846.279297
2.840000 -0.960000 -4.960000 18.392050 -111.668289 12808.074219
2.840000 -0.960000 -4.920000 61.341835 -78.899963 9988.025391
2.840000 -0.960000 -4.880000 69.714462 -32.377415 5908.403320
2.840000 -0.960000 -4.840000 49.213509 -0.652662 2422.395508
2.840000 -0.960000 -4.800000 22.878242 5.224326 550.707581
2.840000 -0.920000 -5.200000 8.663669 -9.857977 172.238861
2.840000 -0.920000 -5.160000 -9.742524 0.934211 95.789528
2.840000 -0.920000 -5.120000 -34.761024 -12.823021 1372.758789
2.840000 -0.920000 -5.080000 -40.902637 -48.933548 4067.518066
2.840000 -0.920000 -5.040000 -14.491605 -83.461731 7175.867188
2.840000 -0.920000 -5.000000 32.610695 -90.064453 9175.063477
2.840000 -0.920000 -4.960000 71.866592 -62.301800 9046.321289
2.840000 -0.920000 -4.920000 81.346970 -18.404196 6956.043945
2.840000 -0.920000 -4.880000 61.996201 14.999744 4068.521240
2.840000 -0.920000 -4.840000 33.204449 24.127876 1684.689819
2.840000 -0.920000 -4.800000 14.167339 15.234405 432.800598
2.840000 -0.880000 -5.200000 11.743917 -1.456291 140.040390
2.840000 -0.880000 -5.160000 -6.330702 -3.581306 52.903542
2.840000 -0.880000 -5.120000 -14.304275 -25.417002 850.636230
2.840000 -0.880000 -5.080000 2.158119 -49.664566 2471.226562
2.840000 -0.880000 -5.040000 36.172653 -53.868832 4210.312012
2.840000 -0.880000 -5.000000 64.880554 -30.801670 5158.229004
2.840000 -0.880000 -4.960000 69.328011 5.327682 4834.757324
2.840000 -0.880000 -4.920000 49.749931 32.012890 3499.880859
2.840000 -0.880000 -4.880000 22.729727 37.287777 1907.018799
2.840000 -0.880000 -4.840000 5.026201 26.654249 735.711670
2.840000 -0.880000 -4.800000 0.717777 13.832747 191.860077
2.840000 -0.840000 -5.200000 5.139225 4.544374 47.062969
2.840000 -0.840000 -5.160000 -3.889358 -7.050347 64.834503
2.840000 -0.840000 -5.120000 5.166299 -23.176353 563.833984
2.840000 -0.840000 -5.080000 28.368525 -24.707989 1415.257812
2.840000 -0.840000 -5.040000 46.715210 -4.926067 2206.576904
2.840000 -0.840000 -5.000000 44.143398 23.591301 2505.189209
2.840000 -0.840000 -4.960000 22.260254 40.855621 2164.700684
2.840000 -0.840000 -4.920000 -2.401896 37.529640 1414.242920
2.840000 -0.840000 -4.880000 -14.469763 21.307398 663.379211
2.840000 -0.840000 -4.840000 -12.271292 6.893481 198.104675
2.840000 -0.840000 -4.800000 -5.385071 1.605022 31.575083
2.840000 -0.800000 -5.200000 -3.414876 0.553233 11.967442
2.840000 -0.800000 -5.160000 0.060096 -11.544914 133.288666
2.840000 -0.800000 -5.120000 16.290098 -13.189505 439.330322
2.840000 -0.800000 -5.080000 29.007336 3.125951 851.197083
2.840000 -0.800000 -5.040000 22.928555 26.507256 1228.353271
2.840000 -0.800000 -5.000000 -0.536533 37.647957 1417.656494
2.840000 -0.800000 -4.960000 -24.270863 27.345924 1336.874268
2.840000 -0.800000 -4.920000 -31.749737 4.616421 1029.357178
2.840000 -0.800000 -4.880000 -21.582760 -13.075868 636.793823
2.840000 -0.800000 -4.840000 -6.247252 -16.360512 306.694519
2.840000 -0.800000 -4.800000 1.976993 -10.330392 110.625496
2.880000 -1.200000 -5.200000 16.329964 -15.250328 499.240234
2.880000 -1.200000 -5.160000 24.601534 5.762915 638.446655
2.880000 -1.200000 -5.120000 8.373350 25.871861 739.466125
2.880000 -1.200000 -5.080000 -19.542416 22.454735 886.121094
2.880000 -1.200000 -5.040000 -32.117847 -3.610195 1044.589722
2.880000 -1.200000 -5.000000 -17.131729 -27.480074 1048.650635
2.880000 -1.200000 -4.960000 9.109398 -26.446344 782.390259
2.880000 -1.200000 -4.920000 18.926643 -4.338318 377.038849
2.880000 -1.200000 -4.880000 2.977395 12.665901 169.289932
2.880000 -1.200000 -4.840000 -19.840191 4.368871 412.720215
2.880000 -1.200000 -4.800000 -23.001255 -21.759043 1002.513672
2.880000 -1.160000 -5.200000 22.376667 -3.185059 510.859833
2.880000 -1.160000 -5.160000 27.460329 15.466415 993.279724
2.880000 -1.160000 -5.120000 16.219406 32.143295 1296.260498
2.880000 -1.160000 -5.080000 -2.195309 35.254234 1247.680420
2.880000 -1.160000 -5.040000 -14.615952 26.873634 935.818237
2.880000 -1.160000 -5.000000 -17.567429 17.834661 626.689697
2.880000 -1.160000 -4.960000 -18.337566 14.049362 533.650879
2.880000 -1.160000 -4.920000 -23.406086 10.518646 658.486755
2.880000 -1.160000 -4.880000 -28.860355 -0.372379 833.058777
2.880000 -1.160000 -4.840000 -24.642776 -16.830753 890.540649
2.880000 -1.160000 -4.800000 -7.703450 -27.006123 788.673767
2.880000 -1.120000 -5.200000 16.434444 8.739145 346.463623
2.880000 -1.120000 -5.160000 23.773056 28.584129 1382.210693
2.880000 -1.120000 -5.120000 14.468988 53.786579 3102.347656
2.880000 -1.120000 -5.080000 -12.665047 70.387421 5114.792480
2.880000 -1.120000 -5.040000 -48.098289 67.038208 6807.566406
2.880000 -1.120000 -5.000000 -76.515770 41.940018 7613.627930
2.880000 -1.120000 -4.960000 -85.088127 4.321732 7258.666504
2.880000 -1.120000 -4.920000 -70.460144 -30.215378 5877.601074
2.880000 -1.120000 -4.880000 -40.635262 -47.960678 3951.451172
2.880000 -1.120000 -4.840000 -10.493353 -44.521164 2092.244385
2.880000 -1.120000 -4.800000 6.888608 -26.888283 770.432678
2.880000 -1.080000 -5.200000 4.236809 10.173777 121.456276
2.880000 -1.080000 -5.160000 11.347224 38.728882 1628.685791
2.880000 -1.080000 -5.120000 -10.772226 74.574402 5677.382324
2.880000 -1.080000 -5.080000 -63.335285 88.845673 11904.912109
2.880000 -1.080000 -5.040000 -121.178612 59.827980 18263.642578
2.880000 -1.080000 -5.000000 -148.116638 -6.210304 21977.107422
2.880000 -1.080000 -4.960000 -124.618942 -75.562347 21239.548828
2.880000 -1.080000 -4.920000 -64.133087 -110.889450 16409.523438
2.880000 -1.080000 -4.880000 -3.130997 -98.847229 9780.577148
2.880000 -1.080000 -4.840000 26.942110 -57.976170 4087.113770
2.880000 -1.080000 -4.800000 21.540913 -20.960842 903.367798
2.880000 -1.040000 -5.200000 -2.071662 0.896491 5.095479
2.880000 -1.040000 -5.160000 -5.578609 39.623207 1601.119385
2.880000 -1.040000 -5.120000 -51.850388 71.612839 7816.861328
2.880000 -1.040000 -5.080000 -123.946045 56.832123 18592.511719
2.880000 -1.040000 -5.040000 -173.495361 -16.067131 30358.792969
2.880000 -1.040000 -5.000000 -158.328430 -112.377823 37696.667969
2.880000 -1.040000 -4.960000 -79.887314 -174.469940 36821.742188
2.880000 -1.040000 -4.920000 15.079453 -167.291016 28213.673828
2.880000 -1.040000 -4.880000 71.661087 -105.521065 16270.006836
2.880000 -1.040000 -4.840000 69.390450 -38.176189 6272.456055
2.880000 -1.040000 -4.800000 32.630890 -6.258944 1103.949341
2.880000 -1.000000 -5.200000 3.842653 -8.489807 86.842812
2.880000 -1.000000 -5.160000 -19.151958 30.701813 1309.398804
2.880000 -1.000000 -5.120000 -83.265472 38.046551 8380.678711
2.880000 -1.000000 -5.080000 -146.004364 -17.854586 21636.060547
2.880000 -1.000000 -5.040000 -150.663940 -118.244186 36681.312500
2.880000 -1.000000 -5.000000 -76.948257 -201.286957 46437.472656
2.880000 -1.000000 -4.960000 36.396637 -210.813385 45767.000000
2.880000 -1.000000 -4.920000 120.703598 -143.286407 35100.351562
2.880000 -1.000000 -4.880000 132.826462 -49.378796 20081.134766
2.880000 -1.000000 -4.840000 86.298370 10.542807 7558.559570
2.880000 -1.000000 -4.800000 31.876484 14.608920 1229.530762
2.880000 -0.960000 -5.200000 15.864189 -7.117812 302.335754
2.880000 -0.960000 -5.160000 -24.240755 17.554361 895.769775
2.880000 -0.960000 -5.120000 -83.814140 -8.462681 7096.427246
2.880000 -0.960000 -5.080000 -107.732178 -88.703934 19474.609375
2.880000 -0.960000 -5.040000 -57.681702 -174.866516 33905.476562
2.880000 -0.960000 -5.000000 48.459789 -202.861832 43501.273438
2.880000 -0.960000 -4.960000 146.137665 -147.683243 43166.554688
2.880000 -0.960000 -4.920000 176.372559 -45.733795 33198.859375
2.880000 -0.960000 -4.880000 132.867783 36.585686 18992.359375
2.880000 -0.960000 -4.840000 61.400818 57.970295 7130.615723
2.880000 -0.960000 -4.800000 15.440470 30.051477 1141.499390
2.880000 -0.920000 -5.200000 21.447292 5.137799 486.383331
2.880000 -0.920000 -5.160000 -21.982788 6.803381 529.528992
2.880000 -0.920000 -5.120000 -55.275478 -40.536057 4698.550293
2.880000 -0.920000 -5.080000 -34.756721 -110.981369 13524.893555
2.880000 -0.920000 -5.040000 43.194180 -148.818848 24012.785156
2.880000 -0.920000 -5.000000 132.482971 -116.318008 31081.617188
2.880000 -0.920000 -4.960000 173.604294 -28.659378 30959.810547
2.880000 -0.920000 -4.920000 143.200439 57.790165 23846.068359
2.880000 -0.920000 -4.880000 70.990784 92.845314 13659.943359
2.880000 -0.920000 -4.840000 10.232769 71.065536 5155.020020
2.880000 -0.920000 -4.800000 -7.893213 27.789930 834.583008
2.880000 -0.880000 -5.200000 14.163830 17.502419 506.948730
2.880000 -0.880000 -5.160000 -17.230595 0.798146 297.530426
2.880000 -0.880000 -5.120000 -19.487846 -44.264618 2339.132568
2.880000 -0.880000 -5.080000 23.614159 -79.898293 6941.365723
2.880000 -0.880000 -5.040000 87.980782 -68.828537 12477.986328
2.880000 -0.880000 -5.000000 126.987061 -9.281868 16211.867188
2.880000 -0.880000 -4.960000 111.301201 61.301300 16145.806641
2.880000 -0.880000 -4.920000 53.447796 97.810966 12423.652344
2.880000 -0.880000 -4.880000 -5.157051 84.309479 7134.683594
2.880000 -0.880000 -4.840000 -30.516171 42.578506 2744.165771
2.880000 -0.880000 -4.800000 -20.827110 7.729063 493.506927
2.880000 -0.840000 -5.200000 -0.047565 19.066494 363.533447
2.880000 -0.840000 -5.160000 -13.136097 -2.570982 179.166992
2.880000 -0.840000 -5.120000 2.119343 -28.233704 801.633667
2.880000 -0.840000 -5.080000 37.816292 -30.010891 2330.725586
2.880000 -0.840000 -5.040000 64.764816 1.076412 4195.640137
2.880000 -0.840000 -5.000000 58.427338 45.243664 5460.743164
2.880000 -0.840000 -4.960000 20.978775 70.868149 5462.403320
2.880000 -0.840000 -4.920000 -21.299801 61.734276 4264.802246
2.880000 -0.840000 -4.880000 -41.577988 28.874172 2562.446777
2.880000 -0.840000 -4.840000 -33.707527 -2.317371 1141.567627
2.880000 -0.840000 -4.800000 -12.372383 -14.881754 374.542480
2.880000 -0.800000 -5.200000 -9.079003 9.353854 169.922882
2.880000 -0.800000 -5.160000 -8.940090 -5.520014 110.395760
2.880000 -0.800000 -5.120000 5.350481 -11.361824 157.718689
2.880000 -0.800000 -5.080000 18.487080 0.289635 341.856018
2.880000 -0.800000 -5.040000 15.039772 20.308086 638.613098
2.880000 -0.800000 -5.000000 -5.294182 30.449474 955.198853
2.880000 -0.800000 -4.960000 -27.326721 20.556202 1169.307129
2.880000 -0.800000 -4.920000 -34.559029 -2.598989 1201.081177
2.880000 -0.800000 -4.880000 -23.382523 -22.629845 1058.852295
2.880000 -0.800000 -4.840000 -3.961313 -28.391678 821.779358
2.880000 -0.800000 -4.800000 11.002908 -21.505068 583.531921
2.920000 -1.200000 -5.200000 27.892921 11.910723 919.880371
2.920000 -1.200000 -5.160000 11.208817 33.931435 1276.979858
2.920000 -1.200000 -5.120000 -20.736439 32.770519 1503.906860
2.920000 -1.200000 -5.080000 -39.474739 4.244419 1576.270142
2.920000 -1.200000 -5.040000 -26.443024 -27.299366 1444.488892
2.920000 -1.200000 -5.000000 5.710876 -32.608517 1095.929443
2.920000 -1.200000 -4.960000 24.547874 -8.357101 672.439270
2.920000 -1.200000 -4.920000 11.237656 18.387390 464.381042
2.920000 -1.200000 -4.880000 -19.486982 17.960533 702.323242
2.920000 -1.200000 -4.840000 -34.525169 -10.956296 1312.027710
2.920000 -1.200000 -4.800000 -16.839478 -40.128525 1893.866455
2.920000 -1.160000 -5.200000 15.102636 22.426014 731.015747
2.920000 -1.160000 -5.160000 4.383369 35.925583 1309.861328
2.920000 -1.160000 -5.120000 -13.660858 38.797825 1691.890259
2.920000 -1.160000 -5.080000 -27.968475 30.613403 1719.416016
2.920000 -1.160000 -5.040000 -33.832382 19.839863 1538.250244
2.920000 -1.160000 -5.000000 -36.421280 12.593056 1485.094727
2.920000 -1.160000 -4.960000 -41.827755 5.365898 1778.353882
2.920000 -1.160000 -4.920000 -47.018749 -9.156906 2294.611572
2.920000 -1.160000 -4.880000 -41.702858 -30.109966 2645.738525
2.920000 -1.160000 -4.840000 -20.982304 -45.326862 2494.781494
2.920000 -1.160000 -4.800000 5.816653 -42.409195 1832.373291
2.920000 -1.120000 -5.200000 -0.445904 19.528782 381.572144
2.920000 -1.120000 -5.160000 -2.232999 39.704750 1581.453491
2.920000 -1.120000 -5.120000 -23.971039 60.576710 4244.148438
2.920000 -1.120000 -5.080000 -63.504074 64.003143 8129.169922
2.920000 -1.120000 -5.040000 -103.605690 38.016678 12179.406250
2.920000 -1.120000 -5.000000 -121.528831 -12.344543 14921.644531
2.920000 -1.120000 -4.960000 -104.469414 -65.618378 15219.629883
2.920000 -1.120000 -4.920000 -59.411293 -96.911575 12921.554688
2.920000 -1.120000 -4.880000 -9.180416 -94.250931 8967.518555
2.920000 -1.120000 -4.840000 22.874111 -65.881180 4863.555176
2.920000 -1.120000 -4.800000 27.944443 -32.969139 1867.855957
2.920000 -1.080000 -5.200000 -6.501221 6.205481 80.773857
2.920000 -1.080000 -5.160000 -13.464048 43.188175 2046.499146
2.920000 -1.080000 -5.120000 -62.199821 71.029762 8914.044922
2.920000 -1.080000 -5.080000 -134.080475 51.039883 20582.644531
2.920000 -1.080000 -5.040000 -180.807938 -26.031120 33369.128906
2.920000 -1.080000 -5.000000 -161.722397 -124.407516 41631.363281
2.920000 -1.080000 -4.960000 -79.615326 -186.879059 41262.382812
2.920000 -1.080000 -4.920000 18.536751 -179.221130 32463.824219
2.920000 -1.080000 -4.880000 78.113106 -116.230682 19611.228516
2.920000 -1.080000 -4.840000 78.389183 -46.529140 8309.825195
2.920000 -1.080000 -4.800000 42.807278 -11.312732 1960.440918
2.920000 -1.040000 -5.200000 1.660088 -5.271245 30.541916
2.920000 -1.040000 -5.160000 -28.728157 40.119949 2434.917480
2.920000 -1.040000 -5.120000 -107.434875 45.205502 13585.790039
2.920000 -1.040000 -5.080000 -181.869354 -26.602966 33784.179688
2.920000 -1.040000 -5.040000 -183.666504 -150.634796 56424.226562
2.920000 -1.040000 -5.000000 -89.957443 -250.799255 70992.609375
2.920000 -1.040000 -4.960000 50.219769 -259.515747 69870.445312
2.920000 -1.040000 -4.920000 152.614334 -174.346756 53687.925781
2.920000 -1.040000 -4.880000 165.631226 -58.653706 30873.960938
2.920000 -1.040000 -4.840000 107.547470 13.717867 11754.637695
2.920000 -1.040000 -4.800000 41.507820 17.272457 2021.236938
2.920000 -1.000000 -5.200000 16.429541 -3.750629 283.997040
2.920000 -1.000000 -5.160000 -41.118637 27.714275 2458.823242
2.920000 -1.000000 -5.120000 -124.449768 -11.732800 15625.403320
2.920000 -1.000000 -5.080000 -156.633514 -126.746384 40598.703125
2.920000 -1.000000 -5.040000 -83.952072 -249.156570 69126.945312
2.920000 -1.000000 -5.000000 67.976585 -288.185974 87671.968750
2.920000 -1.000000 -4.960000 207.004333 -208.502090 86323.914062
2.920000 -1.000000 -4.920000 248.893936 -62.672256 65876.000000
2.920000 -1.000000 -4.880000 185.330765 53.644711 37225.246094
2.920000 -1.000000 -4.840000 83.266602 81.483276 13572.851562
2.920000 -1.000000 -4.800000 20.348366 39.158653 1947.456177
2.920000 -0.960000 -5.200000 24.147865 10.843391 700.698547
2.920000 -0.960000 -5.160000 -44.025414 10.768787 2054.203857
2.920000 -0.960000 -5.120000 -97.349960 -65.979385 13830.293945
2.920000 -0.960000 -5.080000 -65.690979 -181.358582 37206.238281
2.920000 -0.960000 -5.040000 60.207031 -246.641464 64456.898438
2.920000 -0.960000 -5.000000 208.220001 -197.838226 82495.531250
2.920000 -0.960000 -4.960000 280.095154 -55.921753 81580.539062
2.920000 -0.960000 -4.920000 233.779800 87.523628 62313.382812
2.920000 -0.960000 -4.880000 115.982986 147.191864 35117.500000
2.920000 -0.960000 -4.840000 16.177994 111.437134 12679.961914
2.920000 -0.960000 -4.800000 -11.175814 39.578079 1691.323120
2.920000 -0.920000 -5.200000 16.989302 27.377296 1038.152710
2.920000 -0.920000 -5.160000 -37.722076 -2.521328 1429.312134
2.920000 -0.920000 -5.120000 -45.014767 -85.258179 9295.286133
2.920000 -0.920000 -5.080000 30.785582 -157.734955 25828.068359
2.920000 -0.920000 -5.040000 153.943985 -147.985519 45598.464844
2.920000 -0.920000 -5.000000 239.181641 -42.700020 59031.148438
2.920000 -0.920000 -4.960000 223.283417 94.707611 58825.015625
2.920000 -0.920000 -4.920000 119.756104 175.701645 45212.593750
2.920000 -0.920000 -4.880000 4.942909 160.152618 25673.292969
2.920000 -0.920000 -4.840000 -49.525463 83.458107 9418.027344
2.920000 -0.920000 -4.800000 -32.779312 15.956555 1329.094971
2.920000 -0.880000 -5.200000 -0.513038 33.356735 1112.934937
2.920000 -0.880000 -5.160000 -28.621504 -8.151888 885.643799
2.920000 -0.880000 -5.120000 -2.940277 -66.900543 4484.327637
2.920000 -0.880000 -5.080000 74.197083 -85.334000 12787.098633
2.920000 -0.880000 -5.040000 148.893677 -30.607483 23106.144531
2.920000 -0.880000 -5.000000 159.640015 70.112396 30400.681641
2.920000 -0.880000 -4.960000 92.283463 148.909729 30690.343750
2.920000 -0.880000 -4.920000 -6.725693 154.524109 23922.935547
2.920000 -0.880000 -4.880000 -71.258774 93.958374 13905.988281
2.920000 -0.880000 -4.840000 -70.703445 20.601055 5423.380371
2.920000 -0.880000 -4.800000 -28.223503 -15.924706 1050.162354
2.920000 -0.840000 -5.200000 -16.138218 25.480701 909.708252
2.920000 -0.840000 -5.160000 -22.452261 -8.939953 584.026794
2.920000 -0.840000 -5.120000 8.961119 -36.194214 1390.322754
2.920000 -0.840000 -5.080000 56.633663 -23.659740 3767.155273
2.920000 -0.840000 -5.040000 78.607285 28.371696 6984.058105
2.920000 -0.840000 -5.000000 50.487572 83.150429 9462.988281
2.920000 -0.840000 -4.960000 -11.071342 98.700577 9864.377930
2.920000 -0.840000 -4.920000 -62.496941 64.366837 8048.957520
2.920000 -0.840000 -4.880000 -71.026276 8.194580 5111.883301
2.920000 -0.840000 -4.840000 -40.062828 -29.983208 2504.022949
2.920000 -0.840000 -4.800000 -0.282242 -32.112366 1031.283691
2.920000 -0.800000 -5.200000 -20.939308 11.303765 566.229736
2.920000 -0.800000 -5.160000 -19.272675 -9.839193 468.245697
2.920000 -0.800000 -5.120000 -0.093367 -19.229887 369.797272
2.920000 -0.800000 -5.080000 18.001356 -6.875088 371.315674
2.920000 -0.800000 -5.040000 16.304062 16.221439 528.957520
2.920000 -0.800000 -5.000000 -5.744690 27.924141 812.759094
2.920000 -0.800000 -4.960000 -29.658310 15.698940 1126.072021
2.920000 -0.800000 -4.920000 -34.921112 -12.056854 1364.851807
2.920000 -0.800000 -4.880000 -16.997803 -34.354637 1469.166382
2.920000 -0.800000 -4.840000 10.498089 -36.349148 1431.470337
2.920000 -0.800000 -4.800000 29.535923 -20.139446 1277.968018
2.960000 -1.200000 -5.200000 12.503212 36.448002 1484.787109
2.960000 -1.200000 -5.160000 -20.379177 40.147099 2027.100342
2.960000 -1.200000 -5.120000 -46.764729 13.284369 2363.414307
2.960000 -1.200000 -5.080000 -41.100365 -25.733402 2351.447998
2.960000 -1.200000 -5.040000 -6.607033 -43.294464 1918.063477
2.960000 -1.200000 -5.000000 24.739178 -24.513313 1212.929443
2.960000 -1.200000 -4.960000 23.272417 9.999222 641.589844
2.960000 -1.200000 -4.920000 -7.897785 23.867451 632.030212
2.960000 -1.200000 -4.880000 -35.556709 1.787222 1267.473755
2.960000 -1.200000 -4.840000 -30.163374 -34.969231 2132.676270
2.960000 -1.200000 -4.800000 4.375695 -50.641964 2583.755127
2.960000 -1.160000 -5.200000 -9.100519 30.959982 1041.339966
2.960000 -1.160000 -5.160000 -25.869841 31.042915 1632.911255
2.960000 -1.160000 -5.120000 -39.947586 20.436165 2013.446533
2.960000 -1.160000 -5.080000 -45.005764 5.851357 2059.757080
2.960000 -1.160000 -5.040000 -44.126190 -5.085533 1972.983276
2.960000 -1.160000 -5.000000 -44.466980 -13.010910 2146.595947
2.960000 -1.160000 -4.960000 -46.502529 -25.177109 2796.371826
2.960000 -1.160000 -4.920000 -41.524139 -44.269913 3684.079346
2.960000 -1.160000 -4.880000 -21.718601 -61.223709 4220.040039
2.960000 -1.160000 -4.840000 8.031631 -62.030098 3912.240234
2.960000 -1.160000 -4.800000 31.089804 -42.572392 2778.984375
2.960000 -1.120000 -5.200000 -17.604988 12.386814 463.368774
2.960000 -1.120000 -5.160000 -27.655100 28.827793 1595.846191
2.960000 -1.120000 -5.120000 -58.510540 36.645119 4766.348145
2.960000 -1.120000 -5.080000 -98.220734 17.089066 9939.348633
2.960000 -1.120000 -5.040000 -121.281372 -32.768768 15782.962891
2.960000 -1.120000 -5.000000 -106.723145 -93.464630 20125.464844
2.960000 -1.120000 -4.960000 -55.293037 -134.321335 21099.541016
2.960000 -1.120000 -4.920000 8.978043 -134.806152 18253.304688
2.960000 -1.120000 -4.880000 55.105412 -99.014107 12840.399414
2.960000 -1.120000 -4.840000 66.456711 -51.504181 7069.175293
2.960000 -1.120000 -4.800000 50.032539 -18.389412 2841.425293
2.960000 -1.080000 -5.200000 -8.104784 -3.583767 78.530907
2.960000 -1.080000 -5.160000 -35.523819 29.851782 2153.070801
2.960000 -1.080000 -5.120000 -100.365051 28.052521 10860.087891
2.960000 -1.080000 -5.080000 -158.245483 -36.744110 26391.761719
2.960000 -1.080000 -5.040000 -154.068893 -142.103760 43930.703125
2.960000 -1.080000 -5.000000 -70.977547 -225.074905 55696.527344
2.960000 -1.080000 -4.960000 49.658386 -230.896027 55778.933594
2.960000 -1.080000 -4.920000 138.478546 -158.074265 44163.781250
2.960000 -1.080000 -4.880000 152.729538 -58.563354 26755.978516
2.960000 -1.080000 -4.840000 106.321747 6.614235 11348.061523
2.960000 -1.080000 -4.800000 50.399994 14.854959 2760.829346
2.960000 -1.040000 -5.200000 9.731962 -3.890966 109.850708
2.960000 -1.040000 -5.160000 -49.203796 23.780563 2986.528809
2.960000 -1.040000 -5.120000 -131.056381 -20.804081 17608.585938
2.960000 -1.040000 -5.080000 -158.386322 -139.633545 44583.753906
2.960000 -1.040000 -5.040000 -79.248856 -262.381683 75124.531250
2.960000 -1.040000 -5.000000 77.984970 -298.163147 94982.921875
2.960000 -1.040000 -4.960000 219.336304 -213.479462 93681.890625
2.960000 -1.040000 -4.920000 260.640411 -63.237389 71932.390625
2.960000 -1.040000 -4.880000 195.097778 55.555332 41149.539062
2.960000 -1.040000 -4.840000 91.394310 84.109879 15427.391602
2.960000 -1.040000 -4.800000 28.026619 41.965103 2546.561279
2.960000 -1.000000 -5.200000 20.098740 11.384731 533.571411
2.960000 -1.000000 -5.160000 -58.460152 6.723911 3462.800293
2.960000 -1.000000 -5.120000 -116.867081 -86.121262 21074.785156
2.960000 -1.000000 -5.080000 -74.808105 -221.179123 54516.457031
2.960000 -1.000000 -5.040000 76.366623 -294.796112 92736.609375
2.960000 -1.000000 -5.000000 250.859100 -233.624817 117510.843750
2.960000 -1.000000 -4.960000 333.691437 -64.217377 115473.851562
2.960000 -1.000000 -4.920000 277.054810 104.808289 87744.140625
2.960000 -1.000000 -4.880000 137.654785 173.670441 49110.261719
2.960000 -1.000000 -4.840000 21.573299 130.388123 17466.470703
2.960000 -1.000000 -4.800000 -7.915260 46.668922 2240.639648
2.960000 -0.960000 -5.200000 14.070301 30.051395 1101.059692
2.960000 -0.960000 -5.160000 -54.724415 -13.458660 3175.896973
2.960000 -0.960000 -5.120000 -59.793488 -124.474731 19069.220703
2.960000 -0.960000 -5.080000 45.065807 -219.882385 50379.187500
2.960000 -0.960000 -5.040000 212.019394 -204.537186 86787.687500
2.960000 -0.960000 -5.000000 327.145630 -60.973087 110741.984375
2.960000 -0.960000 -4.960000 305.624329 125.542122 109167.046875
2.960000 -0.960000 -4.920000 165.763306 235.544556 82958.710938
2.960000 -0.960000 -4.880000 11.139292 214.840698 46280.609375
2.960000 -0.960000 -4.840000 -60.960869 112.123352 16287.874023
2.960000 -0.960000 -4.800000 -36.635262 23.947956 1915.646973
2.960000 -0.920000 -5.200000 -4.229364 38.597939 1507.688477
2.960000 -0.920000 -5.160000 -40.689751 -25.232586 2292.339111
2.960000 -0.920000 -5.120000 2.618347 -113.324959 12849.401367
2.960000 -0.920000 -5.080000 123.523972 -140.110962 34889.253906
2.960000 -0.920000 -5.040000 241.487686 -54.419952 61277.832031
2.960000 -0.920000 -5.000000 261.400818 104.298935 79208.656250
2.960000 -0.920000 -4.960000 158.654999 231.627899 78822.890625
2.960000 -0.920000 -4.920000 3.398315 245.751465 60405.328125
2.960000 -0.920000 -4.880000 -100.407654 154.897354 34074.886719
2.960000 -0.920000 -4.840000 -102.558868 42.271385 12305.191406
2.960000 -0.920000 -4.800000 -38.782845 -12.549038 1661.587402
2.960000 -0.880000 -5.200000 -22.777054 32.588017 1580.772949
2.960000 -0.880000 -5.160000 -27.288750 -25.243027 1381.886230
2.960000 -0.880000 -5.120000 32.313889 -70.635040 6033.496582
2.960000 -0.880000 -5.080000 121.800331 -45.675957 16921.613281
2.960000 -0.880000 -5.040000 166.834732 53.230267 30667.289062
2.960000 -0.880000 -5.000000 118.991043 162.480301 40558.714844
2.960000 -0.880000 -4.960000 3.159264 202.769867 41125.597656
2.960000 -0.880000 -4.920000 -101.380447 147.906555 32154.343750
2.960000 -0.880000 -4.880000 -129.115341 45.392181 18731.222656
2.960000 -0.880000 -4.840000 -80.673286 -29.178192 7359.545898
2.960000 -0.880000 -4.800000 -12.285018 -37.499603 1557.141846
2.960000 -0.840000 -5.200000 -32.126553 18.015017 1356.656250
2.960000 -0.840000 -5.160000 -22.099648 -20.739468 918.519897
2.960000 -0.840000 -5.120000 24.062616 -34.648415 1779.522217
2.960000 -0.840000 -5.080000 68.659111 1.230484 4715.587891
2.960000 -0.840000 -5.040000 66.773956 66.845924 8927.138672
2.960000 -0.840000 -5.000000 9.805145 110.628738 12334.858398
2.960000 -0.840000 -4.960000 -63.224388 95.130508 13047.136719
2.960000 -0.840000 -4.920000 -99.035431 30.977646 10767.630859
2.960000 -0.840000 -4.880000 -76.232697 -33.502625 6933.849609
2.960000 -0.840000 -4.840000 -20.374626 -55.715607 3519.354248
2.960000 -0.840000 -4.800000 23.619701 -32.659016 1624.501709
2.960000 -0.800000 -5.200000 -31.540081 4.105109 1011.628662
2.960000 -0.800000 -5.160000 -22.418249 -20.617807 927.671875
2.960000 -0.800000 -5.120000 4.134539 -26.834352 737.176880
2.960000 -0.800000 -5.080000 23.807972 -7.488850 622.902405
2.960000 -0.800000 -5.040000 17.350403 19.645618 686.986816
2.960000 -0.800000 -5.000000 -10.048943 28.263977 899.833679
2.960000 -0.800000 -4.960000 -33.027870 8.677597 1166.140869
2.960000 -0.800000 -4.920000 -29.780394 -23.025116 1417.027832
2.960000 -0.800000 -4.880000 -1.701065 -40.324734 1628.977783
2.960000 -0.800000 -4.840000 29.452772 -30.117126 1774.507080
2.960000 -0.800000 -4.800000 42.253452 -2.084663 1789.700073
3.000000 -1.200000 -5.200000 -15.272617 38.013397 1678.271118
3.000000 -1.200000 -5.160000 -44.445480 18.797199 2328.735352
3.000000 -1.200000 -5.120000 -48.942165 -20.454609 2813.726562
3.000000 -1.200000 -5.080000 -19.968948 -49.640079 2862.896484
3.000000 -1.200000 -5.040000 19.739285 -43.812248 2309.152344
3.000000 -1.200000 -5.000000 35.534081 -9.678162 1356.337646
3.000000 -1.200000 -4.960000 15.018173 18.906357 582.995850
3.000000 -1.200000 -4.920000 -18.852264 13.866421 547.685486
3.000000 -1.200000 -4.880000 -30.452229 -19.087219 1291.660156
3.000000 -1.200000 -4.840000 -7.126966 -46.637802 2225.878174
3.000000 -1.200000 -4.800000 28.899523 -41.787930 2581.413574
3.000000 -1.160000 -5.200000 -28.713774 16.900789 1110.117432
3.000000 -1.160000 -5.160000 -40.277161 5.725201 1655.027588
3.000000 -1.160000 -5.120000 -43.799080 -11.083233 2041.197388
3.000000 -1.160000 -5.080000 -38.479164 -25.458870 2128.800293
3.000000 -1.160000 -5.040000 -30.748800 -33.496582 2067.509766
3.000000 -1.160000 -5.000000 -25.763481 -39.525406 2226.014648
3.000000 -1.160000 -4.960000 -20.229767 -49.481300 2857.642578
3.000000 -1.160000 -4.920000 -6.073982 -61.166142 3778.190186
3.000000 -1.160000 -4.880000 18.244598 -63.763901 4398.700195
3.000000 -1.160000 -4.840000 42.036507 -48.904060 4158.674805
3.000000 -1.160000 -4.800000 50.361172 -21.670580 3005.861572
3.000000 -1.120000 -5.200000 -20.751213 -4.197325 448.230377
3.000000 -1.120000 -5.160000 -36.249123 5.031986 1339.319824
3.000000 -1.120000 -5.120000 -65.937927 -4.609882 4369.061035
3.000000 -1.120000 -5.080000 -88.029037 -43.097542 9606.509766
3.000000 -1.120000 -5.040000 -78.375549 -97.807953 15709.122070
3.000000 -1.120000 -5.000000 -30.775070 -139.374847 20372.453125
3.000000 -1.120000 -4.960000 35.407166 -142.540146 21571.361328
3.000000 -1.120000 -4.920000 87.809708 -105.174049 18772.125000
3.000000 -1.120000 -4.880000 103.947281 -49.625244 13267.702148
3.000000 -1.120000 -4.840000 85.699135 -5.556988 7375.221680
3.000000 -1.120000 -4.800000 54.429947 10.989559 3083.389648
3.000000 -1.080000 -5.200000 -0.879015 -8.687874 76.251816
3.000000 -1.080000 -5.160000 -42.873806 6.436489 1879.591553
3.000000 -1.080000 -5.120000 -97.678986 -30.930691 10497.892578
3.000000 -1.080000 -5.080000 -110.163300 -118.802124 26249.896484
3.000000 -1.080000 -5.040000 -46.067314 -205.303589 44271.761719
3.000000 -1.080000 -5.000000 71.736305 -226.723969 56549.855469
3.000000 -1.080000 -4.960000 175.718811 -161.276703 56887.273438
3.000000 -1.080000 -4.920000 206.721115 -49.040611 45138.601562
3.000000 -1.080000 -4.880000 160.146912 41.049934 27332.130859
3.000000 -1.080000 -4.840000 84.222717 66.766823 11551.275391
3.000000 -1.080000 -4.800000 34.730324 40.416134 2839.659180
3.000000 -1.040000 -5.200000 12.784847 5.078508 189.243561
3.000000 -1.040000 -5.160000 -54.606106 -3.204815 2992.097656
3.000000 -1.040000 -5.120000 -100.492325 -87.678024 17786.142578
3.000000 -1.040000 -5.080000 -56.650040 -204.974915 45223.941406
3.000000 -1.040000 -5.040000 80.739899 -264.303314 76375.171875
3.000000 -1.040000 -5.000000 234.406891 -204.317612 96692.281250
3.000000 -1.040000 -4.960000 304.582336 -51.354458 95407.679688
3.000000 -1.040000 -4.920000 251.938843 98.529373 73181.218750
3.000000 -1.040000 -4.880000 127.914566 159.130371 41684.609375
3.000000 -1.040000 -4.840000 25.426161 121.538078 15417.994141
3.000000 -1.040000 -4.800000 -1.044924 49.156040 2417.408203
3.000000 -1.000000 -5.200000 9.272675 24.223255 672.748596
3.000000 -1.000000 -5.160000 -56.856216 -23.863697 3802.105469
3.000000 -1.000000 -5.120000 -55.543839 -136.990051 21851.390625
3.000000 -1.000000 -5.080000 56.446156 -229.638367 55919.949219
3.000000 -1.000000 -5.040000 227.427948 -207.417633 94745.546875
3.000000 -1.000000 -5.000000 341.506104 -56.251526 119790.656250
3.000000 -1.000000 -4.960000 315.073547 134.935974 117479.062500
3.000000 -1.000000 -4.920000 169.838348 245.256027 88995.585938
3.000000 -1.000000 -4.880000 12.469082 222.121704 49493.527344
3.000000 -1.000000 -4.840000 -59.100368 117.450470 17287.466797
3.000000 -1.000000 -4.800000 -33.088196 30.161587 2004.550049
3.000000 -0.960000 -5.200000 -7.702734 33.926498 1210.339478
3.000000 -0.960000 -5.160000 -43.138889 -41.855286 3612.828613
3.000000 -0.960000 -5.120000 13.696148 -140.689575 19981.140625
3.000000 -0.960000 -5.080000 156.822968 -165.138184 51864.062500
3.000000 -0.960000 -5.040000 291.955078 -59.392891 88765.281250
3.000000 -0.960000 -5.000000 310.604675 128.028595 112866.585938
3.000000 -0.960000 -4.960000 187.199219 275.482819 110934.328125
3.000000 -0.960000 -4.920000 5.322556 289.751984 83984.539062
3.000000 -0.960000 -4.880000 -114.189827 183.023849 46537.046875
3.000000 -0.960000 -4.840000 -114.959557 53.768082 16106.706055
3.000000 -0.960000 -4.800000 -41.335629 -5.870701 1743.099243
3.000000 -0.920000 -5.200000 -25.809303 29.274611 1523.122925
3.000000 -0.920000 -5.160000 -22.780275 -44.853718 2530.796875
3.000000 -0.920000 -5.120000 61.665932 -97.627388 13333.792969
3.000000 -0.920000 -5.080000 180.451172 -55.976566 35696.000000
3.000000 -0.920000 -5.040000 236.129852 81.624710 62419.902344
3.000000 -0.920000 -5.000000 166.956451 229.422607 80509.187500
3.000000 -0.920000 -4.960000 8.304871 282.632629 79950.171875
3.000000 -0.920000 -4.920000 -133.236862 208.156937 61081.367188
3.000000 -0.920000 -4.880000 -170.913971 71.172203 34277.070312
3.000000 -0.920000 -4.840000 -107.493790 -26.658279 12265.579102
3.000000 -0.920000 -4.800000 -20.220049 -35.479610 1667.653076
3.000000 -0.880000 -5.200000 -35.862606 16.096779 1545.232788
3.000000 -0.880000 -5.160000 -10.896673 -35.189751 1357.056152
3.000000 -0.880000 -5.120000 63.152496 -44.307686 5951.408691
3.000000 -0.880000 -5.080000 127.937637 22.601673 16878.875000
3.000000 -0.880000 -5.040000 116.302376 131.478973 30812.962891
3.000000 -0.880000 -5.000000 17.889206 201.486145 40916.691406
3.000000 -0.880000 -4.960000 -104.175690 175.205078 41549.394531
3.000000 -0.880000 -4.920000 -165.577637 71.042603 32463.003906
3.000000 -0.880000 -4.880000 -133.234406 -33.537300 18876.156250
3.000000 -0.880000 -4.840000 -48.903782 -71.106430 7447.704102
3.000000 -0.880000 -4.800000 15.455570 -38.426971 1715.506714
3.000000 -0.840000 -5.200000 -37.456982 2.579225 1409.677856
3.000000 -0.840000 -5.160000 -12.308943 -26.780163 868.687195
3.000000 -0.840000 -5.120000 34.195362 -18.927639 1527.578247
3.000000 -0.840000 -5.080000 57.449615 32.421146 4351.588867
3.000000 -0.840000 -5.040000 25.805931 89.246506 8630.884766
3.000000 -0.840000 -5.000000 -44.964111 100.903671 12203.322266
3.000000 -0.840000 -4.960000 -101.795143 51.684280 13033.515625
3.000000 -0.840000 -4.920000 -101.209564 -23.021805 10773.379883
3.000000 -0.840000 -4.880000 -47.554859 -68.348358 6932.962891
3.000000 -0.840000 -4.840000 13.945099 -58.130581 3573.630371
3.000000 -0.840000 -4.800000 40.147751 -13.182930 1785.631592
3.000000 -0.800000 -5.200000 -34.982445 -8.220844 1291.353760
3.000000 -0.800000 -5.160000 -17.273094 -29.673740 1178.890625
3.000000 -0.800000 -5.120000 11.718258 -26.939287 863.042786
3.000000 -0.800000 -5.080000 25.310371 -1.076699 641.774231
3.000000 -0.800000 -5.040000 10.456543 23.591515 665.898865
3.000000 -0.800000 -5.000000 -18.316696 22.885201 859.233765
3.000000 -0.800000 -4.960000 -32.493370 -3.286133 1066.617798
3.000000 -0.800000 -4.920000 -17.041775 -30.706966 1233.339844
3.000000 -0.800000 -4.880000 15.770508 -34.161003 1415.683105
3.000000 -0.800000 -4.840000 39.118660 -10.394596 1638.317139
3.000000 -0.800000 -4.800000 36.645031 21.287212 1796.003662
3.040000 -1.200000 -5.200000 -31.409750 17.918320 1307.638550
3.040000 -1.200000 -5.160000 -42.333065 -11.931114 1934.439819
3.040000 -1.200000 -5.120000 -25.118763 -43.929340 2560.739258
3.040000 -1.200000 -5.080000 12.255625 -51.857468 2839.397461
3.040000 -1.200000 -5.040000 41.114971 -27.808678 2463.763428
3.040000 -1.200000 -5.000000 38.358219 7.262566 1524.097900
3.040000 -1.200000 -4.960000 9.654236 22.044167 579.149536
3.040000 -1.200000 -4.920000 -15.314758 5.098314 260.534637
3.040000 -1.200000 -4.880000 -11.923676 -24.138805 724.855957
3.040000 -1.200000 -4.840000 15.433891 -35.300522 1484.331787
3.040000 -1.200000 -4.800000 38.955662 -17.500576 1823.813721
3.040000 -1.160000 -5.200000 -28.232136 -5.089521 822.956665
3.040000 -1.160000 -5.160000 -30.189604 -18.705004 1261.289307
3.040000 -1.160000 -5.120000 -23.828270 -33.205475 1670.389893
3.040000 -1.160000 -5.080000 -11.046879 -41.797615 1869.074219
3.040000 -1.160000 -5.040000 1.453285 -42.947159 1846.570557
3.040000 -1.160000 -5.000000 9.932159 -41.531227 1823.490601
3.040000 -1.160000 -4.960000 17.664497 -41.933067 2070.416504
3.040000 -1.160000 -4.920000 29.819874 -41.472729 2609.211914
3.040000 -1.160000 -4.880000 44.930115 -32.850288 3097.856689
3.040000 -1.160000 -4.840000 53.664024 -13.698486 3067.475830
3.040000 -1.160000 -4.800000 47.724972 7.748539 2337.712646
3.040000 -1.120000 -5.200000 -9.645104 -14.386253 299.992310
3.040000 -1.120000 -5.160000 -25.979393 -13.927109 868.893188
3.040000 -1.120000 -5.120000 -43.286354 -36.140045 3179.811523
3.040000 -1.120000 -5.080000 -38.967503 -75.949303 7286.762695
3.040000 -1.120000 -5.040000 -2.447342 -109.945435 12093.988281
3.040000 -1.120000 -5.000000 53.735268 -113.414169 15750.251953
3.040000 -1.120000 -4.960000 101.478615 -79.787727 16663.990234
3.040000 -1.120000 -4.920000 117.393654 -26.056648 14460.218750
3.040000 -1.120000 -4.880000 98.964615 20.086826 10197.475586
3.040000 -1.120000 -4.840000 63.906235 40.099728 5691.995117
3.040000 -1.120000 -4.800000 34.851437 35.199081 2453.598145
3.040000 -1.080000 -5.200000 6.327194 -4.524723 60.506504
3.040000 -1.080000 -5.160000 -33.988960 -13.341938 1333.256714
3.040000 -1.080000 -5.120000 -56.615429 -69.086510 7978.252930
3.040000 -1.080000 -5.080000 -21.053635 -140.734909 20249.570312
3.040000 -1.080000 -5.040000 70.654434 -171.380768 34363.417969
3.040000 -1.080000 -5.000000 167.836136 -126.047775 44057.011719
3.040000 -1.080000 -4.960000 209.385773 -24.485298 44441.933594
3.040000 -1.080000 -4.920000 173.329529 72.738892 35334.070312
3.040000 -1.080000 -4.880000 92.836906 113.093361 21408.800781
3.040000 -1.080000 -4.840000 25.230541 91.574326 9022.437500
3.040000 -1.080000 -4.800000 4.270892 46.727608 2201.709717
3.040000 -1.040000 -5.200000 6.327631 13.177259 213.679077
3.040000 -1.040000 -5.160000 -41.449802 -26.753708 2433.846924
3.040000 -1.040000 -5.120000 -34.050766 -113.468842 14034.632812
3.040000 -1.040000 -5.080000 57.501640 -179.309784 35458.437500
3.040000 -1.040000 -5.040000 189.596878 -154.310959 59758.847656
3.040000 -1.040000 -5.000000 273.148743 -32.147762 75643.710938
3.040000 -1.040000 -4.960000 247.249023 116.512100 74707.148438
3.040000 -1.040000 -4.920000 131.859573 199.980331 57379.078125
3.040000 -1.040000 -4.880000 9.602318 180.571716 32698.349609
3.040000 -1.040000 -4.840000 -45.746246 99.678238 12028.469727
3.040000 -1.040000 -4.800000 -26.551079 32.900948 1787.432129
3.040000 -1.000000 -5.200000 -7.591640 23.081942 590.408997
3.040000 -1.000000 -5.160000 -33.936680 -46.094807 3276.429443
3.040000 -1.000000 -5.120000 22.735168 -130.651886 17586.804688
3.040000 -1.000000 -5.080000 152.357010 -144.970490 44229.101562
3.040000 -1.000000 -5.040000 269.248596 -43.852474 74417.843750
3.040000 -1.000000 -5.000000 279.329285 125.625664 93806.656250
3.040000 -1.000000 -4.960000 164.092346 254.884888 91892.601562
3.040000 -1.000000 -4.920000 0.464215 263.800537 69590.945312
3.040000 -1.000000 -4.880000 -104.629936 166.496170 38668.398438
3.040000 -1.000000 -4.840000 -103.560654 51.928265 13421.353516
3.040000 -1.000000 -4.800000 -38.086498 1.133522 1451.866211
3.040000 -0.960000 -5.200000 -23.064362 19.431145 909.534180
3.040000 -0.960000 -5.160000 -12.668995 -54.174229 3095.350586
3.040000 -0.960000 -5.120000 77.531921 -100.563362 16124.189453
3.040000 -0.960000 -5.080000 196.415894 -49.718731 41051.156250
3.040000 -0.960000 -5.040000 246.300354 94.926796 69674.960938
3.040000 -0.960000 -5.000000 168.884583 244.320709 88214.609375
3.040000 -0.960000 -4.960000 4.037594 294.062897 86489.289062
3.040000 -0.960000 -4.920000 -139.175552 214.445435 65356.679688
3.040000 -0.960000 -4.880000 -174.885773 74.491241 36133.976562
3.040000 -0.960000 -4.840000 -109.269119 -22.488791 12445.486328
3.040000 -0.960000 -4.800000 -22.921982 -28.269779 1324.597656
3.040000 -0.920000 -5.200000 -30.847124 8.406021 1022.206238
3.040000 -0.920000 -5.160000 5.905079 -44.109127 1980.485107
3.040000 -0.920000 -5.120000 92.829346 -43.537964 10512.841797
3.040000 -0.920000 -5.080000 161.481445 43.132500 27936.669922
3.040000 -0.920000 -5.040000 138.012177 172.041306 48645.570312
3.040000 -0.920000 -5.000000 15.859184 249.620651 62561.984375
3.040000 -0.920000 -4.960000 -128.676315 213.096039 61967.515625
3.040000 -0.920000 -4.920000 -198.594940 88.138657 47208.371094
3.040000 -0.920000 -4.880000 -159.022858 -33.441715 26406.617188
3.040000 -0.920000 -4.840000 -61.925655 -74.872452 9440.670898
3.040000 -0.920000 -4.800000 8.163670 -36.097919 1369.705322
3.040000 -0.880000 -5.200000 -31.764923 -1.705256 1011.918213
3.040000 -0.880000 -5.160000 7.842939 -27.495728 817.526733
3.040000 -0.880000 -5.120000 65.424423 -1.742958 4283.393066
3.040000 -0.880000 -5.080000 83.129227 76.072479 12697.490234
3.040000 -0.880000 -5.040000 25.323997 151.227707 23511.125000
3.040000 -0.880000 -5.000000 -79.989578 158.036591 31373.896484
3.040000 -0.880000 -4.960000 -158.895203 81.356003 31866.484375
3.040000 -0.880000 -4.920000 -155.406219 -25.980835 24826.097656
3.040000 -0.880000 -4.880000 -80.381439 -88.970612 14376.945312
3.040000 -0.880000 -4.840000 1.736778 -75.479584 5700.184082
3.040000 -0.880000 -4.800000 33.471619 -18.110540 1448.340942
3.040000 -0.840000 -5.200000 -31.342808 -9.614859 1074.817139
3.040000 -0.840000 -5.160000 -2.996344 -22.103664 497.550079
3.040000 -0.840000 -5.120000 27.755688 0.684008 770.846069
3.040000 -0.840000 -5.080000 24.691658 46.915001 2810.695312
3.040000 -0.840000 -5.040000 -21.466896 75.384918 6143.713379
3.040000 -0.840000 -5.000000 -78.252869 53.863907 9024.832031
3.040000 -0.840000 -4.960000 -98.519737 -7.500725 9762.399414
3.040000 -0.840000 -4.920000 -64.146347 -62.801468 8058.778320
3.040000 -0.840000 -4.880000 -2.832832 -71.687546 5147.128906
3.040000 -0.840000 -4.840000 38.443832 -34.597031 2674.882812
3.040000 -0.840000 -4.800000 35.986328 11.940165 1437.583374
3.040000 -0.800000 -5.200000 -30.436848 -19.550644 1308.629395
3.040000 -0.800000 -5.160000 -9.087352 -32.646542 1148.376587
3.040000 -0.800000 -5.120000 14.576992 -22.110447 701.360535
3.040000 -0.800000 -5.080000 18.587776 2.814651 353.427704
3.040000 -0.800000 -5.040000 0.104542 17.917038 321.031189
3.040000 -0.800000 -5.000000 -20.972763 8.562981 513.181396
3.040000 -0.800000 -4.960000 -21.914639 -15.205070 711.445557
3.040000 -0.800000 -4.920000 0.026215 -28.733358 825.606567
3.040000 -0.800000 -4.880000 25.314671 -17.228992 937.670715
3.040000 -0.800000 -4.840000 31.828823 10.611465 1125.677124
3.040000 -0.800000 -4.800000 15.472391 32.708363 1309.231934
3.080000 -1.200000 -5.200000 -24.967655 -3.913809 638.701660
3.080000 -1.200000 -5.160000 -18.906384 -27.320984 1103.887451
3.080000 -1.200000 -5.120000 6.084625 -41.378147 1749.173706
3.080000 -1.200000 -5.080000 35.730621 -31.620052 2276.504883
3.080000 -1.200000 -5.040000 47.887131 -2.419403 2299.030762
3.080000 -1.200000 -5.000000 33.431221 24.061035 1696.579834
3.080000 -1.200000 -4.960000 6.246078 27.568481 799.034668
3.080000 -1.200000 -4.920000 -9.228432 8.977222 165.754471
3.080000 -1.200000 -4.880000 -1.319682 -10.923779 121.070496
3.080000 -1.200000 -4.840000 18.333237 -12.325375 488.022430
3.080000 -1.200000 -4.800000 27.681681 4.295431 784.726196
3.080000 -1.160000 -5.200000 -11.778601 -15.280958 372.243103
3.080000 -1.160000 -5.160000 -7.970760 -24.157288 647.107544
3.080000 -1.160000 -5.120000 2.688541 -32.001892 1031.349365
3.080000 -1.160000 -5.080000 17.596321 -32.433262 1361.546997
3.080000 -1.160000 -5.040000 29.523933 -24.551291 1474.428467
3.080000 -1.160000 -5.000000 34.187714 -13.942196 1363.184570
3.080000 -1.160000 -4.960000 34.176620 -6.287292 1207.571411
3.080000 -1.160000 -4.920000 34.686798 -1.311539 1204.894043
3.080000 -1.160000 -4.880000 36.403244 5.580376 1356.336792
3.080000 -1.160000 -4.840000 34.388409 15.996296 1438.444092
3.080000 -1.160000 -4.800000 24.694330 24.665850 1218.214111
3.080000 -1.120000 -5.200000 3.048558 -10.389764 117.240898
3.080000 -1.120000 -5.160000 -9.295267 -17.075920 377.989014
3.080000 -1.120000 -5.120000 -10.232767 -40.094807 1712.302979
3.080000 -1.120000 -5.080000 12.361008 -63.114548 4136.240723
3.080000 -1.120000 -5.040000 51.926342 -65.300293 6960.473633
3.080000 -1.120000 -5.000000 86.973961 -38.689056 9061.312500
3.080000 -1.120000 -4.960000 97.446045 4.943810 9520.172852
3.080000 -1.120000 -4.920000 79.448532 43.208744 8179.064941
3.080000 -1.120000 -4.880000 46.481968 59.601341 5712.893066
3.080000 -1.120000 -4.840000 17.697237 53.521721 3177.766846
3.080000 -1.120000 -4.800000 4.295381 37.066006 1392.339111
3.080000 -1.080000 -5.200000 5.740875 3.556936 45.609444
3.080000 -1.080000 -5.160000 -17.871323 -20.410450 735.970642
3.080000 -1.080000 -5.120000 -7.624796 -66.941406 4539.289551
3.080000 -1.080000 -5.080000 47.606606 -96.509499 11580.471680
3.080000 -1.080000 -5.040000 119.425972 -73.848099 19716.103516
3.080000 -1.080000 -5.000000 159.331055 -0.805450 25387.033203
3.080000 -1.080000 -4.960000 138.264709 81.527390 25763.845703
3.080000 -1.080000 -4.920000 70.848015 125.022636 20650.101562
3.080000 -1.080000 -4.880000 2.285538 112.399590 12638.891602
3.080000 -1.080000 -4.840000 -29.324045 67.228073 5379.513184
3.080000 -1.080000 -4.800000 -20.759670 29.325233 1290.933228
3.080000 -1.040000 -5.200000 -4.197906 12.277212 168.352341
3.080000 -1.040000 -5.160000 -18.212366 -35.035034 1559.143921
3.080000 -1.040000 -5.120000 24.381001 -87.953735 8330.292969
3.080000 -1.040000 -5.080000 111.852341 -90.206360 20648.132812
3.080000 -1.040000 -5.040000 185.251465 -16.367043 34585.984375
3.080000 -1.040000 -5.000000 184.756165 98.266487 43791.140625
3.080000 -1.040000 -4.960000 102.478851 181.536194 43457.304688
3.080000 -1.040000 -4.920000 -8.314964 183.329163 33678.718750
3.080000 -1.040000 -4.880000 -77.680496 115.848801 19455.203125
3.080000 -1.040000 -4.840000 -76.142807 38.649944 7291.545410
3.080000 -1.040000 -4.800000 -32.384480 4.496044 1068.968872
3.080000 -1.000000 -5.200000 -15.824547 9.287406 336.672180
3.080000 -1.000000 -5.160000 -2.939840 -46.369392 2158.763184
3.080000 -1.000000 -5.120000 69.346237 -76.312935 10632.564453
3.080000 -1.000000 -5.080000 158.354706 -30.362116 25998.070312
3.080000 -1.000000 -5.040000 190.170502 84.179878 43251.070312
3.080000 -1.000000 -5.000000 124.168480 197.264191 54330.972656
3.080000 -1.000000 -4.960000 -5.623660 230.818069 53308.605469
3.080000 -1.000000 -4.920000 -115.084328 165.452194 40618.828125
3.080000 -1.000000 -4.880000 -140.266098 56.166870 22829.294922
3.080000 -1.000000 -4.840000 -88.145523 -17.844254 8088.050781
3.080000 -1.000000 -4.800000 -21.782887 -20.865934 909.881348
3.080000 -0.960000 -5.200000 -19.952421 0.487112 398.336395
3.080000 -0.960000 -5.160000 17.246267 -40.696716 1953.656494
3.080000 -0.960000 -5.120000 93.086533 -32.317501 9709.523438
3.080000 -0.960000 -5.080000 147.243622 49.153545 24096.753906
3.080000 -0.960000 -5.040000 118.928818 162.051285 40404.683594
3.080000 -0.960000 -5.000000 6.900307 225.446716 50873.835938
3.080000 -0.960000 -4.960000 -120.237228 188.022415 49809.421875
3.080000 -0.960000 -4.920000 -178.961426 75.452560 37720.281250
3.080000 -0.960000 -4.880000 -141.570557 -30.957047 21000.560547
3.080000 -0.960000 -4.840000 -55.846497 -65.217529 7372.157227
3.080000 -0.960000 -4.800000 3.452770 -29.576740 886.705200
3.080000 -0.920000 -5.200000 -18.196598 -5.223519 358.401337
3.080000 -0.920000 -5.160000 24.258938 -21.631321 1056.410156
3.080000 -0.920000 -5.120000 76.799164 13.410942 6077.964844
3.080000 -0.920000 -5.080000 84.495758 94.603157 16089.290039
3.080000 -0.920000 -5.040000 17.656666 165.978958 27860.771484
3.080000 -0.920000 -5.000000 -91.434258 165.294662 35682.550781
3.080000 -0.920000 -4.960000 -168.730850 82.253914 35235.804688
3.080000 -0.920000 -4.920000 -161.366669 -27.469135 26793.753906
3.080000 -0.920000 -4.880000 -83.888435 -89.276947 15007.642578
3.080000 -0.920000 -4.840000 -2.701572 -73.810028 5455.218750
3.080000 -0.920000 -4.800000 25.474524 -16.913038 935.002197
3.080000 -0.880000 -5.200000 -18.168207 -7.175419 381.570374
3.080000 -0.880000 -5.160000 12.716393 -7.772114 222.112396
3.080000 -0.880000 -5.120000 36.499950 28.060135 2119.617432
3.080000 -0.880000 -5.080000 17.658096 80.874878 6852.554688
3.080000 -0.880000 -5.040000 -46.441788 104.059380 12985.194336
3.080000 -0.880000 -5.000000 -114.059914 66.613373 17447.005859
3.080000 -0.880000 -4.960000 -132.436432 -13.170532 17712.871094
3.080000 -0.880000 -4.920000 -86.026627 -79.585327 13734.404297
3.080000 -0.880000 -4.880000 -11.720001 -88.188812 7914.625000
3.080000 -0.880000 -4.840000 35.057079 -44.193119 3182.030518
3.080000 -0.880000 -4.800000 29.893723 6.615431 937.398560
3.080000 -0.840000 -5.200000 -21.694241 -12.654598 630.778931
3.080000 -0.840000 -5.160000 -2.888338 -13.102801 180.025894
3.080000 -0.840000 -5.120000 7.974644 7.796228 124.376122
3.080000 -0.840000 -5.080000 -7.926300 32.447437 1115.662354
3.080000 -0.840000 -5.040000 -43.545425 32.737732 2967.963135
3.080000 -0.840000 -5.000000 -68.270645 -0.462227 4661.094727
3.080000 -0.840000 -4.960000 -56.411655 -44.426788 5156.014648
3.080000 -0.840000 -4.920000 -13.444054 -63.824085 4254.256348
3.080000 -0.840000 -4.880000 27.734360 -43.819927 2689.380859
3.080000 -0.840000 -4.840000 37.466984 -3.419231 1415.466064
3.080000 -0.840000 -4.800000 15.779537 24.147900 832.114807
3.080000 -0.800000 -5.200000 -20.809420 -25.732805 1095.209229
3.080000 -0.800000 -5.160000 -2.683153 -31.233738 982.745728
3.080000 -0.800000 -5.120000 12.315434 -19.927151 548.761230
3.080000 -0.800000 -5.080000 11.490448 -3.059822 141.392914
3.080000 -0.800000 -5.040000 -1.209997 2.977707 10.330831
3.080000 -0.800000 -5.000000 -9.610458 -5.813713 126.160172
3.080000 -0.800000 -4.960000 -2.859039 -16.959780 295.808228
3.080000 -0.800000 -4.920000 12.932076 -15.134126 396.280334
3.080000 -0.800000 -4.880000 21.394665 1.470409 459.893799
3.080000 -0.800000 -4.840000 13.121592 19.584053 555.711304
3.080000 -0.800000 -4.800000 -5.307533 25.004292 653.384521
3.120000 -1.200000 -5.200000 -6.538947 -9.180884 127.046463
3.120000 -1.200000 -5.160000 3.651137 -18.622803 360.139587
3.120000 -1.200000 -5.120000 21.979429 -18.813726 837.051636
3.120000 -1.200000 -5.080000 37.721294 -3.653343 1436.242920
3.120000 -1.200000 -5.040000 37.842411 20.365940 1846.819580
3.120000 -1.200000 -5.000000 20.040852 37.248772 1789.106689
3.120000 -1.200000 -4.960000 -3.209118 35.414330 1264.473145
3.120000 -1.200000 -4.920000 -15.190503 18.735416 581.767212
3.120000 -1.200000 -4.880000 -10.239358 2.873825 113.103325
3.120000 -1.200000 -4.840000 1.779213 0.071613 3.170727
3.120000 -1.200000 -4.800000 6.439664 7.866214 103.346588
3.120000 -1.160000 -5.200000 2.897853 -7.547896 65.368294
3.120000 -1.160000 -5.160000 5.948509 -11.208552 161.016403
3.120000 -1.160000 -5.120000 15.444551 -13.457448 419.637024
3.120000 -1.160000 -5.080000 27.327446 -7.209954 798.772766
3.120000 -1.160000 -5.040000 32.630920 7.109376 1115.320190
3.120000 -1.160000 -5.000000 26.996717 21.124382 1175.062256
3.120000 -1.160000 -4.960000 15.211897 26.807419 950.039490
3.120000 -1.160000 -4.920000 5.961004 24.094795 616.092712
3.120000 -1.160000 -4.880000 2.955288 19.570312 391.730865
3.120000 -1.160000 -4.840000 2.472723 18.297312 340.905975
3.120000 -1.160000 -4.800000 -0.494178 18.494871 342.304474
3.120000 -1.120000 -5.200000 5.173000 1.197809 28.194679
3.120000 -1.120000 -5.160000 -0.642081 -8.294227 69.206467
3.120000 -1.120000 -5.120000 8.799841 -21.949526 559.218872
3.120000 -1.120000 -5.080000 31.401455 -23.551193 1540.710083
3.120000 -1.120000 -5.040000 51.988400 -5.517700 2733.238770
3.120000 -1.120000 -5.000000 55.260071 24.167927 3637.764160
3.120000 -1.120000 -4.960000 38.278316 48.728722 3839.717773
3.120000 -1.120000 -4.920000 11.720364 56.048649 3278.817871
3.120000 -1.120000 -4.880000 -9.773323 46.576714 2264.907959
3.120000 -1.120000 -4.840000 -18.326799 30.216326 1248.897949
3.120000 -1.120000 -4.800000 -15.860029 17.139336 545.297363
3.120000 -1.080000 -5.200000 -1.544141 6.672650 46.908630
3.120000 -1.080000 -5.160000 -5.774000 -16.107555 292.792419
3.120000 -1.080000 -5.120000 17.640961 -36.985596 1679.137817
3.120000 -1.080000 -5.080000 57.678585 -30.620653 4264.443359
3.120000 -1.080000 -5.040000 85.078339 9.262157 7324.111328
3.120000 -1.080000 -5.000000 75.968506 61.823891 9593.407227
3.120000 -1.080000 -4.960000 32.342571 94.542053 9984.242188
3.120000 -1.080000 -4.920000 -19.099388 89.004303 8286.552734
3.120000 -1.080000 -4.880000 -48.579346 54.444214 5324.125000
3.120000 -1.080000 -4.840000 -45.913151 17.927065 2429.396973
3.120000 -1.080000 -4.800000 -24.924114 1.357658 623.054749
3.120000 -1.040000 -5.200000 -8.946337 3.247521 90.583336
3.120000 -1.040000 -5.160000 1.117633 -26.947475 727.415527
3.120000 -1.040000 -5.120000 42.406746 -38.885075 3310.381348
3.120000 -1.040000 -5.080000 88.180771 -8.348362 7845.543457
3.120000 -1.040000 -5.040000 99.097328 56.241783 12983.417969
3.120000 -1.040000 -5.000000 57.024422 115.231506 16530.083984
3.120000 -1.040000 -4.960000 -16.389065 128.281937 16724.857422
3.120000 -1.040000 -4.920000 -75.295311 87.987671 13411.213867
3.120000 -1.040000 -4.880000 -86.732002 25.728220 8184.381836
3.120000 -1.040000 -4.840000 -55.914738 -15.711143 3373.298096
3.120000 -1.040000 -4.800000 -17.533520 -17.357731 608.715149
3.120000 -1.000000 -5.200000 -9.073487 -3.848948 97.142570
3.120000 -1.000000 -5.160000 17.118410 -26.743740 1008.267639
3.120000 -1.000000 -5.120000 63.729584 -16.508133 4333.978516
3.120000 -1.000000 -5.080000 92.937408 37.519657 10045.086914
3.120000 -1.000000 -5.040000 69.757530 107.224884 16363.289062
3.120000 -1.000000 -5.000000 -3.657601 143.099030 20490.710938
3.120000 -1.000000 -4.960000 -83.661865 115.410599 20318.914062
3.120000 -1.000000 -4.920000 -118.883987 41.741261 15875.735352
3.120000 -1.000000 -4.880000 -92.977631 -26.590322 9351.884766
3.120000 -1.000000 -4.840000 -36.619385 -48.041161 3648.932617
3.120000 -1.000000 -4.800000 2.201313 -24.014427 581.538452
3.120000 -0.960000 -5.200000 -3.965718 -5.694149 48.150253
3.120000 -0.960000 -5.160000 26.892754 -11.610586 858.025940
3.120000 -0.960000 -5.120000 60.053177 17.825945 3924.148438
3.120000 -0.960000 -5.080000 59.509674 75.784058 9284.625000
3.120000 -0.960000 -5.040000 7.779642 123.142784 15224.667969
3.120000 -0.960000 -5.000000 -70.891251 118.273590 19014.210938
3.120000 -0.960000 -4.960000 -124.702438 55.762131 18660.113281
3.120000 -0.960000 -4.920000 -117.212044 -24.263144 14327.363281
3.120000 -0.960000 -4.880000 -59.529549 -68.576233 8246.466797
3.120000 -0.960000 -4.840000 0.029287 -56.190628 3157.387695
3.120000 -0.960000 -4.800000 19.681704 -13.610287 572.609375
3.120000 -0.920000 -5.200000 -2.772418 -1.395551 9.633867
3.120000 -0.920000 -5.160000 19.000263 5.472696 390.960419
3.120000 -0.920000 -5.120000 30.585707 37.266598 2324.284668
3.120000 -0.920000 -5.080000 8.248072 77.025299 6000.927246
3.120000 -0.920000 -5.040000 -46.733292 89.795898 10247.303711
3.120000 -0.920000 -5.000000 -100.556458 53.988136 13026.320312
3.120000 -0.920000 -4.960000 -112.385254 -13.794367 12820.729492
3.120000 -0.920000 -4.920000 -71.465210 -68.291924 9771.062500
3.120000 -0.920000 -4.880000 -9.017040 -74.054413 5565.363281
3.120000 -0.920000 -4.840000 29.005100 -36.523705 2175.276855
3.120000 -0.920000 -4.800000 22.813139 5.079693 546.242615
3.120000 -0.880000 -5.200000 -9.503071 -0.021880 90.308838
3.120000 -0.880000 -5.160000 0.002007 6.952904 48.342873
3.120000 -0.880000 -5.120000 -1.149841 26.157207 685.521667
3.120000 -0.880000 -5.080000 -24.020542 41.699905 2315.868652
3.120000 -0.880000 -5.040000 -58.636662 32.049755 4465.444824
3.120000 -0.880000 -5.000000 -77.434753 -6.438484 6037.595215
3.120000 -0.880000 -4.960000 -59.938641 -50.263809 6119.090820
3.120000 -0.880000 -4.920000 -14.734983 -67.062424 4714.488281
3.120000 -0.880000 -4.880000 25.554174 -45.438747 2717.695557
3.120000 -0.880000 -4.840000 33.516277 -6.105934 1160.623291
3.120000 -0.880000 -4.800000 11.665359 17.989441 459.700592
3.120000 -0.840000 -5.200000 -16.062765 -9.570061 349.598480
3.120000 -0.840000 -5.160000 -10.181615 -10.067126 205.012314
3.120000 -0.840000 -5.120000 -8.732567 -3.541778 88.801910
3.120000 -0.840000 -5.080000 -17.233171 0.529549 297.262634
3.120000 -0.840000 -5.040000 -28.047232 -8.119911 852.580200
3.120000 -0.840000 -5.000000 -26.543888 -26.815121 1423.628662
3.120000 -0.840000 -4.960000 -7.385735 -39.522305 1616.561646
3.120000 -0.840000 -4.920000 17.200319 -32.259979 1336.557251
3.120000 -0.840000 -4.880000 27.817085 -8.366470 843.788025
3.120000 -0.840000 -4.840000 17.000801 13.510667 471.565369
3.120000 -0.840000 -4.800000 -3.364550 17.609953 321.430634
3.120000 -0.800000 -5.200000 -9.922476 -25.311480 739.126526
3.120000 -0.800000 -5.160000 1.551531 -28.623932 821.736694
3.120000 -0.800000 -5.120000 11.582008 -22.918472 659.399292
3.120000 -0.800000 -5.080000 14.445162 -13.936075 402.876892
3.120000 -0.800000 -5.040000 12.434762 -8.388353 224.987778
3.120000 -0.800000 -5.000000 11.604946 -6.554813 177.640350
3.120000 -0.800000 -4.960000 13.632248 -3.277062 196.577316
3.120000 -0.800000 -4.920000 13.789684 4.328163 208.888397
3.120000 -0.800000 -4.880000 7.356869 12.187279 202.653290
3.120000 -0.800000 -4.840000 -3.567703 13.594090 197.527802
3.120000 -0.800000 -4.800000 -11.528138 7.355220 186.997223
3.160000 -1.200000 -5.200000 4.423707 2.213350 24.468103
3.160000 -1.200000 -5.160000 7.553332 0.980598 58.014400
3.160000 -1.200000 -5.120000 15.238102 3.055546 241.536118
3.160000 -1.200000 -5.080000 21.781044 13.961864 669.347534
3.160000 -1.200000 -5.040000 17.709431 30.501881 1243.988647
3.160000 -1.200000 -5.000000 0.404639 41.079014 1687.649048
3.160000 -1.200000 -4.960000 -20.930395 36.085442 1740.240479
3.160000 -1.200000 -4.920000 -32.421730 17.822853 1368.822632
3.160000 -1.200000 -4.880000 -28.159554 -0.920469 793.807739
3.160000 -1.200000 -4.840000 -15.222074 -8.738045 308.064941
3.160000 -1.200000 -4.800000 -5.851356 -5.722655 66.987137
3.160000 -1.160000 -5.200000 2.684683 6.763871 52.957478
3.160000 -1.160000 -5.160000 2.161787 3.925365 20.081814
3.160000 -1.160000 -5.120000 8.553363 3.608605 86.182053
3.160000 -1.160000 -5.080000 14.879596 12.442026 376.206390
3.160000 -1.160000 -5.040000 11.324615 26.614082 836.556274
3.160000 -1.160000 -5.000000 -3.605105 34.787231 1223.148315
3.160000 -1.160000 -4.960000 -20.543468 29.494976 1291.987671
3.160000 -1.160000 -4.920000 -28.178623 14.659993 1008.950195
3.160000 -1.160000 -4.880000 -23.899021 1.323557 572.915039
3.160000 -1.160000 -4.840000 -14.932387 -3.367461 234.315994
3.160000 -1.160000 -4.800000 -9.537645 -1.873525 94.476776
3.160000 -1.120000 -5.200000 -3.437243 7.581282 69.290474
3.160000 -1.120000 -5.160000 -3.861952 -0.240821 14.972671
3.160000 -1.120000 -5.120000 5.521753 -3.022179 39.623325
3.160000 -1.120000 -5.080000 14.981432 6.115816 261.846497
3.160000 -1.120000 -5.040000 13.466442 22.200434 674.204346
3.160000 -1.120000 -5.000000 -0.751382 33.170959 1100.877075
3.160000 -1.120000 -4.960000 -18.863272 30.994293 1316.469238
3.160000 -1.120000 -4.920000 -29.895023 18.023611 1218.562988
3.160000 -1.120000 -4.880000 -29.702732 3.396741 893.790161
3.160000 -1.120000 -4.840000 -22.306292 -5.484174 527.646790
3.160000 -1.120000 -4.800000 -14.129450 -7.599480 257.393433
3.160000 -1.080000 -5.200000 -7.551970 1.858179 60.485088
3.160000 -1.080000 -5.160000 -2.473033 -8.818300 83.878311
3.160000 -1.080000 -5.120000 12.126947 -9.311326 233.763641
3.160000 -1.080000 -5.080000 23.409359 5.136930 574.386169
3.160000 -1.080000 -5.040000 19.510633 26.572536 1086.764526
3.160000 -1.080000 -5.000000 -0.432955 40.301014 1624.359253
3.160000 -1.080000 -4.960000 -25.317558 36.402000 1966.084351
3.160000 -1.080000 -4.920000 -40.614223 17.154778 1943.801514
3.160000 -1.080000 -4.880000 -39.039101 -5.321444 1552.369141
3.160000 -1.080000 -4.840000 -24.857681 -18.500477 960.171936
3.160000 -1.080000 -4.800000 -9.311120 -17.993250 410.454010
3.160000 -1.040000 -5.200000 -3.894802 -4.930357 39.477905
3.160000 -1.040000 -5.160000 7.536599 -11.902213 198.462997
3.160000 -1.040000 -5.120000 23.549774 -4.994256 579.534424
3.160000 -1.040000 -5.080000 30.233562 16.197659 1176.432373
3.160000 -1.040000 -5.040000 17.471054 39.773170 1887.142822
3.160000 -1.040000 -5.000000 -11.571138 48.802711 2515.595947
3.160000 -1.040000 -4.960000 -40.606766 34.376221 2830.634033
3.160000 -1.040000 -4.920000 -51.588890 3.838422 2676.146973
3.160000 -1.040000 -4.880000 -38.804302 -23.784718 2071.486816
3.160000 -1.040000 -4.840000 -13.585855 -32.368080 1232.268066
3.160000 -1.040000 -4.800000 5.048189 -21.228294 476.124695
3.160000 -1.000000 -5.200000 4.567354 -4.329254 39.603161
3.160000 -1.000000 -5.160000 16.580845 -3.082709 284.427490
3.160000 -1.000000 -5.120000 26.579903 10.543223 817.650757
3.160000 -1.000000 -5.080000 23.054699 32.740559 1603.463379
3.160000 -1.000000 -5.040000 0.621354 49.514862 2452.107666
3.160000 -1.000000 -5.000000 -31.766212 45.484459 3077.928223
3.160000 -1.000000 -4.960000 -54.044579 17.760298 3236.244629
3.160000 -1.000000 -4.920000 -50.223358 -18.262852 2855.917480
3.160000 -1.000000 -4.880000 -23.018627 -39.355408 2078.705322
3.160000 -1.000000 -4.840000 6.869292 -33.721333 1184.315430
3.160000 -1.000000 -4.800000 18.139589 -11.394983 458.890350
3.160000 -0.960000 -5.200000 7.848137 4.680169 83.497238
3.160000 -0.960000 -5.160000 13.084723 11.416753 301.552246
3.160000 -0.960000 -5.120000 13.182552 24.380188 768.173218
3.160000 -0.960000 -5.080000 1.294796 38.534660 1486.596558
3.160000 -0.960000 -5.040000 -22.758793 41.797199 2264.968506
3.160000 -0.960000 -5.000000 -46.631165 24.647356 2781.957764
3.160000 -0.960000 -4.960000 -52.276497 -7.815475 2793.913574
3.160000 -0.960000 -4.920000 -32.250206 -35.631935 2309.710449
3.160000 -0.960000 -4.880000 0.589039 -39.654678 1572.840454
3.160000 -0.960000 -4.840000 22.270552 -19.510372 876.632080
3.160000 -0.960000 -4.800000 19.150402 4.922127 390.965210
3.160000 -0.920000 -5.200000 0.041359 12.545891 157.401093
3.160000 -0.920000 -5.160000 -3.095862 16.799772 291.816711
3.160000 -0.920000 -5.120000 -8.631099 21.301334 528.242737
3.160000 -0.920000 -5.080000 -19.674917 23.403168 934.810608
3.160000 -0.920000 -5.040000 -34.194969 15.961819 1424.075562
3.160000 -0.920000 -5.000000 -41.728966 -3.879754 1756.359131
3.160000 -0.920000 -4.960000 -31.746065 -26.831867 1727.761719
3.160000 -0.920000 -4.920000 -6.444066 -36.296185 1358.938965
3.160000 -0.920000 -4.880000 17.356667 -23.957451 875.213379
3.160000 -0.920000 -4.840000 22.404945 0.018418 501.981903
3.160000 -0.920000 -4.800000 8.112639 15.063225 292.715668
3.160000 -0.880000 -5.200000 -12.304769 8.531970 224.201843
3.160000 -0.880000 -5.160000 -17.744841 4.812597 338.040466
3.160000 -0.880000 -5.120000 -19.852606 0.164544 394.153015
3.160000 -0.880000 -5.080000 -21.225744 -4.375049 469.673279
3.160000 -0.880000 -5.040000 -21.709332 -11.488289 603.275879
3.160000 -0.880000 -5.000000 -16.590160 -21.035759 717.736572
3.160000 -0.880000 -4.960000 -3.221940 -26.277147 700.869385
3.160000 -0.880000 -4.920000 12.274477 -19.766422 541.374268
3.160000 -0.880000 -4.880000 18.388321 -3.187573 348.290955
3.160000 -0.880000 -4.840000 9.997274 11.378506 229.415894
3.160000 -0.880000 -4.800000 -4.555495 12.623539 180.106262
3.160000 -0.840000 -5.200000 -15.126511 -6.528494 271.432556
3.160000 -0.840000 -5.160000 -15.179178 -15.644509 475.158142
3.160000 -0.840000 -5.120000 -8.570986 -22.169342 564.941528
3.160000 -0.840000 -5.080000 0.151604 -23.164825 536.632141
3.160000 -0.840000 -5.040000 7.515894 -20.027527 457.590515
3.160000 -0.840000 -5.000000 12.973453 -14.461134 377.434875
3.160000 -0.840000 -4.960000 16.052769 -6.444946 299.228699
3.160000 -0.840000 -4.920000 14.395178 3.184955 217.365082
3.160000 -0.840000 -4.880000 6.652072 10.206921 148.431305
3.160000 -0.840000 -4.840000 -3.474364 9.830029 108.700668
3.160000 -0.840000 -4.800000 -8.689566 2.713506 82.871666
3.160000 -0.800000 -5.200000 -1.551685 -18.520477 345.415802
3.160000 -0.800000 -5.160000 5.062464 -25.040476 652.653992
3.160000 -0.800000 -5.120000 16.767586 -25.469309 929.837646
3.160000 -0.800000 -5.080000 27.609976 -17.445383 1066.652222
3.160000 -0.800000 -5.040000 31.905302 -3.567197 1030.673218
3.160000 -0.800000 -5.000000 27.312428 10.608364 858.506104
3.160000 -0.800000 -4.960000 15.565344 19.410873 619.061951
3.160000 -0.800000 -4.920000 1.693106 19.489010 382.688110
3.160000 -0.800000 -4.880000 -7.987474 11.659571 199.745331
3.160000 -0.800000 -4.840000 -9.282024 1.289355 87.818413
3.160000 -0.800000 -4.800000 -3.518224 -4.498819 32.617279
3.200000 -1.200000 -5.200000 -0.911869 14.846550 221.251541
3.200000 -1.200000 -5.160000 -5.275080 11.328030 156.150711
3.200000 -1.200000 -5.120000 -2.049860 8.237604 72.060051
3.200000 -1.200000 -5.080000 3.034953 13.801189 199.683762
3.200000 -1.200000 -5.040000 -1.048082 25.836164 668.605835
3.200000 -1.200000 -5.000000 -17.785681 32.062630 1344.342651
3.200000 -1.200000 -4.960000 -37.292809 22.279053 1887.109741
3.200000 -1.200000 -4.920000 -44.635876 -0.352840 1992.485962
3.200000 -1.200000 -4.880000 -34.144318 -21.217026 1615.996582
3.200000 -1.200000 -4.840000 -14.696590 -27.778040 987.609253
3.200000 -1.200000 -4.800000 -0.632004 -20.679146 428.026489
3.200000 -1.160000 -5.200000 -9.271000 12.046146 231.061096
3.200000 -1.160000 -5.160000 -11.030033 6.371288 162.254944
3.200000 -1.160000 -5.120000 -6.398139 5.377917 69.858185
3.200000 -1.160000 -5.080000 -4.641135 12.693925 182.675858
3.200000 -1.160000 -5.040000 -13.459248 20.854889 616.077759
3.200000 -1.160000 -5.000000 -29.479162 18.650784 1216.872681
3.200000 -1.160000 -4.960000 -40.480782 3.186469 1648.847290
3.200000 -1.160000 -4.920000 -37.223240 -16.388176 1654.141846
3.200000 -1.160000 -4.880000 -22.330349 -27.485495 1254.096924
3.200000 -1.160000 -4.840000 -7.062332 -25.747440 712.807190
3.200000 -1.160000 -4.800000 0.025015 -17.619555 310.449341
3.200000 -1.120000 -5.200000 -12.523474 2.924265 165.388718
3.200000 -1.120000 -5.160000 -11.025152 -1.420268 123.571136
3.200000 -1.120000 -5.120000 -7.871534 0.235527 62.016525
3.200000 -1.120000 -5.080000 -10.285099 5.641547 137.610321
3.200000 -1.120000 -5.040000 -19.420155 7.018071 426.395721
3.200000 -1.120000 -5.000000 -28.687798 -0.595083 823.343872
3.200000 -1.120000 -4.960000 -30.219879 -14.043226 1110.453247
3.200000 -1.120000 -4.920000 -22.378584 -25.142105 1132.926514
3.200000 -1.120000 -4.880000 -10.603088 -28.338207 915.479492
3.200000 -1.120000 -4.840000 -1.521535 -24.798958 617.303345
3.200000 -1.120000 -4.800000 2.765082 -19.388739 383.568878
3.200000 -1.080000 -5.200000 -6.284571 -5.499382 69.739029
3.200000 -1.080000 -5.160000 -4.451714 -5.667063 51.933357
3.200000 -1.080000 -5.120000 -5.306117 -3.576647 40.947281
3.200000 -1.080000 -5.080000 -9.482008 -3.302573 100.815468
3.200000 -1.080000 -5.040000 -13.769716 -7.212540 241.625824
3.200000 -1.080000 -5.000000 -14.714647 -13.860117 408.623688
3.200000 -1.080000 -4.960000 -11.632466 -20.015106 535.918701
3.200000 -1.080000 -4.920000 -6.198185 -23.698584 600.040344
3.200000 -1.080000 -4.880000 -0.029027 -24.784485 614.271545
3.200000 -1.080000 -4.840000 6.199344 -23.363316 584.276428
3.200000 -1.080000 -4.800000 11.430182 -18.934963 489.181915
3.200000 -1.040000 -5.200000 5.224893 -4.544639 47.953247
3.200000 -1.040000 -5.160000 2.754628 -1.417935 9.598517
3.200000 -1.040000 -5.120000 -2.097527 -2.738335 11.898097
3.200000 -1.040000 -5.080000 -3.940518 -8.118645 81.440071
3.200000 -1.040000 -5.040000 -1.114985 -12.754518 163.920914
3.200000 -1.040000 -5.000000 2.874920 -13.601466 193.265045
3.200000 -1.040000 -4.960000 4.439863 -12.777212 182.969543
3.200000 -1.040000 -4.920000 4.737920 -14.027062 219.206360
3.200000 -1.040000 -4.880000 7.917299 -16.914318 348.777771
3.200000 -1.040000 -4.840000 14.792295 -16.551315 492.758026
3.200000 -1.040000 -4.800000 20.180767 -9.834768 503.986023
3.200000 -1.000000 -5.200000 11.179198 6.908215 172.697906
3.200000 -1.000000 -5.160000 2.046511 8.499890 76.436348
3.200000 -1.000000 -5.120000 -3.670815 0.788194 14.096128
3.200000 -1.000000 -5.080000 0.136630 -7.934034 62.967571
3.200000 -1.000000 -5.040000 8.704611 -9.096142 158.510040
3.200000 -1.000000 -5.000000 12.872849 -3.584258 178.557144
3.200000 -1.000000 -4.960000 10.224561 0.369418 104.678108
3.200000 -1.000000 -4.920000 7.326342 -2.035990 57.820534
3.200000 -1.000000 -4.880000 10.688129 -6.127258 151.779388
3.200000 -1.000000 -4.840000 17.829842 -3.971820 333.678619
3.200000 -1.000000 -4.800000 19.781950 4.805705 414.420319
3.200000 -0.960000 -5.200000 4.301873 19.364346 393.483978
3.200000 -0.960000 -5.160000 -8.938898 14.065187 277.733398
3.200000 -0.960000 -5.120000 -10.789398 0.028548 116.411926
3.200000 -0.960000 -5.080000 -0.188418 -8.380901 70.275009
3.200000 -0.960000 -5.040000 11.225955 -4.263252 144.197388
3.200000 -0.960000 -5.000000 13.117324 5.484851 202.147766
3.200000 -0.960000 -4.960000 7.371004 9.808556 150.539459
3.200000 -0.960000 -4.920000 3.810518 6.629379 58.468716
3.200000 -0.960000 -4.880000 7.104225 3.805465 64.951576
3.200000 -0.960000 -4.840000 11.321089 7.727245 187.877365
3.200000 -0.960000 -4.800000 8.550776 14.377804 279.837006
3.200000 -0.920000 -5.200000 -10.730991 20.790407 547.395203
3.200000 -0.920000 -5.160000 -21.969351 7.077038 532.736816
3.200000 -0.920000 -5.120000 -16.350658 -9.784925 363.088806
3.200000 -0.920000 -5.080000 0.041356 -14.417650 207.870346
3.200000 -0.920000 -5.040000 12.004011 -4.882442 167.934525
3.200000 -0.920000 -5.000000 11.542555 7.672960 192.104889
3.200000 -0.920000 -4.960000 4.042645 12.752645 178.972931
3.200000 -0.920000 -4.920000 -0.780327 10.775064 116.710907
3.200000 -0.920000 -4.880000 -0.576552 9.121515 83.534454
3.200000 -0.920000 -4.840000 -0.717556 10.974705 120.959030
3.200000 -0.920000 -4.800000 -4.599773 11.764315 159.557007
3.200000 -0.880000 -5.200000 -20.356783 8.830742 492.380615
3.200000 -0.880000 -5.160000 -24.447033 -9.515502 688.202209
3.200000 -0.880000 -5.120000 -11.132782 -24.055355 702.598938
3.200000 -0.880000 -5.080000 8.482785 -22.504974 578.431519
3.200000 -0.880000 -5.040000 19.287066 -7.570978 429.310608
3.200000 -0.880000 -5.000000 16.059746 8.119927 323.848663
3.200000 -0.880000 -4.960000 5.363234 15.105206 256.931549
3.200000 -0.880000 -4.920000 -3.800633 13.682053 201.643372
3.200000 -0.880000 -4.880000 -8.210139 9.300791 153.911102
3.200000 -0.880000 -4.840000 -9.568778 5.136644 117.946632
3.200000 -0.880000 -4.800000 -8.842024 1.143155 79.488190
3.200000 -0.840000 -5.200000 -15.041305 -5.496422 256.451508
3.200000 -0.840000 -5.160000 -11.714328 -22.279343 633.594604
3.200000 -0.840000 -5.120000 5.893437 -30.682098 976.123779
3.200000 -0.840000 -5.080000 25.218298 -22.240879 1130.619263
3.200000 -0.840000 -5.040000 32.601013 -2.130986 1067.367188
3.200000 -0.840000 -5.000000 24.235779 16.535725 860.803162
3.200000 -0.840000 -4.960000 7.251350 23.700798 614.309937
3.200000 -0.840000 -4.920000 -7.615476 18.417288 397.191986
3.200000 -0.840000 -4.880000 -13.609512 6.911693 232.990326
3.200000 -0.840000 -4.840000 -10.407418 -3.045702 117.590652
3.200000 -0.840000 -4.800000 -2.402763 -6.248410 44.815899
3.200000 -0.800000 -5.200000 0.441521 -7.576807 57.602943
3.200000 -0.800000 -5.160000 6.693491 -19.113483 410.128082
3.200000 -0.800000 -5.120000 23.714184 -21.215343 1012.453247
3.200000 -0.800000 -5.080000 39.372635 -7.421417 1605.281738
3.200000 -0.800000 -5.040000 40.718105 16.034254 1915.061401
3.200000 -0.800000 -5.000000 24.677185 34.693138 1812.577393
3.200000 -0.800000 -4.960000 0.687126 37.031918 1371.835083
3.200000 -0.800000 -4.920000 -16.523628 23.074249 805.451294
3.200000 -0.800000 -4.880000 -17.915335 3.940675 336.488159
3.200000 -0.800000 -4.840000 -6.386308 -6.905933 88.476845
3.200000 -0.800000 -4.800000 6.203260 -3.735977 52.437958
