#kx 	ky 	kz 	real 	imag 	intensity
2.800000 4.800000 0.800000 -1.417424 -15.655277 247.096802
2.800000 4.800000 0.840000 2.020143 -11.861072 144.765991
2.800000 4.800000 0.880000 0.108021 -8.537135 72.894341
2.800000 4.800000 0.920000 -3.479342 -10.535190 123.096039
2.800000 4.800000 0.960000 -2.412520 -16.753935 286.514587
2.800000 4.800000 1.000000 5.560796 -20.734941 460.860260
2.800000 4.800000 1.040000 15.847502 -16.934341 537.915222
2.800000 4.800000 1.080000 21.151667 -6.206072 485.908325
2.800000 4.800000 1.120000 18.178951 5.121342 356.702423
2.800000 4.800000 1.160000 9.979322 11.311001 227.525604
2.800000 4.800000 1.200000 1.955374 11.814173 143.398163
2.800000 4.840000 0.800000 2.882976 -18.153721 337.869141
2.800000 4.840000 0.840000 5.413612 -15.127455 258.147095
2.800000 4.840000 0.880000 4.541504 -14.455027 229.573059
2.800000 4.840000 0.920000 5.517749 -17.560585 338.819702
2.800000 4.840000 0.960000 11.708566 -19.844238 530.884277
2.800000 4.840000 1.000000 20.055550 -15.912220 655.423828
2.800000 4.840000 1.040000 23.886730 -5.998782 606.561279
2.800000 4.840000 1.080000 20.002539 3.793399 414.491425
2.800000 4.840000 1.120000 11.999578 7.763381 204.259964
2.800000 4.840000 1.160000 6.093054 6.290709 76.698318
2.800000 4.840000 1.200000 4.300080 4.513374 38.861237
2.800000 4.880000 0.800000 9.704016 -19.781506 485.475891
2.800000 4.880000 0.840000 13.312938 -17.151785 471.418030
2.800000 4.880000 0.880000 15.574488 -16.237183 506.210754
2.800000 4.880000 0.920000 19.984585 -15.590715 642.454041
2.800000 4.880000 0.960000 25.696243 -11.264655 787.189392
2.800000 4.880000 1.000000 27.988705 -2.754250 790.953491
2.800000 4.880000 1.040000 24.099615 5.259418 608.452942
2.800000 4.880000 1.080000 17.222733 7.842342 358.124878
2.800000 4.880000 1.120000 13.375223 5.697819 211.361725
2.800000 4.880000 1.160000 14.402100 4.700809 229.518082
2.800000 4.880000 1.200000 15.384537 8.940739 316.620789
2.800000 4.920000 0.800000 19.315269 -16.976994 661.297974
2.800000 4.920000 0.840000 23.907104 -12.170544 719.671753
2.800000 4.920000 0.880000 27.047081 -7.649890 790.065430
2.800000 4.920000 0.920000 29.617811 -2.045881 881.400330
2.800000 4.920000 0.960000 29.617855 5.119406 903.425659
2.800000 4.920000 1.000000 25.623957 11.013994 777.895203
2.800000 4.920000 1.040000 20.286585 12.429909 566.048157
2.800000 4.920000 1.080000 18.444511 10.582065 452.180115
2.800000 4.920000 1.120000 21.210167 11.162580 574.474365
2.800000 4.920000 1.160000 23.171305 18.214960 868.694092
2.800000 4.920000 1.200000 17.176781 28.295292 1095.665283
2.800000 4.960000 0.800000 27.348587 -6.458116 789.652466
2.800000 4.960000 0.840000 29.467438 1.704118 871.233887
2.800000 4.960000 0.880000 28.698387 8.944368 903.599121
2.800000 4.960000 0.920000 25.629292 14.872122 878.040588
2.800000 4.960000 0.960000 20.843307 18.177919 764.880249
2.800000 4.960000 1.000000 16.896666 17.893421 605.671875
2.800000 4.960000 1.040000 17.052601 16.307455 556.724304
2.800000 4.960000 1.080000 20.983318 18.678431 789.183411
2.800000 4.960000 1.120000 22.770529 28.134542 1310.049561
2.800000 4.960000 1.160000 15.230330 40.608040 1880.975830
2.800000 4.960000 1.200000 -2.441798 46.308250 2150.416504
2.800000 5.000000 0.800000 26.774311 9.726870 811.475708
2.800000 5.000000 0.840000 22.685051 17.948708 836.767578
2.800000 5.000000 0.880000 16.242352 22.234039 758.166504
2.800000 5.000000 0.920000 10.156420 22.234665 597.533203
2.800000 5.000000 0.960000 7.413335 19.193306 423.340515
2.800000 5.000000 1.000000 9.847139 16.949265 384.243713
2.800000 5.000000 1.040000 15.257310 20.605469 657.370850
2.800000 5.000000 1.080000 16.818375 31.983557 1305.805664
2.800000 5.000000 1.120000 7.611787 45.811176 2156.603027
2.800000 5.000000 1.160000 -12.493193 51.776520 2836.887939
2.800000 5.000000 1.200000 -34.408634 42.438366 2984.968994
2.800000 5.040000 0.800000 14.202435 23.269081 743.159302
2.800000 5.040000 0.840000 4.655270 25.278736 660.686035
2.800000 5.040000 0.880000 -2.764035 21.246668 459.060791
2.800000 5.040000 0.920000 -4.218312 14.312092 222.630127
2.800000 5.040000 0.960000 1.150001 10.133539 104.011116
2.800000 5.040000 1.000000 9.209600 14.179866 285.885315
2.800000 5.040000 1.040000 11.740766 27.140820 874.469666
2.800000 5.040000 1.080000 1.790091 42.176033 1782.022217
2.800000 5.040000 1.120000 -19.831894 48.065960 2703.640381
2.800000 5.040000 1.160000 -43.012302 37.405670 3249.242188
2.800000 5.040000 1.200000 -54.641315 13.289541 3162.285156
2.800000 5.080000 0.800000 -5.451168 25.200525 664.781677
2.800000 5.080000 0.840000 -14.007099 17.210476 492.399292
2.800000 5.080000 0.880000 -14.218475 5.828354 236.134750
2.800000 5.080000 0.920000 -5.426235 -1.418583 31.456406
2.800000 5.080000 0.960000 6.683022 2.006738 48.689774
2.800000 5.080000 1.000000 12.142241 16.353743 414.878906
2.800000 5.080000 1.040000 3.213687 33.305607 1119.591187
2.800000 5.080000 1.080000 -18.771736 40.256779 1972.986328
2.800000 5.080000 1.120000 -42.486427 29.329851 2665.336670
2.800000 5.080000 1.160000 -53.835346 4.142754 2915.406738
2.800000 5.080000 1.200000 -46.235340 -22.010101 2622.151367
2.800000 5.120000 0.800000 -21.386755 13.533623 640.552246
2.800000 5.120000 0.840000 -21.202827 -1.509112 451.837311
2.800000 5.120000 0.880000 -9.686174 -12.350900 246.366699
2.800000 5.120000 0.920000 6.957185 -10.721357 163.349930
2.800000 5.120000 0.960000 17.093357 4.426462 311.776428
2.800000 5.120000 1.000000 11.312883 24.110722 709.308228
2.800000 5.120000 1.040000 -9.667994 34.114075 1257.240234
2.800000 5.120000 1.080000 -33.786533 25.179371 1775.530518
2.800000 5.120000 1.120000 -45.577522 0.638350 2077.718018
2.800000 5.120000 1.160000 -37.532997 -25.386719 2053.211426
2.800000 5.120000 1.200000 -15.499226 -38.385254 1713.653687
2.800000 5.160000 0.800000 -25.158630 -4.432078 652.599976
2.800000 5.160000 0.840000 -13.451449 -18.369783 518.390442
2.800000 5.160000 0.880000 6.176437 -19.856417 432.425659
2.800000 5.160000 0.920000 21.415358 -5.585134 489.811279
2.800000 5.160000 0.960000 20.644417 16.447536 696.713379
2.800000 5.160000 1.000000 2.407371 31.026079 968.413025
2.800000 5.160000 1.040000 -21.875965 26.684063 1190.597168
2.800000 5.160000 1.080000 -35.558441 5.015083 1289.553711
2.800000 5.160000 1.120000 -29.286179 -19.985048 1257.082397
2.800000 5.160000 1.160000 -7.921539 -32.552994 1122.448120
2.800000 5.160000 1.200000 13.963214 -26.879251 917.465454
2.800000 5.200000 0.800000 -17.335049 -17.932434 622.076111
2.800000 5.200000 0.840000 1.557676 -23.610765 559.894592
2.800000 5.200000 0.880000 20.238129 -13.082440 580.732117
2.800000 5.200000 0.920000 25.389563 8.809062 722.229431
2.800000 5.200000 0.960000 12.052604 27.568996 905.314819
2.800000 5.200000 1.000000 -11.081632 29.551353 996.085022
2.800000 5.200000 1.040000 -27.419266 13.065928 922.534607
2.800000 5.200000 1.080000 -25.313766 -9.784462 736.522461
2.800000 5.200000 1.120000 -7.130459 -22.666153 564.597961
2.800000 5.200000 1.160000 13.363247 -17.773142 494.460938
2.800000 5.200000 1.200000 22.524067 -0.839251 508.037933
2.840000 4.800000 0.800000 11.145668 -2.396130 129.967346
2.840000 4.800000 0.840000 6.159042 0.126522 37.949810
2.840000 4.800000 0.880000 1.188372 -3.028494 10.584002
2.840000 4.800000 0.920000 1.383373 -9.608036 94.228073
2.840000 4.800000 0.960000 7.738482 -13.791023 250.076416
2.840000 4.800000 1.000000 15.943689 -11.433022 384.915222
2.840000 4.800000 1.040000 20.328524 -3.647463 426.552856
2.840000 4.800000 1.080000 18.728939 4.768002 373.506989
2.840000 4.800000 1.120000 13.372289 10.015578 279.129913
2.840000 4.800000 1.160000 7.495405 11.909234 198.010956
2.840000 4.800000 1.200000 1.997792 12.066671 149.595718
2.840000 4.840000 0.800000 8.801666 -1.292575 79.140083
2.840000 4.840000 0.840000 10.820774 -3.630816 130.271973
2.840000 4.840000 0.880000 16.053173 -3.021524 266.833984
2.840000 4.840000 0.920000 20.358955 3.089849 424.034241
2.840000 4.840000 0.960000 18.640936 12.108891 494.109741
2.840000 4.840000 1.000000 10.288216 17.605671 415.807037
2.840000 4.840000 1.040000 0.854313 15.250793 233.316544
2.840000 4.840000 1.080000 -2.683405 7.583731 64.713631
2.840000 4.840000 1.120000 1.141661 2.106484 5.740663
2.840000 4.840000 1.160000 6.442661 3.945064 57.071411
2.840000 4.840000 1.200000 5.692198 10.348846 139.499756
2.840000 4.880000 0.800000 9.418916 -3.249152 99.272964
2.840000 4.880000 0.840000 20.956898 -0.623279 439.580048
2.840000 4.880000 0.880000 28.308796 13.612061 986.676147
2.840000 4.880000 0.920000 21.302647 32.164505 1488.358154
2.840000 4.880000 0.960000 0.270620 40.590893 1647.693848
2.840000 4.880000 1.000000 -21.385695 30.000679 1357.388672
2.840000 4.880000 1.040000 -27.545427 6.707342 803.739014
2.840000 4.880000 1.080000 -13.963968 -11.708755 332.087341
2.840000 4.880000 1.120000 7.073086 -11.536617 183.122070
2.840000 4.880000 1.160000 17.402229 4.720575 325.121429
2.840000 4.880000 1.200000 9.284214 20.849007 520.877747
2.840000 4.920000 0.800000 14.478812 -2.402870 215.409790
2.840000 4.920000 0.840000 27.097174 13.441511 914.931030
2.840000 4.920000 0.880000 21.840979 39.152359 2009.935547
2.840000 4.920000 0.920000 -5.621033 54.750572 3029.221191
2.840000 4.920000 0.960000 -39.272964 43.204529 3408.997070
2.840000 4.920000 1.000000 -53.551563 8.192522 2934.887451
2.840000 4.920000 1.040000 -35.852081 -25.693218 1945.513184
2.840000 4.920000 1.080000 0.545732 -33.002934 1089.491455
2.840000 4.920000 1.120000 26.884411 -9.917825 821.134766
2.840000 4.920000 1.160000 23.904137 22.419668 1074.049316
2.840000 4.920000 1.200000 -2.008183 37.182728 1386.588135
2.840000 4.960000 0.800000 18.369633 5.558500 368.340332
2.840000 4.960000 0.840000 18.942741 31.515524 1352.055664
2.840000 4.960000 0.880000 -6.056561 53.326912 2880.441406
2.840000 4.960000 0.920000 -45.235901 47.690407 4320.661621
2.840000 4.960000 0.960000 -69.233902 10.274940 4898.907227
2.840000 4.960000 1.000000 -55.514297 -35.082867 4312.644531
2.840000 4.960000 1.040000 -10.964787 -53.941376 3029.898682
2.840000 4.960000 1.080000 31.070833 -31.409424 1951.948486
2.840000 4.960000 1.120000 38.848831 13.683404 1696.467285
2.840000 4.960000 1.160000 9.607471 45.113930 2127.570068
2.840000 4.960000 1.200000 -29.541166 40.942299 2548.952393
2.840000 5.000000 0.800000 13.451224 17.076553 472.544128
2.840000 5.000000 0.840000 -3.303327 39.160271 1544.438843
2.840000 5.000000 0.880000 -38.656921 40.938171 3170.291504
2.840000 5.000000 0.920000 -67.725357 10.301237 4692.839844
2.840000 5.000000 0.960000 -62.801033 -36.990219 5312.246094
2.840000 5.000000 1.000000 -20.579321 -65.641273 4732.285156
2.840000 5.000000 1.040000 29.961483 -50.797516 3478.078125
2.840000 5.000000 1.080000 50.115814 -2.075714 2515.903320
2.840000 5.000000 1.120000 25.087128 42.837696 2464.432129
2.840000 5.000000 1.160000 -23.156296 50.547848 3091.299072
2.840000 5.000000 1.200000 -56.225803 20.014454 3561.919434
2.840000 5.040000 0.800000 -1.296597 22.364502 501.852112
2.840000 5.040000 0.840000 -26.420227 27.320042 1444.413086
2.840000 5.040000 0.880000 -52.428749 7.068039 2798.730957
2.840000 5.040000 0.920000 -54.579498 -32.436874 4031.072510
2.840000 5.040000 0.960000 -22.180401 -63.464073 4519.658691
2.840000 5.040000 1.000000 26.156048 -58.213600 4072.962158
2.840000 5.040000 1.040000 54.059097 -15.639349 3166.975098
2.840000 5.040000 1.080000 38.286022 33.724724 2603.176514
2.840000 5.040000 1.120000 -9.621775 52.353203 2833.436523
2.840000 5.040000 1.160000 -52.666656 27.904001 3552.409912
2.840000 5.040000 1.200000 -60.515053 -17.338148 3962.682861
2.840000 5.080000 0.800000 -17.301861 14.433348 507.675934
2.840000 5.080000 0.840000 -34.326210 1.714516 1181.228271
2.840000 5.080000 0.880000 -37.400478 -25.667679 2057.625488
2.840000 5.080000 0.920000 -15.459663 -50.706261 2810.125977
2.840000 5.080000 0.960000 22.604027 -50.832794 3094.915039
2.840000 5.080000 1.000000 49.839767 -19.187126 2852.148193
2.840000 5.080000 1.040000 42.595978 24.619843 2420.553955
2.840000 5.080000 1.080000 2.866599 47.835190 2296.422607
2.840000 5.080000 1.120000 -40.804665 32.104980 2695.750488
2.840000 5.080000 1.160000 -56.683189 -10.300046 3319.074951
2.840000 5.080000 1.200000 -36.371117 -47.407921 3570.369141
2.840000 5.120000 0.800000 -23.137026 -3.372090 546.692932
2.840000 5.120000 0.840000 -21.993223 -20.951738 922.677246
2.840000 5.120000 0.880000 -5.862110 -36.125561 1339.420532
2.840000 5.120000 0.920000 20.494524 -35.294548 1665.730591
2.840000 5.120000 0.960000 40.359955 -12.758253 1791.698975
2.840000 5.120000 1.000000 36.479927 20.131165 1736.048828
2.840000 5.120000 1.040000 7.102716 40.247345 1670.297363
2.840000 5.120000 1.080000 -29.089645 30.826721 1796.494141
2.840000 5.120000 1.120000 -46.297668 -3.278627 2154.223633
2.840000 5.120000 1.160000 -32.616974 -38.321960 2532.439453
2.840000 5.120000 1.200000 0.373974 -51.007080 2601.862061
2.840000 5.160000 0.800000 -14.879347 -19.447298 599.592346
2.840000 5.160000 0.840000 0.224430 -27.016960 729.966492
2.840000 5.160000 0.880000 18.926743 -22.045605 844.230286
2.840000 5.160000 0.920000 30.340668 -3.692569 934.191162
2.840000 5.160000 0.960000 24.972633 19.345108 997.865662
2.840000 5.160000 1.000000 3.003170 32.296326 1052.071655
2.840000 5.160000 1.040000 -23.014042 24.567719 1133.218994
2.840000 5.160000 1.080000 -35.634613 -0.883915 1270.606934
2.840000 5.160000 1.120000 -25.579390 -28.077524 1442.652588
2.840000 5.160000 1.160000 0.589680 -39.502163 1560.768677
2.840000 5.160000 1.200000 25.468960 -29.378807 1511.782227
2.840000 5.200000 0.800000 0.264326 -24.104996 581.120728
2.840000 5.200000 0.840000 16.119217 -16.973633 547.933350
2.840000 5.200000 0.880000 22.929853 0.139949 525.797791
2.840000 5.200000 0.920000 15.408947 17.725033 551.612427
2.840000 5.200000 0.960000 -2.930009 24.796923 623.472351
2.840000 5.200000 1.000000 -21.153086 16.199543 709.878235
2.840000 5.200000 1.040000 -27.656981 -3.360213 776.199585
2.840000 5.200000 1.080000 -18.021671 -21.933725 805.868958
2.840000 5.200000 1.120000 1.858109 -28.238604 800.871338
2.840000 5.200000 1.160000 19.921991 -19.198830 765.480835
2.840000 5.200000 1.200000 26.315701 -1.463639 694.658325
2.880000 4.800000 0.800000 8.950444 19.459358 458.777069
2.880000 4.800000 0.840000 -1.460388 13.421600 182.272095
2.880000 4.800000 0.880000 -3.234228 2.418434 16.309055
2.880000 4.800000 0.920000 3.752136 -4.760612 36.741959
2.880000 4.800000 0.960000 12.527863 -3.383512 168.395493
2.880000 4.800000 1.000000 16.040249 3.419559 268.982971
2.880000 4.800000 1.040000 13.616139 8.940605 265.333679
2.880000 4.800000 1.080000 10.078451 10.227348 206.173828
2.880000 4.800000 1.120000 9.062908 10.261480 187.434296
2.880000 4.800000 1.160000 8.556918 12.850424 238.354248
2.880000 4.800000 1.200000 3.991483 16.589989 291.159668
2.880000 4.840000 0.800000 -2.566391 15.963005 261.403900
2.880000 4.840000 0.840000 4.733648 10.451109 131.633102
2.880000 4.840000 0.880000 13.398159 18.002043 503.584229
2.880000 4.840000 0.920000 9.448544 33.636917 1220.717163
2.880000 4.840000 0.960000 -9.800587 41.327850 1804.042725
2.880000 4.840000 1.000000 -30.787292 29.732391 1831.872437
2.880000 4.840000 1.040000 -35.603539 4.914040 1291.759766
2.880000 4.840000 1.080000 -19.687149 -13.891159 580.548096
2.880000 4.840000 1.120000 2.813766 -12.283638 158.805038
2.880000 4.840000 1.160000 12.216677 5.338299 177.744629
2.880000 4.840000 1.200000 2.152864 20.191818 412.344360
2.880000 4.880000 0.800000 -5.608615 6.446047 73.008087
2.880000 4.880000 0.840000 11.952259 19.538803 524.621338
2.880000 4.880000 0.880000 7.369522 50.004555 2554.765381
2.880000 4.880000 0.920000 -28.613163 68.786118 5550.242676
2.880000 4.880000 0.960000 -73.805618 50.015640 7948.833984
2.880000 4.880000 1.000000 -91.351906 -1.361809 8347.025391
2.880000 4.880000 1.040000 -63.846237 -49.990730 6575.415039
2.880000 4.880000 1.080000 -11.256092 -60.621201 3801.629639
2.880000 4.880000 1.120000 26.170862 -29.951794 1582.023926
2.880000 4.880000 1.160000 24.082779 11.396181 709.853149
2.880000 4.880000 1.200000 -5.789804 28.353882 837.464478
2.880000 4.920000 0.800000 -0.177769 1.214639 1.506949
2.880000 4.920000 0.840000 6.008622 36.604519 1375.994263
2.880000 4.920000 0.880000 -30.495583 69.849083 5808.875000
2.880000 4.920000 0.920000 -92.681389 59.109020 12083.715820
2.880000 4.920000 0.960000 -130.806442 -4.840225 17133.753906
2.880000 4.920000 1.000000 -106.400177 -82.589211 18141.976562
2.880000 4.920000 1.040000 -30.707047 -117.127014 14661.660156
2.880000 4.920000 1.080000 41.933811 -84.614716 8918.094727
2.880000 4.920000 1.120000 61.512978 -15.726503 4031.169434
2.880000 4.920000 1.160000 25.247375 33.332748 1748.502197
2.880000 4.920000 1.200000 -24.611719 31.433969 1593.831055
2.880000 4.960000 0.800000 4.671074 4.868574 45.521942
2.880000 4.960000 0.840000 -17.008963 45.053253 2319.100586
2.880000 4.960000 0.880000 -78.642761 51.391056 8825.724609
2.880000 4.960000 0.920000 -133.446564 -4.345928 17826.873047
2.880000 4.960000 0.960000 -126.143333 -95.451408 25023.113281
2.880000 4.960000 1.000000 -46.974106 -155.760818 26467.998047
2.880000 4.960000 1.040000 52.688812 -136.956955 21533.318359
2.880000 4.960000 1.080000 102.377625 -53.531898 13346.841797
2.880000 4.960000 1.120000 73.847061 29.348337 6314.713379
2.880000 4.960000 1.160000 3.023260 54.035664 2928.993164
2.880000 4.960000 1.200000 -47.035095 18.393002 2550.602783
2.880000 5.000000 0.800000 0.811018 11.206548 126.244469
2.880000 5.000000 0.840000 -43.465054 31.205143 2862.971924
2.880000 5.000000 0.880000 -100.202682 -1.949734 10044.378906
2.880000 5.000000 0.920000 -112.977692 -83.487671 19734.150391
2.880000 5.000000 0.960000 -51.180679 -157.254471 27348.429688
2.880000 5.000000 1.000000 53.473530 -160.919556 28754.521484
2.880000 5.000000 1.040000 127.770645 -84.057587 23391.015625
2.880000 5.000000 1.080000 119.705986 18.422474 14668.911133
2.880000 5.000000 1.120000 43.929199 73.152512 7281.064453
2.880000 5.000000 1.160000 -33.874573 51.459835 3795.601074
2.880000 5.000000 1.200000 -57.393616 -11.104953 3417.347168
2.880000 5.040000 0.800000 -9.661312 9.852962 190.421814
2.880000 5.040000 0.840000 -52.572693 -0.797422 2764.523926
2.880000 5.040000 0.880000 -75.723343 -56.319939 8905.960938
2.880000 5.040000 0.920000 -40.770409 -123.461861 16905.056641
2.880000 5.040000 0.960000 45.020329 -144.821991 23000.238281
2.880000 5.040000 1.000000 125.101685 -90.973206 23926.554688
2.880000 5.040000 1.040000 139.115448 7.060688 19402.960938
2.880000 5.040000 1.080000 76.912865 80.208893 12349.054688
2.880000 5.040000 1.120000 -11.443354 80.325790 6583.182617
2.880000 5.040000 1.160000 -60.284813 20.125347 4039.288330
2.880000 5.040000 1.200000 -44.681526 -43.194130 3862.171875
2.880000 5.080000 0.800000 -16.002441 -2.247885 261.131104
2.880000 5.080000 0.840000 -35.400383 -30.392265 2176.876953
2.880000 5.080000 0.880000 -21.628511 -75.614136 6185.290039
2.880000 5.080000 0.920000 33.113422 -100.097321 11115.972656
2.880000 5.080000 0.960000 97.621735 -71.706093 14671.766602
2.880000 5.080000 1.000000 122.453247 1.699940 14997.687500
2.880000 5.080000 1.040000 83.400345 71.885040 12123.076172
2.880000 5.080000 1.080000 6.307089 89.002350 7961.197754
2.880000 5.080000 1.120000 -52.991222 44.687977 4805.084961
2.880000 5.080000 1.160000 -56.257069 -21.675739 3634.695312
2.880000 5.080000 1.200000 -13.145350 -59.329620 3692.804199
2.880000 5.120000 0.800000 -9.921844 -16.774223 379.817566
2.880000 5.120000 0.840000 -3.798895 -38.090721 1465.334717
2.880000 5.120000 0.880000 23.993114 -52.290390 3309.954590
2.880000 5.120000 0.920000 61.750072 -39.149216 5345.732422
2.880000 5.120000 0.960000 81.460648 3.993912 6651.788086
2.880000 5.120000 1.000000 61.617352 52.934402 6598.749023
2.880000 5.120000 1.040000 9.514717 72.652542 5368.921875
2.880000 5.120000 1.080000 -40.398815 47.050713 3845.833740
2.880000 5.120000 1.120000 -53.751362 -5.467451 2919.102051
2.880000 5.120000 1.160000 -24.911377 -46.716660 2803.022949
2.880000 5.120000 1.200000 19.775803 -50.818913 2973.644043
2.880000 5.160000 0.800000 5.513550 -22.014416 515.033691
2.880000 5.160000 0.840000 19.940556 -22.411495 899.900879
2.880000 5.160000 0.880000 34.609062 -11.610147 1332.582764
2.880000 5.160000 0.920000 39.814987 9.946381 1684.163696
2.880000 5.160000 0.960000 27.452841 32.711185 1823.680054
2.880000 5.160000 1.000000 -0.258778 41.563568 1727.597168
2.880000 5.160000 1.040000 -28.267956 27.088741 1532.877197
2.880000 5.160000 1.080000 -37.825977 -4.567265 1451.664429
2.880000 5.160000 1.120000 -21.299397 -33.786621 1595.200073
2.880000 5.160000 1.160000 10.578455 -41.797554 1858.939209
2.880000 5.160000 1.200000 36.661709 -25.352369 1986.823486
2.880000 5.200000 0.800000 18.663151 -14.546220 559.905701
2.880000 5.200000 0.840000 22.753502 0.064496 517.726013
2.880000 5.200000 0.880000 15.619241 13.449093 424.838776
2.880000 5.200000 0.920000 1.505714 18.440994 342.337463
2.880000 5.200000 0.960000 -12.284477 12.940922 318.375854
2.880000 5.200000 1.000000 -19.398441 -0.278030 376.376831
2.880000 5.200000 1.040000 -16.549570 -15.541086 515.413635
2.880000 5.200000 1.080000 -4.277751 -26.313194 710.683350
2.880000 5.200000 1.120000 12.884358 -27.321985 912.497620
2.880000 5.200000 1.160000 27.526821 -17.170933 1052.566895
2.880000 5.200000 1.200000 32.672283 -0.036835 1067.479370
2.920000 4.800000 0.800000 -11.140511 35.337509 1372.850464
2.920000 4.800000 0.840000 -19.307755 18.231148 705.164185
2.920000 4.800000 0.880000 -12.856323 3.129473 175.078644
2.920000 4.800000 0.920000 -0.194611 -0.236908 0.093999
2.920000 4.800000 0.960000 6.950348 6.176769 86.459808
2.920000 4.800000 1.000000 5.105980 12.322044 177.903809
2.920000 4.800000 1.040000 1.067604 11.705551 138.159714
2.920000 4.800000 1.080000 2.544739 8.084354 71.832481
2.920000 4.800000 1.120000 8.332993 9.814100 165.755341
2.920000 4.800000 1.160000 9.551318 18.571892 436.142822
2.920000 4.800000 1.200000 0.710579 25.852276 668.845093
2.920000 4.840000 0.800000 -26.324217 19.521015 1074.034424
2.920000 4.840000 0.840000 -13.269046 16.821716 459.037720
2.920000 4.840000 0.880000 -9.634220 31.784292 1103.059448
2.920000 4.840000 0.920000 -28.566750 45.137047 2853.412109
2.920000 4.840000 0.960000 -58.228870 34.337074 4569.635742
2.920000 4.840000 1.000000 -70.828903 -1.516701 5019.033691
2.920000 4.840000 1.040000 -50.105408 -37.282730 3900.553955
2.920000 4.840000 1.080000 -9.389122 -44.430305 2062.207520
2.920000 4.840000 1.120000 19.370449 -18.776703 727.778870
2.920000 4.840000 1.160000 15.589609 15.046387 469.429688
2.920000 4.840000 1.200000 -10.956198 27.366116 868.942566
2.920000 4.880000 0.800000 -25.073624 -0.048233 628.688904
2.920000 4.880000 0.840000 -13.731699 27.250055 931.125061
2.920000 4.880000 0.880000 -43.738132 58.042068 5281.905762
2.920000 4.880000 0.920000 -101.873833 48.125008 12694.293945
2.920000 4.880000 0.960000 -138.366653 -15.137955 19374.488281
2.920000 4.880000 1.000000 -112.475769 -93.323837 21360.136719
2.920000 4.880000 1.040000 -34.309029 -127.962845 17551.599609
2.920000 4.880000 1.080000 40.605957 -94.005569 10485.890625
2.920000 4.880000 1.120000 60.711876 -23.149570 4221.834473
2.920000 4.880000 1.160000 23.828442 26.379641 1263.680054
2.920000 4.880000 1.200000 -25.353188 23.270466 1184.298706
2.920000 4.920000 0.800000 -12.676386 -9.728760 255.339539
2.920000 4.920000 0.840000 -31.114334 35.473877 2226.497803
2.920000 4.920000 0.880000 -99.969025 44.154648 11943.438477
2.920000 4.920000 0.920000 -163.738190 -21.336952 27265.460938
2.920000 4.920000 0.960000 -153.992065 -130.801468 40822.578125
2.920000 4.920000 1.000000 -57.216995 -204.172363 44960.140625
2.920000 4.920000 1.040000 65.048935 -182.245422 37444.757812
2.920000 4.920000 1.080000 127.680420 -82.172134 23054.550781
2.920000 4.920000 1.120000 96.966125 17.663734 9714.437500
2.920000 4.920000 1.160000 16.552830 48.888229 2664.055176
2.920000 4.920000 1.200000 -38.716557 10.607085 1611.482056
2.920000 4.960000 0.800000 -2.290644 -7.283508 58.296539
2.920000 4.960000 0.840000 -56.524864 23.494732 3747.062744
2.920000 4.960000 0.880000 -133.129272 -18.143936 18052.605469
2.920000 4.960000 0.920000 -151.875427 -129.364670 39801.363281
2.920000 4.960000 0.960000 -67.090530 -233.008316 58794.015625
2.920000 4.960000 1.000000 79.422768 -241.286835 64527.312500
2.920000 4.960000 1.040000 186.993805 -137.801239 53955.867188
2.920000 4.960000 1.080000 183.424500 3.488020 33656.714844
2.920000 4.960000 1.120000 87.511490 83.208656 14581.941406
2.920000 4.960000 1.160000 -13.159643 62.827271 4120.441895
2.920000 4.960000 1.200000 -44.806553 -10.209127 2111.853516
2.920000 5.000000 0.800000 -1.202850 -2.153465 6.084261
2.920000 5.000000 0.840000 -67.169388 -10.215008 4616.072754
2.920000 5.000000 0.880000 -108.127090 -92.878777 20317.933594
2.920000 5.000000 0.920000 -58.281456 -200.320984 43525.222656
2.920000 5.000000 0.960000 75.816895 -240.282074 63483.679688
2.920000 5.000000 1.000000 207.357880 -162.214096 69310.703125
2.920000 5.000000 1.040000 240.584717 -10.310520 57987.316406
2.920000 5.000000 1.080000 155.911118 110.349197 36485.222656
2.920000 5.000000 1.120000 26.252424 124.795509 16263.108398
2.920000 5.000000 1.160000 -50.881195 49.277149 5017.133789
2.920000 5.000000 1.200000 -38.189339 -33.803452 2601.098877
2.920000 5.040000 0.800000 -4.398832 -3.847813 34.155388
2.920000 5.040000 0.840000 -48.078991 -45.267570 4360.742188
2.920000 5.040000 0.880000 -34.870323 -127.970535 17592.398438
2.920000 5.040000 0.920000 57.976883 -182.196045 36556.718750
2.920000 5.040000 0.960000 178.963867 -143.178589 52528.171875
2.920000 5.040000 1.000000 237.970840 -17.046139 56920.691406
2.920000 5.040000 1.040000 185.351593 114.938751 47566.132812
2.920000 5.040000 1.080000 58.895897 163.561844 30221.203125
2.920000 5.040000 1.120000 -48.572094 108.091690 14043.061523
2.920000 5.040000 1.160000 -70.389473 9.209723 5039.496582
2.920000 5.040000 1.200000 -18.150589 -51.284313 2959.524658
2.920000 5.080000 0.800000 -1.782681 -11.345898 131.907349
2.920000 5.080000 0.840000 -8.418098 -56.283001 3238.640625
2.920000 5.080000 0.880000 37.701759 -100.965714 11615.498047
2.920000 5.080000 0.920000 120.494576 -92.734314 23118.595703
2.920000 5.080000 0.960000 179.750061 -13.307442 32487.171875
2.920000 5.080000 1.000000 160.838638 94.451706 34790.195312
2.920000 5.080000 1.040000 66.870102 156.681763 29020.785156
2.920000 5.080000 1.080000 -38.966141 131.352631 18771.873047
2.920000 5.080000 1.120000 -86.222382 44.606430 9424.033203
2.920000 5.080000 1.160000 -55.982529 -34.322365 4312.068359
2.920000 5.080000 1.200000 9.375916 -54.591522 3068.142090
2.920000 5.120000 0.800000 9.511588 -14.908447 312.732117
2.920000 5.120000 0.840000 25.050259 -36.258865 1942.220703
2.920000 5.120000 0.880000 64.005501 -38.152756 5552.336914
2.920000 5.120000 0.920000 100.693253 -1.579140 10141.625000
2.920000 5.120000 0.960000 99.416000 61.303734 13641.688477
2.920000 5.120000 1.000000 47.710152 109.605522 14289.628906
2.920000 5.120000 1.040000 -26.666321 105.917984 11929.711914
2.920000 5.120000 1.080000 -74.866547 50.021431 8107.143555
2.920000 5.120000 1.120000 -67.109711 -18.765385 4855.853027
2.920000 5.120000 1.160000 -16.786301 -54.366554 3237.501953
2.920000 5.120000 1.200000 33.807774 -41.477245 2863.327637
2.920000 5.160000 0.800000 21.517603 -7.668325 521.810425
2.920000 5.160000 0.840000 31.703732 -3.036869 1014.349182
2.920000 5.160000 0.880000 39.802071 11.084011 1707.060181
2.920000 5.160000 0.920000 36.494400 32.824169 2409.267090
2.920000 5.160000 0.960000 15.581627 50.864178 2829.951660
2.920000 5.160000 1.000000 -16.920593 50.115486 2797.868408
2.920000 5.160000 1.040000 -42.667606 24.714901 2431.351074
2.920000 5.160000 1.080000 -43.449280 -13.555405 2071.588867
2.920000 5.160000 1.120000 -16.665854 -41.523941 2001.988281
2.920000 5.160000 1.160000 20.823273 -42.071159 2203.591064
2.920000 5.160000 1.200000 45.428780 -17.626364 2374.462646
2.920000 5.200000 0.800000 24.228168 6.188902 625.306641
2.920000 5.200000 0.840000 14.721512 17.673752 529.084412
2.920000 5.200000 0.880000 0.298485 18.500048 342.340851
2.920000 5.200000 0.920000 -9.759594 9.842171 192.117996
2.920000 5.200000 0.960000 -11.790840 -1.611358 141.620392
2.920000 5.200000 1.000000 -8.102661 -10.961098 185.798767
2.920000 5.200000 1.040000 -1.500566 -17.765053 317.848816
2.920000 5.200000 1.080000 8.265686 -22.347000 567.709961
2.920000 5.200000 1.120000 21.809343 -21.850061 953.072632
2.920000 5.200000 1.160000 35.357014 -12.143467 1397.582153
2.920000 5.200000 1.200000 41.027039 6.157254 1721.129639
2.960000 4.800000 0.800000 -39.376446 32.800488 2626.376465
2.960000 4.800000 0.840000 -38.360291 8.412416 1542.280640
2.960000 4.800000 0.880000 -22.881741 -5.062027 549.198181
2.960000 4.800000 0.920000 -7.737030 -2.876770 68.137436
2.960000 4.800000 0.960000 -3.382271 5.614182 42.958790
2.960000 4.800000 1.000000 -6.568203 8.530701 115.914146
2.960000 4.800000 1.040000 -6.399635 4.676750 62.827324
2.960000 4.800000 1.080000 1.422310 3.637556 15.254780
2.960000 4.800000 1.120000 8.701023 12.900608 242.133484
2.960000 4.800000 1.160000 4.274687 27.091457 752.220032
2.960000 4.800000 1.200000 -11.759609 32.328819 1183.441040
2.960000 4.840000 0.800000 -48.212502 3.838114 2339.176514
2.960000 4.840000 0.840000 -34.359901 6.791718 1226.730225
2.960000 4.840000 0.880000 -40.447060 20.975721 2075.945557
2.960000 4.840000 0.920000 -66.712502 18.647224 4798.276367
2.960000 4.840000 0.960000 -86.130585 -14.205910 7620.285645
2.960000 4.840000 1.000000 -70.719818 -58.966179 8478.302734
2.960000 4.840000 1.040000 -22.261650 -79.054626 6745.214844
2.960000 4.840000 1.080000 25.344749 -55.394455 3710.901855
2.960000 4.840000 1.120000 36.666672 -6.688126 1389.175903
2.960000 4.840000 1.160000 8.224653 27.178856 806.335083
2.960000 4.840000 1.200000 -29.027258 22.638458 1355.081543
2.960000 4.880000 0.800000 -35.278130 -21.017567 1686.284424
2.960000 4.880000 0.840000 -41.075596 10.618517 1799.957520
2.960000 4.880000 0.880000 -89.728928 18.732384 8402.182617
2.960000 4.880000 0.920000 -138.416626 -32.016045 20184.189453
2.960000 4.880000 0.960000 -128.949783 -120.364326 31115.617188
2.960000 4.880000 1.000000 -47.131874 -180.013824 34626.390625
2.960000 4.880000 1.040000 56.488266 -159.563980 28651.587891
2.960000 4.880000 1.080000 108.988678 -72.475685 17131.257812
2.960000 4.880000 1.120000 80.719086 13.757019 6704.826172
2.960000 4.880000 1.160000 9.804544 39.357796 1645.165283
2.960000 4.880000 1.200000 -37.540119 3.929258 1424.699585
2.960000 4.920000 0.800000 -12.827625 -28.722555 989.533142
2.960000 4.920000 0.840000 -58.470970 2.487915 3425.043945
2.960000 4.920000 0.880000 -130.361679 -35.618259 18262.828125
2.960000 4.920000 0.920000 -147.564133 -143.961823 42500.179688
2.960000 4.920000 0.960000 -61.792297 -246.290222 64477.164062
2.960000 4.920000 1.000000 86.391815 -253.360077 71654.875000
2.960000 4.920000 1.040000 195.373886 -147.688080 59982.726562
2.960000 4.920000 1.080000 191.838379 -4.055939 36818.414062
2.960000 4.920000 1.120000 95.262085 76.739853 14963.870117
2.960000 4.920000 1.160000 -4.931805 56.440399 3209.841309
2.960000 4.920000 1.200000 -34.482525 -15.301910 1423.192993
2.960000 4.960000 0.800000 3.581859 -21.744743 485.663574
2.960000 4.960000 0.840000 -68.020866 -26.056976 5305.804199
2.960000 4.960000 0.880000 -115.020203 -117.583511 27055.529297
2.960000 4.960000 0.920000 -58.176502 -240.540283 61244.132812
2.960000 4.960000 0.960000 97.328598 -287.031738 91860.078125
2.960000 4.960000 1.000000 251.272003 -196.795166 101865.953125
2.960000 4.960000 1.040000 292.109558 -20.269341 85738.835938
2.960000 4.960000 1.080000 196.902191 121.035049 53419.957031
2.960000 4.960000 1.120000 49.905033 141.029327 22379.783203
2.960000 4.960000 1.160000 -37.317966 59.437149 4925.405273
2.960000 4.960000 1.200000 -24.016397 -28.957336 1415.314697
2.960000 5.000000 0.800000 8.923635 -12.141315 227.042801
2.960000 5.000000 0.840000 -50.642830 -60.805279 6261.978516
2.960000 5.000000 0.880000 -37.128109 -168.915283 29910.869141
2.960000 5.000000 0.920000 83.902481 -243.080490 66127.750000
2.960000 5.000000 0.960000 245.751511 -194.450287 98204.718750
2.960000 5.000000 1.000000 328.303741 -28.745502 108609.648438
2.960000 5.000000 1.040000 264.458954 147.701996 91754.421875
2.960000 5.000000 1.080000 102.572502 217.683395 57907.179688
2.960000 5.000000 1.120000 -37.168682 153.898956 25066.400391
2.960000 5.000000 1.160000 -69.629807 34.502586 6038.738281
2.960000 5.000000 1.200000 -11.127300 -37.011971 1493.702759
2.960000 5.040000 0.800000 9.863947 -7.757114 157.470276
2.960000 5.040000 0.840000 -8.640884 -74.904205 5685.305176
2.960000 5.040000 0.880000 56.672901 -148.609192 25296.509766
2.960000 5.040000 0.920000 184.680878 -143.177948 54606.953125
2.960000 5.040000 0.960000 282.083771 -25.731571 80233.367188
2.960000 5.040000 1.000000 262.082886 140.523987 88434.429688
2.960000 5.040000 1.040000 126.137436 243.062347 74989.953125
2.960000 5.040000 1.080000 -32.534840 216.813873 48066.769531
2.960000 5.040000 1.120000 -109.635345 98.706604 21762.902344
2.960000 5.040000 1.160000 -77.309097 -11.276215 6103.849121
2.960000 5.040000 1.200000 3.590416 -41.534019 1737.965942
2.960000 5.080000 0.800000 13.973602 -5.697626 227.724518
2.960000 5.080000 0.840000 32.302776 -54.316685 3993.771484
2.960000 5.080000 0.880000 104.811218 -71.251846 16062.216797
2.960000 5.080000 0.920000 182.779388 -12.216320 33557.542969
2.960000 5.080000 0.960000 193.938721 104.713501 48577.144531
2.960000 5.080000 1.000000 109.185852 203.359314 53276.562500
2.960000 5.080000 1.040000 -24.155663 211.787903 45437.613281
2.960000 5.080000 1.080000 -118.605194 125.693604 29866.074219
2.960000 5.080000 1.120000 -120.220291 11.783489 14591.768555
2.960000 5.080000 1.160000 -50.346443 -51.922962 5230.758301
2.960000 5.080000 1.200000 21.816402 -40.810760 2141.473633
2.960000 5.120000 0.800000 20.190281 1.129650 408.923553
2.960000 5.120000 0.840000 45.105194 -12.847685 2199.541504
2.960000 5.120000 0.880000 84.090714 5.661861 7103.304688
2.960000 5.120000 0.920000 100.025116 62.059128 13856.359375
2.960000 5.120000 0.960000 63.389347 124.294060 19467.222656
2.960000 5.120000 1.000000 -15.944435 144.561493 21152.250000
2.960000 5.120000 1.040000 -90.230820 100.699402 18281.968750
2.960000 5.120000 1.080000 -111.263359 18.380524 12717.378906
2.960000 5.120000 1.120000 -70.363098 -48.610878 7313.983398
2.960000 5.120000 1.160000 -3.706869 -62.588867 3931.107178
2.960000 5.120000 1.200000 41.009460 -29.733089 2565.832520
2.960000 5.160000 0.800000 21.032213 13.417294 622.377808
2.960000 5.160000 0.840000 25.905750 19.499882 1051.353271
2.960000 5.160000 0.880000 26.642056 33.239365 1814.654541
2.960000 5.160000 0.920000 14.743874 50.120968 2729.493164
2.960000 5.160000 0.960000 -11.967552 57.299126 3426.412109
2.960000 5.160000 1.000000 -42.500496 42.512646 3613.617188
2.960000 5.160000 1.040000 -57.274254 6.705070 3325.298096
2.960000 5.160000 1.080000 -43.008957 -32.374649 2897.888184
2.960000 5.160000 1.120000 -5.256622 -51.480564 2677.880615
2.960000 5.160000 1.160000 33.912090 -39.687546 2725.131348
2.960000 5.160000 1.200000 52.354141 -6.882561 2788.325684
2.960000 5.200000 0.800000 12.871244 23.631577 724.120361
2.960000 5.200000 0.840000 -3.415586 23.741215 575.311523
2.960000 5.200000 0.880000 -14.166039 11.201871 326.158569
2.960000 5.200000 0.920000 -12.395142 -4.012825 169.742310
2.960000 5.200000 0.960000 -2.664368 -12.014900 151.456696
2.960000 5.200000 1.000000 5.891945 -12.413559 188.811462
2.960000 5.200000 1.040000 10.403536 -12.013245 252.551605
2.960000 5.200000 1.080000 16.334057 -14.383926 473.698761
2.960000 5.200000 1.120000 28.665379 -14.056648 1019.293274
2.960000 5.200000 1.160000 42.936604 -2.636482 1850.502930
2.960000 5.200000 1.200000 47.289856 19.955986 2634.572021
3.000000 4.800000 0.800000 -59.547813 11.259602 3672.720703
3.000000 4.800000 0.840000 -47.152161 -13.375198 2402.222168
3.000000 4.800000 0.880000 -25.311844 -21.032982 1083.075806
3.000000 4.800000 0.920000 -9.973866 -13.749443 288.525177
3.000000 4.800000 0.960000 -6.684980 -4.434952 64.357758
3.000000 4.800000 1.000000 -7.644279 -1.988434 62.388878
3.000000 4.800000 1.040000 -3.430016 -2.479699 17.913914
3.000000 4.800000 1.080000 4.457764 3.945332 35.437298
3.000000 4.800000 1.120000 4.979219 18.850338 380.127869
3.000000 4.800000 1.160000 -8.524609 31.062527 1037.549561
3.000000 4.800000 1.200000 -28.143721 28.018803 1577.122314
3.000000 4.840000 0.800000 -54.655006 -23.967369 3561.604492
3.000000 4.840000 0.840000 -44.248688 -18.534800 2301.485107
3.000000 4.840000 0.880000 -54.605095 -13.874435 3174.216309
3.000000 4.840000 0.920000 -71.323700 -32.549232 6146.522949
3.000000 4.840000 0.960000 -64.883743 -70.932938 9241.380859
3.000000 4.840000 1.000000 -23.157494 -97.821861 10105.385742
3.000000 4.840000 1.040000 30.943146 -83.966217 8007.803711
3.000000 4.840000 1.080000 57.575066 -33.370430 4428.473633
3.000000 4.840000 1.120000 37.552948 16.964684 1698.024414
3.000000 4.840000 1.160000 -8.595415 30.501137 1004.200500
3.000000 4.840000 1.200000 -40.097321 4.782522 1630.667725
3.000000 4.880000 0.800000 -28.546240 -45.404350 2876.442871
3.000000 4.880000 0.840000 -48.843407 -25.281048 3024.809814
3.000000 4.880000 0.880000 -91.254150 -48.071205 10638.161133
3.000000 4.880000 0.920000 -99.839066 -119.430405 24231.460938
3.000000 4.880000 0.960000 -37.693756 -188.067688 36790.277344
3.000000 4.880000 1.000000 68.748459 -189.532440 40648.898438
3.000000 4.880000 1.040000 146.345535 -109.520714 33411.804688
3.000000 4.880000 1.080000 140.466248 -2.313217 19736.119141
3.000000 4.880000 1.120000 65.169075 56.612732 7452.009766
3.000000 4.880000 1.160000 -11.638847 37.996864 1579.224487
3.000000 4.880000 1.200000 -32.527069 -19.784384 1449.432129
3.000000 4.920000 0.800000 1.277725 -44.441330 1976.664429
3.000000 4.920000 0.840000 -52.028816 -44.708138 4705.815430
3.000000 4.920000 0.880000 -88.607986 -118.325462 21852.291016
3.000000 4.920000 0.920000 -38.413467 -220.176697 49953.371094
3.000000 4.920000 0.960000 96.352219 -257.113983 75391.351562
3.000000 4.920000 1.000000 229.350372 -175.751450 83490.164062
3.000000 4.920000 1.040000 262.927795 -19.783234 69522.398438
3.000000 4.920000 1.080000 177.150131 103.870735 42171.300781
3.000000 4.920000 1.120000 47.143345 119.576378 16521.003906
3.000000 4.920000 1.160000 -27.980690 46.134773 2911.336182
3.000000 4.920000 1.200000 -13.232309 -30.831736 1125.689941
3.000000 4.960000 0.800000 19.677353 -28.622730 1206.458862
3.000000 4.960000 0.840000 -36.875923 -71.654800 6494.244141
3.000000 4.960000 0.880000 -23.358746 -175.904877 31488.156250
3.000000 4.960000 0.920000 97.513916 -248.078430 71051.867188
3.000000 4.960000 0.960000 259.832062 -197.574799 106548.500000
3.000000 4.960000 1.000000 342.345093 -29.421413 118065.781250
3.000000 4.960000 1.040000 277.334045 148.954910 99101.734375
3.000000 4.960000 1.080000 114.374275 219.434357 61232.914062
3.000000 4.960000 1.120000 -24.805382 155.867493 24909.982422
3.000000 4.960000 1.160000 -55.683655 38.770306 4603.806152
3.000000 4.960000 1.200000 2.421246 -27.749399 775.891602
3.000000 5.000000 0.800000 24.349257 -11.321415 721.060730
3.000000 5.000000 0.840000 0.843166 -84.726547 7179.298828
3.000000 5.000000 0.880000 73.990417 -169.179810 34096.390625
3.000000 5.000000 0.920000 221.451416 -163.573181 75796.914062
3.000000 5.000000 0.960000 334.947693 -28.028811 112975.570312
3.000000 5.000000 1.000000 313.230591 164.663818 125227.578125
3.000000 5.000000 1.040000 158.041748 284.413940 105868.484375
3.000000 5.000000 1.080000 -22.886860 257.069092 66608.320312
3.000000 5.000000 1.120000 -110.818581 126.500076 28283.027344
3.000000 5.000000 1.160000 -76.641525 7.114151 5924.534668
3.000000 5.000000 1.200000 8.016509 -22.485779 569.874695
3.000000 5.040000 0.800000 22.416836 0.722549 503.036591
3.000000 5.040000 0.840000 42.455757 -66.377975 6208.526855
3.000000 5.040000 0.880000 139.651367 -93.240799 28196.351562
3.000000 5.040000 0.920000 247.767090 -16.155697 61649.539062
3.000000 5.040000 0.960000 266.845215 141.738586 91296.195312
3.000000 5.040000 1.000000 156.375580 277.121216 101249.492188
3.000000 5.040000 1.040000 -20.062614 293.160217 86345.421875
3.000000 5.040000 1.080000 -146.133362 185.008026 55582.929688
3.000000 5.040000 1.120000 -152.555038 41.429996 24989.484375
3.000000 5.040000 1.160000 -69.988815 -37.378136 6295.559082
3.000000 5.040000 1.200000 11.656679 -24.115417 717.431519
3.000000 5.080000 0.800000 19.631411 9.595149 477.459167
3.000000 5.080000 0.840000 60.161407 -22.904644 4144.017578
3.000000 5.080000 0.880000 131.635010 1.597313 17330.326172
3.000000 5.080000 0.920000 166.824890 95.680450 36985.292969
3.000000 5.080000 0.960000 112.240311 204.153946 54276.718750
3.000000 5.080000 1.000000 -16.147041 244.942123 60257.371094
3.000000 5.080000 1.040000 -138.673630 181.267090 52088.132812
3.000000 5.080000 1.080000 -177.827408 56.066692 34766.062500
3.000000 5.080000 1.120000 -122.721001 -45.339275 17116.093750
3.000000 5.080000 1.160000 -31.913158 -68.152466 5663.208496
3.000000 5.080000 1.200000 24.330650 -27.311848 1337.917480
3.000000 5.120000 0.800000 15.077856 18.590813 572.960083
3.000000 5.120000 0.840000 42.691612 17.816448 2139.999512
3.000000 5.120000 0.880000 66.423256 53.004707 7221.547852
3.000000 5.120000 0.920000 50.603703 109.488403 14548.445312
3.000000 5.120000 0.960000 -13.823380 143.991364 20924.599609
3.000000 5.120000 1.000000 -93.737869 120.363503 23274.160156
3.000000 5.120000 1.040000 -137.010895 43.868332 20696.414062
3.000000 5.120000 1.080000 -115.449509 -39.651932 14900.864258
3.000000 5.120000 1.120000 -47.902374 -80.566299 8785.566406
3.000000 5.120000 1.160000 17.551773 -64.449837 4461.846191
3.000000 5.120000 1.200000 44.317307 -18.211761 2295.691895
3.000000 5.160000 0.800000 5.886894 25.736811 697.038940
3.000000 5.160000 0.840000 6.655237 30.531525 976.466187
3.000000 5.160000 0.880000 1.404446 40.181000 1616.485107
3.000000 5.160000 0.920000 -15.232178 47.337982 2472.903809
3.000000 5.160000 0.960000 -39.767372 40.506824 3222.246582
3.000000 5.160000 1.000000 -58.238190 14.114227 3590.898193
3.000000 5.160000 1.040000 -54.944031 -23.324493 3562.878418
3.000000 5.160000 1.080000 -25.661064 -52.027824 3365.384766
3.000000 5.160000 1.120000 16.461777 -54.545513 3246.202881
3.000000 5.160000 1.160000 48.917797 -29.209412 3246.140625
3.000000 5.160000 1.200000 55.814991 8.366661 3185.314209
3.000000 5.200000 0.800000 -5.839548 26.371380 729.549988
3.000000 5.200000 0.840000 -18.817387 15.013350 579.494690
3.000000 5.200000 0.880000 -18.547253 -3.612677 357.052002
3.000000 5.200000 0.920000 -4.993515 -15.593735 268.099762
3.000000 5.200000 0.960000 10.310642 -14.326569 311.559906
3.000000 5.200000 1.000000 17.116356 -6.413940 334.108276
3.000000 5.200000 1.040000 17.245884 -2.730232 304.874664
3.000000 5.200000 1.080000 21.083515 -4.927767 468.797516
3.000000 5.200000 1.120000 33.689644 -2.956583 1143.733398
3.000000 5.200000 1.160000 46.462395 13.072699 2329.649658
3.000000 5.200000 1.200000 44.426331 39.656837 3546.363770
3.040000 4.800000 0.800000 -60.770058 -17.414654 3996.270264
3.040000 4.800000 0.840000 -39.630222 -36.308376 2888.852783
3.040000 4.800000 0.880000 -15.135721 -36.512524 1562.254517
3.040000 4.800000 0.920000 -0.639252 -24.448036 598.115112
3.040000 4.800000 0.960000 2.375633 -12.487350 161.577545
3.040000 4.800000 1.000000 1.973969 -6.058950 40.607433
3.040000 4.800000 1.040000 3.871307 -0.405731 15.151638
3.040000 4.800000 1.080000 4.164242 10.143478 120.231064
3.040000 4.800000 1.120000 -4.816095 22.192043 515.681580
3.040000 4.800000 1.160000 -22.740225 25.092636 1146.758179
3.040000 4.800000 1.200000 -38.215637 13.161614 1633.663086
3.040000 4.840000 0.800000 -42.011040 -49.382679 4203.576172
3.040000 4.840000 0.840000 -33.612076 -46.242352 3268.126465
3.040000 4.840000 0.880000 -37.242943 -50.549938 3942.333008
3.040000 4.840000 0.920000 -34.190956 -70.978523 6206.972168
3.040000 4.840000 0.960000 -6.953339 -91.766983 8469.527344
3.040000 4.840000 1.000000 37.452225 -86.330215 8855.575195
3.040000 4.840000 1.040000 68.735764 -46.079666 6847.940430
3.040000 4.840000 1.080000 60.869793 5.991440 3741.029053
3.040000 4.840000 1.120000 18.788069 33.480011 1473.902588
3.040000 4.840000 1.160000 -23.988495 19.906017 971.697388
3.040000 4.840000 1.200000 -35.870232 -16.189053 1548.758911
3.040000 4.880000 0.800000 -7.612255 -60.627937 3733.693359
3.040000 4.880000 0.840000 -27.066746 -58.730236 4181.849609
3.040000 4.880000 0.880000 -41.293381 -96.169678 10953.750000
3.040000 4.880000 0.920000 -7.974159 -150.238312 22635.138672
3.040000 4.880000 0.960000 74.051605 -166.194244 33104.167969
3.040000 4.880000 1.000000 153.503113 -110.709763 35819.855469
3.040000 4.880000 1.040000 169.775253 -10.207817 28927.835938
3.040000 4.880000 1.080000 110.068512 67.655632 16692.361328
3.040000 4.880000 1.120000 23.041981 73.932922 5997.009766
3.040000 4.880000 1.160000 -25.749012 21.116957 1108.937500
3.040000 4.880000 1.200000 -12.595457 -32.992325 1247.139038
3.040000 4.920000 0.800000 23.277952 -48.255295 2870.436523
3.040000 4.920000 0.840000 -11.057875 -74.233383 5632.871582
3.040000 4.920000 0.880000 2.108665 -144.682922 20937.595703
3.040000 4.920000 0.920000 92.352570 -192.350098 45527.554688
3.040000 4.920000 0.960000 212.051147 -149.544785 67329.328125
3.040000 4.920000 1.000000 270.523163 -19.661652 73569.359375
3.040000 4.920000 1.040000 216.822540 115.827576 60428.042969
3.040000 4.920000 1.080000 89.666275 166.893066 35893.335938
3.040000 4.920000 1.120000 -16.598694 114.526031 13391.728516
3.040000 4.920000 1.160000 -37.015011 22.664658 1883.797852
3.040000 4.920000 1.200000 11.560030 -26.803419 852.057556
3.040000 4.960000 0.800000 37.870193 -23.392517 1981.361450
3.040000 4.960000 0.840000 19.706665 -80.652809 6893.228027
3.040000 4.960000 0.880000 82.934151 -149.040283 29091.078125
3.040000 4.960000 0.920000 210.025665 -140.418518 63828.140625
3.040000 4.960000 0.960000 306.887695 -19.245304 94550.437500
3.040000 4.960000 1.000000 284.831146 150.640366 103821.296875
3.040000 4.960000 1.040000 146.219467 254.693344 86248.828125
3.040000 4.960000 1.080000 -12.862801 228.580826 52414.648438
3.040000 4.960000 1.120000 -87.787415 113.174034 20514.992188
3.040000 4.960000 1.160000 -55.190796 11.009556 3167.234131
3.040000 4.960000 1.200000 18.477331 -9.684330 435.198029
3.040000 5.000000 0.800000 36.161777 0.178343 1307.706055
3.040000 5.000000 0.840000 54.710083 -63.562664 7033.405273
3.040000 5.000000 0.880000 151.073868 -88.861847 30719.742188
3.040000 5.000000 0.920000 259.101746 -9.880764 67231.343750
3.040000 5.000000 0.960000 277.213135 150.516541 99502.351562
3.040000 5.000000 1.000000 164.565796 287.389465 109674.601562
3.040000 5.000000 1.040000 -13.432919 303.198547 92109.804688
3.040000 5.000000 1.080000 -138.937698 195.001968 57329.453125
3.040000 5.000000 1.120000 -144.190887 54.206093 23729.312500
3.040000 5.000000 1.160000 -63.646820 -19.240425 4421.111816
3.040000 5.000000 1.200000 10.729374 -2.197313 119.947655
3.040000 5.040000 0.800000 25.717743 15.656721 906.535217
3.040000 5.040000 0.840000 71.997055 -23.687943 5744.694824
3.040000 5.040000 0.880000 157.449554 4.475065 24810.386719
3.040000 5.040000 0.920000 200.573517 116.730850 53855.828125
3.040000 5.040000 0.960000 136.556915 246.756149 79536.390625
3.040000 5.040000 1.000000 -14.905319 296.353302 88047.453125
3.040000 5.040000 1.040000 -158.464767 223.263275 74957.570312
3.040000 5.040000 1.080000 -204.085876 80.412552 48117.226562
3.040000 5.040000 1.120000 -142.833557 -32.109394 21432.439453
3.040000 5.040000 1.160000 -45.851280 -54.577415 5081.034180
3.040000 5.040000 1.200000 7.548244 -10.187477 160.760681
3.040000 5.080000 0.800000 12.996833 23.485727 720.497070
3.040000 5.080000 0.840000 57.608154 18.162363 3648.570801
3.040000 5.080000 0.880000 98.800362 70.984810 14800.355469
3.040000 5.080000 0.920000 78.969727 159.160110 31568.160156
3.040000 5.080000 0.960000 -15.883888 214.850616 46413.085938
3.040000 5.080000 1.000000 -134.035553 183.673370 51701.437500
3.040000 5.080000 1.040000 -197.850327 76.267746 44961.519531
3.040000 5.080000 1.080000 -169.827209 -38.264275 30305.435547
3.040000 5.080000 1.120000 -82.179337 -91.408241 15108.910156
3.040000 5.080000 1.160000 -3.547781 -70.218231 4943.187012
3.040000 5.080000 1.200000 22.026552 -17.920870 806.326538
3.040000 5.120000 0.800000 0.357670 25.703762 660.811340
3.040000 5.120000 0.840000 20.766098 36.839325 1788.366699
3.040000 5.120000 0.880000 21.520439 73.539322 5871.161133
3.040000 5.120000 0.920000 -17.483528 107.541718 11870.894531
3.040000 5.120000 0.960000 -82.373611 102.055725 17200.783203
3.040000 5.120000 1.000000 -131.412354 45.908310 19376.779297
3.040000 5.120000 1.040000 -128.623840 -32.658623 17610.677734
3.040000 5.120000 1.080000 -74.369873 -87.142593 13124.708984
3.040000 5.120000 1.120000 -4.526543 -89.888931 8100.509766
3.040000 5.120000 1.160000 40.041920 -51.310852 4236.158691
3.040000 5.120000 1.200000 44.507759 -5.715952 2013.612793
3.040000 5.160000 0.800000 -10.858541 22.818584 638.595703
3.040000 5.160000 0.840000 -12.392622 25.125549 784.870300
3.040000 5.160000 0.880000 -20.215099 28.161055 1201.695190
3.040000 5.160000 0.920000 -34.461910 24.332222 1779.680298
3.040000 5.160000 0.960000 -47.620087 7.614395 2325.651611
3.040000 5.160000 1.000000 -48.104588 -19.700798 2702.172607
3.040000 5.160000 1.040000 -28.859444 -45.616215 2913.706543
3.040000 5.160000 1.080000 5.559273 -55.095226 3066.389404
3.040000 5.160000 1.120000 39.909897 -40.523376 3234.943848
3.040000 5.160000 1.160000 57.489601 -7.861221 3366.853027
3.040000 5.160000 1.200000 50.961632 26.742538 3312.251221
3.040000 5.200000 0.800000 -17.991722 15.945236 577.952637
3.040000 5.200000 0.840000 -21.859316 -0.040203 477.831299
3.040000 5.200000 0.880000 -11.145594 -15.581083 366.994415
3.040000 5.200000 0.920000 7.866272 -18.541203 405.654419
3.040000 5.200000 0.960000 21.564014 -8.285866 533.662292
3.040000 5.200000 1.000000 23.223984 4.024246 555.547974
3.040000 5.200000 1.040000 19.654861 8.216557 453.825378
3.040000 5.200000 1.080000 22.450581 6.848351 550.928467
3.040000 5.200000 1.120000 33.269127 12.334621 1258.977783
3.040000 5.200000 1.160000 39.849762 31.928486 2607.431641
3.040000 5.200000 1.200000 28.155428 56.960861 4037.268066
3.080000 4.800000 0.800000 -44.926392 -37.880814 3453.336670
3.080000 4.800000 0.840000 -19.970490 -48.329315 2734.543213
3.080000 4.800000 0.880000 3.724331 -41.131641 1705.682495
3.080000 4.800000 0.920000 15.658855 -23.988976 820.670715
3.080000 4.800000 0.960000 15.646523 -7.806882 305.761078
3.080000 4.800000 1.000000 10.290512 2.658180 112.960564
3.080000 4.800000 1.040000 4.127632 9.699387 111.115448
3.080000 4.800000 1.080000 -4.144695 15.721130 264.332458
3.080000 4.800000 1.120000 -16.745369 17.890146 600.464722
3.080000 4.800000 1.160000 -30.276917 11.249519 1043.243286
3.080000 4.800000 1.200000 -36.608475 -3.616953 1353.262817
3.080000 4.840000 0.800000 -18.173376 -60.569912 3998.985840
3.080000 4.840000 0.840000 -6.771938 -59.796440 3621.473389
3.080000 4.840000 0.880000 1.493637 -62.810390 3947.376221
3.080000 4.840000 0.920000 17.518547 -68.205009 4958.822754
3.080000 4.840000 0.960000 43.621986 -62.541061 5814.261719
3.080000 4.840000 1.000000 65.593712 -35.672218 5575.042480
3.080000 4.840000 1.040000 63.819695 3.963364 4088.661621
3.080000 4.840000 1.080000 33.785110 32.211502 2179.014648
3.080000 4.840000 1.120000 -5.806652 29.979856 932.509033
3.080000 4.840000 1.160000 -27.656570 1.744324 767.928528
3.080000 4.840000 1.200000 -20.063725 -27.685574 1169.043945
3.080000 4.880000 0.800000 17.282558 -60.310596 3936.054932
3.080000 4.880000 0.840000 12.610377 -67.361519 4696.595703
3.080000 4.880000 0.880000 25.849689 -92.294930 9186.560547
3.080000 4.880000 0.920000 71.917442 -105.684784 16341.392578
3.080000 4.880000 0.960000 128.845459 -75.527573 22305.566406
3.080000 4.880000 1.000000 152.174271 -3.936562 23172.503906
3.080000 4.880000 1.040000 116.672592 67.001938 18101.753906
3.080000 4.880000 1.080000 43.756248 90.099449 10032.519531
3.080000 4.880000 1.120000 -14.949097 55.856934 3343.472656
3.080000 4.880000 1.160000 -23.399826 0.534042 547.837097
3.080000 4.880000 1.200000 8.605586 -28.750561 900.650818
3.080000 4.920000 0.800000 43.451202 -38.518929 3371.714844
3.080000 4.920000 0.840000 38.775700 -65.399399 5780.636719
3.080000 4.920000 0.880000 79.620087 -98.579887 16057.352539
3.080000 4.920000 0.920000 156.655243 -85.235336 31805.927734
3.080000 4.920000 0.960000 212.407791 -3.619289 45130.167969
3.080000 4.920000 1.000000 191.895508 105.769211 48011.011719
3.080000 4.920000 1.040000 97.834824 169.930084 38447.886719
3.080000 4.920000 1.080000 -6.617367 148.330170 22045.628906
3.080000 4.920000 1.120000 -53.038265 69.370300 7625.296387
3.080000 4.920000 1.160000 -27.299763 2.046410 749.464844
3.080000 4.920000 1.200000 24.341780 -8.239313 660.408508
3.080000 4.960000 0.800000 50.129265 -8.032603 2577.465820
3.080000 4.960000 0.840000 64.771744 -46.532478 6360.650391
3.080000 4.960000 0.880000 133.447723 -58.500191 21230.566406
3.080000 4.960000 0.920000 209.159973 4.304790 43766.425781
3.080000 4.960000 0.960000 217.600662 125.195663 63024.000000
3.080000 4.960000 1.000000 129.172760 226.182480 67844.117188
3.080000 4.960000 1.040000 -6.077000 234.926315 55227.304688
3.080000 4.960000 1.080000 -99.044525 150.943237 32593.679688
3.080000 4.960000 1.120000 -99.809921 45.170620 12002.405273
3.080000 4.960000 1.160000 -37.243004 -6.397865 1427.974121
3.080000 4.960000 1.200000 16.540243 11.447504 404.625000
3.080000 5.000000 0.800000 39.076782 17.058655 1817.992554
3.080000 5.000000 0.840000 76.264908 -11.550249 5949.744141
3.080000 5.000000 0.880000 146.400818 15.599930 21676.556641
3.080000 5.000000 0.920000 180.176041 113.641678 45377.835938
3.080000 5.000000 0.960000 121.859825 225.681946 65782.156250
3.080000 5.000000 1.000000 -10.834767 267.012268 71412.945312
3.080000 5.000000 1.040000 -134.586716 202.268158 59025.992188
3.080000 5.000000 1.080000 -172.111176 79.356194 35919.660156
3.080000 5.000000 1.120000 -118.465271 -14.140175 14233.964844
3.080000 5.000000 1.160000 -38.227356 -28.738646 2287.240479
3.080000 5.000000 1.200000 0.040812 10.977903 120.516022
3.080000 5.040000 0.800000 19.389223 29.383936 1239.357666
3.080000 5.040000 0.840000 62.582947 25.184046 4550.861328
3.080000 5.040000 0.880000 103.219978 79.724930 17010.429688
3.080000 5.040000 0.920000 81.731842 170.340286 35695.906250
3.080000 5.040000 0.960000 -16.213951 227.225464 51894.300781
3.080000 5.040000 1.000000 -136.773804 195.186432 56804.816406
3.080000 5.040000 1.040000 -200.663696 87.006790 47836.101562
3.080000 5.040000 1.080000 -172.185516 -25.405548 30293.292969
3.080000 5.040000 1.120000 -87.658417 -74.208282 13190.867188
3.080000 5.040000 1.160000 -17.362720 -51.328640 2936.093506
3.080000 5.040000 1.200000 -1.371922 -4.753223 24.475296
3.080000 5.080000 0.800000 0.293562 29.310148 859.170959
3.080000 5.080000 0.840000 28.724831 43.837776 2746.866455
3.080000 5.080000 0.880000 31.429140 94.047958 9832.809570
3.080000 5.080000 0.920000 -19.537235 141.397675 20375.005859
3.080000 5.080000 0.960000 -104.875443 136.329895 29584.699219
3.080000 5.080000 1.000000 -168.583786 65.666023 32732.519531
3.080000 5.080000 1.040000 -165.543701 -31.230362 28380.052734
3.080000 5.080000 1.080000 -100.795670 -94.821312 19150.847656
3.080000 5.080000 1.120000 -23.014137 -95.314079 9614.423828
3.080000 5.080000 1.160000 19.783924 -52.808296 3180.119629
3.080000 5.080000 1.200000 18.227327 -11.635950 467.630798
3.080000 5.120000 0.800000 -12.761236 21.450804 622.986145
3.080000 5.120000 0.840000 -5.404675 35.460274 1286.641479
3.080000 5.120000 0.880000 -20.811958 57.466179 3735.499512
3.080000 5.120000 0.920000 -59.791931 60.998333 7295.871582
3.080000 5.120000 0.960000 -97.992928 28.937408 10439.988281
3.080000 5.120000 1.000000 -104.826683 -27.918365 11768.069336
3.080000 5.120000 1.040000 -70.052292 -77.131470 10856.587891
3.080000 5.120000 1.080000 -13.005791 -90.552887 8368.975586
3.080000 5.120000 1.120000 33.674206 -65.840393 5468.909668
3.080000 5.120000 1.160000 49.705528 -24.837641 3087.548096
3.080000 5.120000 1.200000 38.902824 7.106659 1563.934326
3.080000 5.160000 0.800000 -18.315937 11.302247 463.214325
3.080000 5.160000 0.840000 -20.508289 10.601149 532.974304
3.080000 5.160000 0.880000 -26.163076 6.986774 733.321594
3.080000 5.160000 0.920000 -31.308283 -3.296516 991.075562
3.080000 5.160000 0.960000 -29.512001 -19.323967 1244.373901
3.080000 5.160000 1.000000 -16.511894 -34.893200 1490.177979
3.080000 5.160000 1.040000 6.253616 -41.610195 1770.515991
3.080000 5.160000 1.080000 31.377319 -33.684654 2119.192139
3.080000 5.160000 1.120000 48.692791 -11.636852 2506.404053
3.080000 5.160000 1.160000 50.305351 17.072369 2822.094238
3.080000 5.160000 1.200000 35.016491 41.131821 2917.981445
3.080000 5.200000 0.800000 -18.097801 3.508930 339.842987
3.080000 5.200000 0.840000 -14.146906 -9.760727 295.406738
3.080000 5.200000 0.880000 1.013876 -17.512913 307.730072
3.080000 5.200000 0.920000 18.480213 -11.863995 482.272644
3.080000 5.200000 0.960000 26.559311 3.409386 717.020874
3.080000 5.200000 1.000000 22.828960 16.468479 792.372253
3.080000 5.200000 1.040000 16.348030 20.184856 674.686523
3.080000 5.200000 1.080000 16.858997 19.954723 682.416748
3.080000 5.200000 1.120000 22.648479 27.170095 1251.167725
3.080000 5.200000 1.160000 21.122543 44.883324 2460.674561
3.080000 5.200000 1.200000 2.593425 61.576435 3798.383301
3.120000 4.800000 0.800000 -23.995472 -42.254242 2361.203613
3.120000 4.800000 0.840000 -0.087482 -44.687225 1996.955811
3.120000 4.800000 0.880000 19.523773 -31.482824 1372.345947
3.120000 4.800000 0.920000 25.859985 -10.540849 779.848328
3.120000 4.800000 0.960000 18.980621 7.302729 413.593811
3.120000 4.800000 1.000000 5.753067 16.088882 291.949921
3.120000 4.800000 1.040000 -7.006018 16.725937 328.841248
3.120000 4.800000 1.080000 -16.828373 12.839977 448.059143
3.120000 4.800000 1.120000 -24.098583 6.256068 619.880066
3.120000 4.800000 1.160000 -28.297468 -3.059694 810.108459
3.120000 4.800000 1.200000 -27.321075 -13.850847 938.287109
3.120000 4.840000 0.800000 3.832154 -55.513054 3096.384521
3.120000 4.840000 0.840000 20.076960 -52.006451 3107.755127
3.120000 4.840000 0.880000 33.787876 -43.970978 3075.067383
3.120000 4.840000 0.920000 45.345821 -31.112820 3024.250977
3.120000 4.840000 0.960000 51.586777 -11.757774 2799.440918
3.120000 4.840000 1.000000 46.167992 11.154480 2255.905762
3.120000 4.840000 1.040000 26.534706 27.825134 1478.328735
3.120000 4.840000 1.080000 0.113518 27.946445 781.016663
3.120000 4.840000 1.120000 -18.586916 10.638273 458.646301
3.120000 4.840000 1.160000 -19.188555 -12.544165 525.556702
3.120000 4.840000 1.200000 -4.621928 -26.198778 707.738220
3.120000 4.880000 0.800000 35.284870 -46.972977 3451.482422
3.120000 4.880000 0.840000 44.883221 -46.792694 4204.059570
3.120000 4.880000 0.880000 63.798737 -45.225197 6115.597168
3.120000 4.880000 0.920000 88.834251 -27.644697 8655.753906
3.120000 4.880000 0.960000 101.149895 11.083870 10354.153320
3.120000 4.880000 1.000000 82.972977 54.794487 9886.950195
3.120000 4.880000 1.040000 37.903194 75.981461 7209.833984
3.120000 4.880000 1.080000 -7.442505 60.286015 3689.794434
3.120000 4.880000 1.120000 -24.868208 21.336308 1073.665771
3.120000 4.880000 1.160000 -9.231497 -10.295697 191.221924
3.120000 4.880000 1.200000 18.126577 -14.186329 529.824707
3.120000 4.920000 0.800000 54.185448 -20.061176 3338.513672
3.120000 4.920000 0.840000 65.482224 -26.081944 4968.188965
3.120000 4.920000 0.880000 95.861954 -20.096458 9593.381836
3.120000 4.920000 0.920000 125.213570 18.118896 16006.732422
3.120000 4.920000 0.960000 120.400383 79.794334 20863.386719
3.120000 4.920000 1.000000 69.111237 127.421906 21012.705078
3.120000 4.920000 1.040000 -2.430645 126.512894 16011.420898
3.120000 4.920000 1.080000 -48.917648 78.688766 8584.858398
3.120000 4.920000 1.120000 -45.618031 21.981810 2564.204590
3.120000 4.920000 1.160000 -9.312984 -3.363306 98.043488
3.120000 4.920000 1.200000 20.135563 9.940622 504.256866
3.120000 4.960000 0.800000 52.035568 11.605465 2842.387207
3.120000 4.960000 0.840000 70.981018 5.835911 5072.362305
3.120000 4.960000 0.880000 104.931198 28.479528 11821.640625
3.120000 4.960000 0.920000 116.848808 87.938728 21386.863281
3.120000 4.960000 0.960000 76.155182 152.191589 28961.890625
3.120000 4.960000 1.000000 -5.935045 172.875122 29921.033203
3.120000 4.960000 1.040000 -79.899918 130.459961 23403.796875
3.120000 4.960000 1.080000 -100.190643 55.008369 13064.085938
3.120000 4.960000 1.120000 -65.510208 0.088152 4291.595215
3.120000 4.960000 1.160000 -17.123310 -5.068661 318.899048
3.120000 4.960000 1.200000 2.247246 22.030725 490.402985
3.120000 5.000000 0.800000 32.333412 33.307396 2154.832031
3.120000 5.000000 0.840000 55.441307 36.296478 4391.172852
3.120000 5.000000 0.880000 76.362183 75.132874 11476.131836
3.120000 5.000000 0.920000 56.296017 135.891571 21635.761719
3.120000 5.000000 0.960000 -14.226842 172.262390 29876.734375
3.120000 5.000000 1.000000 -98.290726 147.303680 31359.441406
3.120000 5.000000 1.040000 -141.531357 70.920677 25060.867188
3.120000 5.000000 1.080000 -120.521973 -6.110256 14562.880859
3.120000 5.000000 1.120000 -62.679985 -37.072556 5303.154785
3.120000 5.000000 1.160000 -18.291826 -18.902668 691.901733
3.120000 5.000000 1.200000 -13.762337 11.658164 325.314697
3.120000 5.040000 0.800000 6.899957 37.752495 1472.860229
3.120000 5.040000 0.840000 24.423189 50.473873 3144.104004
3.120000 5.040000 0.880000 22.627058 90.155777 8640.047852
3.120000 5.040000 0.920000 -21.316805 126.897705 16557.433594
3.120000 5.040000 0.960000 -92.018509 120.869034 23076.730469
3.120000 5.040000 1.000000 -143.837372 61.958893 24528.093750
3.120000 5.040000 1.040000 -140.716736 -16.614029 20077.224609
3.120000 5.040000 1.080000 -88.895348 -66.091705 12270.496094
3.120000 5.040000 1.120000 -30.015118 -64.469193 5057.184082
3.120000 5.040000 1.160000 -2.227844 -31.937115 1024.942627
3.120000 5.040000 1.200000 -8.610424 -6.372505 114.748230
3.120000 5.080000 0.800000 -12.176815 27.780428 920.027039
3.120000 5.080000 0.840000 -6.307312 42.022530 1805.675171
3.120000 5.080000 0.880000 -23.607149 65.157753 4802.830078
3.120000 5.080000 0.920000 -65.782173 69.020477 9091.121094
3.120000 5.080000 0.960000 -106.810760 35.321999 12656.181641
3.120000 5.080000 1.000000 -114.360878 -23.525990 13631.882812
3.120000 5.080000 1.040000 -79.488052 -72.517799 11577.181641
3.120000 5.080000 1.080000 -25.131405 -83.969055 7682.389648
3.120000 5.080000 1.120000 14.721714 -59.985916 3815.038818
3.120000 5.080000 1.160000 23.876717 -26.589705 1277.109985
3.120000 5.080000 1.200000 13.061126 -7.650631 229.125153
3.120000 5.120000 0.800000 -19.220343 12.681189 530.234131
3.120000 5.120000 0.840000 -21.348738 18.912050 813.434265
3.120000 5.120000 0.880000 -36.104893 21.317169 1757.984863
3.120000 5.120000 0.920000 -54.797050 7.113495 3053.318604
3.120000 5.120000 0.960000 -60.058231 -22.974464 4134.817383
3.120000 5.120000 1.000000 -41.785954 -52.975063 4552.423340
3.120000 5.120000 1.040000 -6.977669 -64.538498 4213.905762
3.120000 5.120000 1.080000 25.870144 -51.908627 3363.770020
3.120000 5.120000 1.120000 41.743134 -25.076338 2371.312012
3.120000 5.120000 1.160000 39.018055 0.307264 1522.502930
3.120000 5.120000 1.200000 26.560417 15.173946 935.704407
3.120000 5.160000 0.800000 -16.714756 1.501558 281.637726
3.120000 5.160000 0.840000 -17.373564 -2.312891 307.190186
3.120000 5.160000 0.880000 -16.712399 -9.097618 362.070923
3.120000 5.160000 0.920000 -11.288521 -17.159180 421.868134
3.120000 5.160000 0.960000 -0.501701 -22.282787 496.774323
3.120000 5.160000 1.000000 12.816048 -21.245237 615.611206
3.120000 5.160000 1.040000 24.807850 -13.665433 802.173523
3.120000 5.160000 1.080000 32.672470 -0.983065 1068.456787
3.120000 5.160000 1.120000 34.415108 14.956595 1408.099365
3.120000 5.160000 1.160000 28.032862 31.343645 1768.265381
3.120000 5.160000 1.200000 12.900198 43.142433 2027.684692
3.120000 5.200000 0.800000 -11.903612 -2.288916 146.935120
3.120000 5.200000 0.840000 -4.999059 -10.018388 125.358681
3.120000 5.200000 0.880000 8.906492 -10.819342 196.383759
3.120000 5.200000 0.920000 21.141346 -0.321281 447.059723
3.120000 5.200000 0.960000 22.898624 15.891383 776.883057
3.120000 5.200000 1.000000 14.524124 27.255693 953.822998
3.120000 5.200000 1.040000 5.163452 29.207821 879.758057
3.120000 5.200000 1.080000 2.399181 27.838432 780.734375
3.120000 5.200000 1.120000 3.277711 32.333031 1056.168335
3.120000 5.200000 1.160000 -2.629533 43.139549 1867.935181
3.120000 5.200000 1.200000 -20.655193 49.468826 2873.801758
3.160000 4.800000 0.800000 -10.381302 -34.230267 1279.482666
3.160000 4.800000 0.840000 8.858879 -31.411400 1065.155762
3.160000 4.800000 0.880000 21.919743 -15.636795 724.984497
3.160000 4.800000 0.920000 20.987894 4.733257 462.895416
3.160000 4.800000 0.960000 7.438095 18.413851 394.395172
3.160000 4.800000 1.000000 -9.729042 19.568378 477.575714
3.160000 4.800000 1.040000 -21.396505 11.084013 580.665771
3.160000 4.800000 1.080000 -24.720848 0.421347 611.297852
3.160000 4.800000 1.120000 -23.046623 -7.270500 584.007019
3.160000 4.800000 1.160000 -20.644876 -12.137905 573.539673
3.160000 4.800000 1.200000 -18.278904 -16.849552 618.025757
3.160000 4.840000 0.800000 14.664831 -41.700150 1953.959717
3.160000 4.840000 0.840000 31.282875 -31.412666 1965.373901
3.160000 4.840000 0.880000 38.876106 -13.194610 1685.449463
3.160000 4.840000 0.920000 34.809734 5.409527 1240.980591
3.160000 4.840000 0.960000 21.894888 17.602146 789.221680
3.160000 4.840000 1.000000 5.905809 20.282927 446.275696
3.160000 4.840000 1.040000 -7.459648 14.269879 259.275818
3.160000 4.840000 1.080000 -14.394379 3.008929 216.251785
3.160000 4.840000 1.120000 -13.682679 -8.911059 266.622681
3.160000 4.840000 1.160000 -6.854517 -17.173191 341.902893
3.160000 4.840000 1.200000 2.343894 -19.394629 381.645447
3.160000 4.880000 0.800000 40.948715 -29.191803 2528.958496
3.160000 4.880000 0.840000 51.430618 -14.503560 2855.461670
3.160000 4.880000 0.880000 54.424149 3.673256 2975.480957
3.160000 4.880000 0.920000 48.862202 22.069738 2874.587891
3.160000 4.880000 0.960000 34.420586 36.311363 2503.291992
3.160000 4.880000 1.000000 13.871197 40.836178 1860.003418
3.160000 4.880000 1.040000 -5.336109 32.463779 1082.371094
3.160000 4.880000 1.080000 -14.239244 14.818442 422.342285
3.160000 4.880000 1.120000 -9.161788 -2.039962 88.099808
3.160000 4.880000 1.160000 4.300229 -8.450848 89.908798
3.160000 4.880000 1.200000 15.194466 -2.931277 239.464172
3.160000 4.920000 0.800000 53.045925 -0.792594 2814.498291
3.160000 4.920000 0.840000 56.648361 14.345060 3414.817627
3.160000 4.920000 0.880000 55.813652 32.009735 4139.787109
3.160000 4.920000 0.920000 46.398151 51.616814 4817.083984
3.160000 4.920000 0.960000 24.976072 66.120552 4995.731445
3.160000 4.920000 1.000000 -3.479225 65.535477 4307.003906
3.160000 4.920000 1.040000 -25.404333 47.063995 2860.399902
3.160000 4.920000 1.080000 -28.867289 20.922222 1271.059814
3.160000 4.920000 1.120000 -14.929409 3.727089 236.778442
3.160000 4.920000 1.160000 2.191563 4.328223 23.536465
3.160000 4.920000 1.200000 7.748048 16.075668 318.459381
3.160000 4.960000 0.800000 43.367531 28.819229 2711.290527
3.160000 4.960000 0.840000 41.349892 41.311211 3416.429688
3.160000 4.960000 0.880000 35.884560 57.752712 4623.077148
3.160000 4.960000 0.920000 19.144678 75.355324 6044.943359
3.160000 4.960000 0.960000 -10.458786 82.180573 6863.032715
3.160000 4.960000 1.000000 -41.212566 68.114639 6338.079590
3.160000 4.960000 1.040000 -55.549728 37.519379 4493.476074
3.160000 4.960000 1.080000 -46.190449 8.676130 2208.832764
3.160000 4.960000 1.120000 -24.191799 -1.540293 587.615662
3.160000 4.960000 1.160000 -9.277312 7.046393 135.720169
3.160000 4.960000 1.200000 -11.426135 18.666935 479.011047
3.160000 5.000000 0.800000 17.746847 44.106434 2260.328125
3.160000 5.000000 0.840000 12.244218 52.080704 2862.320557
3.160000 5.000000 0.880000 1.736980 64.351273 4144.103516
3.160000 5.000000 0.920000 -21.015623 73.149612 5792.521973
3.160000 5.000000 0.960000 -51.123428 65.367905 6886.567871
3.160000 5.000000 1.000000 -71.877823 37.600380 6580.209961
3.160000 5.000000 1.040000 -69.477188 3.290049 4837.903809
3.160000 5.000000 1.080000 -47.281231 -17.470404 2540.729980
3.160000 5.000000 1.120000 -23.771940 -16.147278 825.839722
3.160000 5.000000 1.160000 -15.356808 -3.150539 245.757446
3.160000 5.000000 1.200000 -21.472023 3.554062 473.679108
3.160000 5.040000 0.800000 -8.763860 39.270447 1618.973145
3.160000 5.040000 0.840000 -15.200259 41.888958 1985.732666
3.160000 5.040000 0.880000 -27.834461 46.357040 2923.732422
3.160000 5.040000 0.920000 -48.642612 42.533730 4175.221680
3.160000 5.040000 0.960000 -67.259903 22.589359 5034.173828
3.160000 5.040000 1.000000 -69.378983 -7.818529 4874.572754
3.160000 5.040000 1.040000 -51.401100 -32.070549 3670.593262
3.160000 5.040000 1.080000 -25.393450 -37.336632 2038.851318
3.160000 5.040000 1.120000 -8.347900 -26.362286 764.657532
3.160000 5.040000 1.160000 -6.591762 -13.825752 234.602753
3.160000 5.040000 1.200000 -11.557152 -11.193346 258.858765
3.160000 5.080000 0.800000 -22.788363 21.426250 978.393677
3.160000 5.080000 0.840000 -27.379303 19.147827 1116.265503
3.160000 5.080000 0.880000 -36.224850 15.450766 1550.965942
3.160000 5.080000 0.920000 -45.948441 3.507738 2123.563477
3.160000 5.080000 0.960000 -47.147217 -16.472862 2494.215332
3.160000 5.080000 1.000000 -34.361919 -34.928879 2400.768066
3.160000 5.080000 1.040000 -12.916237 -41.110870 1856.932861
3.160000 5.080000 1.080000 5.149099 -33.192692 1128.267944
3.160000 5.080000 1.120000 11.927611 -19.573286 525.381470
3.160000 5.080000 1.160000 9.834600 -10.180344 200.358765
3.160000 5.080000 1.200000 7.090478 -7.365128 104.519981
3.160000 5.120000 0.800000 -21.551497 4.076462 481.084564
3.160000 5.120000 0.840000 -22.169273 -1.081455 492.646240
3.160000 5.120000 0.880000 -22.507904 -8.208731 573.989014
3.160000 5.120000 0.920000 -18.850067 -17.633461 666.263977
3.160000 5.120000 0.960000 -8.823693 -25.101686 707.952209
3.160000 5.120000 1.000000 4.816441 -25.557590 676.388550
3.160000 5.120000 1.040000 15.987835 -18.268967 589.366028
3.160000 5.120000 1.080000 20.661804 -7.478788 482.842438
3.160000 5.120000 1.120000 19.721596 1.895302 392.533508
3.160000 5.120000 1.160000 16.529495 8.410874 343.967010
3.160000 5.120000 1.200000 12.622032 13.563508 343.284424
3.160000 5.160000 0.800000 -12.965675 -3.580671 180.929947
3.160000 5.160000 0.840000 -9.280007 -8.772241 163.070740
3.160000 5.160000 0.880000 -1.679195 -12.501051 159.095978
3.160000 5.160000 0.920000 8.389059 -11.053546 192.557190
3.160000 5.160000 0.960000 16.152393 -3.397875 272.445374
3.160000 5.160000 1.000000 17.782181 6.803611 362.495087
3.160000 5.160000 1.040000 14.269060 14.479944 413.274841
3.160000 5.160000 1.080000 10.008827 18.245533 433.076111
3.160000 5.160000 1.120000 7.424955 21.221386 505.477203
3.160000 5.160000 1.160000 3.993382 26.275656 706.357178
3.160000 5.160000 1.200000 -4.344147 31.200207 992.324463
3.160000 5.200000 0.800000 -7.447982 -2.577247 62.114639
3.160000 5.200000 0.840000 -0.998476 -5.851686 35.239189
3.160000 5.200000 0.880000 9.190805 -2.556686 91.007545
3.160000 5.200000 0.920000 15.453173 9.248491 324.335144
3.160000 5.200000 0.960000 11.543789 23.285181 675.458740
3.160000 5.200000 1.000000 -0.295053 30.495745 930.077454
3.160000 5.200000 1.040000 -11.151471 28.277571 923.976318
3.160000 5.200000 1.080000 -14.848415 23.004736 749.693359
3.160000 5.200000 1.120000 -14.538644 22.532242 719.074097
3.160000 5.200000 1.160000 -18.684101 26.719307 1063.017090
3.160000 5.200000 1.200000 -30.436989 27.007233 1655.800903
3.200000 4.800000 0.800000 -8.546949 -24.327263 664.866089
3.200000 4.800000 0.840000 4.655521 -20.745935 452.067719
3.200000 4.800000 0.880000 11.684192 -7.429935 191.724274
3.200000 4.800000 0.920000 6.425940 7.407229 96.159744
3.200000 4.800000 0.960000 -8.011715 13.570758 248.353043
3.200000 4.800000 1.000000 -21.598618 7.562775 523.695862
3.200000 4.800000 1.040000 -26.076321 -4.766882 702.697632
3.200000 4.800000 1.080000 -21.653994 -14.221616 671.149780
3.200000 4.800000 1.120000 -15.261816 -16.779755 514.483215
3.200000 4.800000 1.160000 -12.616599 -16.139507 419.662292
3.200000 4.800000 1.200000 -12.530606 -18.135162 485.900208
3.200000 4.840000 0.800000 13.666630 -29.843998 1077.440918
3.200000 4.840000 0.840000 24.582375 -15.434238 842.508850
3.200000 4.840000 0.880000 21.582077 2.615592 472.627350
3.200000 4.840000 0.920000 6.993266 12.387334 202.351807
3.200000 4.840000 0.960000 -8.612894 8.724802 150.304108
3.200000 4.840000 1.000000 -15.504515 -3.347995 251.599045
3.200000 4.840000 1.040000 -12.210052 -14.176271 350.052063
3.200000 4.840000 1.080000 -4.792489 -18.085417 350.050262
3.200000 4.840000 1.120000 0.261220 -16.838860 283.615417
3.200000 4.840000 1.160000 1.900351 -15.585552 246.520767
3.200000 4.840000 1.200000 3.766339 -16.503843 286.562134
3.200000 4.880000 0.800000 36.204727 -16.019951 1567.421021
3.200000 4.880000 0.840000 35.767433 5.464158 1309.166382
3.200000 4.880000 0.880000 20.764925 19.190001 799.438232
3.200000 4.880000 0.920000 2.766702 17.790117 324.142914
3.200000 4.880000 0.960000 -6.426311 5.834288 75.336380
3.200000 4.880000 1.000000 -3.958151 -5.819779 49.536785
3.200000 4.880000 1.040000 4.001220 -9.871126 113.448891
3.200000 4.880000 1.080000 9.725985 -7.228693 146.848770
3.200000 4.880000 1.120000 10.726431 -3.383572 126.504883
3.200000 4.880000 1.160000 9.827044 -1.844530 99.973076
3.200000 4.880000 1.200000 10.220859 -1.539002 106.834480
3.200000 4.920000 0.800000 43.029831 12.153159 1999.265625
3.200000 4.920000 0.840000 27.835957 30.275352 1691.437500
3.200000 4.920000 0.880000 6.621864 31.579529 1041.115723
3.200000 4.920000 0.920000 -6.070008 19.210505 405.888489
3.200000 4.920000 0.960000 -4.919601 5.492456 54.369553
3.200000 4.920000 1.000000 3.915061 0.360940 15.457984
3.200000 4.920000 1.040000 10.623196 4.197850 130.474228
3.200000 4.920000 1.080000 10.622777 10.505791 223.215027
3.200000 4.920000 1.120000 6.357233 13.608602 225.608444
3.200000 4.920000 1.160000 2.356048 12.996037 174.447937
3.200000 4.920000 1.200000 0.358002 11.295586 127.718422
3.200000 4.960000 0.800000 27.583408 38.012680 2205.808350
3.200000 4.960000 0.840000 3.613259 42.662590 1833.152222
3.200000 4.960000 0.880000 -13.642332 30.231888 1100.080322
3.200000 4.960000 0.920000 -15.215516 13.188807 405.456543
3.200000 4.960000 0.960000 -5.577670 4.590767 52.185543
3.200000 4.960000 1.000000 3.692950 7.734330 73.457733
3.200000 4.960000 1.040000 4.758838 16.079113 281.184418
3.200000 4.960000 1.080000 -1.524168 21.276085 454.994873
3.200000 4.960000 1.120000 -9.307905 20.167858 493.379578
3.200000 4.960000 1.160000 -14.137933 14.961878 423.738953
3.200000 4.960000 1.200000 -15.337128 8.965433 315.606476
3.200000 5.000000 0.800000 -0.989757 45.583187 2078.806641
3.200000 5.000000 0.840000 -21.977072 34.462715 1670.670410
3.200000 5.000000 0.880000 -27.418137 14.673742 967.072937
3.200000 5.000000 0.920000 -18.162840 0.998796 330.886353
3.200000 5.000000 0.960000 -5.445918 0.716369 30.171207
3.200000 5.000000 1.000000 -0.277053 9.574601 91.749748
3.200000 5.000000 1.040000 -5.243357 17.737568 342.114105
3.200000 5.000000 1.080000 -14.980947 18.541000 568.197449
3.200000 5.000000 1.120000 -22.479303 12.108839 651.943054
3.200000 5.000000 1.160000 -24.209663 2.717733 593.493835
3.200000 5.000000 1.200000 -20.514372 -5.434587 450.374176
3.200000 5.040000 0.800000 -24.678259 32.155746 1643.008545
3.200000 5.040000 0.840000 -33.421295 12.306444 1268.431519
3.200000 5.040000 0.880000 -26.240213 -5.352126 717.194092
3.200000 5.040000 0.920000 -11.297928 -10.614731 240.315674
3.200000 5.040000 0.960000 -0.581275 -3.579672 13.151932
3.200000 5.040000 1.000000 -0.684082 7.223228 52.642998
3.200000 5.040000 1.040000 -9.319454 12.535615 243.993866
3.200000 5.040000 1.080000 -18.934868 8.786983 435.740326
3.200000 5.040000 1.120000 -22.899551 -1.051129 525.494324
3.200000 5.040000 1.160000 -19.210100 -10.993275 489.880035
3.200000 5.040000 1.200000 -10.297711 -16.071356 364.331360
3.200000 5.080000 0.800000 -30.954124 9.741371 1053.052124
3.200000 5.080000 0.840000 -26.715523 -8.136602 779.923462
3.200000 5.080000 0.880000 -12.511003 -17.229704 453.387878
3.200000 5.080000 0.920000 1.993411 -13.812819 194.767670
3.200000 5.080000 0.960000 8.066073 -2.442193 71.025848
3.200000 5.080000 1.000000 3.542665 7.881381 74.666641
3.200000 5.080000 1.040000 -6.535440 10.125225 145.232147
3.200000 5.080000 1.080000 -14.107248 3.582254 211.847000
3.200000 5.080000 1.120000 -13.769024 -6.408478 230.654602
3.200000 5.080000 1.160000 -6.043627 -12.709437 198.055222
3.200000 5.080000 1.200000 3.590986 -11.293742 140.443802
3.200000 5.120000 0.800000 -21.850460 -5.864063 511.829834
3.200000 5.120000 0.840000 -11.354472 -15.263008 361.883453
3.200000 5.120000 0.880000 2.664572 -15.451231 245.840485
3.200000 5.120000 0.920000 12.795069 -6.371943 204.315460
3.200000 5.120000 0.960000 13.595594 6.462536 226.604568
3.200000 5.120000 1.000000 5.474286 15.082230 257.441467
3.200000 5.120000 1.040000 -5.171357 14.539380 238.136505
3.200000 5.120000 1.080000 -10.477175 6.712463 154.828354
3.200000 5.120000 1.120000 -7.247354 -1.099696 53.733463
3.200000 5.120000 1.160000 0.552902 -2.184677 5.078515
3.200000 5.120000 1.200000 5.356392 3.980329 44.533955
3.200000 5.160000 0.800000 -9.912674 -8.178449 165.148132
3.200000 5.160000 0.840000 -0.785304 -10.172148 104.089287
3.200000 5.160000 0.880000 8.955819 -5.445337 109.858391
3.200000 5.160000 0.920000 13.720190 5.600468 219.608871
3.200000 5.160000 0.960000 9.542395 17.508238 397.595703
3.200000 5.160000 1.000000 -1.527332 22.982111 530.510193
3.200000 5.160000 1.040000 -11.942238 19.151081 509.380981
3.200000 5.160000 1.080000 -14.927509 10.666245 336.599335
3.200000 5.160000 1.120000 -10.721632 5.660877 146.998932
3.200000 5.160000 1.160000 -6.275208 7.975725 102.990433
3.200000 5.160000 1.200000 -8.156166 13.495111 248.641083
3.200000 5.200000 0.800000 -5.635388 -3.422488 43.471027
3.200000 5.200000 0.840000 -0.516176 -3.404410 11.856446
3.200000 5.200000 0.880000 5.197708 2.060314 31.261059
3.200000 5.200000 0.920000 5.544257 12.381238 184.033844
3.200000 5.200000 0.960000 -2.485091 21.160278 453.933075
3.200000 5.200000 1.000000 -14.651888 21.820395 690.807434
3.200000 5.200000 1.040000 -22.795330 14.492476 729.658936
3.200000 5.200000 1.080000 -22.869423 6.232008 561.848450
3.200000 5.200000 1.120000 -18.995598 3.721321 374.680969
3.200000 5.200000 1.160000 -18.687222 6.220331 387.904785
3.200000 5.200000 1.200000 -24.279129 6.675841 634.042969
