#kx 	ky 	kz 	real 	imag 	intensity
5.800000 -4.200000 1.800000 -37.507153 17.092894 1698.953491
5.800000 -4.200000 1.840000 -33.628159 3.835812 1145.566528
5.800000 -4.200000 1.880000 -28.729950 1.023633 826.457886
5.800000 -4.200000 1.920000 -31.733181 0.077697 1007.000793
5.800000 -4.200000 1.960000 -37.040340 -9.832750 1468.669800
5.800000 -4.200000 2.000000 -31.488621 -26.561459 1697.044434
5.800000 -4.200000 2.040000 -11.472536 -35.251537 1374.290039
5.800000 -4.200000 2.080000 9.904408 -24.535761 700.100830
5.800000 -4.200000 2.120000 14.694011 -0.615173 216.292389
5.800000 -4.200000 2.160000 -1.368050 17.037010 292.131256
5.800000 -4.200000 2.200000 -23.890322 14.406950 778.307739
5.800000 -4.160000 1.800000 -39.294334 -6.485370 1586.104736
5.800000 -4.160000 1.840000 -28.557730 -12.429096 970.026367
5.800000 -4.160000 1.880000 -24.173395 -10.639618 697.554504
5.800000 -4.160000 1.920000 -26.916088 -12.087099 870.573730
5.800000 -4.160000 1.960000 -27.460896 -20.984173 1194.436279
5.800000 -4.160000 2.000000 -18.716955 -29.962883 1248.098755
5.800000 -4.160000 2.040000 -5.097299 -29.216625 879.593628
5.800000 -4.160000 2.080000 1.973341 -18.621897 350.669098
5.800000 -4.160000 2.120000 -3.005873 -8.746534 85.537132
5.800000 -4.160000 2.160000 -13.150003 -9.545477 264.038727
5.800000 -4.160000 2.200000 -16.535358 -19.612291 658.060059
5.800000 -4.120000 1.800000 -24.813568 -23.863451 1185.177490
5.800000 -4.120000 1.840000 -14.104971 -20.335487 612.482239
5.800000 -4.120000 1.880000 -12.690565 -14.862276 381.937683
5.800000 -4.120000 1.920000 -15.829073 -14.800982 469.628632
5.800000 -4.120000 1.960000 -16.619329 -19.373510 651.535034
5.800000 -4.120000 2.000000 -13.691100 -23.458477 737.746399
5.800000 -4.120000 2.040000 -10.583728 -25.180321 746.063843
5.800000 -4.120000 2.080000 -9.031722 -27.554430 840.818665
5.800000 -4.120000 2.120000 -5.599773 -32.748665 1103.832520
5.800000 -4.120000 2.160000 3.680044 -37.060524 1387.025146
5.800000 -4.120000 2.200000 16.502901 -33.849358 1418.124756
5.800000 -4.080000 1.800000 -5.348302 -25.191517 663.216858
5.800000 -4.080000 1.840000 -0.639734 -15.618349 244.342087
5.800000 -4.080000 1.880000 -3.979978 -8.897395 95.003860
5.800000 -4.080000 1.920000 -10.321316 -7.879028 168.608643
5.800000 -4.080000 1.960000 -16.396530 -11.911633 410.733185
5.800000 -4.080000 2.000000 -20.407829 -20.851042 851.245422
5.800000 -4.080000 2.040000 -18.668884 -34.529083 1540.784790
5.800000 -4.080000 2.080000 -6.362608 -48.400436 2383.084961
5.800000 -4.080000 2.120000 16.180901 -52.885468 3058.694092
5.800000 -4.080000 2.160000 39.174118 -40.548126 3178.762207
5.800000 -4.080000 2.200000 48.575493 -15.030692 2585.500244
5.800000 -4.040000 1.800000 5.098421 -14.261177 229.375061
5.800000 -4.040000 1.840000 2.413054 -4.777994 28.652060
5.800000 -4.040000 1.880000 -5.541604 -0.282760 30.789328
5.800000 -4.040000 1.920000 -15.902010 -2.199459 257.711548
5.800000 -4.040000 1.960000 -25.496506 -12.580858 808.349792
5.800000 -4.040000 2.000000 -27.456421 -32.031982 1779.902832
5.800000 -4.040000 2.040000 -13.502742 -53.828705 3079.853516
5.800000 -4.040000 2.080000 16.929630 -63.490128 4317.608887
5.800000 -4.040000 2.120000 50.458218 -48.970943 4944.185059
5.800000 -4.040000 2.160000 66.403595 -13.584399 4593.973633
5.800000 -4.040000 2.200000 53.527046 22.567261 3374.426025
5.800000 -4.000000 1.800000 2.447501 -3.888849 21.113411
5.800000 -4.000000 1.840000 -4.495107 0.956079 21.120073
5.800000 -4.000000 1.880000 -14.347502 0.462646 206.064835
5.800000 -4.000000 1.920000 -24.985756 -7.844810 685.829102
5.800000 -4.000000 1.960000 -30.147711 -26.374331 1604.489746
5.800000 -4.000000 2.000000 -19.874893 -50.618378 2957.231689
5.800000 -4.000000 2.040000 10.124205 -65.835785 4436.850098
5.800000 -4.000000 2.080000 48.756622 -55.854862 5496.973633
5.800000 -4.000000 2.120000 72.734589 -18.923397 5648.415039
5.800000 -4.000000 2.160000 64.269547 25.617060 4786.808594
5.800000 -4.000000 2.200000 28.032257 50.028194 3288.627686
5.800000 -3.960000 1.800000 -5.368124 -3.144097 38.702110
5.800000 -3.960000 1.840000 -12.004028 -3.615477 157.168365
5.800000 -3.960000 1.880000 -19.608093 -9.200341 469.123596
5.800000 -3.960000 1.920000 -24.669483 -22.553207 1117.230469
5.800000 -3.960000 1.960000 -19.091579 -42.633034 2182.063965
5.800000 -3.960000 2.000000 3.866721 -59.059052 3502.923096
5.800000 -3.960000 2.040000 39.030304 -55.923592 4650.812500
5.800000 -3.960000 2.080000 66.871666 -25.936468 5144.520020
5.800000 -3.960000 2.120000 66.560242 18.248352 4763.268066
5.800000 -3.960000 2.160000 34.978363 49.779118 3701.446289
5.800000 -3.960000 2.200000 -7.305449 48.779259 2432.785645
5.800000 -3.920000 1.800000 -8.089237 -9.830456 162.073624
5.800000 -3.920000 1.840000 -11.530539 -13.412867 312.858307
5.800000 -3.920000 1.880000 -13.831367 -21.151386 638.687866
5.800000 -3.920000 1.920000 -10.700742 -33.503700 1237.003784
5.800000 -3.920000 1.960000 3.463073 -45.624733 2093.609131
5.800000 -3.920000 2.000000 28.416725 -46.583000 2977.486084
5.800000 -3.920000 2.040000 52.574146 -27.512028 3520.952393
5.800000 -3.920000 2.080000 58.418457 7.159209 3463.970459
5.800000 -3.920000 2.120000 37.442928 38.168938 2858.840820
5.800000 -3.920000 2.160000 0.772238 45.088676 2033.585083
5.800000 -3.920000 2.200000 -27.310295 24.335077 1338.048218
5.800000 -3.880000 1.800000 -3.459360 -15.223026 243.707703
5.800000 -3.880000 1.840000 -3.296414 -19.346115 385.138489
5.800000 -3.880000 1.880000 -0.260322 -25.131292 631.649597
5.800000 -3.880000 1.920000 7.760207 -30.600128 996.588684
5.800000 -3.880000 1.960000 21.372742 -31.030136 1419.663452
5.800000 -3.880000 2.000000 36.032856 -20.932783 1736.548096
5.800000 -3.880000 2.040000 42.040550 -0.173969 1767.438110
5.800000 -3.880000 2.080000 31.542959 21.884090 1473.871704
5.800000 -3.880000 2.120000 7.466873 31.110786 1023.635254
5.800000 -3.880000 2.160000 -15.681799 20.511669 666.647400
5.800000 -3.880000 2.200000 -22.770081 -1.926153 522.186646
5.800000 -3.840000 1.800000 2.421497 -14.546385 217.460953
5.800000 -3.840000 1.840000 5.422606 -17.811686 346.660797
5.800000 -3.840000 1.880000 11.149422 -19.039892 486.827087
5.800000 -3.840000 1.920000 17.702555 -16.688648 591.891418
5.800000 -3.840000 1.960000 22.829475 -10.442539 630.231567
5.800000 -3.840000 2.000000 23.948713 -1.134089 574.827026
5.800000 -3.840000 2.040000 18.773172 8.249607 420.488037
5.800000 -3.840000 2.080000 7.819828 12.654291 221.280792
5.800000 -3.840000 2.120000 -3.725670 8.353216 83.656837
5.800000 -3.840000 2.160000 -8.671160 -2.616535 82.035263
5.800000 -3.840000 2.200000 -4.184471 -12.493944 173.608444
5.800000 -3.800000 1.800000 3.716845 -11.338605 142.378906
5.800000 -3.800000 1.840000 9.017884 -13.219799 256.085327
5.800000 -3.800000 1.880000 14.405380 -9.967491 306.865875
5.800000 -3.800000 1.920000 15.475788 -3.730032 253.413162
5.800000 -3.800000 1.960000 11.706061 0.882516 137.810715
5.800000 -3.800000 2.000000 6.286055 1.068957 40.657154
5.800000 -3.800000 2.040000 2.873035 -2.445704 14.235798
5.800000 -3.800000 2.080000 3.053123 -6.878350 56.633259
5.800000 -3.800000 2.120000 6.066849 -9.549185 127.993576
5.800000 -3.800000 2.160000 9.692698 -9.062426 176.075943
5.800000 -3.800000 2.200000 11.151761 -5.924389 159.460159
5.840000 -4.200000 1.800000 -53.187798 9.356009 2916.476807
5.840000 -4.200000 1.840000 -51.037643 -6.801927 2651.107178
5.840000 -4.200000 1.880000 -45.868706 -18.584309 2449.314697
5.840000 -4.200000 1.920000 -39.243862 -29.716236 2423.135254
5.840000 -4.200000 1.960000 -26.775534 -40.352852 2345.281738
5.840000 -4.200000 2.000000 -6.868866 -43.178490 1911.563232
5.840000 -4.200000 2.040000 12.096195 -31.169939 1117.883057
5.840000 -4.200000 2.080000 16.832464 -8.508673 355.729370
5.840000 -4.200000 2.120000 2.727892 9.263449 93.252876
5.840000 -4.200000 2.160000 -19.031559 8.499477 434.441345
5.840000 -4.200000 2.200000 -30.245892 -8.998077 995.779358
5.840000 -4.160000 1.800000 -44.586647 -23.651142 2547.345703
5.840000 -4.160000 1.840000 -31.177879 -31.705053 1977.270508
5.840000 -4.160000 1.880000 -19.532001 -33.019802 1471.806396
5.840000 -4.160000 1.920000 -10.708759 -31.610092 1113.875488
5.840000 -4.160000 1.960000 -3.130413 -28.406792 816.745300
5.840000 -4.160000 2.000000 2.431274 -22.016710 490.646637
5.840000 -4.160000 2.040000 2.498682 -13.631542 192.062347
5.840000 -4.160000 2.080000 -3.982203 -8.803345 93.356812
5.840000 -4.160000 2.120000 -11.711786 -12.513431 293.751892
5.840000 -4.160000 2.160000 -12.418097 -22.682789 668.718018
5.840000 -4.160000 2.200000 -3.140247 -30.329151 929.718567
5.840000 -4.120000 1.800000 -15.317419 -39.533451 1797.517090
5.840000 -4.120000 1.840000 1.596710 -32.432175 1054.395386
5.840000 -4.120000 1.880000 9.256046 -18.156473 415.331909
5.840000 -4.120000 1.920000 5.548088 -4.279663 49.096794
5.840000 -4.120000 1.960000 -6.450829 1.976221 45.518639
5.840000 -4.120000 2.000000 -19.592999 -3.186676 394.040497
5.840000 -4.120000 2.040000 -25.448816 -17.929932 969.124756
5.840000 -4.120000 2.080000 -18.652676 -34.615265 1546.138916
5.840000 -4.120000 2.120000 -0.845634 -43.287865 1874.554321
5.840000 -4.120000 2.160000 19.070240 -37.863926 1797.350952
5.840000 -4.120000 2.200000 30.108196 -20.931976 1344.651123
5.840000 -4.080000 1.800000 13.010553 -29.324402 1029.195068
5.840000 -4.080000 1.840000 21.818531 -7.552066 533.082031
5.840000 -4.080000 1.880000 12.572847 16.257809 422.392822
5.840000 -4.080000 1.920000 -13.484821 27.531132 939.803589
5.840000 -4.080000 1.960000 -43.088631 15.257420 2089.418945
5.840000 -4.080000 2.000000 -56.670372 -18.105824 3539.351807
5.840000 -4.080000 2.040000 -41.701614 -54.656281 4726.333984
5.840000 -4.080000 2.080000 -3.691330 -71.564667 5135.127441
5.840000 -4.080000 2.120000 35.593468 -57.615948 4586.492188
5.840000 -4.080000 2.160000 53.290066 -22.276585 3336.077148
5.840000 -4.080000 2.200000 42.219822 11.290194 1909.981812
5.840000 -4.040000 1.800000 21.458124 -5.419625 489.823425
5.840000 -4.040000 1.840000 13.823727 21.861992 669.042114
5.840000 -4.040000 1.880000 -16.365891 39.349724 1816.243164
5.840000 -4.040000 1.920000 -57.230862 28.626776 4094.863770
5.840000 -4.040000 1.960000 -82.589630 -14.086288 7019.470215
5.840000 -4.040000 2.000000 -69.457596 -68.646927 9536.757812
5.840000 -4.040000 2.040000 -18.427624 -101.120270 10564.885742
5.840000 -4.040000 2.080000 42.230751 -88.704636 9651.948242
5.840000 -4.040000 2.120000 75.769836 -38.931477 7256.727539
5.840000 -4.040000 2.160000 64.911995 14.973189 4437.763184
5.840000 -4.040000 2.200000 24.412815 40.003696 2196.281250
5.840000 -4.000000 1.800000 9.847339 11.088469 219.924210
5.840000 -4.000000 1.840000 -13.423106 31.199326 1153.577637
5.840000 -4.000000 1.880000 -54.134560 28.016483 3715.473877
5.840000 -4.000000 1.920000 -87.818222 -10.910366 7831.076172
5.840000 -4.000000 1.960000 -84.327415 -72.218231 12326.585938
5.840000 -4.000000 2.000000 -33.601772 -119.329254 15368.549805
5.840000 -4.000000 2.040000 40.117771 -118.045013 15544.060547
5.840000 -4.000000 2.080000 92.349190 -65.366676 12801.175781
5.840000 -4.000000 2.120000 92.025223 5.118306 8494.838867
5.840000 -4.000000 2.160000 46.081459 48.599445 4485.407227
5.840000 -4.000000 2.200000 -7.452479 44.034870 1994.609253
5.840000 -3.960000 1.800000 -5.921663 9.801708 131.139587
5.840000 -3.960000 1.840000 -35.221664 14.715857 1457.122070
5.840000 -3.960000 1.880000 -68.230225 -10.354609 4762.581543
5.840000 -3.960000 1.920000 -75.561852 -63.328568 9720.100586
5.840000 -3.960000 1.960000 -37.694233 -115.198822 14691.624023
5.840000 -3.960000 2.000000 33.354450 -127.925568 17477.470703
5.840000 -3.960000 2.040000 96.754448 -85.654091 16698.046875
5.840000 -3.960000 2.080000 112.387192 -11.558436 12764.478516
5.840000 -3.960000 2.120000 73.253761 47.594860 7631.384766
5.840000 -3.960000 2.160000 11.429597 57.954643 3489.376465
5.840000 -3.960000 2.200000 -28.839533 24.295584 1421.994019
5.840000 -3.920000 1.800000 -10.875775 -2.152609 122.916214
5.840000 -3.920000 1.840000 -34.446075 -10.958840 1306.628296
5.840000 -3.920000 1.880000 -47.448524 -44.918365 4269.021973
5.840000 -3.920000 1.920000 -27.772205 -88.322144 8572.096680
5.840000 -3.920000 1.960000 25.640808 -109.464790 12639.991211
5.840000 -3.920000 2.000000 85.312088 -85.313461 14556.539062
5.840000 -3.920000 2.040000 112.918137 -23.729528 13313.596680
5.840000 -3.920000 2.080000 89.830948 38.560352 9556.500000
5.840000 -3.920000 2.120000 33.631695 63.566879 5171.838867
5.840000 -3.920000 2.160000 -15.563573 42.109665 2015.448730
5.840000 -3.920000 2.200000 -27.839142 -0.506513 775.274353
5.840000 -3.880000 1.800000 -4.000091 -10.750117 131.565750
5.840000 -3.880000 1.840000 -15.663280 -24.478186 844.519897
5.840000 -3.880000 1.880000 -10.821322 -50.795639 2697.298096
5.840000 -3.880000 1.920000 18.685074 -70.525543 5322.983887
5.840000 -3.880000 1.960000 60.888580 -62.917305 7666.006348
5.840000 -3.880000 2.000000 89.237144 -24.304768 8553.990234
5.840000 -3.880000 2.040000 82.776138 25.176138 7485.727051
5.840000 -3.880000 2.080000 44.426079 55.199192 5020.626953
5.840000 -3.880000 2.120000 0.223186 49.127899 2413.600342
5.840000 -3.880000 2.160000 -21.337990 17.330929 755.670898
5.840000 -3.880000 2.200000 -12.099514 -12.507182 302.827850
5.840000 -3.840000 1.800000 4.789557 -9.933553 121.615326
5.840000 -3.840000 1.840000 2.840335 -19.553431 390.404144
5.840000 -3.840000 1.880000 12.879656 -30.704901 1108.676514
5.840000 -3.840000 1.920000 32.983246 -31.422218 2075.250244
5.840000 -3.840000 1.960000 51.158875 -15.324501 2852.070801
5.840000 -3.840000 2.000000 53.711781 11.496029 3017.114014
5.840000 -3.840000 2.040000 36.607872 33.415718 2456.746582
5.840000 -3.840000 2.080000 10.039207 36.985493 1468.712280
5.840000 -3.840000 2.120000 -8.911867 21.980377 562.558350
5.840000 -3.840000 2.160000 -9.988762 1.673618 102.576363
5.840000 -3.840000 2.200000 2.170813 -8.624501 79.094444
5.840000 -3.800000 1.800000 7.714729 -5.055197 85.072052
5.840000 -3.800000 1.840000 8.663305 -7.216995 127.137871
5.840000 -3.800000 1.880000 12.606598 -7.919878 221.650787
5.840000 -3.800000 1.920000 17.149275 -5.057796 319.678925
5.840000 -3.800000 1.960000 19.115763 0.868881 366.167328
5.840000 -3.800000 2.000000 16.743660 7.029951 329.770386
5.840000 -3.800000 2.040000 11.077904 10.081003 224.346573
5.840000 -3.800000 2.080000 5.487907 8.653333 104.997292
5.840000 -3.800000 2.120000 3.128901 4.632792 31.252775
5.840000 -3.800000 2.160000 4.159028 1.629505 19.952801
5.840000 -3.800000 2.200000 5.569165 1.445173 33.104126
5.880000 -4.200000 1.800000 -63.080040 -15.276251 4212.455566
5.880000 -4.200000 1.840000 -55.934898 -36.241787 4442.180176
5.880000 -4.200000 1.880000 -40.213356 -52.082512 4329.702148
5.880000 -4.200000 1.920000 -18.507492 -59.457352 3877.704102
5.880000 -4.200000 1.960000 4.858513 -54.922367 3040.071533
5.880000 -4.200000 2.000000 21.833237 -37.590004 1889.698608
5.880000 -4.200000 2.040000 23.667828 -13.869247 752.522095
5.880000 -4.200000 2.080000 8.870382 3.042789 87.942253
5.880000 -4.200000 2.120000 -12.073618 2.167936 150.472198
5.880000 -4.200000 2.160000 -22.756672 -14.804454 737.037964
5.880000 -4.200000 2.200000 -14.482660 -32.960716 1296.156250
5.880000 -4.160000 1.800000 -34.199066 -47.010754 3379.587158
5.880000 -4.160000 1.840000 -13.781134 -52.203232 2915.097168
5.880000 -4.160000 1.880000 5.450977 -45.735458 2121.445312
5.880000 -4.160000 1.920000 16.619606 -30.751694 1221.877930
5.880000 -4.160000 1.960000 16.315704 -14.072918 464.249207
5.880000 -4.160000 2.000000 6.163933 -3.345108 49.183815
5.880000 -4.160000 2.040000 -7.379822 -3.658813 67.848686
5.880000 -4.160000 2.080000 -15.548702 -14.443077 450.364624
5.880000 -4.160000 2.120000 -12.048887 -28.656343 966.361694
5.880000 -4.160000 2.160000 2.239831 -36.224174 1317.207642
5.880000 -4.160000 2.200000 18.669735 -30.785967 1296.334717
5.880000 -4.120000 1.800000 7.931232 -46.062737 2184.680176
5.880000 -4.120000 1.840000 26.415329 -26.810043 1416.548096
5.880000 -4.120000 1.880000 26.868130 1.769262 725.026733
5.880000 -4.120000 1.920000 5.723011 23.021376 562.736633
5.880000 -4.120000 1.960000 -25.582165 21.780125 1128.821045
5.880000 -4.120000 2.000000 -46.705761 -3.292465 2192.268555
5.880000 -4.120000 2.040000 -42.781097 -37.085670 3205.569336
5.880000 -4.120000 2.080000 -15.602783 -58.264214 3638.165283
5.880000 -4.120000 2.120000 17.760805 -54.526356 3288.569824
5.880000 -4.120000 2.160000 37.764183 -30.631851 2364.443848
5.880000 -4.120000 2.200000 35.974747 -3.300454 1305.075317
5.880000 -4.080000 1.800000 32.309219 -15.531654 1285.117920
5.880000 -4.080000 1.840000 29.761686 21.922215 1366.341553
5.880000 -4.080000 1.880000 -4.648106 51.520157 2675.931641
5.880000 -4.080000 1.920000 -57.298512 46.656303 5459.929688
5.880000 -4.080000 1.960000 -94.551346 0.455597 8940.165039
5.880000 -4.080000 2.000000 -87.269806 -63.053886 11591.811523
5.880000 -4.080000 2.040000 -35.777374 -103.929909 12081.446289
5.880000 -4.080000 2.080000 28.062153 -96.774422 10152.773438
5.880000 -4.080000 2.120000 65.093689 -50.363762 6773.697266
5.880000 -4.080000 2.160000 58.671383 0.932583 3443.200684
5.880000 -4.080000 2.200000 24.328833 25.608232 1247.673584
5.880000 -4.040000 1.800000 24.431761 17.969059 919.798035
5.880000 -4.040000 1.840000 -8.033436 53.549023 2932.033936
5.880000 -4.040000 1.880000 -70.125877 55.180248 7962.498535
5.880000 -4.040000 1.920000 -124.253807 2.877487 15447.289062
5.880000 -4.040000 1.960000 -125.754059 -83.100388 22719.757812
5.880000 -4.040000 2.000000 -61.770760 -150.193359 26373.671875
5.880000 -4.040000 2.040000 32.479843 -153.111649 24498.117188
5.880000 -4.040000 2.080000 98.455330 -91.341248 18036.675781
5.880000 -4.040000 2.120000 100.179504 -9.882810 10133.602539
5.880000 -4.040000 2.160000 50.641739 38.085499 4015.090820
5.880000 -4.040000 2.200000 -3.949689 32.805851 1091.823975
5.880000 -4.000000 1.800000 -2.453850 29.158434 856.235657
5.880000 -4.000000 1.840000 -55.420105 42.000553 4835.434570
5.880000 -4.000000 1.880000 -116.344803 1.979340 13540.031250
5.880000 -4.000000 1.920000 -133.822266 -86.321350 25359.773438
5.880000 -4.000000 1.960000 -76.680519 -172.615601 35676.046875
5.880000 -4.000000 2.000000 32.184219 -195.971008 39440.460938
5.880000 -4.000000 2.040000 127.068771 -135.837250 34598.230469
5.880000 -4.000000 2.080000 150.302277 -32.074036 23619.517578
5.880000 -4.000000 2.120000 98.203644 46.587410 11814.342773
5.880000 -4.000000 2.160000 20.595543 58.022934 3790.837402
5.880000 -4.000000 2.200000 -24.345375 16.198732 855.096191
5.880000 -3.960000 1.800000 -22.386457 15.625509 745.309998
5.880000 -3.960000 1.840000 -74.106087 -1.019392 5492.750977
5.880000 -3.960000 1.880000 -104.468201 -68.926758 15664.501953
5.880000 -3.960000 1.920000 -70.099518 -155.261658 29020.125000
5.880000 -3.960000 1.960000 28.163670 -198.147888 40055.777344
5.880000 -3.960000 2.000000 135.805313 -157.373169 43209.398438
5.880000 -3.960000 2.040000 184.210388 -52.567558 36696.816406
5.880000 -3.960000 2.080000 146.570343 48.974693 23881.386719
5.880000 -3.960000 2.120000 59.269279 86.374580 10973.416016
5.880000 -3.960000 2.160000 -10.977320 52.692753 2897.027588
5.880000 -3.960000 2.200000 -23.217436 -6.270018 578.362427
5.880000 -3.920000 1.800000 -21.377455 -4.187820 474.533417
5.880000 -3.920000 1.840000 -53.482361 -38.959923 4378.238770
5.880000 -3.920000 1.880000 -45.559204 -104.360252 12966.703125
5.880000 -3.920000 1.920000 20.983681 -154.035156 24167.144531
5.880000 -3.920000 1.960000 116.100334 -140.421204 33197.402344
5.880000 -3.920000 2.000000 178.803162 -58.668293 35412.539062
5.880000 -3.920000 2.040000 166.263885 43.441406 29530.835938
5.880000 -3.920000 2.080000 90.537361 102.151375 18631.917969
5.880000 -3.920000 2.120000 8.325912 89.258148 8036.337891
5.880000 -3.920000 2.160000 -27.147343 31.931980 1756.629639
5.880000 -3.920000 2.200000 -7.848880 -15.765477 310.155212
5.880000 -3.880000 1.800000 -7.033176 -11.770910 188.019897
5.880000 -3.880000 1.840000 -16.677465 -45.422096 2341.304688
5.880000 -3.880000 1.880000 12.260595 -85.357391 7436.206543
5.880000 -3.880000 1.920000 74.529953 -92.819695 14170.209961
5.880000 -3.880000 1.960000 131.625412 -47.589859 19590.044922
5.880000 -3.880000 2.000000 141.323044 29.877762 20864.882812
5.880000 -3.880000 2.040000 94.166679 91.610748 17259.892578
5.880000 -3.880000 2.080000 22.883224 100.848938 10694.149414
5.880000 -3.880000 2.120000 -24.840919 61.608513 4412.680176
5.880000 -3.880000 2.160000 -25.573465 12.311872 805.584351
5.880000 -3.880000 2.200000 4.271380 -9.381109 106.249901
5.880000 -3.840000 1.800000 3.856382 -5.286588 42.819687
5.880000 -3.840000 1.840000 5.399460 -25.631176 686.111328
5.880000 -3.840000 1.880000 30.447296 -39.820282 2512.692871
5.880000 -3.840000 1.920000 65.345581 -27.518597 5027.317871
5.880000 -3.840000 1.960000 83.408936 11.754704 7095.223145
5.880000 -3.840000 2.000000 67.568634 55.332161 7627.168457
5.880000 -3.840000 2.040000 26.102749 75.137848 6327.049805
5.880000 -3.840000 2.080000 -13.588013 61.020515 3908.137451
5.880000 -3.840000 2.120000 -27.933630 28.434778 1588.824219
5.880000 -3.840000 2.160000 -15.837410 3.664192 264.249847
5.880000 -3.840000 2.200000 3.556067 0.947873 13.544072
5.880000 -3.800000 1.800000 3.826443 3.467991 26.668625
5.880000 -3.800000 1.840000 3.255852 -5.038532 35.987377
5.880000 -3.800000 1.880000 12.418430 -9.931908 252.860199
5.880000 -3.800000 1.920000 24.103476 -4.066669 597.515320
5.880000 -3.800000 1.960000 28.079605 10.701157 902.979004
5.880000 -3.800000 2.000000 19.858154 24.852093 1011.972778
5.880000 -3.800000 2.040000 4.442879 29.254875 875.586914
5.880000 -3.800000 2.080000 -8.259632 22.641071 580.839600
5.880000 -3.800000 2.120000 -11.992771 11.776997 282.524200
5.880000 -3.800000 2.160000 -8.642321 4.603991 95.886436
5.880000 -3.800000 2.200000 -4.826251 3.213615 33.620026
5.920000 -4.200000 1.800000 -50.649593 -47.254761 4798.393555
5.920000 -4.200000 1.840000 -32.652718 -66.301437 5462.080078
5.920000 -4.200000 1.880000 -5.648838 -73.323929 5408.307617
5.920000 -4.200000 1.920000 21.416645 -64.266632 4588.873047
5.920000 -4.200000 1.960000 38.098797 -41.618393 3183.608887
5.920000 -4.200000 2.000000 37.225487 -14.962059 1609.599976
5.920000 -4.200000 2.040000 20.124746 2.425400 410.887970
5.920000 -4.200000 2.080000 -1.761570 1.347298 4.918340
5.920000 -4.200000 2.120000 -12.817047 -15.648512 409.152649
5.920000 -4.200000 2.160000 -4.560548 -34.141857 1186.464966
5.920000 -4.200000 2.200000 16.608788 -37.936131 1715.001831
5.920000 -4.160000 1.800000 -4.852636 -59.639355 3580.400635
5.920000 -4.160000 1.840000 19.429817 -53.741753 3265.693848
5.920000 -4.160000 1.880000 35.286297 -33.069183 2338.693848
5.920000 -4.160000 1.920000 33.610321 -7.573448 1187.010742
5.920000 -4.160000 1.960000 15.745148 8.614166 322.113525
5.920000 -4.160000 2.000000 -6.730177 6.672874 89.822533
5.920000 -4.160000 2.040000 -19.364681 -10.935173 494.568878
5.920000 -4.160000 2.080000 -14.100250 -32.036011 1225.123047
5.920000 -4.160000 2.120000 5.734341 -42.571739 1845.235718
5.920000 -4.160000 2.160000 27.781416 -35.461472 2029.322998
5.920000 -4.160000 2.200000 38.639080 -14.861200 1713.833740
5.920000 -4.120000 1.800000 33.277550 -32.389740 2156.490479
5.920000 -4.120000 1.840000 40.875801 -0.087679 1670.838745
5.920000 -4.120000 1.880000 20.241161 32.369133 1457.465332
5.920000 -4.120000 1.920000 -21.750889 40.344807 2100.804443
5.920000 -4.120000 1.960000 -58.868427 13.038574 3635.496094
5.920000 -4.120000 2.000000 -64.666306 -34.890923 5399.107422
5.920000 -4.120000 2.040000 -33.747551 -72.847229 6445.616211
5.920000 -4.120000 2.080000 13.754074 -77.466362 6190.211914
5.920000 -4.120000 2.120000 48.247860 -49.462006 4774.345703
5.920000 -4.120000 2.160000 52.813580 -10.466078 2898.812988
5.920000 -4.120000 2.200000 32.814209 15.506912 1317.236694
5.920000 -4.080000 1.800000 35.478050 11.883785 1399.916382
5.920000 -4.080000 1.840000 7.790005 51.611790 2724.460938
5.920000 -4.080000 1.880000 -52.712494 60.621620 6453.587891
5.920000 -4.080000 1.920000 -110.134796 16.263336 12394.168945
5.920000 -4.080000 1.960000 -119.644890 -64.475540 18471.994141
5.920000 -4.080000 2.000000 -66.104309 -131.967209 21785.123047
5.920000 -4.080000 2.040000 19.582863 -141.986847 20543.753906
5.920000 -4.080000 2.080000 83.513824 -91.509216 15348.496094
5.920000 -4.080000 2.120000 91.413872 -19.674011 8743.562500
5.920000 -4.080000 2.160000 52.696335 26.115826 3458.940186
5.920000 -4.080000 2.200000 6.369259 27.175240 779.061096
5.920000 -4.040000 1.800000 4.607481 37.844337 1453.422729
5.920000 -4.040000 1.840000 -56.014938 55.931946 6266.055664
5.920000 -4.040000 1.880000 -127.890320 13.857613 16547.966797
5.920000 -4.040000 1.920000 -152.247101 -84.300789 30285.802734
5.920000 -4.040000 1.960000 -93.275963 -182.298325 41933.085938
5.920000 -4.040000 2.000000 23.960228 -212.260162 45628.468750
5.920000 -4.040000 2.040000 127.501930 -151.694519 39267.968750
5.920000 -4.040000 2.080000 155.449432 -43.926849 26094.093750
5.920000 -4.040000 2.120000 104.790176 38.189861 12439.447266
5.920000 -4.040000 2.160000 28.177715 51.873528 3484.846436
5.920000 -4.040000 2.200000 -15.544403 13.060408 412.202698
5.920000 -4.000000 1.800000 -29.796398 29.181534 1739.387207
5.920000 -4.000000 1.840000 -98.838150 7.561918 9826.162109
5.920000 -4.000000 1.880000 -140.074738 -80.733231 26138.785156
5.920000 -4.000000 1.920000 -97.722107 -192.722610 46691.613281
5.920000 -4.000000 1.960000 25.985023 -248.974075 62663.312500
5.920000 -4.000000 2.000000 160.751190 -199.800415 65761.156250
5.920000 -4.000000 2.040000 221.119263 -72.102440 54092.488281
5.920000 -4.000000 2.080000 176.678894 49.726936 33688.199219
5.920000 -4.000000 2.120000 74.849411 93.331619 14313.225586
5.920000 -4.000000 2.160000 -3.951910 54.511890 2987.163818
5.920000 -4.000000 2.200000 -14.959528 -9.676593 317.423920
5.920000 -3.960000 1.800000 -40.209301 0.742199 1617.338745
5.920000 -3.960000 1.840000 -88.168251 -53.912338 10680.180664
5.920000 -3.960000 1.880000 -75.496185 -152.531158 28965.427734
5.920000 -3.960000 1.920000 23.380379 -225.922287 51587.519531
5.920000 -3.960000 1.960000 162.015778 -205.571655 68508.820312
5.920000 -3.960000 2.000000 251.148727 -87.785217 70781.929688
5.920000 -3.960000 2.040000 232.007019 55.698833 56929.617188
5.920000 -3.960000 2.080000 126.522705 134.858398 34194.781250
5.920000 -3.960000 2.120000 16.879032 114.939545 13496.000000
5.920000 -3.960000 2.160000 -25.963745 38.973419 2193.043457
5.920000 -3.960000 2.200000 2.496767 -18.382229 344.140198
5.920000 -3.920000 1.800000 -24.974253 -19.248383 994.213562
5.920000 -3.920000 1.840000 -38.604752 -81.708046 8166.531250
5.920000 -3.920000 1.880000 15.542797 -151.539551 23205.814453
5.920000 -3.920000 1.920000 125.243484 -162.044403 41944.320312
5.920000 -3.920000 1.960000 221.939911 -81.617958 55918.816406
5.920000 -3.920000 2.000000 234.824402 50.283417 57670.921875
5.920000 -3.920000 2.040000 152.969971 150.563141 46069.070312
5.920000 -3.920000 2.080000 36.255527 161.068863 27257.640625
5.920000 -3.920000 2.120000 -36.264450 95.084625 10356.196289
5.920000 -3.920000 2.160000 -32.018318 19.516357 1406.060913
5.920000 -3.920000 2.200000 15.731204 -7.460087 303.123688
5.920000 -3.880000 1.800000 -4.888268 -16.922945 310.281250
5.920000 -3.880000 1.840000 5.994375 -63.788261 4104.875000
5.920000 -3.880000 1.880000 66.899765 -91.391899 12828.058594
5.920000 -3.880000 1.920000 143.940384 -57.912029 24072.636719
5.920000 -3.880000 1.960000 178.043503 32.101471 32729.992188
5.920000 -3.880000 2.000000 136.493942 124.705215 34181.984375
5.920000 -3.880000 2.040000 44.151047 160.041443 27562.578125
5.920000 -3.880000 2.080000 -36.620892 122.854691 16434.365234
5.920000 -3.880000 2.120000 -59.052219 52.861931 6281.548340
5.920000 -3.880000 2.160000 -28.334826 6.517639 845.341980
5.920000 -3.880000 2.200000 10.824678 8.121804 183.137360
5.920000 -3.840000 1.800000 0.823944 -2.375628 6.322495
5.920000 -3.840000 1.840000 15.721014 -28.073000 1035.243652
5.920000 -3.840000 1.880000 56.222740 -30.013199 4061.788574
5.920000 -3.840000 1.920000 90.780441 7.699913 8300.377930
5.920000 -3.840000 1.960000 86.248535 66.438171 11852.840820
5.920000 -3.840000 2.000000 38.711548 106.576363 12857.105469
5.920000 -3.840000 2.040000 -21.475441 101.527237 10768.974609
5.920000 -3.840000 2.080000 -55.882610 60.217480 6749.010742
5.920000 -3.840000 2.120000 -50.403885 17.092285 2832.697754
5.920000 -3.840000 2.160000 -23.699518 0.509300 561.926575
5.920000 -3.840000 2.200000 -5.836832 10.209126 138.294861
5.920000 -3.800000 1.800000 -7.420544 5.752283 88.153229
5.920000 -3.800000 1.840000 -1.326479 -9.413870 90.380493
5.920000 -3.800000 1.880000 17.133142 -11.163551 418.169464
5.920000 -3.800000 1.920000 30.988346 5.690220 992.656189
5.920000 -3.800000 1.960000 26.334000 29.837006 1583.726440
5.920000 -3.800000 2.000000 4.578705 43.586891 1920.781738
5.920000 -3.800000 2.040000 -19.593983 38.297195 1850.599365
5.920000 -3.800000 2.080000 -31.808472 20.452148 1430.069214
5.920000 -3.800000 2.120000 -29.526775 3.812428 886.365051
5.920000 -3.800000 2.160000 -21.284508 -3.439684 464.861694
5.920000 -3.800000 2.200000 -16.251095 -3.872892 279.097382
5.960000 -4.200000 1.800000 -14.523226 -63.660698 4263.608887
5.960000 -4.200000 1.840000 10.838774 -70.266922 5054.919434
5.960000 -4.200000 1.880000 37.139477 -60.396294 5027.053223
5.960000 -4.200000 1.920000 52.834160 -36.640438 4133.970215
5.960000 -4.200000 1.960000 50.813560 -9.230522 2667.220459
5.960000 -4.200000 2.000000 32.922153 8.792755 1161.180664
5.960000 -4.200000 2.040000 10.179598 8.858364 182.094818
5.960000 -4.200000 2.080000 -2.759876 -6.993313 56.523342
5.960000 -4.200000 2.120000 2.927345 -25.857204 677.164368
5.960000 -4.200000 2.160000 22.961538 -31.873131 1543.128662
5.960000 -4.200000 2.200000 41.662090 -18.046162 2061.393555
5.960000 -4.160000 1.800000 28.987761 -46.774841 3028.176025
5.960000 -4.160000 1.840000 46.324532 -27.385630 2895.934814
5.960000 -4.160000 1.880000 45.870331 0.628836 2104.482666
5.960000 -4.160000 1.920000 25.655609 20.651348 1084.688477
5.960000 -4.160000 1.960000 -2.260347 19.954620 403.296021
5.960000 -4.160000 2.000000 -20.021866 -0.615662 401.254150
5.960000 -4.160000 2.040000 -16.458481 -27.159340 1008.511353
5.960000 -4.160000 2.080000 5.694534 -42.397766 1829.998291
5.960000 -4.160000 2.120000 32.348064 -36.882378 2406.707031
5.960000 -4.160000 2.160000 47.589207 -14.197756 2466.308838
5.960000 -4.160000 2.200000 43.312393 12.310323 2027.507446
5.960000 -4.120000 1.800000 42.300522 -2.103294 1793.757935
5.960000 -4.120000 1.840000 29.415676 31.818829 1877.719849
5.960000 -4.120000 1.880000 -11.311403 48.179855 2449.246094
5.960000 -4.120000 1.920000 -56.733784 26.836403 3938.914551
5.960000 -4.120000 1.960000 -73.894104 -25.202759 6095.517578
5.960000 -4.120000 2.000000 -47.229523 -75.922272 7994.819336
5.960000 -4.120000 2.040000 7.631500 -92.612976 8635.403320
5.960000 -4.120000 2.080000 56.065063 -67.039146 7637.538086
5.960000 -4.120000 2.120000 71.340347 -19.683895 5476.900879
5.960000 -4.120000 2.160000 52.513374 18.765350 3109.792969
5.960000 -4.120000 2.200000 19.895489 30.693607 1337.927979
5.960000 -4.080000 1.800000 15.675926 34.251579 1418.905273
5.960000 -4.080000 1.840000 -33.900230 54.454174 4114.482422
5.960000 -4.080000 1.880000 -96.681152 24.895992 9967.055664
5.960000 -4.080000 1.920000 -123.268661 -53.909798 18101.429688
5.960000 -4.080000 1.960000 -81.452133 -137.107941 25433.039062
5.960000 -4.080000 2.000000 11.333817 -168.114441 28390.919922
5.960000 -4.080000 2.040000 97.989349 -125.503319 25352.996094
5.960000 -4.080000 2.080000 127.090027 -40.922356 17826.513672
5.960000 -4.080000 2.120000 92.586487 28.444681 9381.357422
5.960000 -4.080000 2.160000 32.900532 46.559258 3250.209473
5.960000 -4.080000 2.200000 -6.334778 21.947491 521.821777
5.960000 -4.040000 1.800000 -26.528412 34.479015 1892.559082
5.960000 -4.040000 1.840000 -93.791611 15.339760 9032.174805
5.960000 -4.040000 1.880000 -135.782349 -68.247208 23094.527344
5.960000 -4.040000 1.920000 -98.469925 -176.038254 40685.792969
5.960000 -4.040000 1.960000 17.065445 -232.432129 54315.925781
5.960000 -4.040000 2.000000 144.926453 -189.621170 56959.863281
5.960000 -4.040000 2.040000 204.555649 -71.952393 47020.160156
5.960000 -4.040000 2.080000 166.757080 42.234196 29591.650391
5.960000 -4.040000 2.120000 74.641663 85.650734 12907.425781
5.960000 -4.040000 2.160000 1.664364 53.769272 2893.904541
5.960000 -4.040000 2.200000 -11.393915 -2.212714 134.717407
5.960000 -4.000000 1.800000 -49.016228 3.569834 2415.334229
5.960000 -4.000000 1.840000 -100.729187 -57.329964 13433.093750
5.960000 -4.000000 1.880000 -86.281097 -165.148956 34718.605469
5.960000 -4.000000 1.920000 21.338970 -244.837524 60400.765625
5.960000 -4.000000 1.960000 171.159607 -222.889069 78975.148438
5.960000 -4.000000 2.000000 266.924103 -96.503769 80561.453125
5.960000 -4.000000 2.040000 246.627014 56.412502 64007.253906
5.960000 -4.000000 2.080000 135.275635 140.091263 37925.062500
5.960000 -4.000000 2.120000 20.837727 119.364578 14682.113281
5.960000 -4.000000 2.160000 -22.999083 41.389023 2242.009033
5.960000 -4.000000 2.200000 6.085388 -15.611444 280.749146
5.960000 -3.960000 1.800000 -37.954422 -27.868811 2217.208740
5.960000 -3.960000 1.840000 -50.855484 -107.141281 14065.534180
5.960000 -3.960000 1.880000 19.883234 -192.294189 37372.398438
5.960000 -3.960000 1.920000 156.789948 -201.919861 65354.718750
5.960000 -3.960000 1.960000 274.219147 -99.787140 85153.617188
5.960000 -3.960000 2.000000 286.583069 62.616375 86050.664062
5.960000 -3.960000 2.040000 184.077148 182.636826 67240.609375
5.960000 -3.960000 2.080000 42.885811 191.847534 38644.667969
5.960000 -3.960000 2.120000 -41.188667 110.691055 13949.015625
5.960000 -3.960000 2.160000 -32.642441 22.451868 1569.615234
5.960000 -3.960000 2.200000 24.149517 -4.854849 606.768738
5.960000 -3.920000 1.800000 -10.838867 -34.263176 1291.446289
5.960000 -3.920000 1.840000 12.458054 -101.180618 10392.720703
5.960000 -3.920000 1.880000 104.881332 -135.236847 29289.097656
5.960000 -3.920000 1.920000 214.611099 -79.814392 52428.261719
5.960000 -3.920000 1.960000 257.304443 53.377380 69054.726562
5.960000 -3.920000 2.000000 190.662506 183.736465 70111.281250
5.960000 -3.920000 2.040000 56.074409 227.256042 54789.648438
5.960000 -3.920000 2.080000 -55.114639 168.082550 31289.367188
5.960000 -3.920000 2.120000 -79.838028 68.273453 11035.375000
5.960000 -3.920000 2.160000 -32.089531 8.262486 1098.006714
5.960000 -3.920000 2.200000 20.932886 17.151564 732.361877
5.960000 -3.880000 1.800000 4.304052 -17.776443 334.526825
5.960000 -3.880000 1.840000 41.490993 -57.001328 4970.653809
5.960000 -3.880000 1.880000 116.143822 -48.112522 15804.202148
5.960000 -3.880000 1.920000 170.009933 29.405426 29768.056641
5.960000 -3.880000 1.960000 148.775726 135.135040 40395.695312
5.960000 -3.880000 2.000000 54.499580 197.371857 41925.851562
5.960000 -3.880000 2.040000 -52.030777 175.262115 33424.011719
5.960000 -3.880000 2.080000 -103.351425 94.061646 19529.109375
5.960000 -3.880000 2.120000 -82.293945 19.887642 7167.811523
5.960000 -3.880000 2.160000 -30.265228 -0.236774 916.040161
5.960000 -3.880000 2.200000 -2.547317 25.161390 639.584412
5.960000 -3.840000 1.800000 -2.750541 -1.491770 9.790852
5.960000 -3.840000 1.840000 27.252960 -19.825191 1135.761963
5.960000 -3.840000 1.880000 69.321716 1.443642 4807.584473
5.960000 -3.840000 1.920000 81.469612 59.165421 10137.844727
5.960000 -3.840000 1.960000 41.979622 113.939507 14744.500000
5.960000 -3.840000 2.000000 -28.001503 124.148010 16196.812500
5.960000 -3.840000 2.040000 -82.102890 83.423630 13700.386719
5.960000 -3.840000 2.080000 -89.713730 25.046360 8675.873047
5.960000 -3.840000 2.120000 -60.406612 -9.988895 3748.736816
5.960000 -3.840000 2.160000 -29.789837 -8.780359 964.529114
5.960000 -3.840000 2.200000 -23.714382 7.877266 624.423279
5.960000 -3.800000 1.800000 -17.574730 -2.868258 317.098022
5.960000 -3.800000 1.840000 0.554109 -16.352625 267.715393
5.960000 -3.800000 1.880000 23.088223 -5.984215 568.876892
5.960000 -3.800000 1.920000 27.431686 21.804506 1227.933960
5.960000 -3.800000 1.960000 6.601967 44.629383 2035.367798
5.960000 -3.800000 2.000000 -25.124157 44.731445 2632.125488
5.960000 -3.800000 2.040000 -46.431244 23.791878 2721.913818
5.960000 -3.800000 2.080000 -47.785313 -1.500130 2285.686523
5.960000 -3.800000 2.120000 -36.589802 -16.473705 1610.196533
5.960000 -3.800000 2.160000 -26.073923 -20.046535 1081.713135
5.960000 -3.800000 2.200000 -21.658552 -20.807911 902.062012
6.000000 -4.200000 1.800000 24.636616 -48.301804 2940.027100
6.000000 -4.200000 1.840000 44.807510 -39.020706 3530.328613
6.000000 -4.200000 1.880000 55.939339 -18.616722 3475.791992
6.000000 -4.200000 1.920000 52.648655 4.190178 2789.438477
6.000000 -4.200000 1.960000 36.840393 19.292984 1729.433838
6.000000 -4.200000 2.000000 16.818104 20.268051 693.642456
6.000000 -4.200000 2.040000 3.533394 7.965267 75.930351
6.000000 -4.200000 2.080000 4.801884 -8.860815 101.572128
6.000000 -4.200000 2.120000 19.701750 -17.549549 696.145630
6.000000 -4.200000 2.160000 37.370651 -9.651426 1489.715576
6.000000 -4.200000 2.200000 43.255882 11.856056 2011.637451
6.000000 -4.160000 1.800000 44.132561 -12.061356 2093.159180
6.000000 -4.160000 1.840000 44.787987 12.226973 2155.462646
6.000000 -4.160000 1.880000 26.338684 31.380783 1678.479736
6.000000 -4.160000 1.920000 -1.237957 31.489311 993.109253
6.000000 -4.160000 1.960000 -20.399090 11.526520 548.983521
6.000000 -4.160000 2.000000 -19.004265 -15.816380 611.319946
6.000000 -4.160000 2.040000 1.567398 -33.446686 1121.137573
6.000000 -4.160000 2.080000 28.423279 -31.154409 1778.479980
6.000000 -4.160000 2.120000 46.120861 -10.928131 2246.557861
6.000000 -4.160000 2.160000 45.584965 15.735521 2325.595703
6.000000 -4.160000 2.200000 28.015553 35.080509 2015.513184
6.000000 -4.120000 1.800000 26.271164 25.904633 1361.224121
6.000000 -4.120000 1.840000 -3.527414 45.151855 2051.132812
6.000000 -4.120000 1.880000 -45.990646 33.427326 3232.525879
6.000000 -4.120000 1.920000 -69.667824 -11.859451 4994.251953
6.000000 -4.120000 1.960000 -52.008682 -64.965271 6925.389648
6.000000 -4.120000 2.000000 0.095337 -90.797607 8244.213867
6.000000 -4.120000 2.040000 54.674232 -72.815109 8291.311523
6.000000 -4.120000 2.080000 79.762779 -25.017494 6987.976074
6.000000 -4.120000 2.120000 66.581482 21.276880 4885.799316
6.000000 -4.120000 2.160000 31.771709 42.204308 2790.645020
6.000000 -4.120000 2.200000 0.126892 35.782852 1280.428589
6.000000 -4.080000 1.800000 -14.617948 33.976662 1368.097900
6.000000 -4.080000 1.840000 -65.184853 23.302076 4792.051758
6.000000 -4.080000 1.880000 -99.541550 -35.777004 11188.514648
6.000000 -4.080000 1.920000 -76.919464 -115.186668 19184.572266
6.000000 -4.080000 1.960000 3.918266 -160.038086 25627.542969
6.000000 -4.080000 2.000000 97.009010 -134.170395 27412.443359
6.000000 -4.080000 2.040000 144.363525 -52.370396 23583.486328
6.000000 -4.080000 2.080000 122.642456 31.356899 16024.426758
6.000000 -4.080000 2.120000 58.892479 68.476669 8157.377930
6.000000 -4.080000 2.160000 3.055109 52.150673 2729.026367
6.000000 -4.080000 2.200000 -14.534043 14.132010 410.952118
6.000000 -4.040000 1.800000 -44.162880 6.749125 1995.910645
6.000000 -4.040000 1.840000 -87.636742 -43.593006 9580.548828
6.000000 -4.040000 1.880000 -76.576752 -133.501343 23686.609375
6.000000 -4.040000 1.920000 12.063034 -200.810333 40470.304688
6.000000 -4.040000 1.960000 136.569290 -184.247009 52598.132812
6.000000 -4.040000 2.000000 217.445114 -80.737869 53800.984375
6.000000 -4.040000 2.040000 202.910141 46.163475 43303.589844
6.000000 -4.040000 2.080000 112.355164 117.663147 26468.298828
6.000000 -4.040000 2.120000 16.967752 103.828888 11068.341797
6.000000 -4.040000 2.160000 -22.811378 41.527916 2244.926758
6.000000 -4.040000 2.200000 -3.559427 -6.641396 56.777660
6.000000 -4.000000 1.800000 -39.640919 -30.301250 2489.568359
6.000000 -4.000000 1.840000 -49.287273 -104.920837 13437.617188
6.000000 -4.000000 1.880000 19.051479 -183.692993 34106.074219
6.000000 -4.000000 1.920000 148.292801 -190.805679 58397.562500
6.000000 -4.000000 1.960000 257.894623 -93.207298 75197.234375
6.000000 -4.000000 2.000000 268.126648 59.970474 75488.359375
6.000000 -4.000000 2.040000 170.755737 172.341156 58858.996094
6.000000 -4.000000 2.080000 37.805321 180.414764 33978.730469
6.000000 -4.000000 2.120000 -41.185867 104.120560 12537.366211
6.000000 -4.000000 2.160000 -33.742592 21.556887 1603.261841
6.000000 -4.000000 2.200000 18.169346 -4.353323 349.076538
6.000000 -3.960000 1.800000 -10.234814 -45.653629 2189.005371
6.000000 -3.960000 1.840000 19.671869 -114.679970 13538.477539
6.000000 -3.960000 1.880000 120.518257 -145.920959 35817.578125
6.000000 -3.960000 1.920000 235.858490 -81.515442 62273.992188
6.000000 -3.960000 1.960000 276.625977 63.241463 80521.414062
6.000000 -3.960000 2.000000 200.443634 200.961060 80563.000000
6.000000 -3.960000 2.040000 54.447292 243.138657 62080.914062
6.000000 -3.960000 2.080000 -62.801682 175.885773 34879.855469
6.000000 -3.960000 2.120000 -85.704964 68.154556 11990.384766
6.000000 -3.960000 2.160000 -32.354015 6.023373 1083.063354
6.000000 -3.960000 2.200000 23.568747 18.125271 884.011292
6.000000 -3.920000 1.800000 14.021687 -31.392569 1182.101074
6.000000 -3.920000 1.840000 65.853638 -72.872871 9647.157227
6.000000 -3.920000 1.880000 157.525101 -52.478718 27568.173828
6.000000 -3.920000 1.920000 216.981445 49.878792 49568.843750
6.000000 -3.920000 1.960000 180.958527 180.307800 65256.890625
6.000000 -3.920000 2.000000 57.744637 250.275558 65972.296875
6.000000 -3.920000 2.040000 -73.638931 213.717667 51097.933594
6.000000 -3.920000 2.080000 -130.618652 107.751434 28671.605469
6.000000 -3.920000 2.120000 -97.024887 17.204140 9709.811523
6.000000 -3.920000 2.160000 -29.462856 -1.811161 871.340210
6.000000 -3.920000 2.200000 2.145765 34.804451 1215.954102
6.000000 -3.880000 1.800000 12.760588 -8.252972 230.944138
6.000000 -3.880000 1.840000 62.251324 -21.889565 4354.380371
6.000000 -3.880000 1.880000 118.395332 23.619213 14575.322266
6.000000 -3.880000 1.920000 121.536598 115.103065 28019.859375
6.000000 -3.880000 1.960000 47.880402 189.976166 38383.476562
6.000000 -3.880000 2.000000 -62.117378 190.034302 39971.605469
6.000000 -3.880000 2.040000 -136.200119 115.148331 31809.609375
6.000000 -3.880000 2.080000 -133.725189 23.409576 18430.433594
6.000000 -3.880000 2.120000 -78.461792 -22.451962 6660.343750
6.000000 -3.880000 2.160000 -30.449059 -9.291751 1013.481750
6.000000 -3.880000 2.200000 -27.759115 23.188963 1308.296509
6.000000 -3.840000 1.800000 -6.014469 -2.127932 40.701931
6.000000 -3.840000 1.840000 29.255856 -3.026730 865.066162
6.000000 -3.840000 1.880000 53.887054 36.790016 4257.319824
6.000000 -3.840000 1.920000 33.229683 91.585770 9492.165039
6.000000 -3.840000 1.960000 -29.358948 115.592560 14223.587891
6.000000 -3.840000 2.000000 -92.578651 85.694778 15914.402344
6.000000 -3.840000 2.040000 -114.396652 23.172821 13623.573242
6.000000 -3.840000 2.080000 -89.347275 -27.169373 8721.110352
6.000000 -3.840000 2.120000 -49.349037 -38.567055 3922.745117
6.000000 -3.840000 2.160000 -29.697117 -22.814724 1402.430420
6.000000 -3.840000 2.200000 -36.537193 -11.904799 1476.690796
6.000000 -3.800000 1.800000 -17.261616 -17.397404 600.633057
6.000000 -3.800000 1.840000 8.134804 -18.539261 409.879211
6.000000 -3.800000 1.880000 22.378265 4.622505 522.154297
6.000000 -3.800000 1.920000 9.463539 31.754974 1097.937012
6.000000 -3.800000 1.960000 -22.170135 38.790951 1996.252808
6.000000 -3.800000 2.000000 -48.868355 19.954117 2786.282959
6.000000 -3.800000 2.040000 -54.334427 -9.508186 3042.635498
6.000000 -3.800000 2.080000 -42.083698 -30.463045 2699.034912
6.000000 -3.800000 2.120000 -27.080975 -37.289837 2123.911133
6.000000 -3.800000 2.160000 -18.475431 -38.290417 1807.497559
6.000000 -3.800000 2.200000 -12.754677 -42.038567 1929.922852
6.040000 -4.200000 1.800000 39.376118 -9.445287 1639.692139
6.040000 -4.200000 1.840000 43.216171 6.497132 1909.850220
6.040000 -4.200000 1.880000 36.461132 20.925581 1767.294189
6.040000 -4.200000 1.920000 23.568756 27.841457 1330.633057
6.040000 -4.200000 1.960000 10.658360 26.142563 797.034241
6.040000 -4.200000 2.000000 2.350430 18.056005 331.543854
6.040000 -4.200000 2.040000 1.442768 7.415998 57.078606
6.040000 -4.200000 2.080000 8.591103 -0.417854 73.981644
6.040000 -4.200000 2.120000 20.331408 0.418863 413.541565
6.040000 -4.200000 2.160000 28.415901 12.140011 954.843323
6.040000 -4.200000 2.200000 24.206476 29.055616 1430.182373
6.040000 -4.160000 1.800000 29.081875 21.801897 1321.078125
6.040000 -4.160000 1.840000 14.140257 36.755379 1550.904785
6.040000 -4.160000 1.880000 -9.194714 35.628265 1353.916016
6.040000 -4.160000 1.920000 -25.072424 17.145245 922.585876
6.040000 -4.160000 1.960000 -22.912018 -7.111629 575.535828
6.040000 -4.160000 2.000000 -4.780762 -22.322243 521.138184
6.040000 -4.160000 2.040000 17.868958 -20.836973 753.479126
6.040000 -4.160000 2.080000 33.025063 -5.233242 1118.041626
6.040000 -4.160000 2.120000 34.513931 15.767189 1439.815674
6.040000 -4.160000 2.160000 22.858423 32.864323 1602.571289
6.040000 -4.160000 2.200000 3.294613 39.384567 1561.998657
6.040000 -4.120000 1.800000 -3.989534 32.360390 1063.111206
6.040000 -4.120000 1.840000 -34.922211 29.346766 2080.793457
6.040000 -4.120000 1.880000 -57.677582 -2.691040 3333.945068
6.040000 -4.120000 1.920000 -48.615734 -47.599403 4629.192383
6.040000 -4.120000 1.960000 -6.821503 -74.869766 5652.014648
6.040000 -4.120000 2.000000 43.351730 -64.689934 6064.160156
6.040000 -4.120000 2.040000 71.569794 -23.800835 5688.714844
6.040000 -4.120000 2.080000 64.666397 21.362099 4638.082031
6.040000 -4.120000 2.120000 33.605038 46.263203 3269.582520
6.040000 -4.120000 2.160000 0.846319 44.615204 1991.232666
6.040000 -4.120000 2.200000 -17.815863 27.295118 1062.428467
6.040000 -4.080000 1.800000 -32.814663 11.396523 1206.682861
6.040000 -4.080000 1.840000 -62.310165 -20.204149 4290.764160
6.040000 -4.080000 1.880000 -56.782516 -78.372879 9366.562500
6.040000 -4.080000 1.920000 -1.040215 -122.728828 15063.447266
6.040000 -4.080000 1.960000 78.344101 -113.855019 19100.763672
6.040000 -4.080000 2.000000 131.046112 -49.438210 19617.220703
6.040000 -4.080000 2.040000 124.126801 31.200996 16380.964844
6.040000 -4.080000 2.080000 68.435928 79.091736 10938.978516
6.040000 -4.080000 2.120000 6.657366 74.439468 5585.554688
6.040000 -4.080000 2.160000 -23.949608 37.347122 1968.391235
6.040000 -4.080000 2.200000 -18.771584 4.064524 368.892700
6.040000 -4.040000 1.800000 -32.993462 -23.978127 1663.519043
6.040000 -4.040000 1.840000 -39.391670 -77.299576 7526.928223
6.040000 -4.040000 1.880000 10.381920 -133.671112 17975.751953
6.040000 -4.040000 1.920000 104.004547 -138.177734 29910.031250
6.040000 -4.040000 1.960000 183.230179 -66.955246 38056.300781
6.040000 -4.040000 2.000000 190.464127 44.552803 38261.535156
6.040000 -4.040000 2.040000 119.519180 126.863007 30379.056641
6.040000 -4.040000 2.080000 21.832027 133.847916 18391.900391
6.040000 -4.040000 2.120000 -38.174194 78.856888 7675.677734
6.040000 -4.040000 2.160000 -36.125431 17.074881 1596.598267
6.040000 -4.040000 2.200000 -0.395041 -6.169607 38.220108
6.040000 -4.000000 1.800000 -5.759020 -43.842785 1955.356079
6.040000 -4.000000 1.840000 20.482862 -97.123184 9852.460938
6.040000 -4.000000 1.880000 102.648926 -119.184486 24741.742188
6.040000 -4.000000 1.920000 194.913208 -63.902122 42074.640625
6.040000 -4.000000 1.960000 225.310852 55.576603 53853.738281
6.040000 -4.000000 2.000000 160.058014 167.765686 53763.894531
6.040000 -4.000000 2.040000 38.307808 200.585968 41702.218750
6.040000 -4.000000 2.080000 -58.935623 143.075653 23944.050781
6.040000 -4.000000 2.120000 -77.764999 52.157738 8767.824219
6.040000 -4.000000 2.160000 -33.026958 -1.107702 1092.007080
6.040000 -4.000000 2.200000 14.521854 7.187197 262.540070
6.040000 -3.960000 1.800000 23.166742 -33.552895 1662.494629
6.040000 -3.960000 1.840000 72.171898 -65.707932 9526.314453
6.040000 -3.960000 1.880000 153.924896 -41.220337 25391.988281
6.040000 -3.960000 1.920000 203.135056 56.153641 44417.082031
6.040000 -3.960000 1.960000 163.626678 175.652924 57627.640625
6.040000 -3.960000 2.000000 45.338356 236.000412 57751.761719
6.040000 -3.960000 2.040000 -77.149292 196.342484 44502.382812
6.040000 -3.960000 2.080000 -127.316780 93.385338 24930.382812
6.040000 -3.960000 2.120000 -91.713058 7.591866 8468.921875
6.040000 -3.960000 2.160000 -25.297905 -8.755768 716.647461
6.040000 -3.960000 2.200000 5.186821 27.856573 802.891785
6.040000 -3.920000 1.800000 28.587729 -7.221431 869.407288
6.040000 -3.920000 1.840000 79.907562 -12.495684 6541.360352
6.040000 -3.920000 1.880000 132.228851 42.335266 19276.744141
6.040000 -3.920000 1.920000 125.478195 139.877670 35310.539062
6.040000 -3.920000 1.960000 39.053349 213.293457 47019.261719
6.040000 -3.920000 2.000000 -80.301567 203.542786 47878.007812
6.040000 -3.920000 2.040000 -154.823486 115.138428 37227.171875
6.040000 -3.920000 2.080000 -143.803192 13.996685 20875.263672
6.040000 -3.920000 2.120000 -77.315918 -31.963938 6999.444336
6.040000 -3.920000 2.160000 -23.442192 -11.473066 681.167603
6.040000 -3.920000 2.200000 -23.372749 28.234928 1343.496582
6.040000 -3.880000 1.800000 10.106110 7.172699 153.581055
6.040000 -3.880000 1.840000 49.057056 18.709707 2756.647949
6.040000 -3.880000 1.880000 66.574249 74.960762 10051.246094
6.040000 -3.880000 1.920000 25.697067 139.355011 20080.158203
6.040000 -3.880000 1.960000 -61.453960 155.979919 28106.324219
6.040000 -3.880000 2.000000 -138.298492 102.644417 29662.347656
6.040000 -3.880000 2.040000 -153.565735 14.419968 23790.371094
6.040000 -3.880000 2.080000 -107.527840 -47.598251 13827.830078
6.040000 -3.880000 2.120000 -48.702461 -51.708443 5045.692383
6.040000 -3.880000 2.160000 -25.559673 -20.254404 1063.537720
6.040000 -3.880000 2.200000 -42.776207 -1.254841 1831.378418
6.040000 -3.840000 1.800000 -8.751842 -3.892320 91.744888
6.040000 -3.840000 1.840000 17.081430 11.124729 415.534851
6.040000 -3.840000 1.880000 15.617016 50.723824 2816.797363
6.040000 -3.840000 1.920000 -25.816914 78.862457 6885.800293
6.040000 -3.840000 1.960000 -81.675568 64.095398 10779.119141
6.040000 -3.840000 2.000000 -110.584045 11.187202 12353.984375
6.040000 -3.840000 2.040000 -94.218658 -42.892948 10716.959961
6.040000 -3.840000 2.080000 -52.844078 -64.416519 6941.984375
6.040000 -3.840000 2.120000 -22.637613 -53.049477 3326.708496
6.040000 -3.840000 2.160000 -19.865280 -36.783791 1747.676636
6.040000 -3.840000 2.200000 -28.998528 -39.793270 2424.418945
6.040000 -3.800000 1.800000 -5.450771 -26.477095 730.747498
6.040000 -3.800000 1.840000 14.204844 -12.876682 367.586517
6.040000 -3.800000 1.880000 11.411709 11.907764 272.021973
6.040000 -3.800000 1.920000 -13.123486 23.485687 723.803406
6.040000 -3.800000 1.960000 -38.753113 10.076027 1603.330078
6.040000 -3.800000 2.000000 -45.899933 -17.615005 2417.092285
6.040000 -3.800000 2.040000 -33.674194 -39.598267 2701.974121
6.040000 -3.800000 2.080000 -16.454002 -46.848610 2465.526367
6.040000 -3.800000 2.120000 -5.795156 -46.596169 2204.786621
6.040000 -3.800000 2.160000 0.781067 -49.315022 2432.581543
6.040000 -3.800000 2.200000 12.689054 -54.598984 3142.061279
6.080000 -4.200000 1.800000 20.187271 24.391514 1002.471802
6.080000 -4.200000 1.840000 8.860265 31.754686 1086.864380
6.080000 -4.200000 1.880000 -3.153108 28.578047 826.646851
6.080000 -4.200000 1.920000 -8.074162 19.740097 454.863495
6.080000 -4.200000 1.960000 -6.241947 12.962761 206.995071
6.080000 -4.200000 2.000000 -3.164562 10.703348 124.576111
6.080000 -4.200000 2.040000 -1.772831 9.822609 99.626579
6.080000 -4.200000 2.080000 0.149330 8.106150 65.731964
6.080000 -4.200000 2.120000 4.739592 8.374846 92.601768
6.080000 -4.200000 2.160000 8.519203 14.467883 281.896454
6.080000 -4.200000 2.200000 4.697321 24.108234 603.271790
6.080000 -4.160000 1.800000 -3.948711 31.328394 997.060608
6.080000 -4.160000 1.840000 -22.021706 28.913750 1320.960449
6.080000 -4.160000 1.880000 -32.934929 11.629665 1219.958740
6.080000 -4.160000 1.920000 -27.335833 -8.749645 823.804016
6.080000 -4.160000 1.960000 -9.486576 -18.473438 431.263031
6.080000 -4.160000 2.000000 8.157658 -13.414591 246.498627
6.080000 -4.160000 2.040000 16.415211 -0.032845 269.460205
6.080000 -4.160000 2.080000 14.906055 12.914764 388.981628
6.080000 -4.160000 2.120000 8.045546 21.503071 527.112854
6.080000 -4.160000 2.160000 -1.321497 25.950809 675.190857
6.080000 -4.160000 2.200000 -12.732506 25.725777 823.932312
6.080000 -4.120000 1.800000 -26.033997 14.828149 897.642944
6.080000 -4.120000 1.840000 -42.585438 -2.695939 1820.787598
6.080000 -4.120000 1.880000 -39.014214 -33.494228 2643.972168
6.080000 -4.120000 1.920000 -10.000000 -54.964294 3121.073730
6.080000 -4.120000 1.960000 28.293625 -49.020618 3203.550293
6.080000 -4.120000 2.000000 51.544712 -17.944996 2978.880371
6.080000 -4.120000 2.040000 47.204620 18.281094 2562.474609
6.080000 -4.120000 2.080000 22.615612 39.183258 2046.793701
6.080000 -4.120000 2.120000 -4.210562 38.635056 1510.396362
6.080000 -4.120000 2.160000 -20.120752 25.078608 1033.781250
6.080000 -4.120000 2.200000 -23.995190 10.318974 682.250305
6.080000 -4.080000 1.800000 -26.357916 -14.311167 899.549255
6.080000 -4.080000 1.840000 -29.811394 -44.075523 2831.370850
6.080000 -4.080000 1.880000 -1.272343 -74.945709 5618.478027
6.080000 -4.080000 1.920000 50.824986 -75.888901 8342.304688
6.080000 -4.080000 1.960000 93.232971 -35.196266 9931.164062
6.080000 -4.080000 2.000000 95.271545 26.017216 9753.562500
6.080000 -4.080000 2.040000 55.363476 69.961502 7959.726562
6.080000 -4.080000 2.080000 1.905674 73.146027 5353.973145
6.080000 -4.080000 2.120000 -31.628469 43.494423 2892.125000
6.080000 -4.080000 2.160000 -33.184231 9.320224 1188.059692
6.080000 -4.080000 2.200000 -16.712103 -7.000949 328.307648
6.080000 -4.040000 1.800000 -2.913417 -32.482716 1063.614868
6.080000 -4.040000 1.840000 13.246495 -62.775990 4116.294434
6.080000 -4.040000 1.880000 62.995354 -74.088226 9457.480469
6.080000 -4.040000 1.920000 118.001755 -38.244003 15387.017578
6.080000 -4.040000 1.960000 134.136459 36.107857 19296.367188
6.080000 -4.040000 2.000000 91.238014 104.634438 19272.740234
6.080000 -4.040000 2.040000 14.059441 123.146034 15362.613281
6.080000 -4.040000 2.080000 -47.249557 85.280975 9505.365234
6.080000 -4.040000 2.120000 -59.380280 26.294052 4217.394531
6.080000 -4.040000 2.160000 -31.177492 -9.871892 1069.490234
6.080000 -4.040000 2.200000 0.295273 -7.936719 63.078693
6.080000 -4.000000 1.800000 25.019154 -24.509346 1226.666138
6.080000 -4.000000 1.840000 56.437622 -42.048607 4953.290527
6.080000 -4.000000 1.880000 108.660843 -22.662329 12320.759766
6.080000 -4.000000 1.920000 138.164108 44.704727 21087.832031
6.080000 -4.000000 1.960000 107.028404 125.598709 27230.115234
6.080000 -4.000000 2.000000 22.372156 164.309006 27497.962891
6.080000 -4.000000 2.040000 -63.857605 132.708221 21689.265625
6.080000 -4.000000 2.080000 -97.938408 56.690880 12805.787109
6.080000 -4.000000 2.120000 -70.133949 -6.636862 4962.818848
6.080000 -4.000000 2.160000 -19.485195 -19.426733 757.070801
6.080000 -4.000000 2.200000 5.623270 7.194134 83.376724
6.080000 -3.960000 1.800000 33.771255 1.470392 1142.659790
6.080000 -3.960000 1.840000 68.145355 2.240664 4648.810059
6.080000 -3.960000 1.880000 101.702698 45.624985 12425.078125
6.080000 -3.960000 1.920000 90.379471 118.542511 22220.775391
6.080000 -3.960000 1.960000 19.394104 170.503250 29447.488281
6.080000 -3.960000 2.000000 -74.584740 156.729996 30127.173828
6.080000 -3.960000 2.040000 -130.659225 81.704063 23747.388672
6.080000 -3.960000 2.080000 -116.995178 -1.540001 13690.244141
6.080000 -3.960000 2.120000 -58.459167 -38.025330 4863.399902
6.080000 -3.960000 2.160000 -11.294525 -18.539566 471.281799
6.080000 -3.960000 2.200000 -10.291529 17.495964 412.024323
6.080000 -3.920000 1.800000 17.609671 20.871382 745.715088
6.080000 -3.920000 1.840000 44.029697 35.156044 3174.561523
6.080000 -3.920000 1.880000 50.395279 83.317657 9481.515625
6.080000 -3.920000 1.920000 7.554527 133.819458 17964.716797
6.080000 -3.920000 1.960000 -71.751747 139.527618 24616.269531
6.080000 -3.920000 2.000000 -136.873077 83.475220 25702.351562
6.080000 -3.920000 2.040000 -143.071838 -0.491053 20469.791016
6.080000 -3.920000 2.080000 -93.025978 -55.855705 11773.693359
6.080000 -3.920000 2.120000 -33.837574 -54.201218 4082.753418
6.080000 -3.920000 2.160000 -12.066772 -18.490030 487.488220
6.080000 -3.920000 2.200000 -31.735840 3.399294 1018.718689
6.080000 -3.880000 1.800000 -5.402119 15.960135 283.908783
6.080000 -3.880000 1.840000 10.290422 34.823250 1318.551514
6.080000 -3.880000 1.880000 -2.707813 71.095657 5061.924316
6.080000 -3.880000 1.920000 -52.160717 88.980118 10638.202148
6.080000 -3.880000 1.960000 -108.496140 60.382366 15417.442383
6.080000 -3.880000 2.000000 -129.140564 -4.262768 16695.457031
6.080000 -3.880000 2.040000 -98.922890 -62.300026 13667.031250
6.080000 -3.880000 2.080000 -45.009804 -77.882889 8091.626465
6.080000 -3.880000 2.120000 -10.392094 -54.543507 3082.989746
6.080000 -3.880000 2.160000 -12.937813 -28.404022 974.175415
6.080000 -3.880000 2.200000 -31.605053 -30.150932 1907.958130
6.080000 -3.840000 1.800000 -10.717375 -6.767978 160.667648
6.080000 -3.840000 1.840000 -2.337891 11.641981 141.001450
6.080000 -3.840000 1.880000 -20.553192 32.347321 1468.782837
6.080000 -3.840000 1.920000 -56.494556 28.271191 3990.895264
6.080000 -3.840000 1.960000 -80.529221 -6.998791 6533.938477
6.080000 -3.840000 2.000000 -71.102814 -50.832142 7639.517090
6.080000 -3.840000 2.040000 -36.116943 -73.199631 6662.619629
6.080000 -3.840000 2.080000 -4.070023 -65.743195 4338.732422
6.080000 -3.840000 2.120000 5.241176 -47.611038 2294.281006
6.080000 -3.840000 2.160000 -0.948997 -42.892361 1840.655273
6.080000 -3.840000 2.200000 0.360504 -54.952766 3019.936523
6.080000 -3.800000 1.800000 8.507627 -22.715755 588.385254
6.080000 -3.800000 1.840000 12.056767 -4.422255 164.921951
6.080000 -3.800000 1.880000 -3.441629 6.972210 60.456524
6.080000 -3.800000 1.920000 -22.775120 -1.750053 521.768738
6.080000 -3.800000 1.960000 -27.455364 -24.028221 1331.152344
6.080000 -3.800000 2.000000 -14.422119 -41.718315 1948.415405
6.080000 -3.800000 2.040000 3.150658 -44.806637 2017.561279
6.080000 -3.800000 2.080000 12.588257 -40.106243 1766.974976
6.080000 -3.800000 2.120000 15.833986 -40.048412 1854.590454
6.080000 -3.800000 2.160000 24.801535 -45.913155 2723.134033
6.080000 -3.800000 2.200000 44.409233 -45.776711 4067.687256
6.120000 -4.200000 1.800000 -14.773762 28.813297 1048.470215
6.120000 -4.200000 1.840000 -27.889601 19.734673 1167.287109
6.120000 -4.200000 1.880000 -28.554031 3.204382 825.600769
6.120000 -4.200000 1.920000 -16.655638 -6.566864 320.533997
6.120000 -4.200000 1.960000 -4.317415 -2.929841 27.224041
6.120000 -4.200000 2.000000 -2.499120 6.793812 52.401482
6.120000 -4.200000 2.040000 -9.570375 10.283268 197.337677
6.120000 -4.200000 2.080000 -14.294586 4.116229 221.278534
6.120000 -4.200000 2.120000 -9.379789 -3.032415 97.175987
6.120000 -4.200000 2.160000 0.005509 -1.134583 1.287310
6.120000 -4.200000 2.200000 2.307975 9.048954 87.210312
6.120000 -4.160000 1.800000 -28.668112 12.929464 989.031738
6.120000 -4.160000 1.840000 -36.114922 -1.671971 1307.083130
6.120000 -4.160000 1.880000 -28.071609 -18.877739 1144.384277
6.120000 -4.160000 1.920000 -9.092842 -24.000900 658.723022
6.120000 -4.160000 1.960000 6.054236 -13.617184 222.081467
6.120000 -4.160000 2.000000 7.419456 1.841330 58.438831
6.120000 -4.160000 2.040000 -1.262218 9.749634 96.648552
6.120000 -4.160000 2.080000 -8.680098 7.796745 136.133331
6.120000 -4.160000 2.120000 -9.010015 3.951210 96.792442
6.120000 -4.160000 2.160000 -7.046597 5.311687 77.868538
6.120000 -4.160000 2.200000 -10.464197 9.411682 198.079178
6.120000 -4.120000 1.800000 -25.217133 -9.909261 734.097168
6.120000 -4.120000 1.840000 -24.502937 -25.884563 1270.404541
6.120000 -4.120000 1.880000 -7.248130 -38.394398 1526.665161
6.120000 -4.120000 1.920000 17.069302 -33.284157 1399.196167
6.120000 -4.120000 1.960000 30.818539 -11.030420 1071.452515
6.120000 -4.120000 2.000000 24.633011 13.473465 788.319458
6.120000 -4.120000 2.040000 5.163593 24.808331 642.115967
6.120000 -4.120000 2.080000 -12.637714 20.015488 560.331543
6.120000 -4.120000 2.120000 -19.557575 8.367190 452.508606
6.120000 -4.120000 2.160000 -18.100010 0.104069 327.621185
6.120000 -4.120000 2.200000 -16.088707 -2.959733 267.606506
6.120000 -4.080000 1.800000 -4.204444 -22.389219 518.954468
6.120000 -4.080000 1.840000 3.952273 -34.612499 1213.645630
6.120000 -4.080000 1.880000 26.859535 -36.639984 2063.923096
6.120000 -4.080000 1.920000 49.247513 -16.807449 2707.808105
6.120000 -4.080000 1.960000 51.271812 17.654467 2940.479004
6.120000 -4.080000 2.000000 27.295301 44.997967 2769.850586
6.120000 -4.080000 2.040000 -8.009623 47.565060 2326.588867
6.120000 -4.080000 2.080000 -32.194862 26.734062 1751.219238
6.120000 -4.080000 2.120000 -33.918755 0.281798 1150.561401
6.120000 -4.080000 2.160000 -20.361628 -14.258787 617.908875
6.120000 -4.080000 2.200000 -7.572303 -13.708511 245.263046
6.120000 -4.040000 1.800000 19.318462 -13.428318 553.522705
6.120000 -4.040000 1.840000 30.951092 -18.444466 1298.168457
6.120000 -4.040000 1.880000 51.899826 -7.525731 2750.228760
6.120000 -4.040000 1.920000 61.622318 24.741970 4409.475098
6.120000 -4.040000 1.960000 42.373806 61.504169 5578.302246
6.120000 -4.040000 2.000000 -1.327803 75.884094 5760.159180
6.120000 -4.040000 2.040000 -43.236656 55.228161 4919.558105
6.120000 -4.040000 2.080000 -57.101444 13.770283 3450.195557
6.120000 -4.040000 2.120000 -39.260723 -19.315657 1914.499023
6.120000 -4.040000 2.160000 -10.445045 -25.379080 753.196716
6.120000 -4.040000 2.200000 4.517839 -10.890763 139.019592
6.120000 -4.000000 1.800000 26.566055 10.803343 822.467529
6.120000 -4.000000 1.840000 36.703152 12.808365 1511.175537
6.120000 -4.000000 1.880000 47.730129 33.047596 3370.308838
6.120000 -4.000000 1.920000 37.775711 66.994202 5915.227539
6.120000 -4.000000 1.960000 -1.715556 89.580872 8027.675781
6.120000 -4.000000 2.000000 -52.069389 76.963165 8634.549805
6.120000 -4.000000 2.040000 -80.201706 31.190165 7405.139648
6.120000 -4.000000 2.080000 -67.956001 -18.111668 4946.050781
6.120000 -4.000000 2.120000 -29.354002 -38.910629 2375.694580
6.120000 -4.000000 2.160000 2.185545 -25.058138 632.686890
6.120000 -4.000000 2.200000 4.672680 -0.016657 21.834213
6.120000 -3.960000 1.800000 11.590672 30.570034 1068.870605
6.120000 -3.960000 1.840000 17.369051 36.473797 1632.021851
6.120000 -3.960000 1.880000 15.160593 57.815514 3572.477051
6.120000 -3.960000 1.920000 -11.515000 79.888664 6514.793945
6.120000 -3.960000 1.960000 -57.057194 76.772247 9149.501953
6.120000 -3.960000 2.000000 -92.719971 37.918243 10034.786133
6.120000 -3.960000 2.040000 -91.158798 -16.783474 8591.611328
6.120000 -3.960000 2.080000 -53.436478 -51.666008 5524.833496
6.120000 -3.960000 2.120000 -10.108315 -47.344986 2343.725586
6.120000 -3.960000 2.160000 6.522247 -18.475595 383.887329
6.120000 -3.960000 2.200000 -7.991753 1.236773 65.397728
6.120000 -3.920000 1.800000 -12.267624 29.343418 1011.530762
6.120000 -3.920000 1.840000 -10.523104 36.141716 1416.959351
6.120000 -3.920000 1.880000 -22.865032 50.933514 3117.032715
6.120000 -3.920000 1.920000 -54.430969 53.752869 5852.101562
6.120000 -3.920000 1.960000 -87.353806 27.634785 8394.369141
6.120000 -3.920000 2.000000 -94.274765 -20.231239 9297.034180
6.120000 -3.920000 2.040000 -65.368820 -60.413643 7922.890625
6.120000 -3.920000 2.080000 -20.663837 -67.257126 4950.515137
6.120000 -3.920000 2.120000 7.127369 -43.507874 1943.734497
6.120000 -3.920000 2.160000 3.255341 -17.714050 324.384796
6.120000 -3.920000 2.200000 -15.926913 -16.102226 512.948242
6.120000 -3.880000 1.800000 -23.371246 9.091381 628.868347
6.120000 -3.880000 1.840000 -24.320427 16.221033 854.605103
6.120000 -3.880000 1.880000 -40.449665 21.653608 2105.054199
6.120000 -3.880000 1.920000 -64.282578 8.348671 4201.950195
6.120000 -3.880000 1.960000 -74.305382 -25.724661 6183.047852
6.120000 -3.880000 2.000000 -56.099678 -61.204922 6893.216309
6.120000 -3.880000 2.040000 -18.926943 -73.982826 5831.687500
6.120000 -3.880000 2.080000 11.258723 -58.849998 3590.081055
6.120000 -3.880000 2.120000 16.608294 -34.996655 1500.601318
6.120000 -3.880000 2.160000 4.493223 -26.692934 732.701782
6.120000 -3.880000 2.200000 -1.160278 -38.929790 1516.874756
6.120000 -3.840000 1.800000 -11.287235 -10.629073 240.378876
6.120000 -3.840000 1.840000 -15.599443 -2.398678 249.096298
6.120000 -3.840000 1.880000 -30.760265 -4.689278 968.183228
6.120000 -3.840000 1.920000 -41.244926 -24.450935 2298.992188
6.120000 -3.840000 1.960000 -32.164085 -50.499714 3584.749512
6.120000 -3.840000 2.000000 -5.843592 -63.264526 4036.547852
6.120000 -3.840000 2.040000 19.301657 -54.732719 3368.224609
6.120000 -3.840000 2.080000 27.461117 -36.795532 2108.023926
6.120000 -3.840000 2.120000 21.635408 -28.330362 1270.700317
6.120000 -3.840000 2.160000 19.517675 -34.766113 1589.622314
6.120000 -3.840000 2.200000 33.441296 -42.485916 2923.373535
6.120000 -3.800000 1.800000 13.058958 -10.047041 271.479431
6.120000 -3.800000 1.840000 2.728531 -2.135235 12.004108
6.120000 -3.800000 1.880000 -9.918892 -9.878050 195.960281
6.120000 -3.800000 1.920000 -9.368935 -27.744347 857.525696
6.120000 -3.800000 1.960000 6.746166 -39.208450 1582.813354
6.120000 -3.800000 2.000000 24.984758 -34.722626 1829.898926
6.120000 -3.800000 2.040000 31.371645 -21.986599 1467.590576
6.120000 -3.800000 2.080000 27.315798 -16.383350 1014.567017
6.120000 -3.800000 2.120000 27.587610 -22.309872 1258.806641
6.120000 -3.800000 2.160000 42.234558 -27.105368 2518.458984
6.120000 -3.800000 2.200000 63.149239 -15.219349 4219.455078
6.160000 -4.200000 1.800000 -35.712708 5.045855 1300.858154
6.160000 -4.200000 1.840000 -36.848797 -13.903033 1551.128174
6.160000 -4.200000 1.880000 -20.924896 -27.850487 1213.500854
6.160000 -4.200000 1.920000 -0.146663 -23.748476 564.011597
6.160000 -4.200000 1.960000 7.598245 -5.978110 93.471130
6.160000 -4.200000 2.000000 -2.696954 7.495445 63.455254
6.160000 -4.200000 2.040000 -17.749109 3.583300 327.870911
6.160000 -4.200000 2.080000 -19.835396 -12.362319 546.269897
6.160000 -4.200000 2.120000 -5.278286 -22.350187 527.391174
6.160000 -4.200000 2.160000 11.951366 -14.690254 358.638733
6.160000 -4.200000 2.200000 15.072535 4.055317 243.626892
6.160000 -4.160000 1.800000 -27.715679 -14.355688 974.244629
6.160000 -4.160000 1.840000 -20.941193 -27.614759 1201.108521
6.160000 -4.160000 1.880000 -3.085181 -30.841316 960.705139
6.160000 -4.160000 1.920000 11.452260 -17.965944 453.929413
6.160000 -4.160000 1.960000 9.833758 0.812613 97.363144
6.160000 -4.160000 2.000000 -5.269541 8.890409 106.807419
6.160000 -4.160000 2.040000 -18.033516 0.439958 325.401276
6.160000 -4.160000 2.080000 -15.879584 -13.648566 438.444550
6.160000 -4.160000 2.120000 -2.370323 -17.522614 312.660431
6.160000 -4.160000 2.160000 7.203020 -7.072464 101.903244
6.160000 -4.160000 2.200000 2.381600 6.271848 45.008099
6.160000 -4.120000 1.800000 -6.999608 -21.270538 501.430298
6.160000 -4.120000 1.840000 0.639613 -25.276779 639.324707
6.160000 -4.120000 1.880000 12.482890 -19.979477 555.002075
6.160000 -4.120000 1.920000 16.965586 -4.802860 310.898560
6.160000 -4.120000 1.960000 7.612111 9.439945 147.056793
6.160000 -4.120000 2.000000 -9.108161 11.079449 205.712769
6.160000 -4.120000 2.040000 -19.571270 -0.346848 383.154907
6.160000 -4.120000 2.080000 -16.471281 -13.527895 454.307037
6.160000 -4.120000 2.120000 -5.653369 -16.948587 319.215179
6.160000 -4.120000 2.160000 0.698038 -10.150328 103.516411
6.160000 -4.120000 2.200000 -3.117009 -3.073052 19.159391
6.160000 -4.080000 1.800000 12.165056 -9.355764 235.518921
6.160000 -4.080000 1.840000 13.438200 -7.242311 233.036285
6.160000 -4.080000 1.880000 15.661920 -0.540567 245.587936
6.160000 -4.080000 1.920000 11.721333 10.114676 239.696320
6.160000 -4.080000 1.960000 -1.273998 16.774141 282.994904
6.160000 -4.080000 2.000000 -17.050636 11.932534 433.109589
6.160000 -4.080000 2.040000 -24.923717 -3.099525 630.798767
6.160000 -4.080000 2.080000 -19.749073 -18.296135 724.774414
6.160000 -4.080000 2.120000 -6.924611 -23.768570 612.895203
6.160000 -4.080000 2.160000 2.751487 -18.601963 353.603699
6.160000 -4.080000 2.200000 3.171295 -10.885342 128.547775
6.160000 -4.040000 1.800000 15.173023 13.668507 417.048706
6.160000 -4.040000 1.840000 8.119245 14.511408 276.503113
6.160000 -4.040000 1.880000 3.447514 15.745709 259.812714
6.160000 -4.040000 1.920000 -3.748907 18.472332 355.281342
6.160000 -4.040000 1.960000 -16.026714 17.205372 552.880371
6.160000 -4.040000 2.000000 -28.106949 6.076206 826.920837
6.160000 -4.040000 2.040000 -30.359430 -12.900745 1088.124268
6.160000 -4.040000 2.080000 -18.570885 -29.050579 1188.813965
6.160000 -4.040000 2.120000 0.213169 -31.928411 1019.468933
6.160000 -4.040000 2.160000 12.833119 -21.440779 624.395935
6.160000 -4.040000 2.200000 11.877765 -8.585465 214.791519
6.160000 -4.000000 1.800000 -0.970776 30.871643 954.000732
6.160000 -4.000000 1.840000 -11.821163 24.791887 754.377563
6.160000 -4.000000 1.880000 -17.239464 18.496078 639.304077
6.160000 -4.000000 1.920000 -22.660131 14.043324 710.696533
6.160000 -4.000000 1.960000 -30.660748 6.243505 979.062744
6.160000 -4.000000 2.000000 -35.416405 -9.597464 1346.433105
6.160000 -4.000000 2.040000 -28.065624 -28.949806 1625.770508
6.160000 -4.000000 2.080000 -7.969743 -39.488186 1622.833618
6.160000 -4.000000 2.120000 13.243549 -32.919922 1259.112915
6.160000 -4.000000 2.160000 21.063730 -14.967970 667.720825
6.160000 -4.000000 2.200000 12.347116 -1.690297 155.308380
6.160000 -3.960000 1.800000 -24.340591 29.245518 1447.764648
6.160000 -3.960000 1.840000 -32.272964 16.797716 1323.707520
6.160000 -3.960000 1.880000 -33.994251 5.932942 1190.808960
6.160000 -3.960000 1.920000 -35.112343 -2.916210 1241.380859
6.160000 -3.960000 1.960000 -36.119194 -14.742080 1521.925049
6.160000 -3.960000 2.000000 -30.521887 -30.773336 1878.583740
6.160000 -3.960000 2.040000 -13.436723 -43.135239 2041.194336
6.160000 -3.960000 2.080000 9.311646 -41.415089 1801.916382
6.160000 -3.960000 2.120000 23.601063 -24.988815 1181.451172
6.160000 -3.960000 2.160000 20.442364 -6.765124 463.657135
6.160000 -3.960000 2.200000 6.466367 -2.165532 46.503429
6.160000 -3.920000 1.800000 -37.071884 10.518721 1484.968018
6.160000 -3.920000 1.840000 -39.336281 -2.664743 1554.443848
6.160000 -3.920000 1.880000 -37.448326 -14.036709 1599.406250
6.160000 -3.920000 1.920000 -33.871597 -24.982643 1771.417603
6.160000 -3.920000 1.960000 -26.193056 -37.151840 2066.335449
6.160000 -3.920000 2.000000 -10.783805 -46.609909 2288.774170
6.160000 -3.920000 2.040000 9.653209 -45.733650 2184.750977
6.160000 -3.920000 2.080000 24.884344 -32.181805 1654.899170
6.160000 -3.920000 2.120000 25.974596 -14.518600 885.469360
6.160000 -3.920000 2.160000 15.537776 -6.198570 279.844757
6.160000 -3.920000 2.200000 7.254282 -12.450158 207.631042
6.160000 -3.880000 1.800000 -29.835621 -9.760076 985.423340
6.160000 -3.880000 1.840000 -30.011009 -18.828451 1255.171143
6.160000 -3.880000 1.880000 -27.362293 -29.711792 1631.485596
6.160000 -3.880000 1.920000 -18.948536 -41.601105 2089.698975
6.160000 -3.880000 1.960000 -2.858298 -49.450554 2453.527100
6.160000 -3.880000 2.000000 16.832310 -46.849876 2478.237549
6.160000 -3.880000 2.040000 30.714222 -33.099182 2038.919312
6.160000 -3.880000 2.080000 31.840408 -16.516464 1286.605225
6.160000 -3.880000 2.120000 23.424236 -8.412924 619.472107
6.160000 -3.880000 2.160000 17.324177 -12.394249 453.744507
6.160000 -3.880000 2.200000 23.180561 -19.892107 933.034363
6.160000 -3.840000 1.800000 -9.739771 -14.777188 313.228424
6.160000 -3.840000 1.840000 -13.960947 -20.841316 629.268494
6.160000 -3.840000 1.880000 -11.816116 -33.806335 1282.488892
6.160000 -3.840000 1.920000 2.327095 -45.312988 2058.682129
6.160000 -3.840000 1.960000 23.720873 -44.549500 2547.337891
6.160000 -3.840000 2.000000 39.357597 -29.439859 2415.725830
6.160000 -3.840000 2.040000 39.889214 -10.505369 1701.512207
6.160000 -3.840000 2.080000 29.530756 -1.704580 874.971130
6.160000 -3.840000 2.120000 22.706949 -6.514246 558.040955
6.160000 -3.840000 2.160000 29.690004 -13.877146 1074.071533
6.160000 -3.840000 2.200000 45.709541 -9.090594 2172.000977
6.160000 -3.800000 1.800000 5.345238 -0.418283 28.746527
6.160000 -3.800000 1.840000 -5.033087 -10.054800 126.430969
6.160000 -3.800000 1.880000 -0.588105 -27.654984 765.143982
6.160000 -3.800000 1.920000 19.879143 -35.951172 1687.667114
6.160000 -3.800000 1.960000 41.122910 -24.711536 2301.753906
6.160000 -3.800000 2.000000 46.161026 -2.409131 2136.644287
6.160000 -3.800000 2.040000 34.206894 11.760897 1308.430298
6.160000 -3.800000 2.080000 21.923479 8.125156 546.657104
6.160000 -3.800000 2.120000 25.605732 -2.731341 663.113708
6.160000 -3.800000 2.160000 43.028675 -1.055139 1852.580200
6.160000 -3.800000 2.200000 54.961922 20.475227 3440.047607
6.200000 -4.200000 1.800000 -27.927052 -22.567635 1289.218384
6.200000 -4.200000 1.840000 -15.118240 -36.845825 1586.176025
6.200000 -4.200000 1.880000 7.079365 -35.793331 1331.280029
6.200000 -4.200000 1.920000 20.543139 -17.050039 712.724365
6.200000 -4.200000 1.960000 13.325438 3.861455 192.478134
6.200000 -4.200000 2.000000 -6.874641 7.845653 108.814957
6.200000 -4.200000 2.040000 -18.982668 -8.282829 428.946930
6.200000 -4.200000 2.080000 -9.211360 -27.595203 846.344360
6.200000 -4.200000 2.120000 14.798447 -29.277187 1076.147705
6.200000 -4.200000 2.160000 31.139093 -9.146282 1053.297607
6.200000 -4.200000 2.200000 24.942852 16.380707 890.473389
6.200000 -4.160000 1.800000 -6.953419 -26.952698 774.797974
6.200000 -4.160000 1.840000 5.579847 -29.086084 877.135010
6.200000 -4.160000 1.880000 17.894337 -18.199165 651.416870
6.200000 -4.160000 1.920000 16.794426 0.329176 282.161102
6.200000 -4.160000 1.960000 0.433538 10.640671 113.411835
6.200000 -4.160000 2.000000 -17.219719 2.288249 301.754791
6.200000 -4.160000 2.040000 -18.948784 -17.613644 669.296875
6.200000 -4.160000 2.080000 -1.840004 -29.817577 892.473511
6.200000 -4.160000 2.120000 18.769562 -21.523232 815.545898
6.200000 -4.160000 2.160000 23.789585 0.773893 566.543274
6.200000 -4.160000 2.200000 8.836688 17.538742 385.694550
6.200000 -4.120000 1.800000 9.784319 -13.123728 267.965149
6.200000 -4.120000 1.840000 11.886959 -7.815309 202.378845
6.200000 -4.120000 1.880000 9.588728 1.228788 93.453621
6.200000 -4.120000 1.920000 -1.108182 7.639709 59.593231
6.200000 -4.120000 1.960000 -15.364264 3.139849 245.919250
6.200000 -4.120000 2.000000 -21.654736 -12.430372 623.441772
6.200000 -4.120000 2.040000 -12.737698 -28.118620 952.905762
6.200000 -4.120000 2.080000 5.759480 -30.778725 980.501526
6.200000 -4.120000 2.120000 19.054079 -17.710497 676.719604
6.200000 -4.120000 2.160000 16.576708 0.017866 274.787537
6.200000 -4.120000 2.200000 1.801603 7.615451 61.240871
6.200000 -4.080000 1.800000 9.359657 9.216871 172.553894
6.200000 -4.080000 1.840000 -1.710996 10.456516 112.266235
6.200000 -4.080000 1.880000 -12.094461 6.183235 184.508392
6.200000 -4.080000 1.920000 -19.519932 -3.235935 391.499023
6.200000 -4.080000 1.960000 -20.923317 -16.372417 705.841248
6.200000 -4.080000 2.000000 -13.840775 -28.961235 1030.320190
6.200000 -4.080000 2.040000 0.291520 -34.738514 1206.849365
6.200000 -4.080000 2.080000 14.844828 -29.800030 1108.410645
6.200000 -4.080000 2.120000 21.652210 -16.850227 752.748413
6.200000 -4.080000 2.160000 17.372326 -4.393197 321.097870
6.200000 -4.080000 2.200000 6.707195 -0.508615 45.245159
6.200000 -4.040000 1.800000 -8.663993 23.580776 631.117737
6.200000 -4.040000 1.840000 -25.269333 11.280392 765.786438
6.200000 -4.040000 1.880000 -30.540550 -8.258692 1000.931213
6.200000 -4.040000 1.920000 -23.819458 -25.800930 1233.054565
6.200000 -4.040000 1.960000 -10.329778 -35.616253 1375.221802
6.200000 -4.040000 2.000000 4.074366 -37.317013 1409.159912
6.200000 -4.040000 2.040000 16.199654 -33.039040 1354.006836
6.200000 -4.040000 2.080000 24.595718 -24.502691 1205.331299
6.200000 -4.040000 2.120000 27.500591 -13.396744 935.755249
6.200000 -4.040000 2.160000 23.573845 -3.355891 566.988159
6.200000 -4.040000 2.200000 14.858718 0.705476 221.279190
6.200000 -4.000000 1.800000 -31.568634 19.376610 1372.031738
6.200000 -4.000000 1.840000 -41.592022 -6.098336 1767.085938
6.200000 -4.000000 1.880000 -32.455399 -31.887136 2070.142334
6.200000 -4.000000 1.920000 -10.964675 -44.958450 2141.486328
6.200000 -4.000000 1.960000 10.086333 -43.034996 1953.744995
6.200000 -4.000000 2.000000 22.992178 -33.268879 1635.458618
6.200000 -4.000000 2.040000 28.774033 -23.114895 1362.243286
6.200000 -4.000000 2.080000 31.486851 -14.125742 1190.958374
6.200000 -4.000000 2.120000 31.598948 -4.583123 1019.498474
6.200000 -4.000000 2.160000 26.605581 4.239979 725.834351
6.200000 -4.000000 2.200000 17.242315 7.233484 349.620728
6.200000 -3.960000 1.800000 -43.350292 0.051272 1879.250488
6.200000 -3.960000 1.840000 -40.212212 -28.977381 2456.710449
6.200000 -3.960000 1.880000 -18.269609 -49.121681 2746.718018
6.200000 -3.960000 1.920000 9.355586 -50.530357 2640.843994
6.200000 -3.960000 1.960000 28.492725 -37.375359 2208.752930
6.200000 -3.960000 2.000000 35.005692 -21.230473 1676.131348
6.200000 -3.960000 2.040000 34.331131 -9.518641 1269.231079
6.200000 -3.960000 2.080000 32.331688 -1.503256 1047.597778
6.200000 -3.960000 2.120000 29.159874 5.858090 884.615479
6.200000 -3.960000 2.160000 22.493147 11.265255 632.847595
6.200000 -3.960000 2.200000 14.387715 10.488808 317.021423
6.200000 -3.920000 1.800000 -37.085045 -19.977184 1774.388428
6.200000 -3.920000 1.840000 -24.718931 -42.471905 2414.888184
6.200000 -3.920000 1.880000 0.540445 -52.243622 2729.687988
6.200000 -3.920000 1.920000 25.328585 -44.570168 2628.037109
6.200000 -3.920000 1.960000 38.753113 -26.381893 2197.808105
6.200000 -3.920000 2.000000 39.664906 -8.531678 1646.094238
6.200000 -3.920000 2.040000 34.024685 3.070045 1167.104370
6.200000 -3.920000 2.080000 27.413551 9.043804 833.293213
6.200000 -3.920000 2.120000 21.443237 11.737633 597.584473
6.200000 -3.920000 2.160000 16.352688 11.554302 400.912292
6.200000 -3.920000 2.200000 14.195496 8.667589 276.639221
6.200000 -3.880000 1.800000 -19.712107 -26.897297 1112.031738
6.200000 -3.880000 1.840000 -7.853401 -41.120567 1752.576904
6.200000 -3.880000 1.880000 13.182002 -45.514763 2245.358887
6.200000 -3.880000 1.920000 33.634598 -35.884628 2418.992676
6.200000 -3.880000 1.960000 44.076744 -16.738636 2222.941406
6.200000 -3.880000 2.000000 41.663910 2.431756 1741.794800
6.200000 -3.880000 2.040000 30.969093 13.784060 1149.085083
6.200000 -3.880000 2.080000 19.901371 15.447021 634.675049
6.200000 -3.880000 2.120000 14.489361 11.323206 338.156555
6.200000 -3.880000 2.160000 15.944915 7.683825 313.281464
6.200000 -3.880000 2.200000 20.887983 9.280608 522.437561
6.200000 -3.840000 1.800000 -5.820768 -17.923485 355.132660
6.200000 -3.840000 1.840000 -0.131137 -31.069025 965.301514
6.200000 -3.840000 1.880000 17.951164 -37.851513 1754.981323
6.200000 -3.840000 1.920000 39.192051 -29.101288 2382.901855
6.200000 -3.840000 1.960000 49.732552 -7.061589 2523.192627
6.200000 -3.840000 2.000000 42.910622 15.198385 2072.312256
6.200000 -3.840000 2.040000 25.561457 24.463797 1251.865479
6.200000 -3.840000 2.080000 12.244634 18.825520 504.331238
6.200000 -3.840000 2.120000 12.330715 9.034683 233.672043
6.200000 -3.840000 2.160000 21.908722 8.273561 548.443909
6.200000 -3.840000 2.200000 28.159714 20.011887 1193.445068
6.200000 -3.800000 1.800000 -5.993460 -2.491421 42.128738
6.200000 -3.800000 1.840000 -2.633044 -22.664314 520.604065
6.200000 -3.800000 1.880000 19.956745 -33.325542 1508.863525
6.200000 -3.800000 1.920000 45.858776 -20.919333 2540.645752
6.200000 -3.800000 1.960000 54.057007 8.117210 2988.049072
6.200000 -3.800000 2.000000 38.622936 32.116920 2523.227783
6.200000 -3.800000 2.040000 14.827049 34.700054 1423.935181
6.200000 -3.800000 2.080000 4.084877 20.547260 438.876129
6.200000 -3.800000 2.120000 12.666676 9.999951 260.443695
6.200000 -3.800000 2.160000 26.048565 17.860344 997.519592
6.200000 -3.800000 2.200000 24.697802 38.352249 2080.876465
