#kx 	ky 	kz 	real 	imag 	intensity
0.800000 0.800000 4.800000 -12.119167 7.076971 196.957733
0.800000 0.800000 4.840000 -16.526503 2.137898 277.695892
0.800000 0.800000 4.880000 -17.178526 -6.528992 337.729492
0.800000 0.800000 4.920000 -11.720670 -15.378233 373.864136
0.800000 0.800000 4.960000 -0.978960 -19.969627 399.744385
0.800000 0.800000 5.000000 11.243483 -17.427483 430.133057
0.800000 0.800000 5.040000 19.952215 -8.172095 464.874023
0.800000 0.800000 5.080000 21.663773 3.971097 485.088654
0.800000 0.800000 5.120000 16.547392 13.826817 464.997070
0.800000 0.800000 5.160000 8.312347 18.086939 396.232483
0.800000 0.800000 5.200000 1.408375 17.336994 302.554901
0.800000 0.840000 4.800000 -15.621501 -1.595916 246.578247
0.800000 0.840000 4.840000 -15.759364 -5.443299 277.987061
0.800000 0.840000 4.880000 -13.694836 -10.297176 293.580353
0.800000 0.840000 4.920000 -8.292131 -14.261543 272.151062
0.800000 0.840000 4.960000 -0.397406 -14.516549 210.888123
0.800000 0.840000 5.000000 6.635094 -9.510994 134.483475
0.800000 0.840000 5.040000 8.865044 -1.079356 79.754005
0.800000 0.840000 5.080000 5.153366 6.077053 63.487755
0.800000 0.840000 5.120000 -1.246437 8.046841 66.305252
0.800000 0.840000 5.160000 -5.208159 5.334984 55.586983
0.800000 0.840000 5.200000 -4.580383 2.535017 27.406223
0.800000 0.880000 4.800000 -11.265943 -11.900992 268.555084
0.800000 0.880000 4.840000 -9.228935 -12.136688 232.472443
0.800000 0.880000 4.880000 -7.797403 -12.698140 222.042267
0.800000 0.880000 4.920000 -5.620860 -13.505574 213.994598
0.800000 0.880000 4.960000 -2.560364 -13.033296 176.422256
0.800000 0.880000 5.000000 -0.424643 -10.590598 112.341087
0.800000 0.880000 5.040000 -0.835644 -7.973562 64.275993
0.800000 0.880000 5.080000 -2.583670 -7.828030 67.953407
0.800000 0.880000 5.120000 -2.179493 -10.135662 107.481834
0.800000 0.880000 5.160000 2.129664 -11.066597 127.005035
0.800000 0.880000 5.200000 7.159571 -6.636013 95.296127
0.800000 0.920000 4.800000 0.515575 -16.305935 266.149323
0.800000 0.920000 4.840000 1.397667 -12.650343 161.984650
0.800000 0.920000 4.880000 -0.471160 -11.016418 121.583450
0.800000 0.920000 4.920000 -2.298297 -12.201222 154.151993
0.800000 0.920000 4.960000 -2.374734 -14.812084 225.037201
0.800000 0.920000 5.000000 -0.719457 -17.506596 306.998505
0.800000 0.920000 5.040000 2.567469 -19.935581 404.019287
0.800000 0.920000 5.080000 8.224886 -21.222958 518.062683
0.800000 0.920000 5.120000 16.015451 -18.733772 607.448914
0.800000 0.920000 5.160000 22.357246 -10.041290 600.673950
0.800000 0.920000 5.200000 21.460270 3.012182 469.616425
0.800000 0.960000 4.800000 12.509697 -10.276254 262.093903
0.800000 0.960000 4.840000 9.790173 -4.946112 120.311501
0.800000 0.960000 4.880000 4.415437 -4.382555 38.702873
0.800000 0.960000 4.920000 0.745630 -8.680080 75.899757
0.800000 0.960000 4.960000 1.515390 -15.224159 234.071426
0.800000 0.960000 5.000000 7.247030 -20.777321 484.216492
0.800000 0.960000 5.040000 16.905289 -22.349867 785.305298
0.800000 0.960000 5.080000 27.783546 -17.320473 1071.924316
0.800000 0.960000 5.120000 34.947437 -4.832515 1244.676514
0.800000 0.960000 5.160000 32.734612 11.707736 1208.625854
0.800000 0.960000 5.200000 19.122423 24.241245 953.305054
0.800000 1.000000 4.800000 16.352261 2.792316 275.193451
0.800000 1.000000 4.840000 10.024058 6.665084 144.905090
0.800000 1.000000 4.880000 3.318152 4.041112 27.340717
0.800000 1.000000 4.920000 1.044924 -3.340598 12.251460
0.800000 1.000000 4.960000 5.523250 -11.176182 155.413330
0.800000 1.000000 5.000000 15.917325 -14.580879 465.963257
0.800000 1.000000 5.040000 28.305716 -9.794257 897.141052
0.800000 1.000000 5.080000 36.349037 3.838885 1335.989624
0.800000 1.000000 5.120000 33.776367 21.953632 1622.804932
0.800000 1.000000 5.160000 18.715542 35.655243 1621.567871
0.800000 1.000000 5.200000 -3.013905 36.153389 1316.151123
0.800000 1.040000 4.800000 9.923805 14.100542 297.307190
0.800000 1.040000 4.840000 2.086404 14.645694 218.849442
0.800000 1.040000 4.880000 -3.300174 9.131696 94.279022
0.800000 1.040000 4.920000 -2.458961 1.001653 7.049798
0.800000 1.040000 4.960000 5.224486 -4.492709 47.479683
0.800000 1.040000 5.000000 16.507767 -2.515823 278.835724
0.800000 1.040000 5.040000 24.918373 8.625961 695.332520
0.800000 1.040000 5.080000 23.561707 25.202114 1190.300537
0.800000 1.040000 5.120000 9.816129 38.460266 1575.548340
0.800000 1.040000 5.160000 -11.188443 39.308037 1670.302979
0.800000 1.040000 5.200000 -28.121178 25.057095 1418.658691
0.800000 1.080000 4.800000 -1.071325 17.267946 299.329712
0.800000 1.080000 4.840000 -8.143847 14.783635 284.878113
0.800000 1.080000 4.880000 -11.081780 8.210481 190.217850
0.800000 1.080000 4.920000 -7.886189 1.689309 65.045746
0.800000 1.080000 4.960000 -0.012356 0.084221 0.007246
0.800000 1.080000 5.000000 7.459927 6.240724 94.597137
0.800000 1.080000 5.040000 7.999144 18.225206 396.144440
0.800000 1.080000 5.080000 -1.896810 28.930958 840.598206
0.800000 1.080000 5.120000 -18.852921 29.922682 1250.799561
0.800000 1.080000 5.160000 -33.263264 17.822258 1424.077637
0.800000 1.080000 5.200000 -35.477608 -1.842999 1262.057251
0.800000 1.120000 4.800000 -9.127401 13.478749 264.986145
0.800000 1.120000 4.840000 -14.618097 9.319174 300.535767
0.800000 1.120000 4.880000 -15.714079 3.060772 256.300598
0.800000 1.120000 4.920000 -12.067504 -1.313092 147.348862
0.800000 1.120000 4.960000 -6.700386 -0.431200 45.081104
0.800000 1.120000 5.000000 -4.809657 5.599022 54.481853
0.800000 1.120000 5.040000 -10.090049 12.069645 247.485413
0.800000 1.120000 5.080000 -20.957760 12.306707 590.682739
0.800000 1.120000 5.120000 -30.395275 3.040757 933.118958
0.800000 1.120000 5.160000 -30.738956 -11.895495 1086.386230
0.800000 1.120000 5.200000 -20.073366 -23.453337 952.999023
0.800000 1.160000 4.800000 -12.067898 8.697044 221.272736
0.800000 1.160000 4.840000 -16.385208 3.454181 280.406403
0.800000 1.160000 4.880000 -16.452545 -2.560815 277.244019
0.800000 1.160000 4.920000 -13.350701 -5.824903 212.170731
0.800000 1.160000 4.960000 -10.861238 -5.056086 143.530502
0.800000 1.160000 5.000000 -12.405319 -2.935458 162.508850
0.800000 1.160000 5.040000 -17.481701 -4.270823 323.849792
0.800000 1.160000 5.080000 -21.211338 -11.482000 581.757202
0.800000 1.160000 5.120000 -18.276178 -21.504488 796.461670
0.800000 1.160000 5.160000 -8.096765 -27.532820 823.613770
0.800000 1.160000 5.200000 3.715007 -24.731339 625.440369
0.800000 1.200000 4.800000 -13.719738 6.340472 228.432800
0.800000 1.200000 4.840000 -16.792381 -0.605021 282.350128
0.800000 1.200000 4.880000 -15.411989 -6.958314 285.947540
0.800000 1.200000 4.920000 -12.314345 -9.967439 250.992920
0.800000 1.200000 4.960000 -11.124743 -10.779439 239.956207
0.800000 1.200000 5.000000 -12.229441 -13.267130 325.575958
0.800000 1.200000 5.040000 -11.784731 -19.479107 518.315491
0.800000 1.200000 5.080000 -5.650397 -26.377895 727.720337
0.800000 1.200000 5.120000 5.484796 -27.889593 807.912415
0.800000 1.200000 5.160000 15.281515 -20.901194 670.384583
0.800000 1.200000 5.200000 16.888508 -9.283416 371.403503
0.840000 0.800000 4.800000 -24.156006 1.526319 585.842285
0.840000 0.800000 4.840000 -21.027353 -8.740618 518.547974
0.840000 0.800000 4.880000 -12.268541 -15.140167 379.741760
0.840000 0.800000 4.920000 -2.329185 -15.582325 248.233948
0.840000 0.800000 4.960000 5.408518 -11.961349 172.325943
0.840000 0.800000 5.000000 10.766750 -6.690256 160.682434
0.840000 0.800000 5.040000 14.571379 0.022285 212.325577
0.840000 0.800000 5.080000 15.699447 8.882957 325.379578
0.840000 0.800000 5.120000 11.690838 18.300407 471.580597
0.840000 0.800000 5.160000 2.365730 23.979698 580.622620
0.840000 0.800000 5.200000 -8.237796 22.589579 578.150330
0.840000 0.840000 4.800000 -18.275928 -15.423350 571.889282
0.840000 0.840000 4.840000 -5.115129 -19.306370 398.900452
0.840000 0.840000 4.880000 7.274203 -12.178838 201.238129
0.840000 0.840000 4.920000 10.268456 1.211400 106.908691
0.840000 0.840000 4.960000 3.018356 11.026570 130.695724
0.840000 0.840000 5.000000 -7.061473 11.379169 179.349899
0.840000 0.840000 5.040000 -11.677137 5.078976 162.151520
0.840000 0.840000 5.080000 -9.075140 -0.207148 82.401077
0.840000 0.840000 5.120000 -4.288719 0.254576 18.457920
0.840000 0.840000 5.160000 -3.037317 4.645531 30.806252
0.840000 0.840000 5.200000 -6.276084 7.897762 101.763885
0.840000 0.880000 4.800000 -0.541590 -23.180271 537.618286
0.840000 0.880000 4.840000 16.199066 -13.364613 441.022644
0.840000 0.880000 4.880000 19.951328 8.681828 473.429626
0.840000 0.880000 4.920000 4.087097 27.421995 768.670166
0.840000 0.880000 4.960000 -21.789921 27.401554 1225.645752
0.840000 0.880000 5.000000 -38.776268 7.391712 1558.236450
0.840000 0.880000 5.040000 -34.694023 -17.909981 1524.442749
0.840000 0.880000 5.080000 -14.120073 -30.423862 1124.987793
0.840000 0.880000 5.120000 6.547747 -23.537933 596.907288
0.840000 0.880000 5.160000 13.493646 -5.836298 216.140854
0.840000 0.880000 5.200000 5.644909 8.216145 99.370026
0.840000 0.920000 4.800000 17.696545 -14.552146 524.932617
0.840000 0.920000 4.840000 26.483919 9.200756 786.051880
0.840000 0.920000 4.880000 10.909362 36.100990 1422.295654
0.840000 0.920000 4.920000 -24.681740 42.800095 2441.036377
0.840000 0.920000 4.960000 -56.439583 18.168118 3515.507080
0.840000 0.920000 5.000000 -59.629463 -24.261814 4144.308594
0.840000 0.920000 5.040000 -30.115053 -55.530399 3990.541748
0.840000 0.920000 5.080000 11.383222 -54.777107 3130.109131
0.840000 0.920000 5.120000 36.481098 -25.797886 1996.401367
0.840000 0.920000 5.160000 31.816906 7.871392 1074.274292
0.840000 0.920000 5.200000 7.250233 23.455544 602.728394
0.840000 0.960000 4.800000 22.881981 5.277833 551.440552
0.840000 0.960000 4.840000 14.947861 33.554443 1349.339111
0.840000 0.960000 4.880000 -19.071247 48.911850 2756.081543
0.840000 0.960000 4.920000 -59.814541 30.581074 4512.981445
0.840000 0.960000 4.960000 -75.592590 -17.471050 6019.477539
0.840000 0.960000 5.000000 -49.306587 -64.997475 6655.811523
0.840000 0.960000 5.040000 4.512282 -78.445732 6174.093750
0.840000 0.960000 5.080000 49.678024 -48.813805 4850.693359
0.840000 0.960000 5.120000 57.370060 0.899535 3292.132812
0.840000 0.960000 5.160000 28.353664 35.319134 2051.371582
0.840000 0.960000 5.200000 -10.651913 35.107029 1345.966797
0.840000 1.000000 4.800000 10.986858 21.769791 594.634888
0.840000 1.000000 4.840000 -12.249825 41.018631 1832.586304
0.840000 1.000000 4.880000 -50.793640 34.395760 3763.062012
0.840000 1.000000 4.920000 -76.232513 -5.640178 5843.207520
0.840000 1.000000 4.960000 -62.613518 -58.037552 7288.810059
0.840000 1.000000 5.000000 -11.355229 -86.123032 7546.118164
0.840000 1.000000 5.040000 45.592567 -67.484863 6632.888672
0.840000 1.000000 5.080000 69.889229 -14.201966 5086.200195
0.840000 1.000000 5.120000 47.804970 35.965248 3578.814209
0.840000 1.000000 5.160000 0.418072 50.193329 2519.545166
0.840000 1.000000 5.200000 -35.519569 25.702431 1922.254639
0.840000 1.040000 4.800000 -8.497924 23.097130 605.692139
0.840000 1.040000 4.840000 -35.724083 25.561779 1929.614624
0.840000 1.040000 4.880000 -61.765118 1.071350 3816.077393
0.840000 1.040000 4.920000 -61.545555 -42.477623 5592.204102
0.840000 1.040000 4.960000 -25.259827 -76.576874 6502.076172
0.840000 1.040000 5.000000 28.425507 -73.523460 6213.708496
0.840000 1.040000 5.040000 63.760418 -31.195253 5038.534668
0.840000 1.040000 5.080000 56.382973 22.268044 3674.905273
0.840000 1.040000 5.120000 13.920324 50.079613 2701.742920
0.840000 1.040000 5.160000 -30.316711 36.384079 2242.904053
0.840000 1.040000 5.200000 -45.047813 -2.389152 2035.013550
0.840000 1.080000 4.800000 -20.880459 10.239650 540.843994
0.840000 1.080000 4.840000 -39.466724 -0.471164 1557.844360
0.840000 1.080000 4.880000 -45.847527 -27.642830 2866.121582
0.840000 1.080000 4.920000 -27.524742 -56.054241 3899.689453
0.840000 1.080000 4.960000 10.165316 -63.536533 4140.224609
0.840000 1.080000 5.000000 43.916225 -39.781452 3511.198730
0.840000 1.080000 5.040000 49.529625 2.011456 2457.229736
0.840000 1.080000 5.080000 22.555079 33.259895 1614.952148
0.840000 1.080000 5.120000 -16.533726 32.694054 1342.265137
0.840000 1.080000 5.160000 -38.573322 3.883937 1502.986206
0.840000 1.080000 5.200000 -29.466299 -28.293903 1668.807739
0.840000 1.120000 4.800000 -19.258244 -4.794605 393.868195
0.840000 1.120000 4.840000 -24.656050 -17.633987 918.878296
0.840000 1.120000 4.880000 -18.352692 -33.872334 1484.156250
0.840000 1.120000 4.920000 0.266495 -42.329632 1791.868774
0.840000 1.120000 4.960000 21.431511 -34.278347 1634.314819
0.840000 1.120000 5.000000 30.578707 -12.288937 1086.075317
0.840000 1.120000 5.040000 20.154415 9.323425 493.126709
0.840000 1.120000 5.080000 -2.619587 14.946789 230.268723
0.840000 1.120000 5.120000 -20.298204 0.828808 412.704010
0.840000 1.120000 5.160000 -19.278046 -21.021864 813.561768
0.840000 1.120000 5.200000 -1.278136 -32.571957 1062.566040
0.840000 1.160000 4.800000 -9.625537 -10.815648 209.629211
0.840000 1.160000 4.840000 -7.161303 -17.004192 340.426819
0.840000 1.160000 4.880000 -1.288502 -20.342567 415.480286
0.840000 1.160000 4.920000 5.149006 -19.119633 392.072632
0.840000 1.160000 4.960000 8.610746 -14.164684 274.783234
0.840000 1.160000 5.000000 7.122836 -9.003241 131.793137
0.840000 1.160000 5.040000 2.295227 -7.802920 66.153633
0.840000 1.160000 5.080000 -1.139290 -11.968930 144.553284
0.840000 1.160000 5.120000 1.148944 -18.211422 332.975952
0.840000 1.160000 5.160000 9.009646 -20.548954 503.433258
0.840000 1.160000 5.200000 17.023794 -15.313993 524.328003
0.840000 1.200000 4.800000 -3.429113 -7.582118 69.247330
0.840000 1.200000 4.840000 -1.439507 -6.864203 49.189468
0.840000 1.200000 4.880000 -3.226652 -5.581255 41.561691
0.840000 1.200000 4.920000 -7.363432 -8.228752 121.932503
0.840000 1.200000 4.960000 -8.765448 -15.941376 330.960510
0.840000 1.200000 5.000000 -3.267792 -24.706598 621.094482
0.840000 1.200000 5.040000 8.283745 -28.270317 867.831238
0.840000 1.200000 5.080000 20.155876 -23.219135 945.387573
0.840000 1.200000 5.120000 25.892578 -11.796629 809.586060
0.840000 1.200000 5.160000 22.951643 -0.272203 526.851990
0.840000 1.200000 5.200000 14.141409 5.527125 230.528564
0.880000 0.800000 4.800000 -29.284172 -16.164061 1118.839600
0.880000 0.800000 4.840000 -15.247581 -24.152138 815.814453
0.880000 0.800000 4.880000 -0.661009 -20.814516 433.681000
0.880000 0.800000 4.920000 6.134254 -11.003660 158.709610
0.880000 0.800000 4.960000 5.242058 -3.560296 40.154877
0.880000 0.800000 5.000000 3.751915 -1.777428 17.236115
0.880000 0.800000 5.040000 6.661874 -0.690636 44.857540
0.880000 0.800000 5.080000 10.726375 5.868137 149.490143
0.880000 0.800000 5.120000 8.400223 16.782618 352.220001
0.880000 0.800000 5.160000 -2.684652 23.769501 572.196472
0.880000 0.800000 5.200000 -15.723602 20.212585 655.780273
0.880000 0.840000 4.800000 -7.275272 -30.558367 986.743347
0.880000 0.840000 4.840000 16.867369 -20.681814 712.245544
0.880000 0.840000 4.880000 25.224979 6.758484 681.976685
0.880000 0.840000 4.920000 8.371323 31.365398 1053.867188
0.880000 0.840000 4.960000 -21.162979 33.185184 1549.128174
0.880000 0.840000 5.000000 -39.491993 11.773247 1698.226929
0.880000 0.840000 5.040000 -33.435101 -13.398815 1297.434204
0.880000 0.840000 5.080000 -11.921017 -21.661884 611.347900
0.880000 0.840000 5.120000 4.251545 -9.897667 116.039444
0.880000 0.840000 5.160000 2.852729 7.071074 58.138142
0.880000 0.840000 5.200000 -10.073489 13.119592 273.598877
0.880000 0.880000 4.800000 19.277708 -23.008286 901.011230
0.880000 0.880000 4.840000 36.974369 11.814997 1506.698120
0.880000 0.880000 4.880000 17.120720 54.946297 3312.214600
0.880000 0.880000 4.920000 -35.442520 69.036308 6022.184082
0.880000 0.880000 4.960000 -84.097961 35.712185 8347.827148
0.880000 0.880000 5.000000 -91.047020 -24.382019 8884.041992
0.880000 0.880000 5.040000 -51.403885 -67.754585 7233.042969
0.880000 0.880000 5.080000 2.605167 -65.899551 4349.538086
0.880000 0.880000 5.120000 31.216629 -28.493189 1786.339722
0.880000 0.880000 5.160000 21.165176 9.167130 532.000977
0.880000 0.880000 5.200000 -7.765560 19.859388 454.699219
0.880000 0.920000 4.800000 30.544910 2.950409 941.696472
0.880000 0.920000 4.840000 22.278072 53.218658 3328.538086
0.880000 0.920000 4.880000 -34.505810 84.969315 8410.435547
0.880000 0.920000 4.920000 -107.250069 58.351715 14907.500000
0.880000 0.920000 4.960000 -139.311737 -21.847717 19885.082031
0.880000 0.920000 5.000000 -99.951508 -103.317505 20664.810547
0.880000 0.920000 5.040000 -14.424393 -128.866943 16814.751953
0.880000 0.920000 5.080000 56.388359 -85.490654 10488.298828
0.880000 0.920000 5.120000 68.120804 -13.462515 4821.683105
0.880000 0.920000 5.160000 27.551420 31.836666 1772.654053
0.880000 0.920000 5.200000 -20.697672 27.168261 1166.508057
0.880000 0.960000 4.800000 16.956007 28.181940 1081.727905
0.880000 0.960000 4.840000 -23.498812 70.110725 5467.708008
0.880000 0.960000 4.880000 -99.708038 63.365654 13956.899414
0.880000 0.960000 4.920000 -154.731354 -11.442656 24072.724609
0.880000 0.960000 4.960000 -134.709106 -114.414169 31237.144531
0.880000 0.960000 5.000000 -40.846001 -173.437897 31749.099609
0.880000 0.960000 5.040000 65.586525 -145.406097 25444.525391
0.880000 0.960000 5.080000 113.362671 -54.314178 15801.125000
0.880000 0.960000 5.120000 80.573372 30.301954 7410.276855
0.880000 0.960000 5.160000 8.258134 53.689247 2950.731934
0.880000 0.960000 5.200000 -41.368275 17.906342 2031.971191
0.880000 1.000000 4.800000 -11.438206 32.983349 1218.733765
0.880000 1.000000 4.840000 -68.932465 44.976303 6774.552246
0.880000 1.000000 4.880000 -130.141830 -4.230099 16954.791016
0.880000 1.000000 4.920000 -135.583893 -100.507446 28484.738281
0.880000 1.000000 4.960000 -60.078079 -180.102234 36046.191406
0.880000 1.000000 5.000000 56.393917 -180.535431 35773.316406
0.880000 1.000000 5.040000 136.508240 -96.760406 27997.076172
0.880000 1.000000 5.080000 129.768448 11.526522 16972.710938
0.880000 1.000000 5.120000 53.881752 70.132477 7821.807617
0.880000 1.000000 5.160000 -24.538248 51.480766 3252.395020
0.880000 1.000000 5.200000 -49.602699 -9.091383 2543.081055
0.880000 1.040000 4.800000 -32.597141 13.853458 1254.491943
0.880000 1.040000 4.840000 -80.298950 -6.293106 6487.524414
0.880000 1.040000 4.880000 -101.188278 -73.288315 15610.244141
0.880000 1.040000 4.920000 -57.927528 -148.572906 25429.507812
0.880000 1.040000 4.960000 38.301910 -172.666275 31280.679688
0.880000 1.040000 5.000000 128.076736 -117.212082 30142.322266
0.880000 1.040000 5.040000 150.272461 -14.519316 22792.623047
0.880000 1.040000 5.080000 94.057938 66.133728 13220.565430
0.880000 1.040000 5.120000 7.706245 75.704208 5790.513184
0.880000 1.040000 5.160000 -44.006645 23.812252 2503.608154
0.880000 1.040000 5.200000 -33.608807 -35.540604 2392.686523
0.880000 1.080000 4.800000 -31.096306 -13.549757 1150.576172
0.880000 1.080000 4.840000 -50.906906 -46.871628 4788.462891
0.880000 1.080000 4.880000 -34.906376 -97.470505 10718.954102
0.880000 1.080000 4.920000 24.141163 -126.873505 16679.681641
0.880000 1.080000 4.960000 95.669197 -102.777847 19715.882812
0.880000 1.080000 5.000000 131.321198 -30.885151 18199.150391
0.880000 1.080000 5.040000 105.100731 44.431122 13020.289062
0.880000 1.080000 5.080000 37.117020 74.680420 6954.837891
0.880000 1.080000 5.120000 -22.371735 47.027420 2712.072754
0.880000 1.080000 5.160000 -34.856682 -6.973248 1263.614502
0.880000 1.080000 5.200000 -3.358184 -40.844021 1679.511353
0.880000 1.120000 4.800000 -10.784033 -28.445297 925.430298
0.880000 1.120000 4.840000 -6.340691 -50.810684 2621.929932
0.880000 1.120000 4.880000 19.423080 -68.262177 5036.980469
0.880000 1.120000 4.920000 57.428032 -62.121872 7157.105469
0.880000 1.120000 4.960000 84.277809 -27.507591 7859.416504
0.880000 1.120000 5.000000 79.744293 18.533806 6702.654297
0.880000 1.120000 5.040000 44.775967 47.796001 4289.344727
0.880000 1.120000 5.080000 2.916283 43.151871 1870.588745
0.880000 1.120000 5.120000 -17.917679 12.863918 486.523621
0.880000 1.120000 5.160000 -7.893050 -16.465752 333.421204
0.880000 1.120000 5.200000 17.955336 -22.362736 822.486023
0.880000 1.160000 4.800000 10.116437 -22.892319 626.400513
0.880000 1.160000 4.840000 19.493303 -24.239441 967.539307
0.880000 1.160000 4.880000 28.848997 -19.427212 1209.681152
0.880000 1.160000 4.920000 34.280243 -9.689816 1269.027588
0.880000 1.160000 4.960000 33.438374 1.627968 1120.775146
0.880000 1.160000 5.000000 26.512203 10.239128 807.736633
0.880000 1.160000 5.040000 16.660320 12.724517 439.479614
0.880000 1.160000 5.080000 8.950863 8.778172 157.174240
0.880000 1.160000 5.120000 7.335764 2.196056 58.636093
0.880000 1.160000 5.160000 11.362572 -1.183767 130.509338
0.880000 1.160000 5.200000 15.793051 1.969155 253.298035
0.880000 1.200000 4.800000 16.334513 -7.044699 316.444092
0.880000 1.200000 4.840000 14.225419 3.605045 215.358902
0.880000 1.200000 4.880000 2.629766 6.783848 52.936256
0.880000 1.200000 4.920000 -6.964767 -3.142879 58.385674
0.880000 1.200000 4.960000 -3.220177 -18.695021 359.873322
0.880000 1.200000 5.000000 13.450974 -25.647121 838.703552
0.880000 1.200000 5.040000 30.547005 -16.427650 1202.987183
0.880000 1.200000 5.080000 34.819485 2.774906 1220.096558
0.880000 1.200000 5.120000 23.985004 17.959509 897.824402
0.880000 1.200000 5.160000 7.601562 19.945301 455.598785
0.880000 1.200000 5.200000 -2.695223 11.143165 131.434341
0.920000 0.800000 4.800000 -17.599453 -35.379784 1561.469849
0.920000 0.800000 4.840000 2.995983 -32.566586 1069.558472
0.920000 0.800000 4.880000 14.264557 -17.116724 496.459839
0.920000 0.800000 4.920000 10.771515 -2.170275 120.735626
0.920000 0.800000 4.960000 0.978073 1.286873 2.612669
0.920000 0.800000 5.000000 -2.021975 -4.497581 24.316620
0.920000 0.800000 5.040000 5.301548 -7.225456 80.313629
0.920000 0.800000 5.080000 13.352539 1.353691 180.122772
0.920000 0.800000 5.120000 10.374378 15.960280 362.358276
0.920000 0.800000 5.160000 -4.170033 23.307667 560.636475
0.920000 0.800000 5.200000 -18.549000 16.544043 617.770752
0.920000 0.840000 4.800000 14.711208 -33.087650 1311.212280
0.920000 0.840000 4.840000 34.861115 -2.152578 1219.930908
0.920000 0.840000 4.880000 21.232727 37.514610 1858.174683
0.920000 0.840000 4.920000 -21.539413 52.351486 3204.624512
0.920000 0.840000 4.960000 -60.807442 27.014061 4427.304199
0.920000 0.840000 5.000000 -64.806572 -19.086678 4564.192871
0.920000 0.840000 5.040000 -32.254028 -48.690220 3411.060059
0.920000 0.840000 5.080000 7.180717 -40.910645 1725.243530
0.920000 0.840000 5.120000 21.685928 -8.732819 546.541626
0.920000 0.840000 5.160000 5.939012 16.576553 310.054016
0.920000 0.840000 5.200000 -18.298521 16.488827 606.717285
0.920000 0.880000 4.800000 34.387753 -5.573271 1213.578979
0.920000 0.880000 4.840000 28.647346 50.591049 3380.124756
0.920000 0.880000 4.880000 -30.891144 87.855385 8672.832031
0.920000 0.880000 4.920000 -108.685562 62.321434 15696.512695
0.920000 0.880000 4.960000 -143.307373 -20.398125 20953.087891
0.920000 0.880000 5.000000 -102.875488 -103.541092 21304.125000
0.920000 0.880000 5.040000 -16.254219 -127.305283 16470.833984
0.920000 0.880000 5.080000 51.914639 -81.262756 9298.765625
0.920000 0.880000 5.120000 58.443665 -10.507416 3526.067627
0.920000 0.880000 5.160000 15.611942 28.660610 1065.163330
0.920000 0.880000 5.200000 -28.298576 18.111832 1128.847900
0.920000 0.920000 4.800000 24.707523 27.791506 1382.829590
0.920000 0.920000 4.840000 -24.042034 83.305443 7517.816406
0.920000 0.920000 4.880000 -119.851624 78.165504 20474.257812
0.920000 0.920000 4.920000 -190.387115 -13.044071 36417.402344
0.920000 0.920000 4.960000 -167.657257 -139.938812 47691.828125
0.920000 0.920000 5.000000 -54.074638 -212.356171 48019.210938
0.920000 0.920000 5.040000 73.394379 -178.476089 37240.449219
0.920000 0.920000 5.080000 128.438522 -70.530830 21471.050781
0.920000 0.920000 5.120000 88.436020 26.073597 8500.761719
0.920000 0.920000 5.160000 6.551990 49.014122 2445.312744
0.920000 0.920000 5.200000 -44.155716 6.949353 1998.020752
0.920000 0.960000 4.800000 -8.405005 40.666653 1724.420654
0.920000 0.960000 4.840000 -90.170731 61.647095 11931.125000
0.920000 0.960000 4.880000 -179.856171 -6.014771 32384.419922
0.920000 0.960000 4.920000 -190.459473 -142.790848 56664.039062
0.920000 0.960000 4.960000 -85.406158 -256.696960 73187.539062
0.920000 0.960000 5.000000 77.499023 -258.784851 72975.703125
0.920000 0.960000 5.040000 188.742340 -143.716049 56277.976562
0.920000 0.960000 5.080000 179.924957 3.199858 32383.228516
0.920000 0.960000 5.120000 79.338577 80.564240 12785.207031
0.920000 0.960000 5.160000 -20.639675 55.658825 3523.900879
0.920000 0.960000 5.200000 -48.844128 -19.121853 2751.394043
0.920000 1.000000 4.800000 -39.431168 21.827963 2031.276978
0.920000 1.000000 4.840000 -119.282211 -6.912968 14276.035156
0.920000 1.000000 4.880000 -157.103699 -115.373543 37992.625000
0.920000 1.000000 4.920000 -89.058235 -239.690796 65383.046875
0.920000 1.000000 4.960000 66.653831 -280.868591 83329.898438
0.920000 1.000000 5.000000 212.028030 -192.900696 82166.562500
0.920000 1.000000 5.040000 248.634186 -29.823088 62708.375000
0.920000 1.000000 5.080000 161.910370 96.997040 35623.394531
0.920000 1.000000 5.120000 30.650425 112.990440 13706.288086
0.920000 1.000000 5.160000 -45.746475 37.838104 3524.462158
0.920000 1.000000 5.200000 -31.059555 -44.149506 2913.874756
0.920000 1.040000 4.800000 -43.944878 -14.656040 2145.951660
0.920000 1.040000 4.840000 -87.050697 -75.379227 13259.851562
0.920000 1.040000 4.880000 -60.761124 -174.186478 34032.843750
0.920000 1.040000 4.920000 51.580402 -233.775360 57311.457031
0.920000 1.040000 4.960000 189.763794 -189.328278 71855.492188
0.920000 1.040000 5.000000 259.007721 -52.426605 69833.546875
0.920000 1.040000 5.040000 210.464706 90.459076 52478.238281
0.920000 1.040000 5.080000 84.654785 148.300751 29159.546875
0.920000 1.040000 5.120000 -24.123817 100.572937 10696.875000
0.920000 1.040000 5.160000 -48.693386 7.838686 2432.490967
0.920000 1.040000 5.200000 0.523449 -48.290497 2332.246094
0.920000 1.080000 4.800000 -18.933540 -41.023697 2041.422607
0.920000 1.080000 4.840000 -17.473103 -96.238403 9567.139648
0.920000 1.080000 4.880000 41.789406 -145.340424 22870.191406
0.920000 1.080000 4.920000 137.631332 -134.879120 37134.757812
0.920000 1.080000 4.960000 207.291626 -49.239059 45394.300781
0.920000 1.080000 5.000000 196.673294 67.020393 43172.117188
0.920000 1.080000 5.040000 108.943062 140.806213 31694.980469
0.920000 1.080000 5.080000 4.703114 130.323288 17006.279297
0.920000 1.080000 5.120000 -48.253204 58.440063 5743.612793
0.920000 1.080000 5.160000 -29.695282 -10.634643 994.905396
0.920000 1.080000 5.200000 23.051331 -27.944908 1312.281738
0.920000 1.120000 4.800000 15.508725 -39.168720 1774.709106
0.920000 1.120000 4.840000 38.172180 -61.541279 5244.444336
0.920000 1.120000 4.880000 83.026558 -61.282059 10648.900391
0.920000 1.120000 4.920000 124.127579 -22.769836 15926.122070
0.920000 1.120000 4.960000 129.494873 41.443336 18486.472656
0.920000 1.120000 5.000000 88.306854 95.461380 16910.976562
0.920000 1.120000 5.040000 22.989075 106.940727 11964.816406
0.920000 1.120000 5.080000 -26.729385 73.328156 6091.478516
0.920000 1.120000 5.120000 -35.003418 23.689796 1786.445801
0.920000 1.120000 5.160000 -8.964121 -5.818953 114.215668
0.920000 1.120000 5.200000 20.547768 -0.832748 422.904236
0.920000 1.160000 4.800000 34.389328 -14.669558 1397.821777
0.920000 1.160000 4.840000 45.873302 -6.668438 2148.827881
0.920000 1.160000 4.880000 51.665268 8.364258 2739.260498
0.920000 1.160000 4.920000 48.546288 25.384514 3001.115479
0.920000 1.160000 4.960000 37.067581 38.928589 2889.440674
0.920000 1.160000 5.000000 20.548309 45.026875 2449.652344
0.920000 1.160000 5.040000 3.947739 42.128441 1790.390137
0.920000 1.160000 5.080000 -7.452982 31.912926 1073.981812
0.920000 1.160000 5.120000 -10.399092 19.439304 486.027679
0.920000 1.160000 5.160000 -6.215712 11.031170 160.321777
0.920000 1.160000 5.200000 -0.811302 9.971523 100.089485
0.920000 1.200000 4.800000 28.795853 10.508711 939.634094
0.920000 1.200000 4.840000 14.988701 24.246460 812.551941
0.920000 1.200000 4.880000 -5.228111 19.642555 413.163147
0.920000 1.200000 4.920000 -11.949299 -0.758934 143.361710
0.920000 1.200000 4.960000 2.943878 -17.478487 314.163910
0.920000 1.200000 5.000000 26.322487 -12.965134 860.968018
0.920000 1.200000 5.040000 35.888596 10.590248 1400.144653
0.920000 1.200000 5.080000 21.771418 32.966881 1560.809814
0.920000 1.200000 5.120000 -4.317368 35.441929 1274.770020
0.920000 1.200000 5.160000 -21.247742 18.031816 776.612915
0.920000 1.200000 5.200000 -18.742765 -2.567514 357.883392
0.960000 0.800000 4.800000 6.950888 -40.319862 1674.006104
0.960000 0.800000 4.840000 23.903896 -24.497822 1171.539551
0.960000 0.800000 4.880000 23.524208 -2.838802 561.447144
0.960000 0.800000 4.920000 8.992867 7.960602 144.242828
0.960000 0.800000 4.960000 -3.620728 2.122765 17.615797
0.960000 0.800000 5.000000 -1.551235 -9.328232 89.422241
0.960000 0.800000 5.040000 11.600014 -10.160488 237.795837
0.960000 0.800000 5.080000 19.928238 3.972473 412.915222
0.960000 0.800000 5.120000 12.161278 21.080654 592.290649
0.960000 0.800000 5.160000 -6.563486 25.620747 699.502014
0.960000 0.800000 5.200000 -20.445086 14.605544 631.323425
0.960000 0.840000 4.800000 32.687447 -16.979313 1356.766113
0.960000 0.840000 4.840000 32.121925 26.419565 1729.811523
0.960000 0.840000 4.880000 -8.342010 56.705173 3285.065918
0.960000 0.840000 4.920000 -62.286583 42.220314 5662.173340
0.960000 0.840000 4.960000 -85.692978 -11.816635 7482.919434
0.960000 0.840000 5.000000 -57.720310 -64.194511 7452.569336
0.960000 0.840000 5.040000 -1.296829 -74.252113 5515.058105
0.960000 0.840000 5.080000 37.892365 -38.634178 2928.431152
0.960000 0.840000 5.120000 33.311386 7.973095 1173.218628
0.960000 0.840000 5.160000 -1.125229 27.535542 759.472168
0.960000 0.840000 5.200000 -29.548866 12.864823 1038.639160
0.960000 0.880000 4.800000 30.362202 19.344303 1296.065308
0.960000 0.880000 4.840000 -11.849609 71.717140 5283.761230
0.960000 0.880000 4.880000 -97.003151 70.063141 14318.455078
0.960000 0.880000 4.920000 -160.057129 -8.149673 25684.703125
0.960000 0.880000 4.960000 -140.942352 -117.320114 33628.753906
0.960000 0.880000 5.000000 -43.406219 -177.674789 33452.429688
0.960000 0.880000 5.040000 63.451294 -145.643951 25238.226562
0.960000 0.880000 5.080000 105.222794 -52.532780 13831.529297
0.960000 0.880000 5.120000 66.129387 26.173725 5058.159668
0.960000 0.880000 5.160000 -4.054483 39.435497 1571.597290
0.960000 0.880000 5.200000 -42.698921 -0.026567 1823.198608
0.960000 0.920000 4.800000 -0.956341 40.361286 1629.947998
0.960000 0.920000 4.840000 -85.991493 64.708344 11581.707031
0.960000 0.920000 4.880000 -180.292770 -3.543961 32518.042969
0.960000 0.920000 4.920000 -192.746552 -143.919998 57864.203125
0.960000 0.920000 4.960000 -85.876724 -260.351410 75157.671875
0.960000 0.920000 5.000000 79.204369 -261.453949 74631.500000
0.960000 0.920000 5.040000 189.482819 -143.990845 56637.101562
0.960000 0.920000 5.080000 177.259460 2.605305 31427.703125
0.960000 0.920000 5.120000 75.159714 76.005341 11425.794922
0.960000 0.920000 5.160000 -21.651237 47.455170 2720.769287
0.960000 0.920000 5.200000 -44.696491 -26.002636 2673.913574
0.960000 0.960000 4.800000 -37.913582 27.657326 2202.367432
0.960000 0.960000 4.840000 -134.147614 -4.099728 18012.390625
0.960000 0.960000 4.880000 -181.240738 -132.047897 50284.851562
0.960000 0.960000 4.920000 -102.214096 -279.576477 88610.726562
0.960000 0.960000 4.960000 80.643814 -328.355804 114320.953125
0.960000 0.960000 5.000000 250.137360 -224.916214 113156.000000
0.960000 0.960000 5.040000 290.921082 -35.201488 85874.226562
0.960000 0.960000 5.080000 189.060501 109.424774 47717.656250
0.960000 0.960000 5.120000 39.340984 124.870186 17140.277344
0.960000 0.960000 5.160000 -44.093445 38.718323 3443.340332
0.960000 0.960000 5.200000 -24.917269 -50.075455 3128.421631
0.960000 1.000000 4.800000 -50.923195 -10.696678 2707.590820
0.960000 1.000000 4.840000 -113.130325 -91.690475 21205.613281
0.960000 1.000000 4.880000 -80.326340 -227.301270 58118.187500
0.960000 1.000000 4.920000 71.415039 -310.070557 101243.859375
0.960000 1.000000 4.960000 258.640991 -250.488220 129639.515625
0.960000 1.000000 5.000000 351.255341 -65.756271 127704.203125
0.960000 1.000000 5.040000 284.637451 124.927689 96625.406250
0.960000 1.000000 5.080000 116.760101 199.651672 53493.710938
0.960000 1.000000 5.120000 -24.864174 135.078857 18864.523438
0.960000 1.000000 5.160000 -54.474781 15.506657 3207.958008
0.960000 1.000000 5.200000 8.278724 -52.782257 2854.503906
0.960000 1.040000 4.800000 -28.719154 -45.816376 2923.930176
0.960000 1.040000 4.840000 -32.769119 -135.595444 19459.939453
0.960000 1.040000 4.880000 59.543095 -219.054901 51530.429688
0.960000 1.040000 4.920000 214.299286 -205.717438 88243.843750
0.960000 1.040000 4.960000 327.151764 -69.046997 111795.757812
0.960000 1.040000 5.000000 309.369659 116.775826 109346.179688
0.960000 1.040000 5.040000 168.327408 232.314026 82303.921875
0.960000 1.040000 5.080000 4.116714 212.752228 45280.460938
0.960000 1.040000 5.120000 -76.232147 98.997704 15611.884766
0.960000 1.040000 5.160000 -46.020863 -5.988956 2153.787354
0.960000 1.040000 5.200000 31.857529 -30.095573 1920.645752
0.960000 1.080000 4.800000 12.415224 -51.690556 2826.051270
0.960000 1.080000 4.840000 50.369572 -106.816925 13946.949219
0.960000 1.080000 4.880000 143.881287 -117.233063 34445.414062
0.960000 1.080000 4.920000 235.280579 -42.172714 57135.488281
0.960000 1.080000 4.960000 250.060760 92.375534 71063.625000
0.960000 1.080000 5.000000 162.992752 205.312454 68719.843750
0.960000 1.080000 5.040000 25.434921 225.205414 51364.410156
0.960000 1.080000 5.080000 -74.926468 149.964966 28103.464844
0.960000 1.080000 5.120000 -86.069077 45.895992 9514.328125
0.960000 1.080000 5.160000 -29.357288 -11.749966 999.912109
0.960000 1.080000 5.200000 28.672562 0.029760 822.116699
0.960000 1.120000 4.800000 42.883533 -25.965084 2513.183105
0.960000 1.120000 4.840000 81.135124 -33.374828 7696.787109
0.960000 1.120000 4.880000 126.995621 -2.111420 16132.345703
0.960000 1.120000 4.920000 142.872604 66.021416 24771.410156
0.960000 1.120000 4.960000 104.738472 136.336731 29557.851562
0.960000 1.120000 5.000000 25.872116 165.313873 27998.042969
0.960000 1.120000 5.040000 -49.927559 135.470764 20845.089844
0.960000 1.120000 5.080000 -81.772247 69.948242 11579.457031
0.960000 1.120000 5.120000 -62.731403 13.296837 4112.034668
0.960000 1.120000 5.160000 -21.630135 -4.223589 485.701447
0.960000 1.120000 5.200000 4.256386 12.653969 178.239746
0.960000 1.160000 4.800000 44.329388 10.199396 2069.122314
0.960000 1.160000 4.840000 50.838516 27.069153 3317.293701
0.960000 1.160000 4.880000 45.935303 47.876389 4402.200684
0.960000 1.160000 4.920000 29.611679 64.330215 5015.228027
0.960000 1.160000 4.960000 6.751221 70.861900 5066.987793
0.960000 1.160000 5.000000 -16.333672 66.003830 4623.293945
0.960000 1.160000 5.040000 -34.015381 51.464798 3805.671631
0.960000 1.160000 5.080000 -42.106529 31.442413 2761.585205
0.960000 1.160000 5.120000 -39.189873 12.298298 1687.094238
0.960000 1.160000 5.160000 -28.499947 0.518253 812.515564
0.960000 1.160000 5.200000 -17.436895 -1.409176 306.031097
0.960000 1.200000 4.800000 22.613884 31.745762 1519.181152
0.960000 1.200000 4.840000 -1.684858 38.003159 1447.078857
0.960000 1.200000 4.880000 -21.367622 20.677879 884.150024
0.960000 1.200000 4.920000 -17.068443 -4.865442 315.004272
0.960000 1.200000 4.960000 7.024628 -13.051758 219.693787
0.960000 1.200000 5.000000 25.701271 5.426178 689.998779
0.960000 1.200000 5.040000 17.767099 32.890480 1397.453491
0.960000 1.200000 5.080000 -12.143425 41.740173 1889.704834
0.960000 1.200000 5.120000 -37.949730 21.897350 1919.676025
0.960000 1.200000 5.160000 -38.088524 -9.777863 1546.342163
0.960000 1.200000 5.200000 -15.894041 -27.319983 999.002014
1.000000 0.800000 4.800000 27.804293 -24.856535 1390.926025
1.000000 0.800000 4.840000 32.608700 -2.812160 1071.235474
1.000000 0.800000 4.880000 19.777519 14.573509 603.537476
1.000000 0.800000 4.920000 0.926155 14.684525 216.493011
1.000000 0.800000 4.960000 -6.733681 0.982338 46.307446
1.000000 0.800000 5.000000 2.596939 -9.864349 104.049484
1.000000 0.800000 5.040000 17.420380 -4.548168 324.155457
1.000000 0.800000 5.080000 20.595619 13.571646 608.369141
1.000000 0.800000 5.120000 6.566351 28.150728 835.580444
1.000000 0.800000 5.160000 -13.581358 26.475189 885.388916
1.000000 0.800000 5.200000 -23.964575 11.586170 708.540161
1.000000 0.840000 4.800000 31.974522 7.785778 1082.988403
1.000000 0.840000 4.840000 7.142490 43.819309 1971.146973
1.000000 0.840000 4.880000 -45.016911 46.552658 4193.671875
1.000000 0.840000 4.920000 -84.053345 2.499542 7071.212402
1.000000 0.840000 4.960000 -73.754044 -59.644913 8997.174805
1.000000 0.840000 5.000000 -17.996002 -91.527145 8701.075195
1.000000 0.840000 5.040000 40.240341 -68.842072 6358.516113
1.000000 0.840000 5.080000 57.334335 -13.316925 3464.566650
1.000000 0.840000 5.120000 27.413666 28.733192 1577.105469
1.000000 0.840000 5.160000 -16.375475 29.227533 1122.404907
1.000000 0.840000 5.200000 -36.577427 0.123007 1337.923340
1.000000 0.880000 4.800000 7.311325 32.279594 1095.427612
1.000000 0.880000 4.840000 -58.037167 53.157066 6193.986328
1.000000 0.880000 4.880000 -131.033005 3.099159 17179.253906
1.000000 0.880000 4.920000 -141.844986 -101.977974 30519.507812
1.000000 0.880000 4.960000 -62.509445 -188.425507 39411.601562
1.000000 0.880000 5.000000 59.359039 -187.390198 38638.582031
1.000000 0.880000 5.040000 137.871124 -98.366013 28684.320312
1.000000 0.880000 5.080000 123.750404 9.268967 15400.076172
1.000000 0.880000 5.120000 44.707745 58.917675 5470.075195
1.000000 0.880000 5.160000 -26.101704 32.174065 1716.469360
1.000000 0.880000 5.200000 -39.139771 -24.767817 2145.366455
1.000000 0.920000 4.800000 -28.807991 27.088028 1563.661621
1.000000 0.920000 4.840000 -115.473434 0.101418 13334.125000
1.000000 0.920000 4.880000 -158.723099 -113.224182 38012.738281
1.000000 0.920000 4.920000 -89.472778 -244.124969 67602.375000
1.000000 0.920000 4.960000 71.737946 -286.758514 87376.781250
1.000000 0.920000 5.000000 219.667603 -194.455978 86066.984375
1.000000 0.920000 5.040000 252.408691 -27.697762 64477.312500
1.000000 0.920000 5.080000 160.112015 96.333771 34916.054688
1.000000 0.920000 5.120000 29.056763 105.303131 11933.044922
1.000000 0.920000 5.160000 -40.425285 27.198925 2373.985352
1.000000 0.920000 5.200000 -19.993126 -49.042976 2804.938721
1.000000 0.960000 4.800000 -47.444923 -6.408749 2292.092773
1.000000 0.960000 4.840000 -112.518196 -88.214157 20442.082031
1.000000 0.960000 4.880000 -80.437027 -227.006058 58001.867188
1.000000 0.960000 4.920000 73.775826 -311.865479 102702.953125
1.000000 0.960000 4.960000 263.796356 -250.881470 132530.031250
1.000000 0.960000 5.000000 356.045166 -62.984734 130735.242188
1.000000 0.960000 5.040000 286.054932 128.613373 98368.820312
1.000000 0.960000 5.080000 115.657928 200.446472 53555.546875
1.000000 0.960000 5.120000 -24.523029 132.166702 18069.416016
1.000000 0.960000 5.160000 -50.267334 12.325659 2678.726807
1.000000 0.960000 5.200000 13.972540 -52.437897 2944.964844
1.000000 1.000000 4.800000 -32.061596 -43.488335 2919.181152
1.000000 1.000000 4.840000 -39.973999 -149.118378 23834.210938
1.000000 1.000000 4.880000 66.803177 -249.126480 66526.671875
1.000000 1.000000 4.920000 248.446411 -234.891052 116899.421875
1.000000 1.000000 4.960000 380.418335 -74.837250 150318.718750
1.000000 1.000000 5.000000 357.880981 141.919891 148220.046875
1.000000 1.000000 5.040000 191.725159 273.915253 111788.093750
1.000000 1.000000 5.080000 1.876106 247.211700 61117.144531
1.000000 1.000000 5.120000 -87.232681 113.647598 20525.316406
1.000000 1.000000 5.160000 -48.978767 -5.155151 2425.495361
1.000000 1.000000 5.200000 39.465614 -28.971226 2396.866699
1.000000 1.040000 4.800000 7.404003 -55.919266 3181.783691
1.000000 1.040000 4.840000 55.315308 -136.661774 21736.222656
1.000000 1.040000 4.880000 184.972778 -156.633621 58749.023438
1.000000 1.040000 4.920000 314.300171 -55.118797 101822.671875
1.000000 1.040000 4.960000 335.845184 131.391556 130055.726562
1.000000 1.040000 5.000000 213.999359 286.658386 127968.757812
1.000000 1.040000 5.040000 23.537106 310.081238 96704.367188
1.000000 1.040000 5.080000 -111.175186 202.091431 53200.867188
1.000000 1.040000 5.120000 -120.472198 58.939419 17987.406250
1.000000 1.040000 5.160000 -39.623226 -15.675453 1815.719849
1.000000 1.040000 5.200000 37.096710 4.070934 1392.738403
1.000000 1.080000 4.800000 42.938377 -34.767738 3052.500000
1.000000 1.080000 4.840000 108.439613 -61.429642 15532.750000
1.000000 1.080000 4.880000 197.531723 -15.815212 39268.902344
1.000000 1.080000 4.920000 234.967499 104.649696 66161.281250
1.000000 1.080000 4.960000 169.857895 233.469788 83359.843750
1.000000 1.080000 5.000000 27.024467 284.471985 81654.632812
1.000000 1.080000 5.040000 -107.292519 224.613342 61962.835938
1.000000 1.080000 5.080000 -155.489868 102.227814 34627.625000
1.000000 1.080000 5.120000 -110.203125 4.100494 12161.542969
1.000000 1.080000 5.160000 -31.942543 -17.493597 1326.352051
1.000000 1.080000 5.200000 10.503279 19.733921 499.746521
1.000000 1.120000 4.800000 51.507908 3.799858 2667.503418
1.000000 1.120000 4.840000 90.541229 19.744183 8587.546875
1.000000 1.120000 4.880000 113.288261 75.536179 18539.945312
1.000000 1.120000 4.920000 86.855759 146.732574 29074.371094
1.000000 1.120000 4.960000 10.591293 187.863831 35404.996094
1.000000 1.120000 5.000000 -77.934471 168.238358 34377.925781
1.000000 1.120000 5.040000 -130.065567 98.039597 26528.812500
1.000000 1.120000 5.080000 -123.469917 20.755150 15675.596680
1.000000 1.120000 5.120000 -77.030128 -21.469055 6394.561035
1.000000 1.120000 5.160000 -31.529484 -18.639833 1341.551758
1.000000 1.120000 5.200000 -15.385132 5.757776 269.854279
1.000000 1.160000 4.800000 32.141121 33.661217 2166.129150
1.000000 1.160000 4.840000 29.011868 53.809090 3737.106689
1.000000 1.160000 4.880000 11.792824 71.431412 5241.517578
1.000000 1.160000 4.920000 -14.467026 77.663162 6240.861816
1.000000 1.160000 4.960000 -41.090248 69.892502 6573.370117
1.000000 1.160000 5.000000 -60.961037 50.891144 6306.156250
1.000000 1.160000 5.040000 -70.094826 25.646523 5571.028809
1.000000 1.160000 5.080000 -66.905167 -0.058640 4476.304688
1.000000 1.160000 5.120000 -52.638317 -19.668510 3157.642822
1.000000 1.160000 5.160000 -32.886467 -27.708279 1849.268311
1.000000 1.160000 5.200000 -16.484230 -23.862331 841.140747
1.000000 1.200000 4.800000 3.082649 40.045773 1613.166626
1.000000 1.200000 4.840000 -22.570255 33.561768 1635.808594
1.000000 1.200000 4.880000 -32.119671 8.019901 1095.992065
1.000000 1.200000 4.920000 -16.145195 -12.517227 417.348297
1.000000 1.200000 4.960000 7.801151 -7.520775 117.420013
1.000000 1.200000 5.000000 12.270253 17.085320 442.467255
1.000000 1.200000 5.040000 -10.979614 33.421722 1237.563354
1.000000 1.200000 5.080000 -41.009293 20.096050 2085.613281
1.000000 1.200000 5.120000 -48.322899 -15.161301 2564.967529
1.000000 1.200000 5.160000 -24.757168 -42.907406 2453.962891
1.000000 1.200000 5.200000 8.802668 -41.661438 1813.162354
1.040000 0.800000 4.800000 29.727333 0.496861 883.961243
1.040000 0.800000 4.840000 22.355921 17.888262 819.777100
1.040000 0.800000 4.880000 4.573517 23.889072 591.604858
1.040000 0.800000 4.920000 -9.676991 14.381546 300.473022
1.040000 0.800000 4.960000 -9.060944 -0.633263 82.501724
1.040000 0.800000 5.000000 3.845695 -5.985113 50.610954
1.040000 0.800000 5.040000 14.714157 4.077408 233.131683
1.040000 0.800000 5.080000 11.258595 20.383778 542.254333
1.040000 0.800000 5.120000 -5.156410 27.932081 806.789734
1.040000 0.800000 5.160000 -21.498608 20.235128 871.650513
1.040000 0.800000 5.200000 -26.081638 4.518032 700.664429
1.040000 0.840000 4.800000 12.523923 22.422348 659.610352
1.040000 0.840000 4.840000 -22.689011 35.927910 1805.605957
1.040000 0.840000 4.880000 -62.520519 12.034355 4053.641113
1.040000 0.840000 4.920000 -70.307449 -40.854088 6612.193848
1.040000 0.840000 4.960000 -31.732346 -84.152359 8088.561523
1.040000 0.840000 5.000000 27.853493 -82.431923 7570.838867
1.040000 0.840000 5.040000 63.800549 -36.578529 5408.499023
1.040000 0.840000 5.080000 51.756229 16.366631 2946.573975
1.040000 0.840000 5.120000 8.016085 36.973850 1431.323120
1.040000 0.840000 5.160000 -28.310413 17.541193 1109.172974
1.040000 0.840000 5.200000 -32.175972 -15.814907 1285.404541
1.040000 0.880000 4.800000 -17.336338 21.579262 766.213135
1.040000 0.880000 4.840000 -74.757217 4.715492 5610.877441
1.040000 0.880000 4.880000 -104.204620 -68.831100 15596.322266
1.040000 0.880000 4.920000 -60.173332 -154.091034 27364.876953
1.040000 0.880000 4.960000 43.736679 -181.587036 34886.750000
1.040000 0.880000 5.000000 138.173172 -121.129219 33764.113281
1.040000 0.880000 5.040000 156.592712 -13.288101 24697.851562
1.040000 0.880000 5.080000 93.814499 64.620087 12976.916016
1.040000 0.880000 5.120000 7.887537 66.058334 4425.916992
1.040000 0.880000 5.160000 -35.159248 11.348196 1364.954346
1.040000 0.880000 5.200000 -18.248755 -39.702118 1909.275146
1.040000 0.920000 4.800000 -35.685104 -4.507835 1293.747192
1.040000 0.920000 4.840000 -85.692780 -66.763412 11800.605469
1.040000 0.920000 4.880000 -61.494812 -173.130981 33755.949219
1.040000 0.920000 4.920000 56.578621 -238.129700 59906.894531
1.040000 0.920000 4.960000 201.769592 -190.804657 77117.390625
1.040000 0.920000 5.000000 270.837524 -46.375366 75503.632812
1.040000 0.920000 5.040000 214.809753 99.252419 55994.273438
1.040000 0.920000 5.080000 82.985420 151.046722 29701.693359
1.040000 0.920000 5.120000 -22.954830 95.100533 9571.035156
1.040000 0.920000 5.160000 -39.149136 1.772700 1535.797241
1.040000 0.920000 5.200000 13.003753 -46.457436 2327.390869
1.040000 0.960000 4.800000 -25.697754 -36.946220 2025.397705
1.040000 0.960000 4.840000 -33.228363 -129.317780 17827.212891
1.040000 0.960000 4.880000 60.511799 -217.553513 50991.210938
1.040000 0.960000 4.920000 220.682663 -204.766876 90630.312500
1.040000 0.960000 4.960000 336.325745 -62.858345 117066.179688
1.040000 0.960000 5.000000 314.411987 128.185074 115286.312500
1.040000 0.960000 5.040000 166.015839 242.251862 86247.218750
1.040000 0.960000 5.080000 -0.806503 215.037994 46241.992188
1.040000 0.960000 5.120000 -75.968803 95.118416 14818.771484
1.040000 0.960000 5.160000 -38.582790 -8.366081 1558.623047
1.040000 0.960000 5.200000 40.133705 -26.128368 2293.405762
1.040000 1.000000 4.800000 7.278973 -50.503624 2603.599365
1.040000 1.000000 4.840000 53.895874 -132.975525 20587.255859
1.040000 1.000000 4.880000 185.108459 -154.691666 58194.652344
1.040000 1.000000 4.920000 316.834412 -51.976364 103085.585938
1.040000 1.000000 4.960000 337.969727 137.748703 133198.250000
1.040000 1.000000 5.000000 212.324799 294.212830 131643.000000
1.040000 1.000000 5.040000 18.383968 314.438324 99209.429688
1.040000 1.000000 5.080000 -115.471054 201.291595 53851.867188
1.040000 1.000000 5.120000 -119.974159 55.917305 17520.542969
1.040000 1.000000 5.160000 -35.072968 -16.100735 1489.346680
1.040000 1.000000 5.200000 41.160728 7.590336 1751.818726
1.040000 1.040000 4.800000 40.002293 -34.407578 2784.064941
1.040000 1.040000 4.840000 116.549767 -71.174667 18649.681641
1.040000 1.040000 4.880000 225.559082 -20.447262 51294.988281
1.040000 1.040000 4.920000 273.337250 123.516739 89969.632812
1.040000 1.040000 4.960000 195.473236 278.757721 115915.656250
1.040000 1.040000 5.000000 22.869717 338.111206 114842.210938
1.040000 1.040000 5.040000 -136.812805 261.864929 87290.984375
1.040000 1.040000 5.080000 -188.734314 112.390564 48252.281250
1.040000 1.040000 5.120000 -127.753387 -2.439133 16326.876953
1.040000 1.040000 5.160000 -31.936794 -21.733112 1492.286987
1.040000 1.040000 5.200000 15.321846 27.158642 972.350769
1.040000 1.080000 4.800000 50.636169 -0.215998 2564.068359
1.040000 1.080000 4.840000 114.462624 12.565838 13259.592773
1.040000 1.080000 4.880000 159.877380 93.641998 34329.601562
1.040000 1.080000 4.920000 127.005180 206.547623 58792.238281
1.040000 1.080000 4.960000 10.307152 273.800110 75072.734375
1.040000 1.080000 5.000000 -127.288979 241.478760 74514.476562
1.040000 1.080000 5.040000 -202.804016 127.711319 57439.648438
1.040000 1.080000 5.080000 -181.105148 8.364334 32869.035156
1.040000 1.080000 5.120000 -99.711731 -47.001148 12151.537109
1.040000 1.080000 5.160000 -29.866785 -28.841415 1723.852051
1.040000 1.080000 5.200000 -13.975315 16.126709 455.380188
1.040000 1.120000 4.800000 35.345581 29.376070 2112.263672
1.040000 1.120000 4.840000 58.384502 62.271236 7286.457031
1.040000 1.120000 4.880000 47.373829 118.619881 16314.955078
1.040000 1.120000 4.920000 -10.853378 161.497437 26199.216797
1.040000 1.120000 4.960000 -92.921021 154.752579 32582.677734
1.040000 1.120000 5.000000 -153.583557 93.902603 32405.607422
1.040000 1.120000 5.040000 -160.363251 11.641182 25851.890625
1.040000 1.120000 5.080000 -117.839394 -47.509960 16143.319336
1.040000 1.120000 5.120000 -60.869537 -60.732487 7393.535645
1.040000 1.120000 5.160000 -24.721518 -39.782997 2193.840332
1.040000 1.120000 5.200000 -19.610134 -14.847502 605.005676
1.040000 1.160000 4.800000 8.153605 39.306705 1611.498413
1.040000 1.160000 4.840000 -3.852749 55.593754 3105.509277
1.040000 1.160000 4.880000 -27.661133 62.597023 4683.525391
1.040000 1.160000 4.920000 -53.878296 54.584198 5882.305664
1.040000 1.160000 4.960000 -73.104691 33.861694 6490.910156
1.040000 1.160000 5.000000 -80.603264 6.773849 6542.771484
1.040000 1.160000 5.040000 -75.641472 -20.497147 6141.765137
1.040000 1.160000 5.080000 -59.369057 -42.493034 5330.342773
1.040000 1.160000 5.120000 -35.326553 -53.754868 4137.550781
1.040000 1.160000 5.160000 -10.978947 -50.981209 2719.621094
1.040000 1.160000 5.200000 4.468145 -37.198952 1403.726318
1.040000 1.200000 4.800000 -13.526267 31.381758 1167.774658
1.040000 1.200000 4.840000 -31.450871 16.023621 1245.913574
1.040000 1.200000 4.880000 -28.747795 -7.679653 885.412781
1.040000 1.200000 4.920000 -8.693153 -16.549400 349.453583
1.040000 1.200000 4.960000 5.576569 -2.845261 39.193626
1.040000 1.200000 5.000000 -4.021591 15.457581 255.109985
1.040000 1.200000 5.040000 -29.339828 12.845749 1025.838867
1.040000 1.200000 5.080000 -42.652107 -15.668612 2064.707764
1.040000 1.200000 5.120000 -25.410568 -47.268929 2880.048584
1.040000 1.200000 5.160000 11.486160 -53.762383 3022.325684
1.040000 1.200000 5.200000 38.028252 -30.393930 2369.938965
1.080000 0.800000 4.800000 12.487465 16.967390 443.829102
1.080000 0.800000 4.840000 1.157206 23.273369 542.988831
1.080000 0.800000 4.880000 -11.969500 19.310349 516.158447
1.080000 0.800000 4.920000 -17.419914 7.201275 355.311768
1.080000 0.800000 4.960000 -11.498154 -3.415997 143.876572
1.080000 0.800000 5.000000 -0.368622 -3.834892 14.842281
1.080000 0.800000 5.040000 5.186382 5.621689 58.501945
1.080000 0.800000 5.080000 -0.476335 15.844135 251.263519
1.080000 0.800000 5.120000 -12.983248 17.294188 467.653656
1.080000 0.800000 5.160000 -22.358503 8.372828 570.006958
1.080000 0.800000 5.200000 -22.106197 -3.961957 504.381073
1.080000 0.840000 4.800000 -9.812298 16.001797 352.338684
1.080000 0.840000 4.840000 -35.466602 8.972042 1338.377441
1.080000 0.840000 4.880000 -49.648598 -22.452408 2969.093750
1.080000 0.840000 4.920000 -32.552979 -59.569248 4608.191895
1.080000 0.840000 4.960000 10.592659 -72.537766 5373.932129
1.080000 0.840000 5.000000 50.212616 -47.887012 4814.472656
1.080000 0.840000 5.040000 57.324009 -2.743240 3293.567383
1.080000 0.840000 5.080000 29.300787 29.291267 1716.514404
1.080000 0.840000 5.120000 -8.553131 27.517639 830.376526
1.080000 0.840000 5.160000 -26.762333 0.651917 716.647461
1.080000 0.840000 5.200000 -17.144617 -24.431118 890.817383
1.080000 0.880000 4.800000 -23.298454 -4.499348 563.062134
1.080000 0.880000 4.840000 -49.687332 -38.277416 3933.991699
1.080000 0.880000 4.880000 -36.515686 -96.117538 10571.976562
1.080000 0.880000 4.920000 27.763771 -131.875931 18162.087891
1.080000 0.880000 4.960000 107.190239 -106.285385 22786.330078
1.080000 0.880000 5.000000 144.865875 -27.167976 21724.220703
1.080000 0.880000 5.040000 113.302307 52.538345 15597.691406
1.080000 0.880000 5.080000 39.746845 79.726479 7936.123047
1.080000 0.880000 5.120000 -18.727201 46.422859 2505.789795
1.080000 0.880000 5.160000 -25.873579 -7.619513 727.499023
1.080000 0.880000 5.200000 6.217693 -35.229073 1279.747192
1.080000 0.920000 4.800000 -14.276039 -29.651382 1083.009766
1.080000 0.920000 4.840000 -17.844074 -87.478073 7970.824219
1.080000 0.920000 4.880000 42.802353 -143.151031 22324.259766
1.080000 0.920000 4.920000 146.205032 -134.033661 39340.933594
1.080000 0.920000 4.960000 220.630981 -41.323017 50385.625000
1.080000 0.920000 5.000000 205.239014 83.040489 49018.773438
1.080000 0.920000 5.040000 107.289696 156.347855 35955.730469
1.080000 0.920000 5.080000 -1.829620 136.424606 18615.021484
1.080000 0.920000 5.120000 -49.343609 55.911327 5560.868164
1.080000 0.920000 5.160000 -21.962132 -12.322165 634.170959
1.080000 0.920000 5.200000 32.041496 -22.349081 1526.138916
1.080000 0.960000 4.800000 12.762424 -38.921494 1677.762207
1.080000 0.960000 4.840000 47.092037 -97.724335 11767.706055
1.080000 0.960000 4.880000 143.913391 -112.493568 33365.867188
1.080000 0.960000 4.920000 241.200287 -34.876442 59393.945312
1.080000 0.960000 4.960000 255.433456 107.534988 76810.023438
1.080000 0.960000 5.000000 159.339294 224.001068 75565.492188
1.080000 0.960000 5.040000 12.827152 236.788330 56233.250000
1.080000 0.960000 5.080000 -86.420975 149.042389 29682.218750
1.080000 0.960000 5.120000 -86.586601 38.805077 9003.074219
1.080000 0.960000 5.160000 -19.852011 -13.546329 577.605347
1.080000 0.960000 5.200000 37.855232 7.363113 1487.234009
1.080000 1.000000 4.800000 38.326744 -23.934093 2041.780151
1.080000 1.000000 4.840000 101.812744 -54.744621 13362.808594
1.080000 1.000000 4.880000 194.291885 -11.412092 37879.570312
1.080000 1.000000 4.920000 234.515564 112.505257 67654.984375
1.080000 1.000000 4.960000 165.790634 245.928711 87967.468750
1.080000 1.000000 5.000000 15.309734 295.026093 87274.789062
1.080000 1.000000 5.040000 -121.957733 225.725235 65825.570312
1.080000 1.000000 5.080000 -163.246613 94.372498 35555.625000
1.080000 1.000000 5.120000 -106.214737 -3.517590 11293.943359
1.080000 1.000000 5.160000 -21.758316 -16.078108 731.929871
1.080000 1.000000 5.200000 16.943684 29.424452 1152.886719
1.080000 1.040000 4.800000 44.635582 4.716915 2014.584473
1.080000 1.040000 4.840000 108.279495 14.371508 11930.989258
1.080000 1.040000 4.880000 155.996979 94.696594 33302.500000
1.080000 1.040000 4.920000 123.772263 209.657043 59275.648438
1.080000 1.040000 4.960000 4.326702 277.913513 77254.640625
1.080000 1.040000 5.000000 -136.149658 242.346497 77268.554688
1.080000 1.040000 5.040000 -210.014435 123.031227 59242.746094
1.080000 1.040000 5.080000 -181.835403 1.376688 33066.007812
1.080000 1.040000 5.120000 -94.260818 -50.015820 11386.683594
1.080000 1.040000 5.160000 -23.860313 -24.828848 1185.786255
1.080000 1.040000 5.200000 -12.678524 23.912018 732.529541
1.080000 1.080000 4.800000 29.917885 27.716236 1663.269531
1.080000 1.080000 4.840000 65.669273 63.585144 8355.524414
1.080000 1.080000 4.880000 59.602333 136.844604 22278.882812
1.080000 1.080000 4.920000 -12.309105 197.122452 39008.777344
1.080000 1.080000 4.960000 -120.020058 190.559494 50717.734375
1.080000 1.080000 5.000000 -198.472382 108.751358 51218.140625
1.080000 1.080000 5.040000 -200.726242 -0.524338 40291.296875
1.080000 1.080000 5.080000 -136.170990 -72.389557 23782.787109
1.080000 1.080000 5.120000 -58.774548 -77.302521 9430.126953
1.080000 1.080000 5.160000 -18.629940 -38.919476 1861.800293
1.080000 1.080000 5.200000 -23.478317 -4.596545 572.359619
1.080000 1.120000 4.800000 7.266079 33.739250 1191.132935
1.080000 1.120000 4.840000 8.701141 66.473846 4494.482422
1.080000 1.120000 4.880000 -23.985588 100.159851 10607.304688
1.080000 1.120000 4.920000 -83.072075 103.528511 17619.121094
1.080000 1.120000 4.960000 -136.530655 62.497887 22546.605469
1.080000 1.120000 5.000000 -151.935059 -6.053268 23120.904297
1.080000 1.120000 5.040000 -121.672150 -66.312210 19201.421875
1.080000 1.120000 5.080000 -67.420441 -90.685905 12769.449219
1.080000 1.120000 5.120000 -21.306919 -78.276970 6581.269043
1.080000 1.120000 5.160000 -1.703968 -50.343113 2537.332520
1.080000 1.120000 5.200000 -4.150265 -29.895544 910.968201
1.080000 1.160000 4.800000 -9.254649 26.486477 787.182007
1.080000 1.160000 4.840000 -24.773855 34.666466 1815.507690
1.080000 1.160000 4.880000 -45.896732 30.365925 3028.599365
1.080000 1.160000 4.920000 -62.517906 13.203751 4082.827637
1.080000 1.160000 4.960000 -68.376762 -10.845299 4793.002441
1.080000 1.160000 5.000000 -62.644150 -35.086365 5155.342773
1.080000 1.160000 5.040000 -46.939819 -54.793938 5205.722168
1.080000 1.160000 5.080000 -23.617340 -65.858398 4895.107422
1.080000 1.160000 5.120000 2.441511 -64.224236 4130.713379
1.080000 1.160000 5.160000 22.730232 -49.368950 2953.956543
1.080000 1.160000 5.200000 29.354925 -28.087187 1650.601685
1.080000 1.200000 4.800000 -16.376184 16.818489 551.041016
1.080000 1.200000 4.840000 -24.484928 0.967897 600.448547
1.080000 1.200000 4.880000 -15.670378 -13.804665 436.129517
1.080000 1.200000 4.920000 -0.896601 -12.809792 164.894653
1.080000 1.200000 4.960000 1.316128 -0.228867 1.784572
1.080000 1.200000 5.000000 -12.985336 4.258125 186.750595
1.080000 1.200000 5.040000 -26.357590 -12.183567 843.161865
1.080000 1.200000 5.080000 -17.826523 -38.832680 1825.761963
1.080000 1.200000 5.120000 13.142929 -50.254105 2698.211670
1.080000 1.200000 5.160000 43.398018 -32.652256 2949.557617
1.080000 1.200000 5.200000 48.607494 0.496519 2362.935059
1.120000 0.800000 4.800000 -8.997713 13.721022 269.225281
1.120000 0.800000 4.840000 -14.967876 11.488003 356.011536
1.120000 0.800000 4.880000 -19.309187 5.253305 400.441925
1.120000 0.800000 4.920000 -18.751934 -2.984701 360.543488
1.120000 0.800000 4.960000 -12.807533 -8.753131 240.650208
1.120000 0.800000 5.000000 -5.032055 -8.541267 98.274826
1.120000 0.800000 5.040000 -0.724360 -3.023392 9.665596
1.120000 0.800000 5.080000 -2.689521 3.032494 16.429539
1.120000 0.800000 5.120000 -8.786257 4.411393 96.658699
1.120000 0.800000 5.160000 -13.515061 -0.267003 182.728180
1.120000 0.800000 5.200000 -12.545223 -7.400806 212.154556
1.120000 0.840000 4.800000 -17.194752 -4.544467 316.311676
1.120000 0.840000 4.840000 -23.929440 -15.869005 824.443420
1.120000 0.840000 4.880000 -19.531155 -34.468037 1569.511475
1.120000 0.840000 4.920000 0.774639 -47.245270 2232.715576
1.120000 0.840000 4.960000 27.351410 -41.173092 2443.323242
1.120000 0.840000 5.000000 42.204056 -16.712715 2060.497314
1.120000 0.840000 5.040000 34.545254 10.308926 1299.648438
1.120000 0.840000 5.080000 11.012857 21.450012 581.386047
1.120000 0.840000 5.120000 -9.756044 11.389661 224.904785
1.120000 0.840000 5.160000 -13.314226 -8.190848 244.358612
1.120000 0.840000 5.200000 -1.063853 -20.027451 402.230560
1.120000 0.880000 4.800000 -6.058462 -24.174316 621.102539
1.120000 0.880000 4.840000 -4.762197 -45.841339 2124.106934
1.120000 0.880000 4.880000 20.940918 -67.142776 4946.674316
1.120000 0.880000 4.920000 64.231590 -62.859459 8077.008789
1.120000 0.880000 4.960000 96.421577 -23.744053 9860.900391
1.120000 0.880000 5.000000 91.084915 29.933315 9192.464844
1.120000 0.880000 5.040000 49.459991 62.910515 6404.023438
1.120000 0.880000 5.080000 1.412212 55.303070 3060.423828
1.120000 0.880000 5.120000 -20.252840 19.651930 796.375854
1.120000 0.880000 5.160000 -7.606564 -11.781286 196.658508
1.120000 0.880000 5.200000 18.713755 -16.560671 624.460449
1.120000 0.920000 4.800000 18.523785 -27.671627 1108.849487
1.120000 0.920000 4.840000 36.320854 -51.902321 4013.055176
1.120000 0.920000 4.880000 83.201492 -56.145767 10074.835938
1.120000 0.920000 4.920000 130.434799 -15.855118 17264.621094
1.120000 0.920000 4.960000 136.533630 56.701180 21856.455078
1.120000 0.920000 5.000000 86.696579 116.336990 21050.591797
1.120000 0.920000 5.040000 10.647343 122.760994 15183.627930
1.120000 0.920000 5.080000 -41.011303 76.636169 7555.029297
1.120000 0.920000 5.120000 -40.354774 18.445782 1968.754639
1.120000 0.920000 5.160000 -3.782642 -8.747556 90.828110
1.120000 0.920000 5.200000 27.843916 4.043529 791.633728
1.120000 0.960000 4.800000 37.887764 -9.828707 1532.086182
1.120000 0.960000 4.840000 71.672577 -22.906816 5661.680664
1.120000 0.960000 4.880000 121.692429 4.195289 14826.647461
1.120000 0.960000 4.920000 142.105042 76.691978 26075.503906
1.120000 0.960000 4.960000 99.433846 154.215454 33669.496094
1.120000 0.960000 5.000000 9.080151 181.600342 33061.132812
1.120000 0.960000 5.040000 -72.578621 138.395203 24420.888672
1.120000 0.960000 5.080000 -95.795486 58.557800 12605.791016
1.120000 0.960000 5.120000 -59.468750 0.185289 3536.566650
1.120000 0.960000 5.160000 -7.489736 -5.292725 84.109070
1.120000 0.960000 5.200000 14.920265 24.508667 823.289062
1.120000 1.000000 4.800000 36.971760 16.680422 1645.147461
1.120000 1.000000 4.840000 74.781387 24.374939 6186.393555
1.120000 1.000000 4.880000 103.259254 77.551186 16676.660156
1.120000 1.000000 4.920000 78.995743 153.615860 29838.160156
1.120000 1.000000 4.960000 -3.781085 197.657730 39082.875000
1.120000 1.000000 5.000000 -99.854538 170.404938 39008.773438
1.120000 1.000000 5.040000 -148.583282 86.143013 29497.611328
1.120000 1.000000 5.080000 -125.992920 2.193169 15879.025391
1.120000 1.000000 5.120000 -63.343742 -30.877388 4965.842773
1.120000 1.000000 5.160000 -15.259832 -10.260147 338.133118
1.120000 1.000000 5.200000 -10.357613 24.741705 719.432129
1.120000 1.040000 4.800000 17.828354 32.663441 1384.750610
1.120000 1.040000 4.840000 43.637684 58.308762 5304.159180
1.120000 1.040000 4.880000 38.334751 114.363449 14548.550781
1.120000 1.040000 4.920000 -19.414909 161.052277 26314.775391
1.120000 1.040000 4.960000 -106.107193 153.706482 34884.417969
1.120000 1.040000 5.000000 -167.929230 85.037743 35431.644531
1.120000 1.040000 5.040000 -166.025421 -4.619030 27585.777344
1.120000 1.040000 5.080000 -109.676552 -60.709732 15714.618164
1.120000 1.040000 5.120000 -45.798546 -59.966118 5693.442383
1.120000 1.040000 5.160000 -16.170216 -25.094069 891.188110
1.120000 1.040000 5.200000 -24.358126 2.482692 599.482056
1.120000 1.080000 4.800000 -3.308180 29.874556 903.433105
1.120000 1.080000 4.840000 1.953949 59.404617 3532.726318
1.120000 1.080000 4.880000 -27.268496 94.358292 9647.058594
1.120000 1.080000 4.920000 -86.563171 99.833664 17459.943359
1.120000 1.080000 4.960000 -141.601379 57.635426 23372.792969
1.120000 1.080000 5.000000 -155.172455 -14.412125 24286.199219
1.120000 1.080000 5.040000 -118.784081 -75.191376 19763.402344
1.120000 1.080000 5.080000 -59.155472 -93.780563 12294.164062
1.120000 1.080000 5.120000 -14.203579 -72.576958 5469.156250
1.120000 1.080000 5.160000 -2.166969 -39.960548 1601.541260
1.120000 1.080000 5.200000 -12.062973 -22.387978 646.736816
1.120000 1.120000 4.800000 -12.386462 17.049068 444.095215
1.120000 1.120000 4.840000 -22.890383 35.251144 1766.612793
1.120000 1.120000 4.880000 -52.669918 41.904560 4530.112305
1.120000 1.120000 4.920000 -86.354996 22.603790 7968.116211
1.120000 1.120000 4.960000 -101.656143 -19.152035 10700.772461
1.120000 1.120000 5.000000 -86.801613 -63.339840 11546.455078
1.120000 1.120000 5.040000 -49.297947 -88.313301 10229.527344
1.120000 1.120000 5.080000 -9.148537 -85.979950 7476.247559
1.120000 1.120000 5.120000 16.301504 -64.956627 4485.102539
1.120000 1.120000 5.160000 22.691809 -41.174568 2210.263184
1.120000 1.120000 5.200000 17.312443 -25.809080 965.829346
1.120000 1.160000 4.800000 -10.378469 8.800449 185.160538
1.120000 1.160000 4.840000 -23.062700 9.632205 624.667480
1.120000 1.160000 4.880000 -35.145294 0.301712 1235.282715
1.120000 1.160000 4.920000 -40.198563 -15.710213 1862.735229
1.120000 1.160000 4.960000 -36.591877 -32.908928 2421.962891
1.120000 1.160000 5.000000 -25.448353 -47.558197 2909.400635
1.120000 1.160000 5.040000 -7.851879 -56.928566 3302.513672
1.120000 1.160000 5.080000 14.077934 -57.180389 3467.785156
1.120000 1.160000 5.120000 34.253708 -45.181564 3214.690430
1.120000 1.160000 5.160000 43.812981 -23.609928 2477.005859
1.120000 1.160000 5.200000 38.080730 -2.632227 1457.070679
1.120000 1.200000 4.800000 -9.553839 9.533775 182.168701
1.120000 1.200000 4.840000 -12.249323 -1.487617 152.258926
1.120000 1.200000 4.880000 -5.286339 -7.889666 90.192200
1.120000 1.200000 4.920000 0.384438 -4.590637 21.221743
1.120000 1.200000 4.960000 -3.853436 -0.453728 15.054834
1.120000 1.200000 5.000000 -12.031509 -7.575842 202.150604
1.120000 1.200000 5.040000 -8.779579 -24.863419 695.270569
1.120000 1.200000 5.080000 12.420311 -35.771812 1433.886719
1.120000 1.200000 5.120000 38.559937 -24.921551 2107.952393
1.120000 1.200000 5.160000 47.868736 3.753626 2305.505615
1.120000 1.200000 5.200000 32.144924 28.273558 1832.690186
1.160000 0.800000 4.800000 -18.119230 -3.502533 340.574249
1.160000 0.800000 4.840000 -15.801301 -6.108446 286.994202
1.160000 0.800000 4.880000 -14.836946 -7.925392 282.946808
1.160000 0.800000 4.920000 -13.963190 -11.394697 324.809814
1.160000 0.800000 4.960000 -10.127331 -15.891019 355.087311
1.160000 0.800000 5.000000 -2.573203 -17.613714 316.864288
1.160000 0.800000 5.040000 5.093289 -13.555996 209.706619
1.160000 0.800000 5.080000 7.755008 -5.423985 89.559769
1.160000 0.800000 5.120000 3.977176 1.064260 16.950575
1.160000 0.800000 5.160000 -1.970924 1.458637 6.012165
1.160000 0.800000 5.200000 -3.986217 -2.876202 24.162462
1.160000 0.840000 4.800000 -5.603470 -21.149851 478.715057
1.160000 0.840000 4.840000 -0.875237 -21.549820 465.160797
1.160000 0.840000 4.880000 3.581680 -22.386616 513.989014
1.160000 0.840000 4.920000 10.226474 -22.384600 605.651062
1.160000 0.840000 4.960000 18.159649 -17.979605 653.039062
1.160000 0.840000 5.000000 22.581017 -8.177404 576.772278
1.160000 0.840000 5.040000 19.332703 2.630583 380.673340
1.160000 0.840000 5.080000 9.935006 7.674410 157.600922
1.160000 0.840000 5.120000 1.386989 4.174871 19.353287
1.160000 0.840000 5.160000 0.140372 -3.432588 11.802366
1.160000 0.840000 5.200000 5.970878 -7.255916 88.299690
1.160000 0.880000 4.800000 18.842545 -21.797203 830.159546
1.160000 0.880000 4.840000 24.262680 -19.287926 960.701782
1.160000 0.880000 4.880000 31.897217 -15.818406 1267.654419
1.160000 0.880000 4.920000 40.289864 -6.391748 1664.127563
1.160000 0.880000 4.960000 42.359283 9.850872 1891.348511
1.160000 0.880000 5.000000 32.546608 25.711493 1720.362549
1.160000 0.880000 5.040000 14.219061 31.017660 1164.276855
1.160000 0.880000 5.080000 -1.298355 22.354301 501.400513
1.160000 0.880000 5.120000 -4.249491 7.359889 72.226135
1.160000 0.880000 5.160000 4.581049 -1.552785 23.397154
1.160000 0.880000 5.200000 14.705060 1.624745 218.878586
1.160000 0.920000 4.800000 35.924953 -1.050106 1291.705078
1.160000 0.920000 4.840000 40.477169 4.044165 1654.756470
1.160000 0.920000 4.880000 47.529366 14.394611 2466.245361
1.160000 0.920000 4.920000 48.779713 33.567818 3506.258789
1.160000 0.920000 4.960000 35.218639 54.101147 4167.286621
1.160000 0.920000 5.000000 8.683744 61.912663 3908.585205
1.160000 0.920000 5.040000 -16.441113 49.664665 2736.889160
1.160000 0.920000 5.080000 -24.835087 25.406319 1262.262573
1.160000 0.920000 5.120000 -14.213150 6.634770 246.033813
1.160000 0.920000 5.160000 2.566121 4.827549 29.890211
1.160000 0.920000 5.200000 9.810093 15.699500 342.712219
1.160000 0.960000 4.800000 30.207592 26.721115 1626.516602
1.160000 0.960000 4.840000 32.927456 33.479675 2205.105957
1.160000 0.960000 4.880000 34.070042 49.325119 3593.734863
1.160000 0.960000 4.920000 21.584141 70.428986 5426.117188
1.160000 0.960000 4.960000 -7.597294 81.439453 6690.103516
1.160000 0.960000 5.000000 -40.285240 69.577347 6463.908203
1.160000 0.960000 5.040000 -56.535118 38.810204 4702.451172
1.160000 0.960000 5.080000 -47.664940 8.583162 2345.617188
1.160000 0.960000 5.120000 -24.548975 -2.862926 610.848511
1.160000 0.960000 5.160000 -7.426190 5.653023 87.104973
1.160000 0.960000 5.200000 -7.236338 19.003643 413.503052
1.160000 1.000000 4.800000 5.107065 39.923473 1619.965820
1.160000 1.000000 4.840000 5.632378 47.360130 2274.705566
1.160000 1.000000 4.880000 -1.926756 63.260010 4005.541260
1.160000 1.000000 4.920000 -26.102968 75.471107 6377.252930
1.160000 1.000000 4.960000 -59.476524 67.867668 8143.477539
1.160000 1.000000 5.000000 -82.039162 37.417763 8130.512695
1.160000 1.000000 5.040000 -78.700005 -0.041760 6193.692871
1.160000 1.000000 5.080000 -53.675247 -22.482014 3386.473145
1.160000 1.000000 5.120000 -26.871208 -20.848732 1156.731445
1.160000 1.000000 5.160000 -15.678008 -5.725717 278.583771
1.160000 1.000000 5.200000 -20.413864 4.656347 438.407440
1.160000 1.040000 4.800000 -19.285444 29.478331 1240.900391
1.160000 1.040000 4.840000 -21.103100 36.734074 1794.733032
1.160000 1.040000 4.880000 -35.155571 46.739044 3420.452637
1.160000 1.040000 4.920000 -61.220695 44.638802 5740.596191
1.160000 1.040000 4.960000 -84.537445 21.635813 7614.687988
1.160000 1.040000 5.000000 -87.840118 -14.234932 7918.519531
1.160000 1.040000 5.040000 -67.375587 -43.266464 6411.456543
1.160000 1.040000 5.080000 -36.798676 -50.774345 3932.176758
1.160000 1.040000 5.120000 -14.986115 -39.032227 1748.098389
1.160000 1.040000 5.160000 -9.995801 -23.137421 635.256226
1.160000 1.040000 5.200000 -14.687177 -15.915755 469.024414
1.160000 1.080000 4.800000 -24.871861 7.323755 672.246826
1.160000 1.080000 4.840000 -29.160009 13.303707 1027.294800
1.160000 1.080000 4.880000 -43.990452 14.989185 2159.835449
1.160000 1.080000 4.920000 -61.910450 2.495955 3839.133545
1.160000 1.080000 4.960000 -69.147820 -23.445105 5331.093750
1.160000 1.080000 5.000000 -57.627575 -50.516563 5872.860352
1.160000 1.080000 5.040000 -32.219433 -64.547989 5204.534668
1.160000 1.080000 5.080000 -6.527838 -60.691910 3726.120361
1.160000 1.080000 5.120000 8.254821 -45.824486 2168.025635
1.160000 1.080000 5.160000 10.800557 -31.077248 1082.447388
1.160000 1.080000 5.200000 7.516291 -22.610020 567.707581
1.160000 1.120000 4.800000 -12.636315 -5.588625 190.909195
1.160000 1.120000 4.840000 -18.932562 -2.630850 365.363251
1.160000 1.120000 4.880000 -29.219381 -7.087482 904.004639
1.160000 1.120000 4.920000 -35.923698 -20.634617 1716.299561
1.160000 1.120000 4.960000 -32.674973 -38.386932 2541.210449
1.160000 1.120000 5.000000 -18.735474 -52.385563 3095.265381
1.160000 1.120000 5.040000 1.064972 -56.646694 3209.982178
1.160000 1.120000 5.080000 19.631689 -49.967789 2882.183105
1.160000 1.120000 5.120000 31.147099 -35.581856 2236.210205
1.160000 1.120000 5.160000 33.056870 -19.192692 1461.115967
1.160000 1.120000 5.200000 26.710438 -6.668909 757.921875
1.160000 1.160000 4.800000 -0.724027 -0.374399 0.664389
1.160000 1.160000 4.840000 -6.887428 -2.241099 52.459194
1.160000 1.160000 4.880000 -10.525541 -8.207847 178.155762
1.160000 1.160000 4.920000 -10.607050 -15.669495 358.042572
1.160000 1.160000 4.960000 -7.409191 -23.545429 609.283386
1.160000 1.160000 5.000000 0.184837 -31.179501 972.195435
1.160000 1.160000 5.040000 13.597467 -35.210579 1424.676025
1.160000 1.160000 5.080000 30.141876 -30.120857 1815.798828
1.160000 1.160000 5.120000 41.529556 -13.985576 1920.300415
1.160000 1.160000 5.160000 39.553551 6.572377 1607.679565
1.160000 1.160000 5.200000 24.610722 19.447422 983.889832
1.160000 1.200000 4.800000 -4.942745 11.112892 147.927094
1.160000 1.200000 4.840000 -7.029756 4.487232 69.552711
1.160000 1.200000 4.880000 -5.163328 1.189335 28.074476
1.160000 1.200000 4.920000 -5.522711 0.496805 30.747149
1.160000 1.200000 4.960000 -8.303431 -4.004734 84.984856
1.160000 1.200000 5.000000 -5.786400 -14.298176 237.920258
1.160000 1.200000 5.040000 8.065037 -21.947180 546.723511
1.160000 1.200000 5.080000 27.280079 -15.382107 980.811890
1.160000 1.200000 5.120000 36.372200 6.161190 1360.897095
1.160000 1.200000 5.160000 25.453068 28.189022 1442.479614
1.160000 1.200000 5.200000 2.214883 33.313416 1114.689453
1.200000 0.800000 4.800000 -10.582592 -19.016954 473.635803
1.200000 0.800000 4.840000 -4.614974 -15.945475 275.556152
1.200000 0.800000 4.880000 -4.648883 -12.965252 189.709869
1.200000 0.800000 4.920000 -6.087136 -15.390512 273.921112
1.200000 0.800000 4.960000 -2.006336 -21.110397 449.674255
1.200000 0.800000 5.000000 8.708358 -22.394970 577.370178
1.200000 0.800000 5.040000 19.172709 -14.215177 569.664001
1.200000 0.800000 5.080000 21.003658 -0.250586 441.216461
1.200000 0.800000 5.120000 12.925564 10.098618 269.052277
1.200000 0.800000 5.160000 2.262957 10.840616 122.639931
1.200000 0.800000 5.200000 -2.429842 5.075172 31.661507
1.200000 0.840000 4.800000 12.764254 -21.336830 618.186523
1.200000 0.840000 4.840000 14.048013 -9.352604 284.817871
1.200000 0.840000 4.880000 6.570427 -3.883298 58.250511
1.200000 0.840000 4.920000 0.615015 -8.469616 72.112640
1.200000 0.840000 4.960000 4.052616 -16.036169 273.582428
1.200000 0.840000 5.000000 14.490538 -16.499596 482.212341
1.200000 0.840000 5.040000 22.113918 -7.168182 540.408203
1.200000 0.840000 5.080000 19.991619 4.875021 423.430664
1.200000 0.840000 5.120000 10.811120 10.541332 228.000000
1.200000 0.840000 5.160000 3.237850 7.976931 74.115097
1.200000 0.840000 5.200000 2.380013 3.465698 17.675522
1.200000 0.880000 4.800000 30.505135 -1.769889 933.695740
1.200000 0.880000 4.840000 20.068333 12.671843 563.313599
1.200000 0.880000 4.880000 4.318770 12.873473 184.378098
1.200000 0.880000 4.920000 -3.081502 1.425403 11.527427
1.200000 0.880000 4.960000 2.824326 -9.343847 95.284294
1.200000 0.880000 5.000000 14.708575 -9.360209 303.955688
1.200000 0.880000 5.040000 21.140705 0.446171 447.128479
1.200000 0.880000 5.080000 17.567959 10.794346 425.151093
1.200000 0.880000 5.120000 9.101080 14.157344 283.260040
1.200000 0.880000 5.160000 3.462428 11.360154 141.041504
1.200000 0.880000 5.200000 2.784274 8.515230 80.261330
1.200000 0.920000 4.800000 25.372923 26.876120 1366.111084
1.200000 0.920000 4.840000 3.989202 33.131710 1113.623901
1.200000 0.920000 4.880000 -13.572233 21.757975 657.614990
1.200000 0.920000 4.920000 -15.517769 3.020264 249.923141
1.200000 0.920000 4.960000 -3.309423 -8.230355 78.691025
1.200000 0.920000 5.000000 11.011992 -5.193923 148.240814
1.200000 0.920000 5.040000 16.261171 6.678957 309.034149
1.200000 0.920000 5.080000 10.934127 16.645287 396.620667
1.200000 0.920000 5.120000 1.901225 18.722490 354.146301
1.200000 0.920000 5.160000 -3.836534 15.055749 241.394577
1.200000 0.920000 5.200000 -5.052030 11.073521 148.145859
1.200000 0.960000 4.800000 -1.857703 41.575729 1731.992310
1.200000 0.960000 4.840000 -24.662525 33.123615 1705.414062
1.200000 0.960000 4.880000 -34.039932 11.435552 1289.488892
1.200000 0.960000 4.920000 -25.171455 -8.479795 705.509094
1.200000 0.960000 4.960000 -6.706081 -14.147649 245.127472
1.200000 0.960000 5.000000 7.202870 -4.931909 76.205063
1.200000 0.960000 5.040000 8.379273 9.277720 156.288315
1.200000 0.960000 5.080000 -0.481961 17.546942 308.127472
1.200000 0.960000 5.120000 -10.532329 16.226082 374.215698
1.200000 0.960000 5.160000 -15.072301 9.447497 316.429443
1.200000 0.960000 5.200000 -13.651504 3.417554 198.043228
1.200000 1.000000 4.800000 -30.803501 29.388464 1812.537476
1.200000 1.000000 4.840000 -43.573460 9.781699 1994.328003
1.200000 1.000000 4.880000 -39.148632 -13.011641 1701.918213
1.200000 1.000000 4.920000 -21.122898 -25.158075 1079.105591
1.200000 1.000000 4.960000 -2.252893 -20.911259 442.356262
1.200000 1.000000 5.000000 5.628684 -6.345094 71.942299
1.200000 1.000000 5.040000 0.175646 6.460251 41.765694
1.200000 1.000000 5.080000 -11.273939 9.172484 211.236176
1.200000 1.000000 5.120000 -18.928413 2.508364 364.576721
1.200000 1.000000 5.160000 -18.197823 -6.335190 371.295380
1.200000 1.000000 5.200000 -11.671716 -10.515998 246.815155
1.200000 1.040000 4.800000 -38.804661 0.290424 1505.886108
1.200000 1.040000 4.840000 -37.371109 -19.284075 1768.475342
1.200000 1.040000 4.880000 -22.996639 -32.850456 1607.997803
1.200000 1.040000 4.920000 -4.370242 -32.717319 1089.521973
1.200000 1.040000 4.960000 7.015176 -20.762367 480.288605
1.200000 1.040000 5.000000 5.597997 -6.906549 79.037979
1.200000 1.040000 5.040000 -4.403600 -1.149538 20.713127
1.200000 1.040000 5.080000 -13.117498 -5.949744 207.468231
1.200000 1.040000 5.120000 -13.319170 -15.247890 409.898438
1.200000 1.040000 5.160000 -5.724741 -20.390253 448.535065
1.200000 1.040000 5.200000 2.792565 -17.355387 309.007874
1.200000 1.080000 4.800000 -21.850883 -21.124569 923.708496
1.200000 1.080000 4.840000 -12.464842 -31.182148 1127.698608
1.200000 1.080000 4.880000 1.555351 -32.435829 1054.502075
1.200000 1.080000 4.920000 11.885739 -24.059875 720.148438
1.200000 1.080000 4.960000 12.482372 -12.416237 309.972534
1.200000 1.080000 5.000000 4.873981 -6.349382 64.070343
1.200000 1.080000 5.040000 -2.835881 -9.786421 103.816254
1.200000 1.080000 5.080000 -2.858431 -18.284767 342.503326
1.200000 1.080000 5.120000 5.410913 -22.992035 557.911621
1.200000 1.080000 5.160000 14.989300 -18.611034 571.049683
1.200000 1.080000 5.200000 17.755264 -8.029141 379.716522
1.200000 1.120000 4.800000 1.459901 -18.564161 346.759399
1.200000 1.120000 4.840000 8.397434 -19.060247 433.809937
1.200000 1.120000 4.880000 14.173204 -14.184715 402.085876
1.200000 1.120000 4.920000 14.216303 -6.746090 247.613007
1.200000 1.120000 4.960000 8.361149 -2.944011 78.576012
1.200000 1.120000 5.000000 2.422197 -6.719529 51.019104
1.200000 1.120000 5.040000 3.550502 -14.944089 235.931854
1.200000 1.120000 5.080000 13.040064 -19.144066 536.538513
1.200000 1.120000 5.120000 23.899401 -13.191475 745.196350
1.200000 1.120000 5.160000 26.596771 0.193038 707.425537
1.200000 1.120000 5.200000 18.091885 11.128000 451.148682
1.200000 1.160000 4.800000 7.911367 0.437777 62.781380
1.200000 1.160000 4.840000 7.727678 1.415736 61.721321
1.200000 1.160000 4.880000 6.172804 3.432808 49.887680
1.200000 1.160000 4.920000 1.823053 3.628535 16.489790
1.200000 1.160000 4.960000 -2.278521 -1.405729 7.167733
1.200000 1.160000 5.000000 -0.124017 -10.170248 103.449326
1.200000 1.160000 5.040000 10.573028 -15.112099 340.164429
1.200000 1.160000 5.080000 23.587429 -8.992787 637.237061
1.200000 1.160000 5.120000 27.971176 6.762142 828.113281
1.200000 1.160000 5.160000 18.328283 21.136723 782.687012
1.200000 1.160000 5.200000 1.331375 22.795275 521.397156
1.200000 1.200000 4.800000 -7.430799 12.179436 203.555420
1.200000 1.200000 4.840000 -9.855846 7.545099 154.066238
1.200000 1.200000 4.880000 -11.277415 3.620843 140.290588
1.200000 1.200000 4.920000 -12.504272 -1.947551 160.149780
1.200000 1.200000 4.960000 -9.811157 -10.292877 202.202118
1.200000 1.200000 5.000000 0.577939 -16.527035 273.476898
1.200000 1.200000 5.040000 15.293238 -12.687397 394.853149
1.200000 1.200000 5.080000 23.473303 3.007135 560.038818
1.200000 1.200000 5.120000 16.284584 20.924532 703.023682
1.200000 1.200000 5.160000 -2.683441 26.785189 724.647217
1.200000 1.200000 5.200000 -18.347378 15.424461 574.540283
