#kx 	ky 	kz 	real 	imag 	intensity
2.800000 8.800000 -1.200000 14.413969 -40.245583 1827.469360
2.800000 8.800000 -1.160000 22.381435 -24.054398 1079.542725
2.800000 8.800000 -1.120000 15.714735 -12.396579 400.628052
2.800000 8.800000 -1.080000 6.315990 -14.097000 238.617157
2.800000 8.800000 -1.040000 6.881899 -23.510296 600.094543
2.800000 8.800000 -1.000000 18.593216 -27.582418 1106.497437
2.800000 8.800000 -0.960000 31.261572 -19.217983 1346.616699
2.800000 8.800000 -0.920000 34.312607 -3.236331 1187.828857
2.800000 8.800000 -0.880000 26.408115 9.929127 795.976074
2.800000 8.800000 -0.840000 14.491574 14.536883 421.326721
2.800000 8.800000 -0.800000 5.254004 12.885674 193.645157
2.800000 8.840000 -1.200000 24.077728 -25.799805 1245.366943
2.800000 8.840000 -1.160000 24.160152 -13.584921 768.263062
2.800000 8.840000 -1.120000 16.954048 -10.486980 397.416504
2.800000 8.840000 -1.080000 15.014930 -16.869534 510.029297
2.800000 8.840000 -1.040000 24.098423 -21.894032 1060.082642
2.800000 8.840000 -1.000000 37.201988 -15.529144 1625.142212
2.800000 8.840000 -0.960000 42.179119 0.906313 1779.899536
2.800000 8.840000 -0.920000 34.111420 16.511763 1436.227295
2.800000 8.840000 -0.880000 19.318943 21.975899 856.161682
2.800000 8.840000 -0.840000 7.786188 17.735836 375.184601
2.800000 8.840000 -0.800000 3.367663 11.101646 134.587708
2.800000 8.880000 -1.200000 23.429783 -14.074478 747.045654
2.800000 8.880000 -1.160000 22.473917 -8.297303 573.922180
2.800000 8.880000 -1.120000 21.049036 -9.255636 528.728699
2.800000 8.880000 -1.080000 26.374783 -12.162352 843.551941
2.800000 8.880000 -1.040000 36.801735 -8.197384 1421.564819
2.800000 8.880000 -1.000000 43.147861 5.157197 1888.334595
2.800000 8.880000 -0.960000 38.440220 20.801147 1910.338257
2.800000 8.880000 -0.920000 25.153261 29.039656 1475.988037
2.800000 8.880000 -0.880000 12.338403 26.985817 880.470459
2.800000 8.880000 -0.840000 6.399341 20.155645 447.201599
2.800000 8.880000 -0.800000 5.959769 15.412462 273.062836
2.800000 8.920000 -1.200000 21.243950 -8.896444 530.452148
2.800000 8.920000 -1.160000 23.693583 -5.132744 587.730896
2.800000 8.920000 -1.120000 26.845474 -3.053615 730.004089
2.800000 8.920000 -1.080000 32.385220 1.028761 1049.860840
2.800000 8.920000 -1.040000 36.856068 10.188024 1462.165527
2.800000 8.920000 -1.000000 35.304768 22.354776 1746.162598
2.800000 8.920000 -0.960000 26.918455 31.747122 1732.482910
2.800000 8.920000 -0.920000 16.082453 34.518883 1450.198486
2.800000 8.920000 -0.880000 7.940286 32.091141 1092.889404
2.800000 8.920000 -0.840000 3.714337 28.696518 837.286438
2.800000 8.920000 -0.800000 0.986702 26.511156 703.814941
2.800000 8.960000 -1.200000 23.078917 -4.271417 550.881409
2.800000 8.960000 -1.160000 26.344149 2.634426 700.954346
2.800000 8.960000 -1.120000 27.227743 9.253725 826.981384
2.800000 8.960000 -1.080000 26.884357 15.516831 963.540771
2.800000 8.960000 -1.040000 25.405161 21.943655 1126.946167
2.800000 8.960000 -1.000000 22.192593 28.505806 1305.092163
2.800000 8.960000 -0.960000 16.756704 34.486038 1470.073975
2.800000 8.960000 -0.920000 9.096544 38.807335 1588.756348
2.800000 8.960000 -0.880000 -0.195518 40.266754 1621.449707
2.800000 8.960000 -0.840000 -9.637127 37.835709 1524.415161
2.800000 8.960000 -0.800000 -16.834570 31.554035 1279.059937
2.800000 9.000000 -1.200000 24.491407 6.530665 642.478638
2.800000 9.000000 -1.160000 22.417627 15.523728 743.536133
2.800000 9.000000 -1.120000 16.855469 20.476799 703.406128
2.800000 9.000000 -1.080000 12.561674 21.101410 603.065186
2.800000 9.000000 -1.040000 12.303112 21.417759 610.086975
2.800000 9.000000 -1.000000 13.728952 26.141712 871.873230
2.800000 9.000000 -0.960000 10.877268 35.612877 1386.591919
2.800000 9.000000 -0.920000 -0.266688 44.244171 1957.617798
2.800000 9.000000 -0.880000 -17.122616 44.700150 2291.287354
2.800000 9.000000 -0.840000 -31.584021 34.459820 2185.029541
2.800000 9.000000 -0.800000 -36.423397 18.627388 1673.643433
2.800000 9.040000 -1.200000 16.482298 20.950899 710.606323
2.800000 9.040000 -1.160000 7.323932 24.763142 666.853149
2.800000 9.040000 -1.120000 -0.321364 20.756422 430.932343
2.800000 9.040000 -1.080000 0.032892 13.899177 193.188187
2.800000 9.040000 -1.040000 7.471210 13.398401 235.336136
2.800000 9.040000 -1.000000 12.559738 23.873917 727.710876
2.800000 9.040000 -0.960000 5.168339 39.160789 1560.279053
2.800000 9.040000 -0.920000 -15.270503 46.106987 2359.042480
2.800000 9.040000 -0.880000 -37.458992 36.095634 2706.070801
2.800000 9.040000 -0.840000 -47.237656 13.475430 2412.983154
2.800000 9.040000 -0.800000 -39.836750 -7.686478 1646.048584
2.800000 9.080000 -1.200000 -2.737205 27.897673 785.772461
2.800000 9.080000 -1.160000 -12.547218 20.427612 574.720032
2.800000 9.080000 -1.120000 -12.569985 7.664559 216.750000
2.800000 9.080000 -1.080000 -1.125594 0.669409 1.715070
2.800000 9.080000 -1.040000 12.245001 8.351231 219.683105
2.800000 9.080000 -1.000000 13.009278 27.427671 921.518494
2.800000 9.080000 -0.960000 -4.995906 42.458366 1827.671997
2.800000 9.080000 -0.920000 -31.848347 38.341057 2484.353760
2.800000 9.080000 -0.880000 -48.481876 14.430174 2558.722412
2.800000 9.080000 -0.840000 -43.075775 -13.798150 2045.911377
2.800000 9.080000 -0.800000 -21.330095 -28.023552 1240.292480
2.800000 9.120000 -1.200000 -23.145226 19.183996 903.727173
2.800000 9.120000 -1.160000 -23.874847 2.591239 576.722900
2.800000 9.120000 -1.120000 -10.615109 -9.829200 209.293716
2.800000 9.120000 -1.080000 8.885714 -6.701719 123.868942
2.800000 9.120000 -1.040000 18.774906 12.687167 513.461304
2.800000 9.120000 -1.000000 7.874541 34.450172 1248.822754
2.800000 9.120000 -0.960000 -18.675093 39.782490 1931.405518
2.800000 9.120000 -0.920000 -41.436989 21.424828 2176.047363
2.800000 9.120000 -0.880000 -42.567982 -8.657143 1886.979248
2.800000 9.120000 -0.840000 -21.451727 -28.875742 1293.985107
2.800000 9.120000 -0.800000 5.094046 -26.617397 734.435120
2.800000 9.160000 -1.200000 -31.384781 -0.746716 985.562012
2.800000 9.160000 -1.160000 -18.851316 -16.836393 638.836304
2.800000 9.160000 -1.120000 3.272572 -18.526217 353.930420
2.800000 9.160000 -1.080000 20.084625 -1.788992 406.592682
2.800000 9.160000 -1.040000 17.719538 23.153236 850.054321
2.800000 9.160000 -1.000000 -4.192185 37.502144 1423.985229
2.800000 9.160000 -0.960000 -29.867102 28.953566 1730.352783
2.800000 9.160000 -0.920000 -39.284187 3.140530 1553.110229
2.800000 9.160000 -0.880000 -25.149620 -20.141388 1038.178955
2.800000 9.160000 -0.840000 0.825670 -23.630135 559.064941
2.800000 9.160000 -0.800000 18.586590 -6.918622 393.328674
2.800000 9.200000 -1.200000 -23.853430 -17.880884 888.712097
2.800000 9.200000 -1.160000 -3.205966 -24.491585 610.115906
2.800000 9.200000 -1.120000 16.806782 -12.948191 450.123566
2.800000 9.200000 -1.080000 21.712481 10.664295 585.158997
2.800000 9.200000 -1.040000 6.835434 30.202736 958.928406
2.800000 9.200000 -1.000000 -17.492359 31.355585 1289.155396
2.800000 9.200000 -0.960000 -33.113556 13.671641 1283.421387
2.800000 9.200000 -0.920000 -28.728977 -8.402560 895.957153
2.800000 9.200000 -0.880000 -9.308727 -17.417833 390.033325
2.800000 9.200000 -0.840000 8.614593 -7.401933 128.999817
2.800000 9.200000 -0.800000 11.350309 12.205049 277.792725
2.840000 8.800000 -1.200000 43.717850 -14.830267 2131.187256
2.840000 8.800000 -1.160000 34.987625 1.697483 1227.015381
2.840000 8.800000 -1.120000 20.554941 3.246973 433.048462
2.840000 8.800000 -1.080000 15.550613 -6.397099 282.744446
2.840000 8.800000 -1.040000 23.792299 -12.897153 732.410034
2.840000 8.800000 -1.000000 35.063911 -6.592542 1272.939453
2.840000 8.800000 -0.960000 36.742413 8.355345 1419.816650
2.840000 8.800000 -0.920000 26.625587 19.780407 1100.186401
2.840000 8.800000 -0.880000 13.449255 20.703114 609.501343
2.840000 8.800000 -0.840000 6.041155 15.104860 264.652344
2.840000 8.800000 -0.800000 4.310747 11.014474 139.901169
2.840000 8.840000 -1.200000 35.114063 7.658009 1291.642578
2.840000 8.840000 -1.160000 25.673796 12.011263 803.414246
2.840000 8.840000 -1.120000 21.028027 7.785956 502.799011
2.840000 8.840000 -1.080000 25.463551 4.863153 672.042664
2.840000 8.840000 -1.040000 31.872753 11.194098 1141.180176
2.840000 8.840000 -1.000000 29.942196 23.701462 1458.294434
2.840000 8.840000 -0.960000 17.830032 31.628504 1318.272339
2.840000 8.840000 -0.920000 4.220408 28.393776 824.018311
2.840000 8.840000 -0.880000 -1.338400 18.490017 343.672058
2.840000 8.840000 -0.840000 1.397120 11.798419 141.154648
2.840000 8.840000 -0.800000 4.222232 12.212934 166.983002
2.840000 8.880000 -1.200000 17.491219 13.937593 500.199219
2.840000 8.880000 -1.160000 17.162209 12.627150 453.986328
2.840000 8.880000 -1.120000 21.438780 14.320856 664.708191
2.840000 8.880000 -1.080000 24.041313 23.023973 1108.088135
2.840000 8.880000 -1.040000 17.754974 34.073654 1476.253052
2.840000 8.880000 -1.000000 3.477157 37.775322 1439.065552
2.840000 8.880000 -0.960000 -9.053723 29.771725 968.325500
2.840000 8.880000 -0.920000 -10.719959 16.638443 391.755310
2.840000 8.880000 -0.880000 -2.721439 9.748352 102.436592
2.840000 8.880000 -0.840000 4.504903 13.465086 201.602692
2.840000 8.880000 -0.800000 2.495284 20.634026 431.989441
2.840000 8.920000 -1.200000 7.701237 6.820420 105.827179
2.840000 8.920000 -1.160000 15.341225 11.372469 364.686218
2.840000 8.920000 -1.120000 17.493416 23.798290 872.378235
2.840000 8.920000 -1.080000 7.923013 36.187664 1372.321167
2.840000 8.920000 -1.040000 -9.416314 37.571594 1500.291626
2.840000 8.920000 -1.000000 -21.873596 25.136950 1110.320435
2.840000 8.920000 -0.960000 -19.619555 8.716654 460.906982
2.840000 8.920000 -0.920000 -5.890476 2.446320 40.682190
2.840000 8.920000 -0.880000 5.331210 11.048101 150.482346
2.840000 8.920000 -0.840000 2.811326 24.914541 628.637939
2.840000 8.920000 -0.800000 -10.753007 29.661118 995.409058
2.840000 8.960000 -1.200000 10.564630 1.226751 113.116318
2.840000 8.960000 -1.160000 15.229227 15.823711 482.319214
2.840000 8.960000 -1.120000 5.342572 31.062330 993.411438
2.840000 8.960000 -1.080000 -14.504795 33.270325 1317.303589
2.840000 8.960000 -1.040000 -28.798548 18.554516 1173.626343
2.840000 8.960000 -1.000000 -24.985664 -1.231180 625.799255
2.840000 8.960000 -0.960000 -6.538463 -8.195662 109.920364
2.840000 8.960000 -0.920000 8.932345 4.498011 100.018898
2.840000 8.960000 -0.880000 6.020330 25.319672 677.330139
2.840000 8.960000 -0.840000 -13.579382 35.031372 1411.596680
2.840000 8.960000 -0.800000 -32.790916 25.159546 1708.246826
2.840000 9.000000 -1.200000 15.260177 7.020511 282.160553
2.840000 9.000000 -1.160000 7.829434 23.462463 611.787231
2.840000 9.000000 -1.120000 -11.874323 28.090111 930.053833
2.840000 9.000000 -1.080000 -28.203545 14.149169 995.638916
2.840000 9.000000 -1.040000 -25.667267 -7.673168 717.686096
2.840000 9.000000 -1.000000 -5.197652 -17.036448 317.256134
2.840000 9.000000 -0.960000 14.351772 -3.309597 216.926804
2.840000 9.000000 -0.920000 13.060581 22.743174 687.830750
2.840000 9.000000 -0.880000 -10.683846 37.897831 1550.390137
2.840000 9.000000 -0.840000 -38.001915 28.224133 2240.747070
2.840000 9.000000 -0.800000 -47.322430 2.081492 2243.744873
2.840000 9.040000 -1.200000 8.746992 18.207094 408.008179
2.840000 9.040000 -1.160000 -7.852936 23.773235 626.835327
2.840000 9.040000 -1.120000 -23.866434 12.404634 723.481628
2.840000 9.040000 -1.080000 -23.447641 -8.839905 627.935791
2.840000 9.040000 -1.040000 -3.905061 -20.593584 439.345215
2.840000 9.040000 -1.000000 18.216881 -8.994255 412.751343
2.840000 9.040000 -0.960000 20.650236 18.868843 782.465454
2.840000 9.040000 -0.920000 -3.065570 39.043533 1533.795166
2.840000 9.040000 -0.880000 -35.759850 32.324425 2323.635254
2.840000 9.040000 -0.840000 -51.630131 2.584092 2672.347900
2.840000 9.040000 -0.800000 -39.923843 -26.808702 2312.619873
2.840000 9.080000 -1.200000 -8.722862 20.024773 477.079834
2.840000 9.080000 -1.160000 -21.412931 10.426082 567.216797
2.840000 9.080000 -1.120000 -21.341248 -8.125956 521.479980
2.840000 9.080000 -1.080000 -4.065647 -20.256752 426.865479
2.840000 9.080000 -1.040000 18.276653 -11.845258 474.346191
2.840000 9.080000 -1.000000 24.779367 14.438923 822.499512
2.840000 9.080000 -0.960000 5.117315 37.767883 1452.599854
2.840000 9.080000 -0.920000 -28.368002 36.464073 2134.372070
2.840000 9.080000 -0.880000 -49.699467 8.444750 2541.350830
2.840000 9.080000 -0.840000 -42.286263 -25.706261 2448.939941
2.840000 9.080000 -0.800000 -13.721579 -41.085964 1876.338135
2.840000 9.120000 -1.200000 -23.111801 5.944881 569.496948
2.840000 9.120000 -1.160000 -20.941689 -9.907158 536.706116
2.840000 9.120000 -1.120000 -5.174589 -20.238272 436.364014
2.840000 9.120000 -1.080000 15.605889 -13.793034 433.791565
2.840000 9.120000 -1.040000 24.602077 9.207311 690.036743
2.840000 9.120000 -1.000000 10.681227 33.064835 1207.371948
2.840000 9.120000 -0.960000 -19.270271 37.576462 1783.333862
2.840000 9.120000 -0.920000 -43.307835 16.048380 2133.118896
2.840000 9.120000 -0.880000 -42.400093 -17.000698 2086.791748
2.840000 9.120000 -0.840000 -17.329338 -37.365509 1696.487305
2.840000 9.120000 -0.800000 12.086307 -31.983158 1169.001221
2.840000 9.160000 -1.200000 -21.612041 -14.307384 671.781555
2.840000 9.160000 -1.160000 -5.959805 -22.541746 543.649597
2.840000 9.160000 -1.120000 12.900513 -16.493530 438.459778
2.840000 9.160000 -1.080000 22.374554 3.291295 511.453278
2.840000 9.160000 -1.040000 13.385332 25.444221 826.575500
2.840000 9.160000 -1.000000 -10.725976 33.962582 1268.503418
2.840000 9.160000 -0.960000 -34.032410 20.778612 1589.955688
2.840000 9.160000 -0.920000 -39.377861 -6.057751 1587.312256
2.840000 9.160000 -0.880000 -22.588020 -27.444887 1263.440430
2.840000 9.160000 -0.840000 3.587095 -28.515198 825.983765
2.840000 9.160000 -0.800000 20.143993 -10.577726 517.668762
2.840000 9.200000 -1.200000 -6.577156 -24.621952 649.499512
2.840000 9.200000 -1.160000 10.870073 -19.108234 483.283142
2.840000 9.200000 -1.120000 19.879223 -2.177123 399.923370
2.840000 9.200000 -1.080000 14.197855 16.962301 489.298767
2.840000 9.200000 -1.040000 -3.830462 26.725365 728.917542
2.840000 9.200000 -1.000000 -23.552315 20.566525 977.693481
2.840000 9.200000 -0.960000 -32.449505 2.233405 1057.958496
2.840000 9.200000 -0.920000 -25.059181 -16.030991 884.955200
2.840000 9.200000 -0.880000 -7.279678 -22.106819 541.705200
2.840000 9.200000 -0.840000 7.996760 -12.908823 230.585892
2.840000 9.200000 -0.800000 10.662585 3.844894 128.473938
2.880000 8.800000 -1.200000 42.542004 30.502310 2740.212891
2.880000 8.800000 -1.160000 20.833111 32.721405 1504.708740
2.880000 8.800000 -1.120000 9.036867 19.615620 466.437500
2.880000 8.800000 -1.080000 14.017834 7.192783 248.235794
2.880000 8.800000 -1.040000 25.590427 8.651916 729.725647
2.880000 8.800000 -1.000000 28.167294 21.309809 1247.504395
2.880000 8.800000 -0.960000 17.387045 30.871887 1255.382812
2.880000 8.800000 -0.920000 3.576515 27.744555 782.551758
2.880000 8.800000 -0.880000 -0.974449 16.929945 287.572601
2.880000 8.800000 -0.840000 4.049893 10.899309 135.196579
2.880000 8.800000 -0.800000 7.758337 14.361912 266.456299
2.880000 8.840000 -1.200000 11.052727 41.114464 1812.561890
2.880000 8.840000 -1.160000 2.720816 31.437313 995.707458
2.880000 8.840000 -1.120000 6.325293 24.842098 657.139160
2.880000 8.840000 -1.080000 11.197407 29.836254 1015.583984
2.880000 8.840000 -1.040000 4.941706 40.171040 1638.132812
2.880000 8.840000 -1.000000 -11.956896 41.333580 1851.432251
2.880000 8.840000 -0.960000 -25.441561 27.017624 1377.225098
2.880000 8.840000 -0.920000 -22.739300 7.324039 570.717285
2.880000 8.840000 -0.880000 -6.790119 -1.089231 47.292141
2.880000 8.840000 -0.840000 6.063120 7.226986 88.990753
2.880000 8.840000 -0.800000 3.311526 20.344061 424.847046
2.880000 8.880000 -1.200000 -13.918679 24.997095 818.584351
2.880000 8.880000 -1.160000 -5.532104 20.837469 464.804260
2.880000 8.880000 -1.120000 -0.507736 31.361116 983.777405
2.880000 8.880000 -1.080000 -12.586323 45.113415 2193.635742
2.880000 8.880000 -1.040000 -37.542152 42.754204 3237.335205
2.880000 8.880000 -1.000000 -54.457832 17.951666 3287.917725
2.880000 8.880000 -0.960000 -45.856361 -13.253284 2278.455566
2.880000 8.880000 -0.920000 -16.525244 -26.214989 960.309326
2.880000 8.880000 -0.880000 9.396829 -11.728014 225.846710
2.880000 8.880000 -0.840000 11.371550 14.455087 338.261658
2.880000 8.880000 -0.800000 -7.694323 27.121229 794.763672
2.880000 8.920000 -1.200000 -15.026968 0.188984 225.845490
2.880000 8.920000 -1.160000 -3.447859 13.574827 196.163666
2.880000 8.920000 -1.120000 -14.095444 34.183647 1367.203247
2.880000 8.920000 -1.080000 -44.560467 36.260036 3300.425537
2.880000 8.920000 -1.040000 -68.792923 7.802891 4793.351562
2.880000 8.920000 -1.000000 -60.840626 -33.682228 4836.074219
2.880000 8.920000 -0.960000 -21.752539 -54.797092 3475.894287
2.880000 8.920000 -0.920000 18.658697 -37.683323 1768.179810
2.880000 8.920000 -0.880000 28.855919 2.113853 837.132446
2.880000 8.920000 -0.840000 5.054255 30.152363 934.710449
2.880000 8.920000 -0.800000 -26.502712 25.839025 1370.048950
2.880000 8.960000 -1.200000 1.593717 -10.391034 110.513519
2.880000 8.960000 -1.160000 -1.236605 14.917344 224.056351
2.880000 8.960000 -1.120000 -30.509249 26.364035 1625.876587
2.880000 8.960000 -1.080000 -61.676674 3.671475 3817.491943
2.880000 8.960000 -1.040000 -61.575275 -41.493835 5513.252930
2.880000 8.960000 -1.000000 -21.915834 -71.968369 5659.750000
2.880000 8.960000 -0.960000 28.888746 -59.144379 4332.617188
2.880000 8.960000 -0.920000 50.104248 -11.522610 2643.206299
2.880000 8.960000 -0.880000 26.529564 31.923340 1722.917358
2.880000 8.960000 -0.840000 -17.815472 37.999035 1761.317627
2.880000 8.960000 -0.800000 -43.856693 9.252899 2009.025635
2.880000 9.000000 -1.200000 14.507806 -1.149232 211.797165
2.880000 9.000000 -1.160000 -7.052490 17.781975 365.936249
2.880000 9.000000 -1.120000 -39.598686 6.724154 1613.270142
2.880000 9.000000 -1.080000 -49.630077 -32.963917 3549.764160
2.880000 9.000000 -1.040000 -19.033936 -68.903587 5109.995117
2.880000 9.000000 -1.000000 32.991554 -65.764328 5413.389648
2.880000 9.000000 -0.960000 63.967995 -20.341785 4505.692383
2.880000 9.000000 -0.920000 47.116570 32.431259 3271.757812
2.880000 9.000000 -0.880000 -2.937924 50.740685 2583.248291
2.880000 9.000000 -0.840000 -44.023041 24.271198 2527.119141
2.880000 9.000000 -0.800000 -46.199787 -18.273079 2468.325928
2.880000 9.040000 -1.200000 9.741934 12.758852 257.693573
2.880000 9.040000 -1.160000 -17.134411 11.914312 435.538879
2.880000 9.040000 -1.120000 -32.899628 -16.025719 1339.209229
2.880000 9.040000 -1.080000 -15.500157 -49.861855 2726.459473
2.880000 9.040000 -1.040000 28.017681 -56.091724 3931.271973
2.880000 9.040000 -1.000000 62.621414 -21.452488 4381.650391
2.880000 9.040000 -0.960000 56.007858 30.463850 4064.926270
2.880000 9.040000 -0.920000 10.114625 58.058990 3473.152100
2.880000 9.040000 -0.880000 -38.855957 39.662674 3082.913086
2.880000 9.040000 -0.840000 -53.425766 -6.708338 2899.314209
2.880000 9.040000 -0.800000 -28.568554 -41.493591 2537.880371
2.880000 9.080000 -1.200000 -5.916702 13.227356 209.970322
2.880000 9.080000 -1.160000 -19.811272 -3.239279 402.979401
2.880000 9.080000 -1.120000 -12.256770 -28.428335 958.398621
2.880000 9.080000 -1.080000 17.894524 -38.273567 1785.079956
2.880000 9.080000 -1.040000 48.186638 -16.673679 2599.963867
2.880000 9.080000 -1.000000 49.814415 25.361547 3124.683838
2.880000 9.080000 -0.960000 15.273847 55.219563 3282.490479
2.880000 9.080000 -0.920000 -31.427744 47.004662 3197.141357
2.880000 9.080000 -0.880000 -54.506958 6.083122 3008.012939
2.880000 9.080000 -0.840000 -38.386375 -35.106277 2705.964355
2.880000 9.080000 -0.800000 -0.743554 -46.660683 2177.772217
2.880000 9.120000 -1.200000 -14.187041 -1.526258 203.601608
2.880000 9.120000 -1.160000 -9.004413 -16.576099 355.846497
2.880000 9.120000 -1.120000 9.836620 -23.232460 636.506287
2.880000 9.120000 -1.080000 30.747364 -10.374207 1053.024536
2.880000 9.120000 -1.040000 34.814011 18.501110 1554.306396
2.880000 9.120000 -1.000000 12.604675 43.337696 2037.033691
2.880000 9.120000 -0.960000 -23.909687 42.586250 2385.261963
2.880000 9.120000 -0.920000 -48.402687 13.103836 2514.530518
2.880000 9.120000 -0.880000 -42.185410 -24.802696 2394.782471
2.880000 9.120000 -0.840000 -10.913782 -43.933018 2049.220703
2.880000 9.120000 -0.800000 20.587954 -33.503807 1546.368896
2.880000 9.160000 -1.200000 -5.854805 -16.493076 306.300323
2.880000 9.160000 -1.160000 7.927531 -16.791006 344.783630
2.880000 9.160000 -1.120000 19.771652 -6.064188 427.692627
2.880000 9.160000 -1.080000 21.004740 12.537603 598.390625
2.880000 9.160000 -1.040000 6.912388 28.758444 874.829224
2.880000 9.160000 -1.000000 -17.207821 30.278759 1212.912354
2.880000 9.160000 -0.960000 -36.708923 12.554527 1505.161133
2.880000 9.160000 -0.920000 -37.414005 -15.157071 1629.544556
2.880000 9.160000 -0.880000 -17.511356 -34.942879 1527.652344
2.880000 9.160000 -0.840000 9.755334 -33.900028 1244.378418
2.880000 9.160000 -0.800000 26.218542 -14.519851 898.237976
2.880000 9.200000 -1.200000 10.002641 -17.388939 402.428009
2.880000 9.200000 -1.160000 17.071140 -4.805188 314.513672
2.880000 9.200000 -1.120000 14.037203 9.016277 278.336304
2.880000 9.200000 -1.080000 2.861089 17.712063 321.902985
2.880000 9.200000 -1.040000 -11.685322 17.499237 442.770050
2.880000 9.200000 -1.000000 -23.446281 7.742419 609.673157
2.880000 9.200000 -0.960000 -26.395840 -8.189515 763.808533
2.880000 9.200000 -0.920000 -17.661882 -22.880249 835.447876
2.880000 9.200000 -0.880000 -0.648656 -27.948887 781.561035
2.880000 9.200000 -0.840000 15.391240 -19.635311 622.435730
2.880000 9.200000 -0.800000 20.810705 -2.475896 439.215515
2.920000 8.800000 -1.200000 3.653913 63.095543 3994.398682
2.920000 8.800000 -1.160000 -16.724796 43.952454 2211.537109
2.920000 8.800000 -1.120000 -15.117378 21.080904 672.939636
2.920000 8.800000 -1.080000 -0.020470 13.267369 176.023499
2.920000 8.800000 -1.040000 9.017910 22.267159 577.149048
2.920000 8.800000 -1.000000 2.074718 32.507027 1061.011230
2.920000 8.800000 -0.960000 -11.558125 29.174736 984.755493
2.920000 8.800000 -0.920000 -15.157249 14.637630 444.002411
2.920000 8.800000 -0.880000 -4.256790 5.009279 43.213142
2.920000 8.800000 -0.840000 8.064358 10.945447 184.836670
2.920000 8.800000 -0.800000 6.390320 24.707287 651.286194
2.920000 8.840000 -1.200000 -35.748955 43.929878 3207.822021
2.920000 8.840000 -1.160000 -31.524698 25.148220 1626.239502
2.920000 8.840000 -1.120000 -20.384232 23.204071 953.945801
2.920000 8.840000 -1.080000 -21.640038 32.856506 1547.841309
2.920000 8.840000 -1.040000 -38.736130 34.049103 2659.829102
2.920000 8.840000 -1.000000 -54.075634 14.519783 3134.998047
2.920000 8.840000 -0.960000 -47.368900 -14.694275 2459.734375
2.920000 8.840000 -0.920000 -18.698334 -28.765430 1177.077637
2.920000 8.840000 -0.880000 9.099352 -14.771929 301.008087
2.920000 8.840000 -0.840000 12.589730 13.633520 344.374176
2.920000 8.840000 -0.800000 -8.209887 29.039976 910.722412
2.920000 8.880000 -1.200000 -45.882633 3.023591 2114.358154
2.920000 8.880000 -1.160000 -28.542736 5.588577 845.919983
2.920000 8.880000 -1.120000 -31.535336 23.156979 1530.723145
2.920000 8.880000 -1.080000 -58.666489 26.291573 4133.003418
2.920000 8.880000 -1.040000 -83.417824 -3.365662 6969.860840
2.920000 8.880000 -1.000000 -74.209969 -50.182007 8025.353516
2.920000 8.880000 -0.960000 -28.210274 -76.195038 6601.502930
2.920000 8.880000 -0.920000 22.069786 -57.742176 3821.234375
2.920000 8.880000 -0.880000 38.221237 -10.019234 1561.247925
2.920000 8.880000 -0.840000 12.534671 26.456705 857.075195
2.920000 8.880000 -0.800000 -25.443756 24.488449 1247.068848
2.920000 8.920000 -1.200000 -22.628538 -27.483364 1267.385986
2.920000 8.920000 -1.160000 -16.672688 -1.945241 281.762482
2.920000 8.920000 -1.120000 -45.616146 13.233255 2255.951904
2.920000 8.920000 -1.080000 -82.202637 -12.638624 6917.008301
2.920000 8.920000 -1.040000 -82.395103 -70.027779 11692.842773
2.920000 8.920000 -1.000000 -30.557562 -112.538490 13598.676758
2.920000 8.920000 -0.960000 40.246861 -99.809128 11581.671875
2.920000 8.920000 -0.920000 76.217857 -37.977104 7251.421875
2.920000 8.920000 -0.880000 52.915764 24.154495 3383.517822
2.920000 8.920000 -0.840000 -2.541487 40.532600 1649.350830
2.920000 8.920000 -0.800000 -39.212212 9.598707 1629.732666
2.920000 8.960000 -1.200000 10.459192 -27.336807 856.695740
2.920000 8.960000 -1.160000 -9.663797 1.169719 94.757217
2.920000 8.960000 -1.120000 -51.930733 -8.615609 2771.029785
2.920000 8.960000 -1.080000 -68.396301 -62.100338 8534.505859
2.920000 8.960000 -1.040000 -27.145985 -116.932755 14410.173828
2.920000 8.960000 -1.000000 51.033699 -119.650978 16920.794922
2.920000 8.960000 -0.960000 106.700554 -58.216003 14774.111328
2.920000 8.960000 -0.920000 95.953537 23.031368 9737.525391
2.920000 8.960000 -0.880000 31.601946 63.082321 4978.062012
2.920000 8.960000 -0.840000 -30.006746 39.993786 2499.907715
2.920000 8.960000 -0.800000 -42.865540 -12.445218 1992.337891
2.920000 9.000000 -1.200000 25.691769 -4.888220 683.961670
2.920000 9.000000 -1.160000 -11.653071 3.549187 148.390793
2.920000 9.000000 -1.120000 -40.885223 -33.058743 2764.481934
2.920000 9.000000 -1.080000 -20.997946 -88.122971 8206.571289
2.920000 9.000000 -1.040000 46.501282 -107.794556 13782.035156
2.920000 9.000000 -1.000000 111.546249 -62.293716 16323.072266
2.920000 9.000000 -0.960000 118.944031 21.307804 14601.705078
2.920000 9.000000 -0.920000 60.495461 80.438416 10130.039062
2.920000 9.000000 -0.880000 -16.447517 73.705124 5702.966309
2.920000 9.000000 -0.840000 -53.255390 17.327726 3136.386475
2.920000 9.000000 -0.800000 -33.030224 -34.068680 2251.670654
2.920000 9.040000 -1.200000 16.488951 14.423285 479.916626
2.920000 9.040000 -1.160000 -14.528350 -2.106650 215.510925
2.920000 9.040000 -1.120000 -14.546915 -44.805946 2219.185547
2.920000 9.040000 -1.080000 29.909248 -73.110947 6239.773438
2.920000 9.040000 -1.040000 88.578690 -50.392773 10385.615234
2.920000 9.040000 -1.000000 110.142700 17.353973 12432.574219
2.920000 9.040000 -0.960000 69.805283 81.312363 11484.477539
2.920000 9.040000 -0.920000 -5.016966 92.166245 8519.786133
2.920000 9.040000 -0.880000 -58.134171 44.985939 5403.316406
2.920000 9.040000 -0.840000 -55.264297 -17.630907 3364.991455
2.920000 9.040000 -0.800000 -12.349241 -46.793373 2342.123535
2.920000 9.080000 -1.200000 -0.327917 14.247084 203.086914
2.920000 9.080000 -1.160000 -9.011822 -10.900227 200.027863
2.920000 9.080000 -1.120000 12.435783 -35.605606 1422.407837
2.920000 9.080000 -1.080000 52.789074 -30.435474 3713.004395
2.920000 9.080000 -1.040000 77.142982 12.098412 6097.411133
2.920000 9.080000 -1.000000 57.213249 64.525177 7436.854492
2.920000 9.080000 -0.960000 0.231224 85.098663 7241.835938
2.920000 9.080000 -0.920000 -53.735420 55.219906 5936.733398
2.920000 9.080000 -0.880000 -66.134048 -2.628547 4380.621582
2.920000 9.080000 -0.840000 -33.628380 -44.933891 3149.922363
2.920000 9.080000 -0.800000 11.447094 -46.034805 2250.239258
2.920000 9.120000 -1.200000 -5.023338 0.977530 26.189495
2.920000 9.120000 -1.160000 3.689354 -12.195372 162.338425
2.920000 9.120000 -1.120000 24.065113 -12.425865 733.531738
2.920000 9.120000 -1.080000 40.091606 8.341846 1676.923340
2.920000 9.120000 -1.040000 32.926685 40.067295 2689.554688
2.920000 9.120000 -1.000000 -0.668142 58.410545 3412.238281
2.920000 9.120000 -0.960000 -40.929222 44.549969 3659.900879
2.920000 9.120000 -0.920000 -59.029724 3.604233 3497.498779
2.920000 9.120000 -0.880000 -41.483231 -37.246685 3108.173828
2.920000 9.120000 -0.840000 -2.188215 -51.061722 2612.087646
2.920000 9.120000 -0.800000 30.003965 -33.480042 2021.151123
2.920000 9.160000 -1.200000 4.988571 -7.211101 76.885818
2.920000 9.160000 -1.160000 12.900716 -2.631453 173.353012
2.920000 9.160000 -1.120000 16.468096 7.833570 332.563019
2.920000 9.160000 -1.080000 11.205811 20.793003 557.919189
2.920000 9.160000 -1.040000 -4.609295 28.633854 841.143188
2.920000 9.160000 -1.000000 -25.400942 22.726238 1161.689697
2.920000 9.160000 -0.960000 -38.574829 1.081329 1489.186768
2.920000 9.160000 -0.920000 -32.723640 -26.591412 1777.939819
2.920000 9.160000 -0.880000 -7.959659 -43.547451 1959.736694
2.920000 9.160000 -0.840000 21.848217 -38.481606 1958.178589
2.920000 9.160000 -0.800000 38.795540 -15.107657 1733.335205
2.920000 9.200000 -1.200000 15.877030 -1.488111 254.294571
2.920000 9.200000 -1.160000 10.667097 9.356725 201.335251
2.920000 9.200000 -1.120000 0.697493 12.785555 163.956909
2.920000 9.200000 -1.080000 -7.848097 9.784663 157.332260
2.920000 9.200000 -1.040000 -13.373648 3.743837 192.870758
2.920000 9.200000 -1.000000 -16.509895 -4.608940 293.818970
2.920000 9.200000 -0.960000 -15.287601 -16.039713 490.983154
2.920000 9.200000 -0.920000 -5.532876 -27.521908 788.068115
2.920000 9.200000 -0.880000 12.865999 -30.974621 1124.961060
2.920000 9.200000 -0.840000 31.531300 -19.770912 1385.111816
2.920000 9.200000 -0.800000 38.052624 3.067266 1457.410278
2.960000 8.800000 -1.200000 -49.879940 56.483589 5678.404297
2.960000 8.800000 -1.160000 -53.775768 21.989021 3375.350342
2.960000 8.800000 -1.120000 -34.701988 0.609104 1204.598999
2.960000 8.800000 -1.080000 -14.033699 2.614761 203.781677
2.960000 8.800000 -1.040000 -10.064365 15.397942 338.388062
2.960000 8.800000 -1.000000 -20.057632 18.576691 747.402100
2.960000 8.800000 -0.960000 -25.458496 6.643242 692.267700
2.960000 8.800000 -0.920000 -14.309998 -5.666606 236.886459
2.960000 8.800000 -0.880000 4.224878 -1.229195 19.360516
2.960000 8.800000 -0.840000 9.795694 18.575022 440.987061
2.960000 8.800000 -0.800000 -5.647167 33.781902 1173.107422
2.960000 8.840000 -1.200000 -71.806671 8.081848 5221.514648
2.960000 8.840000 -1.160000 -51.759033 -8.026441 2743.421387
2.960000 8.840000 -1.120000 -38.349335 -2.035483 1474.814697
2.960000 8.840000 -1.080000 -45.750881 5.259159 2120.801758
2.960000 8.840000 -1.040000 -60.843510 -7.823334 3763.137207
2.960000 8.840000 -1.000000 -57.114540 -38.226387 4723.327637
2.960000 8.840000 -0.960000 -24.806046 -58.735634 4065.214600
2.960000 8.840000 -0.920000 15.184364 -45.972328 2344.020020
2.960000 8.840000 -0.880000 30.111694 -6.693790 951.520935
2.960000 8.840000 -0.840000 8.473221 26.309641 763.992676
2.960000 8.840000 -0.800000 -27.348816 25.872749 1417.356934
2.960000 8.880000 -1.200000 -50.144257 -39.962955 4111.484375
2.960000 8.880000 -1.160000 -32.064911 -25.278406 1667.156372
2.960000 8.880000 -1.120000 -46.217915 -9.871912 2233.550293
2.960000 8.880000 -1.080000 -74.042885 -26.966702 6209.551758
2.960000 8.880000 -1.040000 -74.538628 -74.894958 11165.261719
2.960000 8.880000 -1.000000 -27.942345 -113.526901 13669.131836
2.960000 8.880000 -0.960000 39.123554 -102.514732 12039.922852
2.960000 8.880000 -0.920000 75.549675 -43.369659 7588.680664
2.960000 8.880000 -0.880000 54.458298 18.733650 3316.656006
2.960000 8.880000 -0.840000 -0.609152 36.904724 1362.329712
2.960000 8.880000 -0.800000 -38.893219 6.251672 1551.765869
2.960000 8.920000 -1.200000 -2.878507 -54.292267 2955.936035
2.960000 8.920000 -1.160000 -11.864244 -23.963802 715.024109
2.960000 8.920000 -1.120000 -49.919071 -28.373837 3296.988281
2.960000 8.920000 -1.080000 -66.863228 -79.977249 10867.051758
2.960000 8.920000 -1.040000 -24.243578 -137.380737 19461.218750
2.960000 8.920000 -1.000000 60.445877 -141.825928 23768.296875
2.960000 8.920000 -0.960000 124.230400 -76.059700 21218.269531
2.960000 8.920000 -0.920000 116.691849 14.701761 13833.128906
2.960000 8.920000 -0.880000 48.173904 63.092064 6301.333984
2.960000 8.920000 -0.840000 -20.657593 41.759438 2170.586670
2.960000 8.920000 -0.800000 -37.027763 -14.521811 1581.938354
2.960000 8.960000 -1.200000 33.913578 -30.809155 2099.334717
2.960000 8.960000 -1.160000 -3.249161 -14.071491 208.563919
2.960000 8.960000 -1.120000 -37.939880 -51.345783 4075.823975
2.960000 8.960000 -1.080000 -16.858463 -115.787460 13690.944336
2.960000 8.960000 -1.040000 64.036835 -142.155029 24308.769531
2.960000 8.960000 -1.000000 147.039551 -89.802185 29685.062500
2.960000 8.960000 -0.960000 163.146057 13.186487 26790.519531
2.960000 8.960000 -0.920000 97.500771 91.836151 17940.279297
2.960000 8.960000 -0.880000 4.099546 92.604454 8592.391602
2.960000 8.960000 -0.840000 -45.320869 30.727825 2998.180420
2.960000 8.960000 -0.800000 -26.709118 -29.416487 1578.706665
2.960000 9.000000 -1.200000 38.321964 5.063275 1494.209717
2.960000 9.000000 -1.160000 -3.748120 -8.325964 83.370087
2.960000 9.000000 -1.120000 -9.063677 -62.736622 4018.033936
2.960000 9.000000 -1.080000 47.534973 -104.435593 13166.367188
2.960000 9.000000 -1.040000 129.916687 -79.231041 23155.902344
2.960000 9.000000 -1.000000 167.907990 11.280828 28320.351562
2.960000 9.000000 -0.960000 122.413467 104.500366 25905.382812
2.960000 9.000000 -0.920000 24.314341 131.674438 17929.345703
2.960000 9.000000 -0.880000 -52.888847 80.181763 9226.345703
2.960000 9.000000 -0.840000 -60.149689 1.983006 3621.917480
2.960000 9.000000 -0.800000 -13.407877 -38.435661 1657.071167
2.960000 9.040000 -1.200000 18.579365 24.525860 946.710632
2.960000 9.040000 -1.160000 -3.139935 -8.976200 90.431358
2.960000 9.040000 -1.120000 22.238607 -50.823120 3077.545166
2.960000 9.040000 -1.080000 84.124962 -51.478580 9727.053711
2.960000 9.040000 -1.040000 129.970245 8.192192 16959.376953
2.960000 9.040000 -1.000000 111.412659 91.889587 20856.476562
2.960000 9.040000 -0.960000 31.763922 136.004745 19506.238281
2.960000 9.040000 -0.920000 -53.399960 106.581329 14211.135742
2.960000 9.040000 -0.880000 -85.218750 29.913517 8157.053711
2.960000 9.040000 -0.840000 -52.840359 -33.267975 3898.861816
2.960000 9.040000 -0.800000 2.329857 -43.615173 1907.711548
2.960000 9.080000 -1.200000 -0.415792 20.528755 421.602661
2.960000 9.080000 -1.160000 2.934983 -8.364923 78.586075
2.960000 9.080000 -1.120000 36.325123 -21.037796 1762.103394
2.960000 9.080000 -1.080000 72.741714 5.984833 5327.175293
2.960000 9.080000 -1.040000 73.600769 61.703899 9224.444336
2.960000 9.080000 -1.000000 25.211666 104.343941 11523.286133
2.960000 9.080000 -0.960000 -44.188568 96.489792 11262.910156
2.960000 9.080000 -0.920000 -86.178055 39.591198 8994.120117
2.960000 9.080000 -0.880000 -73.813034 -26.140139 6131.670410
2.960000 9.080000 -0.840000 -23.678181 -57.087463 3819.634766
2.960000 9.080000 -0.800000 22.150009 -42.823830 2324.503174
2.960000 9.120000 -1.200000 -3.169001 8.328629 79.408615
2.960000 9.120000 -1.160000 8.462018 -0.703864 72.101173
2.960000 9.120000 -1.120000 25.917862 6.715044 716.827393
2.960000 9.120000 -1.080000 30.988491 31.593636 1958.444336
2.960000 9.120000 -1.040000 10.302616 57.054356 3361.343262
2.960000 9.120000 -1.000000 -29.485603 59.332413 4389.735840
2.960000 9.120000 -0.960000 -62.795506 28.584623 4760.356445
2.960000 9.120000 -0.920000 -64.605881 -19.721830 4562.870605
2.960000 9.120000 -0.880000 -31.825546 -55.322323 4073.424805
2.960000 9.120000 -0.840000 13.569939 -57.396294 3478.477783
2.960000 9.120000 -0.800000 43.070774 -30.555187 2788.710938
2.960000 9.160000 -1.200000 4.874258 5.047672 49.237389
2.960000 9.160000 -1.160000 5.786538 9.743855 128.426743
2.960000 9.160000 -1.120000 3.116846 15.166180 239.727722
2.960000 9.160000 -1.080000 -4.293795 19.577744 401.724731
2.960000 9.160000 -1.040000 -16.842583 18.708603 633.684387
2.960000 9.160000 -1.000000 -30.030180 7.145578 952.870972
2.960000 9.160000 -0.960000 -33.856297 -15.388157 1383.044189
2.960000 9.160000 -0.920000 -19.700897 -39.297638 1932.429688
2.960000 9.160000 -0.880000 10.292941 -49.250854 2531.591309
2.960000 9.160000 -0.840000 41.311134 -35.977615 3000.998535
2.960000 9.160000 -0.800000 55.604221 -5.271293 3119.615967
2.960000 9.200000 -1.200000 8.957342 12.261744 230.584335
2.960000 9.200000 -1.160000 -3.789140 13.643723 200.508743
2.960000 9.200000 -1.120000 -11.847845 4.802975 163.440002
2.960000 9.200000 -1.080000 -10.680506 -5.337210 142.559021
2.960000 9.200000 -1.040000 -5.437292 -10.328825 136.248764
2.960000 9.200000 -1.000000 -2.202190 -12.715441 166.532074
2.960000 9.200000 -0.960000 0.952724 -18.311626 336.223358
2.960000 9.200000 -0.920000 11.586100 -25.624046 790.829468
2.960000 9.200000 -0.880000 31.408543 -24.206266 1572.439941
2.960000 9.200000 -0.840000 49.592270 -5.541064 2490.096680
2.960000 9.200000 -0.800000 50.390594 25.029022 3165.663818
3.000000 8.800000 -1.200000 -82.494034 13.202910 6979.582520
3.000000 8.800000 -1.160000 -63.903023 -21.719608 4555.337891
3.000000 8.800000 -1.120000 -32.136845 -30.877823 1986.216675
3.000000 8.800000 -1.080000 -12.054089 -17.796783 462.026550
3.000000 8.800000 -1.040000 -12.332336 -3.789948 166.450226
3.000000 8.800000 -1.000000 -19.315628 -4.481953 393.181366
3.000000 8.800000 -0.960000 -14.847046 -13.882351 413.154419
3.000000 8.800000 -0.920000 1.859947 -13.272308 179.613571
3.000000 8.800000 -0.880000 12.879701 5.303791 194.016891
3.000000 8.800000 -0.840000 2.436472 27.690781 772.715759
3.000000 8.800000 -0.800000 -23.479309 31.823168 1563.991943
3.000000 8.840000 -1.200000 -70.572716 -43.814983 6900.261230
3.000000 8.840000 -1.160000 -41.088661 -47.718018 3965.287354
3.000000 8.840000 -1.120000 -30.113220 -35.304768 2153.232666
3.000000 8.840000 -1.080000 -37.702934 -33.144680 2520.081055
3.000000 8.840000 -1.040000 -39.741753 -51.843719 4267.178223
3.000000 8.840000 -1.000000 -15.967415 -72.584747 5523.503906
3.000000 8.840000 -0.960000 24.544327 -66.576309 5034.828613
3.000000 8.840000 -0.920000 49.209221 -27.736725 3190.873291
3.000000 8.840000 -0.880000 34.716835 16.844261 1488.987793
3.000000 8.840000 -0.840000 -7.357119 31.540428 1048.925781
3.000000 8.840000 -0.800000 -39.959602 7.358622 1650.919067
3.000000 8.880000 -1.200000 -20.376894 -73.615982 5834.530762
3.000000 8.880000 -1.160000 -10.398157 -50.582336 2666.694336
3.000000 8.880000 -1.120000 -29.312508 -45.115059 2894.591553
3.000000 8.880000 -1.080000 -41.025642 -75.470467 7378.895020
3.000000 8.880000 -1.040000 -10.840515 -115.471024 13451.074219
3.000000 8.880000 -1.000000 53.771431 -118.250870 16874.634766
3.000000 8.880000 -0.960000 104.706284 -65.407898 15241.599609
3.000000 8.880000 -0.920000 98.573219 9.739265 9811.533203
3.000000 8.880000 -0.880000 40.403282 50.967705 4230.132324
3.000000 8.880000 -0.840000 -19.700832 32.191208 1424.396729
3.000000 8.880000 -0.800000 -34.245369 -18.925461 1530.918335
3.000000 8.920000 -1.200000 32.428753 -57.869781 4400.535645
3.000000 8.920000 -1.160000 9.328890 -35.762665 1365.996338
3.000000 8.920000 -1.120000 -19.567841 -60.786098 4077.850098
3.000000 8.920000 -1.080000 -2.510162 -114.526138 13122.537109
3.000000 8.920000 -1.040000 69.813286 -137.772003 23855.019531
3.000000 8.920000 -1.000000 146.928757 -89.411324 29582.443359
3.000000 8.920000 -0.960000 163.252777 7.827621 26712.740234
3.000000 8.920000 -0.920000 101.856888 83.921265 17417.603516
3.000000 8.920000 -0.880000 12.453024 86.095581 7567.526855
3.000000 8.920000 -0.840000 -35.370522 27.021673 1981.244629
3.000000 8.920000 -0.800000 -16.481924 -31.088348 1238.139160
3.000000 8.960000 -1.200000 53.882812 -13.988251 3099.028564
3.000000 8.960000 -1.160000 13.247807 -19.057749 538.702148
3.000000 8.960000 -1.120000 5.352178 -70.287949 4969.041504
3.000000 8.960000 -1.080000 61.975124 -113.167686 16647.839844
3.000000 8.960000 -1.040000 148.904144 -87.793526 29880.146484
3.000000 8.960000 -1.000000 191.741455 8.105572 36830.484375
3.000000 8.960000 -0.960000 146.149307 109.795113 33414.585938
3.000000 8.960000 -0.920000 42.506664 142.898010 22226.658203
3.000000 8.960000 -0.880000 -41.063282 91.715599 10097.944336
3.000000 8.960000 -0.840000 -50.796654 10.716072 2695.134277
3.000000 8.960000 -0.800000 -2.689955 -30.512800 938.266846
3.000000 9.000000 -1.200000 39.053680 23.505823 2077.713623
3.000000 9.000000 -1.160000 10.129829 -9.998476 202.582962
3.000000 9.000000 -1.120000 36.285862 -59.171452 4817.924805
3.000000 9.000000 -1.080000 109.553101 -62.401566 15895.836914
3.000000 9.000000 -1.040000 167.700500 7.674673 28182.357422
3.000000 9.000000 -1.000000 150.059540 110.325821 34689.652344
3.000000 9.000000 -0.960000 57.277550 168.981293 31835.394531
3.000000 9.000000 -0.920000 -45.723976 140.679047 21881.275391
3.000000 9.000000 -0.880000 -88.163452 54.601639 10754.132812
3.000000 9.000000 -0.840000 -55.743587 -17.866501 3426.559570
3.000000 9.000000 -0.800000 3.417699 -30.024002 913.121338
3.000000 9.040000 -1.200000 10.434475 33.926018 1259.853027
3.000000 9.040000 -1.160000 8.912850 -5.583169 110.610680
3.000000 9.040000 -1.120000 52.971485 -27.191814 3545.373047
3.000000 9.040000 -1.080000 106.539398 6.715963 11395.748047
3.000000 9.040000 -1.040000 113.593704 84.490196 20042.123047
3.000000 9.040000 -1.000000 51.567474 148.852295 24816.210938
3.000000 9.040000 -0.960000 -43.164791 146.513428 23329.382812
3.000000 9.040000 -0.920000 -105.087364 76.992661 16971.224609
3.000000 9.040000 -0.880000 -97.027405 -7.274483 9467.235352
3.000000 9.040000 -0.840000 -39.857430 -49.149521 4004.290039
3.000000 9.040000 -0.800000 12.480234 -35.506695 1416.481567
3.000000 9.080000 -1.200000 -7.114923 23.640648 609.502380
3.000000 9.080000 -1.160000 8.870092 1.001631 79.681801
3.000000 9.080000 -1.120000 42.442867 7.131166 1852.250488
3.000000 9.080000 -1.080000 58.686752 48.375793 5784.352539
3.000000 9.080000 -1.040000 30.448311 96.135239 10169.083984
3.000000 9.080000 -1.000000 -33.254280 108.447403 12866.685547
3.000000 9.080000 -0.960000 -90.636108 67.391006 12756.452148
3.000000 9.080000 -0.920000 -101.624588 -3.170551 10337.609375
3.000000 9.080000 -0.880000 -61.712814 -57.296982 7091.415527
3.000000 9.080000 -0.840000 -3.614440 -65.632286 4320.661133
3.000000 9.080000 -0.800000 33.487980 -36.729370 2470.491455
3.000000 9.120000 -1.200000 -7.745487 12.475973 215.642471
3.000000 9.120000 -1.160000 3.752711 9.353325 101.567528
3.000000 9.120000 -1.120000 13.096317 21.372931 628.315674
3.000000 9.120000 -1.080000 5.639019 41.566952 1759.610107
3.000000 9.120000 -1.040000 -21.958641 51.279675 3111.786865
3.000000 9.120000 -1.000000 -54.862267 34.674294 4212.174805
3.000000 9.120000 -0.960000 -69.019005 -6.002506 4799.653320
3.000000 9.120000 -0.920000 -50.128746 -48.996349 4913.533203
3.000000 9.120000 -0.880000 -6.288263 -68.502953 4732.196777
3.000000 9.120000 -0.840000 37.511131 -54.328804 4358.704102
3.000000 9.120000 -0.800000 58.525925 -18.623024 3772.101074
3.000000 9.160000 -1.200000 -3.024823 11.562981 142.852066
3.000000 9.160000 -1.160000 -7.138573 12.179546 199.300568
3.000000 9.160000 -1.120000 -11.481717 9.958507 231.001678
3.000000 9.160000 -1.080000 -15.355053 6.047094 272.345001
3.000000 9.160000 -1.040000 -19.586742 -0.404995 383.804504
3.000000 9.160000 -1.000000 -22.051981 -12.449593 641.282227
3.000000 9.160000 -0.960000 -15.916637 -29.821316 1142.650146
3.000000 9.160000 -0.920000 4.609058 -44.112000 1967.111938
3.000000 9.160000 -0.880000 35.569881 -42.390041 3062.132080
3.000000 9.160000 -0.840000 61.755760 -18.405746 4152.545410
3.000000 9.160000 -0.800000 66.681641 19.133596 4812.536133
3.000000 9.200000 -1.200000 -4.187319 16.090050 276.423340
3.000000 9.200000 -1.160000 -15.842174 5.814573 284.783722
3.000000 9.200000 -1.120000 -14.293276 -10.639799 317.503052
3.000000 9.200000 -1.080000 -1.136686 -19.779308 392.513092
3.000000 9.200000 -1.040000 11.881825 -17.216923 437.600220
3.000000 9.200000 -1.000000 17.012156 -11.028149 411.033478
3.000000 9.200000 -0.960000 19.201605 -10.166061 472.050415
3.000000 9.200000 -0.920000 28.715281 -11.766720 963.023010
3.000000 9.200000 -0.880000 45.937134 -3.020901 2119.345947
3.000000 9.200000 -0.840000 56.556461 23.199032 3736.828369
3.000000 9.200000 -0.800000 44.471180 56.351292 5153.153809
3.040000 8.800000 -1.200000 -75.014572 -37.437019 7028.716309
3.040000 8.800000 -1.160000 -40.016068 -58.737335 5051.360352
3.040000 8.800000 -1.120000 -5.796139 -51.144421 2649.346924
3.040000 8.800000 -1.080000 8.302776 -29.048424 912.747009
3.040000 8.800000 -1.040000 4.320641 -13.891066 211.629639
3.040000 8.800000 -1.000000 -0.411537 -12.593779 158.772614
3.040000 8.800000 -0.960000 5.425369 -13.285976 205.951797
3.040000 8.800000 -0.920000 14.374234 -2.190449 211.416672
3.040000 8.800000 -0.880000 10.048882 17.941650 422.882843
3.040000 8.800000 -0.840000 -11.897545 29.104137 988.602417
3.040000 8.800000 -0.800000 -35.858593 18.010771 1610.226562
3.040000 8.840000 -1.200000 -34.431908 -77.614128 7209.509277
3.040000 8.840000 -1.160000 -5.582121 -67.783554 4625.770508
3.040000 8.840000 -1.120000 1.463819 -51.942455 2700.161377
3.040000 8.840000 -1.080000 -1.765049 -50.707558 2574.371826
3.040000 8.840000 -1.040000 7.312271 -61.276031 3808.221191
3.040000 8.840000 -1.000000 34.456497 -60.684860 4869.902344
3.040000 8.840000 -0.960000 58.957855 -32.933517 4560.645508
3.040000 8.840000 -0.920000 54.270622 9.499176 3035.534912
3.040000 8.840000 -0.880000 17.757055 34.511913 1506.385132
3.040000 8.840000 -0.840000 -22.907310 21.930717 1005.701233
3.040000 8.840000 -0.800000 -35.100620 -15.082162 1459.525146
3.040000 8.880000 -1.200000 22.723103 -75.705574 6247.673340
3.040000 8.880000 -1.160000 22.903322 -52.992027 3332.717285
3.040000 8.880000 -1.120000 9.074615 -56.145592 3234.676025
3.040000 8.880000 -1.080000 17.133278 -81.828697 6989.484863
3.040000 8.880000 -1.040000 60.134491 -93.603706 12377.811523
3.040000 8.880000 -1.000000 108.980896 -60.442043 15530.076172
3.040000 8.880000 -0.960000 118.411980 6.625774 14065.297852
3.040000 8.880000 -0.920000 73.359612 60.031361 8985.396484
3.040000 8.880000 -0.880000 7.233759 60.134411 3668.474609
3.040000 8.880000 -0.840000 -28.242132 13.783896 987.613831
3.040000 8.880000 -0.800000 -11.735601 -32.714230 1207.945190
3.040000 8.920000 -1.200000 58.617977 -35.748833 4714.045898
3.040000 8.920000 -1.160000 32.876060 -28.888821 1915.399292
3.040000 8.920000 -1.120000 25.124905 -60.067711 4239.390625
3.040000 8.920000 -1.080000 65.696373 -89.950249 12407.060547
3.040000 8.920000 -1.040000 132.158020 -69.079185 22237.675781
3.040000 8.920000 -1.000000 165.567276 8.207520 27479.886719
3.040000 8.920000 -0.960000 127.780174 91.289253 24661.500000
3.040000 8.920000 -0.920000 41.810425 118.343506 15753.296875
3.040000 8.920000 -0.880000 -27.441677 74.845047 6354.827148
3.040000 8.920000 -0.840000 -33.643116 6.330647 1171.936279
3.040000 8.920000 -0.800000 10.060063 -26.916071 825.679749
3.040000 8.960000 -1.200000 55.398453 11.285631 3196.354004
3.040000 8.960000 -1.160000 28.487595 -10.639013 924.731628
3.040000 8.960000 -1.120000 48.625648 -51.482033 5014.853516
3.040000 8.960000 -1.080000 113.270859 -54.004318 15746.753906
3.040000 8.960000 -1.040000 166.634506 10.451401 27876.291016
3.040000 8.960000 -1.000000 150.922760 106.518753 34123.925781
3.040000 8.960000 -0.960000 64.706535 162.746613 30673.394531
3.040000 8.960000 -0.920000 -31.760427 137.701538 19970.437500
3.040000 8.960000 -0.880000 -71.320641 58.411072 8498.487305
3.040000 8.960000 -0.840000 -40.404915 -7.114824 1683.177856
3.040000 8.960000 -0.800000 14.265186 -14.391872 410.621521
3.040000 9.000000 -1.200000 26.259331 36.125443 1994.600098
3.040000 9.000000 -1.160000 20.961235 -1.370651 441.252075
3.040000 9.000000 -1.120000 64.742126 -24.027845 4768.880371
3.040000 9.000000 -1.080000 121.480911 11.158522 14882.124023
3.040000 9.000000 -1.040000 130.542572 94.493279 25970.343750
3.040000 9.000000 -1.000000 65.828423 165.411514 31694.349609
3.040000 9.000000 -0.960000 -34.881046 166.202332 28839.902344
3.040000 9.000000 -0.920000 -101.724777 95.763153 19518.511719
3.040000 9.000000 -0.880000 -95.345001 9.997276 9190.614258
3.040000 9.000000 -0.840000 -38.919315 -30.816631 2464.377930
3.040000 9.000000 -0.800000 9.793859 -14.606228 309.261536
3.040000 9.040000 -1.200000 -1.793808 33.657806 1136.065674
3.040000 9.040000 -1.160000 15.028480 4.834706 249.229568
3.040000 9.040000 -1.120000 57.262733 10.941280 3398.732422
3.040000 9.040000 -1.080000 79.868111 62.915779 10337.310547
3.040000 9.040000 -1.040000 46.571835 125.286598 17865.667969
3.040000 9.040000 -1.000000 -32.251923 144.621033 21955.429688
3.040000 9.040000 -0.960000 -104.492020 98.304871 20582.429688
3.040000 9.040000 -0.920000 -121.209015 16.238598 14955.317383
3.040000 9.040000 -0.880000 -78.592743 -45.894524 8283.126953
3.040000 9.040000 -0.840000 -17.251919 -55.234570 3348.486328
3.040000 9.040000 -0.800000 17.828430 -25.381828 962.090088
3.040000 9.080000 -1.200000 -13.203465 19.877872 569.461304
3.040000 9.080000 -1.160000 7.033665 11.063164 171.866028
3.040000 9.080000 -1.120000 26.811842 30.710957 1662.037720
3.040000 9.080000 -1.080000 18.122528 67.313957 4859.594727
3.040000 9.080000 -1.040000 -25.352467 88.042694 8394.263672
3.040000 9.080000 -1.000000 -78.279297 67.018890 10619.179688
3.040000 9.080000 -0.960000 -102.899025 9.843590 10685.105469
3.040000 9.080000 -0.920000 -80.668945 -49.283089 8936.300781
3.040000 9.080000 -0.880000 -27.152395 -75.502129 6437.823730
3.040000 9.080000 -0.840000 22.753433 -60.363983 4161.529297
3.040000 9.080000 -0.800000 43.999146 -24.143991 2518.857178
3.040000 9.120000 -1.200000 -12.352435 11.322556 280.782928
3.040000 9.120000 -1.160000 -5.451662 12.682369 190.563110
3.040000 9.120000 -1.120000 -5.767874 22.137993 523.359070
3.040000 9.120000 -1.080000 -19.309608 29.445488 1239.897705
3.040000 9.120000 -1.040000 -40.616261 21.963612 2132.080811
3.040000 9.120000 -1.000000 -54.414619 -4.342918 2979.811768
3.040000 9.120000 -0.960000 -46.219406 -39.214348 3673.998535
3.040000 9.120000 -0.920000 -14.071344 -63.371578 4213.959961
3.040000 9.120000 -0.880000 28.326460 -61.639431 4601.807617
3.040000 9.120000 -0.840000 60.154305 -33.755898 4758.000977
3.040000 9.120000 -0.800000 67.265686 5.604939 4556.087891
3.040000 9.160000 -1.200000 -11.365452 10.526617 239.983154
3.040000 9.160000 -1.160000 -16.588528 4.977608 299.955841
3.040000 9.160000 -1.120000 -17.267334 -4.240981 316.146759
3.040000 9.160000 -1.080000 -12.787773 -12.493277 319.609100
3.040000 9.160000 -1.040000 -6.371771 -17.990826 364.269257
3.040000 9.160000 -1.000000 0.657439 -23.187325 538.084290
3.040000 9.160000 -0.960000 12.077042 -29.219002 999.604980
3.040000 9.160000 -0.920000 31.832785 -30.330173 1933.245605
3.040000 9.160000 -0.880000 55.558315 -16.832077 3370.045166
3.040000 9.160000 -0.840000 69.278015 14.222584 5001.725098
3.040000 9.160000 -0.800000 59.576157 51.657852 6217.852051
3.040000 9.200000 -1.200000 -14.700054 10.123547 318.577789
3.040000 9.200000 -1.160000 -17.820879 -7.565095 374.814392
3.040000 9.200000 -1.120000 -4.247611 -23.212708 556.871948
3.040000 9.200000 -1.080000 17.321140 -23.833784 868.071167
3.040000 9.200000 -1.040000 31.733379 -10.476135 1116.756836
3.040000 9.200000 -1.000000 33.363621 3.979454 1128.967285
3.040000 9.200000 -0.960000 30.957226 10.305914 1064.561768
3.040000 9.200000 -0.920000 35.398064 13.865944 1445.287354
3.040000 9.200000 -0.880000 44.317799 27.716793 2732.287842
3.040000 9.200000 -0.840000 41.999878 54.935547 4781.904297
3.040000 9.200000 -0.800000 16.254723 80.421112 6731.770996
3.080000 8.800000 -1.200000 -38.537476 -64.126007 5597.282227
3.080000 8.800000 -1.160000 -0.157589 -66.468567 4418.095215
3.080000 8.800000 -1.120000 26.515152 -45.163597 2742.803711
3.080000 8.800000 -1.080000 31.046585 -18.419830 1303.180664
3.080000 8.800000 -1.040000 21.693874 -2.637256 477.579285
3.080000 8.800000 -1.000000 13.609001 1.421574 187.225784
3.080000 8.800000 -0.960000 12.109304 4.754570 169.241196
3.080000 8.800000 -0.920000 9.138592 14.253716 286.682281
3.080000 8.800000 -0.880000 -4.191759 23.378353 564.118286
3.080000 8.800000 -0.840000 -24.207371 19.854359 980.192383
3.080000 8.800000 -0.800000 -36.325291 1.255408 1321.102783
3.080000 8.840000 -1.200000 9.220735 -75.843163 5837.207520
3.080000 8.840000 -1.160000 30.616936 -57.398216 4231.952148
3.080000 8.840000 -1.120000 33.907223 -39.811203 2734.631592
3.080000 8.840000 -1.080000 32.723026 -33.863064 2217.503418
3.080000 8.840000 -1.040000 40.432335 -31.382597 2619.641113
3.080000 8.840000 -1.000000 53.045025 -17.096771 3106.074219
3.080000 8.840000 -0.960000 52.807041 10.559937 2900.095703
3.080000 8.840000 -0.920000 29.250420 33.619759 1985.875244
3.080000 8.840000 -0.880000 -5.606615 31.705803 1036.692017
3.080000 8.840000 -0.840000 -25.974396 4.401976 694.046631
3.080000 8.840000 -0.800000 -17.104713 -25.746231 955.439636
3.080000 8.880000 -1.200000 50.579552 -50.034363 5061.728516
3.080000 8.880000 -1.160000 46.377602 -32.936062 3235.666016
3.080000 8.880000 -1.120000 41.357521 -36.091553 3013.044922
3.080000 8.880000 -1.080000 56.816681 -44.614601 5218.597656
3.080000 8.880000 -1.040000 86.970413 -31.155626 8534.525391
3.080000 8.880000 -1.000000 101.514236 11.667084 10441.261719
3.080000 8.880000 -0.960000 77.000755 58.128872 9308.082031
3.080000 8.880000 -0.920000 24.359865 71.939766 5768.732910
3.080000 8.880000 -0.880000 -17.937920 42.518555 2129.596436
3.080000 8.880000 -0.840000 -19.788145 -2.933887 400.178375
3.080000 8.880000 -0.800000 11.969208 -25.025579 769.541504
3.080000 8.920000 -1.200000 60.766491 -6.154762 3730.447510
3.080000 8.920000 -1.160000 44.381477 -9.215340 2054.638184
3.080000 8.920000 -1.120000 53.263611 -28.785965 3665.644043
3.080000 8.920000 -1.080000 91.185097 -28.030853 9100.450195
3.080000 8.920000 -1.040000 123.855858 15.277981 15573.690430
3.080000 8.920000 -1.000000 111.392349 80.239319 18846.603516
3.080000 8.920000 -0.960000 50.729156 118.304321 16569.359375
3.080000 8.920000 -0.920000 -16.934113 99.465736 10180.197266
3.080000 8.920000 -0.880000 -43.370010 42.240639 3665.229492
3.080000 8.920000 -0.840000 -18.278149 -3.751153 348.161865
3.080000 8.920000 -0.800000 23.427540 -5.090635 574.764160
3.080000 8.960000 -1.200000 40.797340 26.866453 2386.229248
3.080000 8.960000 -1.160000 33.943260 4.941350 1176.561890
3.080000 8.960000 -1.120000 63.852119 -9.883659 4174.779785
3.080000 8.960000 -1.080000 105.720100 17.949635 11498.928711
3.080000 8.960000 -1.040000 111.961449 83.785477 19555.371094
3.080000 8.960000 -1.000000 60.103706 140.742676 23420.955078
3.080000 8.960000 -0.960000 -20.836573 142.016418 20602.826172
3.080000 8.960000 -0.920000 -74.422516 86.042397 12942.004883
3.080000 8.960000 -0.880000 -68.471634 18.550760 5032.495605
3.080000 8.960000 -0.840000 -22.836485 -10.727587 636.586182
3.080000 8.960000 -0.800000 13.509390 7.165615 233.849655
3.080000 9.000000 -1.200000 11.649622 34.989418 1359.973145
3.080000 9.000000 -1.160000 23.447083 11.990715 693.542969
3.080000 9.000000 -1.120000 59.608906 18.164291 3883.163086
3.080000 9.000000 -1.080000 79.652611 66.105980 10714.539062
3.080000 9.000000 -1.040000 48.932442 124.630295 17927.093750
3.080000 9.000000 -1.000000 -24.176201 144.186523 21374.242188
3.080000 9.000000 -0.960000 -91.610229 103.333160 19070.175781
3.080000 9.000000 -0.920000 -108.049683 30.014099 12575.580078
3.080000 9.000000 -0.880000 -70.989716 -23.923552 5611.875977
3.080000 9.000000 -0.840000 -19.525200 -29.317034 1240.721924
3.080000 9.000000 -0.800000 4.855917 -1.621858 26.210354
3.080000 9.040000 -1.200000 -7.356474 25.767130 718.062744
3.080000 9.040000 -1.160000 12.925280 16.696180 445.825317
3.080000 9.040000 -1.120000 34.399628 38.914799 2697.695801
3.080000 9.040000 -1.080000 24.820786 80.931580 7165.991699
3.080000 9.040000 -1.040000 -23.761484 105.988426 11798.155273
3.080000 9.040000 -1.000000 -83.128685 85.147339 14160.447266
3.080000 9.040000 -0.960000 -111.697861 25.325829 13117.809570
3.080000 9.040000 -0.920000 -90.756866 -35.424965 9491.736328
3.080000 9.040000 -0.880000 -39.447098 -60.879810 5262.424805
3.080000 9.040000 -0.840000 4.635990 -45.818790 2120.854004
3.080000 9.040000 -0.800000 18.639297 -14.909241 569.708862
3.080000 9.080000 -1.200000 -13.044873 14.767904 388.259705
3.080000 9.080000 -1.160000 -0.535074 17.538513 307.885773
3.080000 9.080000 -1.120000 0.619854 35.687351 1273.971313
3.080000 9.080000 -1.080000 -20.876163 51.547333 3092.941650
3.080000 9.080000 -1.040000 -55.479156 44.008205 5014.659180
3.080000 9.080000 -1.000000 -78.520432 8.350182 6235.183594
3.080000 9.080000 -0.960000 -70.421463 -37.667068 6377.990723
3.080000 9.080000 -0.920000 -33.012817 -67.266754 5614.662598
3.080000 9.080000 -0.880000 12.381042 -65.316269 4419.504883
3.080000 9.080000 -0.840000 42.222588 -37.978298 3225.098145
3.080000 9.080000 -0.800000 47.182835 -4.658678 2247.923340
3.080000 9.120000 -1.200000 -13.928560 9.230497 279.206879
3.080000 9.120000 -1.160000 -13.773104 9.627180 282.380981
3.080000 9.120000 -1.120000 -18.625546 9.714289 441.278351
3.080000 9.120000 -1.080000 -26.633089 3.611725 722.365967
3.080000 9.120000 -1.040000 -31.117714 -11.131245 1092.216797
3.080000 9.120000 -1.000000 -24.792450 -30.722824 1558.557495
3.080000 9.120000 -0.960000 -4.754812 -46.205181 2157.526855
3.080000 9.120000 -0.920000 24.578421 -47.898338 2898.349609
3.080000 9.120000 -0.880000 52.344025 -30.979542 3699.628906
3.080000 9.120000 -0.840000 66.097015 0.636312 4369.220215
3.080000 9.120000 -0.800000 58.662605 34.907383 4659.826660
3.080000 9.160000 -1.200000 -16.258736 5.658430 296.364319
3.080000 9.160000 -1.160000 -18.167568 -5.546268 360.821625
3.080000 9.160000 -1.120000 -11.036129 -17.819542 439.332214
3.080000 9.160000 -1.080000 3.182076 -23.605431 567.341980
3.080000 9.160000 -1.040000 17.309883 -20.752312 730.290527
3.080000 9.160000 -1.000000 26.904945 -13.883558 916.629272
3.080000 9.160000 -0.960000 34.597832 -7.380793 1251.486084
3.080000 9.160000 -0.920000 44.823647 1.476480 2011.339233
3.080000 9.160000 -0.880000 54.751011 19.831694 3390.969238
3.080000 9.160000 -0.840000 53.101002 48.584927 5180.211426
3.080000 9.160000 -0.800000 30.559540 75.894287 6693.828125
3.080000 9.200000 -1.200000 -17.957100 -0.151855 322.480499
3.080000 9.200000 -1.160000 -10.152919 -17.508183 409.618225
3.080000 9.200000 -1.120000 11.808397 -24.791035 754.033630
3.080000 9.200000 -1.080000 34.418442 -13.524774 1367.548584
3.080000 9.200000 -1.040000 43.173145 9.290594 1950.235718
3.080000 9.200000 -1.000000 36.738518 28.443258 2158.737549
3.080000 9.200000 -0.960000 26.745417 36.583199 2053.647705
3.080000 9.200000 -0.920000 23.092127 41.030376 2216.738281
3.080000 9.200000 -0.880000 21.456112 53.160973 3286.453857
3.080000 9.200000 -0.840000 7.873841 72.114861 5262.550781
3.080000 9.200000 -0.800000 -23.751160 81.909172 7273.229980
3.120000 8.800000 -1.200000 -2.060890 -57.678902 3331.103027
3.120000 8.800000 -1.160000 27.962496 -45.613853 2862.524658
3.120000 8.800000 -1.120000 41.801441 -18.680738 2096.330566
3.120000 8.800000 -1.080000 35.932159 6.777799 1337.058716
3.120000 8.800000 -1.040000 19.953552 19.549234 780.316833
3.120000 8.800000 -1.000000 5.895739 20.766804 466.019867
3.120000 8.800000 -0.960000 -2.335381 18.624846 352.338867
3.120000 8.800000 -0.920000 -9.134343 17.769247 399.182373
3.120000 8.800000 -0.880000 -18.518030 15.084409 570.456848
3.120000 8.800000 -0.840000 -27.474138 5.645907 786.704529
3.120000 8.800000 -0.800000 -28.845091 -9.193037 916.551147
3.120000 8.840000 -1.200000 32.586510 -49.277000 3490.103271
3.120000 8.840000 -1.160000 45.306847 -28.826227 2883.661865
3.120000 8.840000 -1.120000 44.426041 -10.541651 2084.799561
3.120000 8.840000 -1.080000 39.009701 -0.062613 1521.760620
3.120000 8.840000 -1.040000 35.619987 7.315144 1322.294922
3.120000 8.840000 -1.000000 31.261581 17.470982 1282.521729
3.120000 8.840000 -0.960000 19.002493 27.666359 1126.522217
3.120000 8.840000 -0.920000 -0.624992 28.119165 791.078064
3.120000 8.840000 -0.880000 -16.464294 13.720154 459.315613
3.120000 8.840000 -0.840000 -16.686989 -7.634662 336.743652
3.120000 8.840000 -0.800000 -1.473405 -20.527512 423.549652
3.120000 8.880000 -1.200000 50.973896 -20.047295 3000.232178
3.120000 8.880000 -1.160000 48.196907 -7.029361 2372.353760
3.120000 8.880000 -1.120000 46.804344 -3.403975 2202.233887
3.120000 8.880000 -1.080000 53.905987 1.857954 2909.307373
3.120000 8.880000 -1.040000 60.532578 19.620066 4049.139893
3.120000 8.880000 -1.000000 51.055847 44.897778 4622.509766
3.120000 8.880000 -0.960000 22.397579 58.710060 3948.522705
3.120000 8.880000 -0.920000 -8.631527 47.195515 2301.919678
3.120000 8.880000 -0.880000 -19.621555 17.862789 704.084656
3.120000 8.880000 -0.840000 -4.627106 -5.439793 51.001457
3.120000 8.880000 -0.800000 19.299971 -4.905989 396.557587
3.120000 8.920000 -1.200000 45.365620 10.285949 2163.840332
3.120000 8.920000 -1.160000 40.306564 9.371749 1712.448853
3.120000 8.920000 -1.120000 49.913765 7.455657 2546.970947
3.120000 8.920000 -1.080000 66.198135 23.005657 4911.453613
3.120000 8.920000 -1.040000 66.276581 56.726009 7610.424805
3.120000 8.920000 -1.000000 37.039291 86.119110 8788.410156
3.120000 8.920000 -0.960000 -7.622663 85.922653 7440.807129
3.120000 8.920000 -0.920000 -37.003250 54.231567 4310.303711
3.120000 8.920000 -0.880000 -32.352921 16.489353 1318.610229
3.120000 8.920000 -0.840000 -4.945203 1.963371 28.309856
3.120000 8.920000 -0.800000 15.490029 16.267536 504.573730
3.120000 8.960000 -1.200000 25.724949 26.127295 1344.408447
3.120000 8.960000 -1.160000 29.220507 18.537382 1197.472534
3.120000 8.960000 -1.120000 46.832169 24.737658 2805.203613
3.120000 8.960000 -1.080000 56.269836 54.643303 6152.185059
3.120000 8.960000 -1.040000 35.578369 91.390640 9618.069336
3.120000 8.960000 -1.000000 -11.745756 104.372940 11031.673828
3.120000 8.960000 -0.960000 -55.961639 78.964920 9367.164062
3.120000 8.960000 -0.920000 -67.427307 32.473740 5600.985840
3.120000 8.960000 -0.880000 -44.155800 -0.948990 1950.635254
3.120000 8.960000 -0.840000 -12.666439 -1.794160 163.657684
3.120000 8.960000 -0.800000 -1.544376 18.503086 344.749298
3.120000 9.000000 -1.200000 7.080050 26.725100 764.358032
3.120000 9.000000 -1.160000 17.573101 23.703426 870.666260
3.120000 9.000000 -1.120000 29.760670 40.823689 2552.270996
3.120000 9.000000 -1.080000 20.722389 71.929596 5603.284180
3.120000 9.000000 -1.040000 -16.571369 91.173416 8587.202148
3.120000 9.000000 -1.000000 -62.318745 76.761307 9775.923828
3.120000 9.000000 -0.960000 -85.626396 33.158844 8431.388672
3.120000 9.000000 -0.920000 -72.294022 -11.213055 5352.158203
3.120000 9.000000 -0.880000 -37.185825 -29.100576 2229.629150
3.120000 9.000000 -0.840000 -9.283669 -17.648659 397.661652
3.120000 9.000000 -0.800000 -5.059311 2.557578 32.137833
3.120000 9.040000 -1.200000 -3.980139 21.012939 457.385101
3.120000 9.040000 -1.160000 3.649458 24.969479 636.793396
3.120000 9.040000 -1.120000 2.178643 41.682423 1742.170776
3.120000 9.040000 -1.080000 -19.040470 56.421745 3545.952881
3.120000 9.040000 -1.040000 -52.077995 50.267265 5238.915527
3.120000 9.040000 -1.000000 -74.870811 18.863155 5961.457031
3.120000 9.040000 -0.960000 -70.099648 -21.571352 5379.283691
3.120000 9.040000 -0.920000 -40.422848 -47.205284 3862.345459
3.120000 9.040000 -0.880000 -5.689557 -46.157917 2162.924316
3.120000 9.040000 -0.840000 14.352168 -26.349827 900.298096
3.120000 9.040000 -0.800000 14.967850 -5.763683 257.256592
3.120000 9.080000 -1.200000 -10.463573 15.418743 347.223999
3.120000 9.080000 -1.160000 -11.051183 18.184982 452.822205
3.120000 9.080000 -1.120000 -19.265263 21.611189 838.193848
3.120000 9.080000 -1.080000 -33.475281 16.438025 1390.803101
3.120000 9.080000 -1.040000 -43.716057 -1.512032 1913.379883
3.120000 9.080000 -1.000000 -39.657887 -26.112871 2254.629883
3.120000 9.080000 -0.960000 -19.306669 -44.712929 2371.993408
3.120000 9.080000 -0.920000 9.090302 -47.198528 2310.334717
3.120000 9.080000 -0.880000 32.855602 -32.543739 2138.585449
3.120000 9.080000 -0.840000 42.841354 -8.351214 1905.124390
3.120000 9.080000 -0.800000 37.587749 14.745647 1630.272949
3.120000 9.120000 -1.200000 -15.976900 9.047514 337.118835
3.120000 9.120000 -1.160000 -18.896479 2.476933 363.212097
3.120000 9.120000 -1.120000 -18.654297 -7.177401 399.497864
3.120000 9.120000 -1.080000 -12.722198 -17.366484 463.449066
3.120000 9.120000 -1.040000 -1.418097 -24.271395 591.111572
3.120000 9.120000 -1.000000 12.687320 -25.652016 818.993958
3.120000 9.120000 -0.960000 27.239122 -21.133778 1188.606323
3.120000 9.120000 -0.920000 40.549492 -10.208679 1748.478516
3.120000 9.120000 -0.880000 49.373104 8.100197 2503.316650
3.120000 9.120000 -0.840000 47.930595 32.013542 3322.208984
3.120000 9.120000 -0.800000 31.775885 53.889946 3913.833008
3.120000 9.160000 -1.200000 -18.525852 -0.333828 343.318665
3.120000 9.160000 -1.160000 -13.454742 -14.012463 377.379211
3.120000 9.160000 -1.120000 2.456528 -23.055143 537.574158
3.120000 9.160000 -1.080000 22.592836 -19.578995 893.773315
3.120000 9.160000 -1.040000 36.303577 -4.613594 1339.234985
3.120000 9.160000 -1.000000 38.877640 12.848946 1676.566162
3.120000 9.160000 -0.960000 35.139942 25.464695 1883.266235
3.120000 9.160000 -0.920000 32.094727 34.917057 2249.272461
3.120000 9.160000 -0.880000 29.031626 48.011875 3147.975342
3.120000 9.160000 -0.840000 17.226866 65.458557 4581.587891
3.120000 9.160000 -0.800000 -9.023734 76.701584 5964.560547
3.120000 9.200000 -1.200000 -14.417559 -9.483091 297.795013
3.120000 9.200000 -1.160000 1.170159 -19.629295 386.678497
3.120000 9.200000 -1.120000 24.266266 -15.273276 822.124634
3.120000 9.200000 -1.080000 40.264435 5.975035 1656.925781
3.120000 9.200000 -1.040000 38.478821 32.859779 2560.384766
3.120000 9.200000 -1.000000 22.297249 50.604805 3058.013428
3.120000 9.200000 -0.960000 4.838548 54.878101 3035.017578
3.120000 9.200000 -0.920000 -5.527929 54.212662 2969.570801
3.120000 9.200000 -0.880000 -13.642409 58.019081 3552.329102
3.120000 9.200000 -0.840000 -30.163786 63.732296 4971.659668
3.120000 9.200000 -0.800000 -56.332119 58.176937 6557.863281
3.160000 8.800000 -1.200000 12.603413 -33.822517 1302.808594
3.160000 8.800000 -1.160000 29.411694 -17.285440 1163.834229
3.160000 8.800000 -1.120000 31.441292 6.362748 1029.039429
3.160000 8.800000 -1.080000 18.313368 24.730263 946.965332
3.160000 8.800000 -1.040000 -1.232473 29.787645 888.822815
3.160000 8.800000 -1.000000 -16.518242 22.905762 797.526245
3.160000 8.800000 -0.960000 -22.743416 11.947287 660.000610
3.160000 8.800000 -0.920000 -22.725080 3.730938 530.349182
3.160000 8.800000 -0.880000 -21.969330 -0.897077 483.456207
3.160000 8.800000 -0.840000 -22.609745 -5.513720 541.601685
3.160000 8.800000 -0.800000 -22.048254 -12.682711 646.976685
3.160000 8.840000 -1.200000 28.991331 -23.493961 1392.463501
3.160000 8.840000 -1.160000 35.374371 -5.591604 1282.612061
3.160000 8.840000 -1.120000 30.009529 10.962215 1020.742004
3.160000 8.840000 -1.080000 18.056305 19.730988 715.342041
3.160000 8.840000 -1.040000 6.241371 20.495722 459.029327
3.160000 8.840000 -1.000000 -2.168134 16.859444 288.941650
3.160000 8.840000 -0.960000 -7.553364 11.623041 192.148407
3.160000 8.840000 -0.920000 -10.642944 5.180813 140.113083
3.160000 8.840000 -0.880000 -10.462976 -2.279282 114.668976
3.160000 8.840000 -0.840000 -5.960090 -8.543867 108.520340
3.160000 8.840000 -0.800000 1.316030 -10.518623 112.373367
3.160000 8.880000 -1.200000 34.902584 -6.450025 1259.793213
3.160000 8.880000 -1.160000 34.381920 6.776005 1228.030640
3.160000 8.880000 -1.120000 29.242020 15.757538 1103.395752
3.160000 8.880000 -1.080000 23.557472 21.389879 1012.481445
3.160000 8.880000 -1.040000 17.265053 26.096474 979.108032
3.160000 8.880000 -1.000000 8.281109 28.939896 906.094360
3.160000 8.880000 -0.960000 -2.227770 26.198284 691.313049
3.160000 8.880000 -0.920000 -8.673340 16.963089 362.973206
3.160000 8.880000 -0.880000 -6.396270 6.594416 84.398590
3.160000 8.880000 -0.840000 2.331183 2.893939 13.809301
3.160000 8.880000 -0.800000 9.160844 8.291334 152.667282
3.160000 8.920000 -1.200000 30.955133 8.675248 1033.480225
3.160000 8.920000 -1.160000 28.902107 16.981436 1123.700928
3.160000 8.920000 -1.120000 27.037346 23.877487 1301.152466
3.160000 8.920000 -1.080000 23.957657 32.892185 1655.865234
3.160000 8.920000 -1.040000 14.838795 42.624474 2037.035522
3.160000 8.920000 -1.000000 -0.991145 46.126747 2128.659180
3.160000 8.920000 -0.960000 -16.272532 38.324566 1733.567627
3.160000 8.920000 -0.920000 -21.492538 23.238556 1001.959656
3.160000 8.920000 -0.880000 -14.755787 11.979198 361.234436
3.160000 8.920000 -0.840000 -4.806119 12.347635 175.562881
3.160000 8.920000 -0.800000 -2.914243 20.837215 442.682343
3.160000 8.960000 -1.200000 22.217888 18.545818 837.581909
3.160000 8.960000 -1.160000 20.010025 25.118807 1031.355591
3.160000 8.960000 -1.120000 17.610611 33.489079 1431.652100
3.160000 8.960000 -1.080000 10.010384 44.265373 2059.631104
3.160000 8.960000 -1.040000 -6.086063 51.148167 2653.175293
3.160000 8.960000 -1.000000 -25.700947 46.391487 2812.708984
3.160000 8.960000 -0.960000 -37.920929 29.894289 2331.665283
3.160000 8.960000 -0.920000 -35.900970 11.552476 1422.339355
3.160000 8.960000 -0.880000 -24.196316 2.998314 594.451538
3.160000 8.960000 -0.840000 -14.992306 6.707715 269.762665
3.160000 8.960000 -0.800000 -16.443470 13.828980 461.628418
3.160000 9.000000 -1.200000 11.586443 24.193195 719.556396
3.160000 9.000000 -1.160000 6.669285 29.607582 921.088318
3.160000 9.000000 -1.120000 -0.479794 35.867023 1286.673584
3.160000 9.000000 -1.080000 -13.153551 40.184135 1787.780640
3.160000 9.000000 -1.040000 -29.740705 36.442772 2212.585205
3.160000 9.000000 -1.000000 -42.487782 22.042974 2291.104248
3.160000 9.000000 -0.960000 -43.579571 2.548907 1905.675903
3.160000 9.000000 -0.920000 -32.777695 -11.619727 1209.395386
3.160000 9.000000 -0.880000 -18.478710 -13.943341 535.879517
3.160000 9.000000 -0.840000 -10.553304 -7.365144 165.617569
3.160000 9.000000 -0.800000 -11.852040 -1.049271 141.571823
3.160000 9.040000 -1.200000 -1.058639 25.576178 655.261597
3.160000 9.040000 -1.160000 -9.447870 25.809605 755.397949
3.160000 9.040000 -1.120000 -18.373919 23.378267 884.144287
3.160000 9.040000 -1.080000 -27.180660 16.760674 1019.708435
3.160000 9.040000 -1.040000 -32.769245 5.120629 1100.044312
3.160000 9.040000 -1.000000 -31.345869 -9.108492 1065.528198
3.160000 9.040000 -0.960000 -21.902813 -20.528667 901.159424
3.160000 9.040000 -0.920000 -7.984673 -24.189274 648.875977
3.160000 9.040000 -0.880000 4.153375 -19.176861 385.002502
3.160000 9.040000 -0.840000 9.612996 -9.270418 178.350342
3.160000 9.040000 -0.800000 7.758252 -0.233028 60.244778
3.160000 9.080000 -1.200000 -14.136932 19.958223 598.183533
3.160000 9.080000 -1.160000 -20.909782 11.423940 567.725403
3.160000 9.080000 -1.120000 -22.310293 -0.034468 497.750366
3.160000 9.080000 -1.080000 -17.472332 -10.725885 420.326996
3.160000 9.080000 -1.040000 -8.197453 -17.331190 367.568359
3.160000 9.080000 -1.000000 2.371768 -18.772739 358.041016
3.160000 9.080000 -0.960000 11.983023 -15.962805 398.403992
3.160000 9.080000 -0.920000 19.888559 -9.824072 492.067169
3.160000 9.080000 -0.880000 25.178757 -0.279440 634.047852
3.160000 9.080000 -0.840000 25.362211 12.117960 790.086731
3.160000 9.080000 -0.800000 17.955135 23.826717 890.099365
3.160000 9.120000 -1.200000 -21.780390 6.685915 519.086853
3.160000 9.120000 -1.160000 -19.462334 -7.508448 435.159241
3.160000 9.120000 -1.120000 -7.211624 -18.700108 401.701538
3.160000 9.120000 -1.080000 10.438194 -19.910166 505.370605
3.160000 9.120000 -1.040000 24.809591 -10.315273 721.920654
3.160000 9.120000 -1.000000 30.266636 3.907421 931.337219
3.160000 9.120000 -0.960000 28.543634 15.680693 1060.623169
3.160000 9.120000 -0.920000 25.232906 23.698994 1198.341797
3.160000 9.120000 -0.880000 22.248718 32.038998 1521.502808
3.160000 9.120000 -0.840000 15.188564 42.895836 2070.745117
3.160000 9.120000 -0.800000 -0.609240 51.087852 2610.339844
3.160000 9.160000 -1.200000 -18.460716 -8.244215 408.765106
3.160000 9.160000 -1.160000 -5.192988 -18.861605 382.727264
3.160000 9.160000 -1.120000 15.759618 -18.437378 588.302490
3.160000 9.160000 -1.080000 33.483776 -2.981832 1130.054565
3.160000 9.160000 -1.040000 37.510914 20.640814 1833.111816
3.160000 9.160000 -1.000000 27.235035 39.974712 2339.724854
3.160000 9.160000 -0.960000 11.871128 48.153923 2459.723877
3.160000 9.160000 -0.920000 0.403349 49.144138 2415.308838
3.160000 9.160000 -0.880000 -7.555727 51.075325 2665.777832
3.160000 9.160000 -0.840000 -19.581207 55.109123 3420.438965
3.160000 9.160000 -0.800000 -39.079712 52.806656 4315.766602
3.160000 9.200000 -1.200000 -6.239477 -15.209405 270.257080
3.160000 9.200000 -1.160000 10.813871 -15.063554 343.850464
3.160000 9.200000 -1.120000 27.678387 -0.873617 766.856262
3.160000 9.200000 -1.080000 32.188286 24.315434 1627.325928
3.160000 9.200000 -1.040000 19.185604 47.770195 2650.078857
3.160000 9.200000 -1.000000 -3.970238 57.704132 3345.529541
3.160000 9.200000 -0.960000 -24.259865 53.511436 3452.014893
3.160000 9.200000 -0.920000 -35.360985 44.629189 3242.163818
3.160000 9.200000 -0.880000 -42.233810 39.071732 3310.294922
3.160000 9.200000 -0.840000 -52.861027 34.431160 3979.792969
3.160000 9.200000 -0.800000 -66.557732 21.623608 4897.512207
3.200000 8.800000 -1.200000 5.352060 -15.502479 268.971405
3.200000 8.800000 -1.160000 11.645752 -3.846398 150.418304
3.200000 8.800000 -1.120000 8.113831 10.752011 181.439987
3.200000 8.800000 -1.080000 -5.451344 19.579296 413.065979
3.200000 8.800000 -1.040000 -21.622231 16.437922 737.726074
3.200000 8.800000 -1.000000 -30.500433 3.553662 942.904968
3.200000 8.800000 -0.960000 -28.031904 -9.752776 880.904297
3.200000 8.800000 -0.920000 -19.471945 -15.224582 610.944519
3.200000 8.800000 -0.880000 -14.021589 -13.046171 366.807556
3.200000 8.800000 -0.840000 -15.616958 -10.979408 364.436768
3.200000 8.800000 -0.800000 -19.053877 -15.832792 613.727539
3.200000 8.840000 -1.200000 13.095192 -15.800377 421.135986
3.200000 8.840000 -1.160000 16.630053 -2.657673 283.621887
3.200000 8.840000 -1.120000 9.220900 9.106635 167.955780
3.200000 8.840000 -1.080000 -4.047100 11.288073 143.799606
3.200000 8.840000 -1.040000 -13.507868 3.262671 193.107513
3.200000 8.840000 -1.000000 -13.279593 -7.638865 234.699860
3.200000 8.840000 -0.960000 -5.998945 -12.991682 204.771149
3.200000 8.840000 -0.920000 0.521372 -10.698714 114.734314
3.200000 8.840000 -0.880000 1.077614 -5.919373 36.200222
3.200000 8.840000 -0.840000 -2.404261 -5.063078 31.415228
3.200000 8.840000 -0.800000 -3.675323 -9.204673 98.233994
3.200000 8.880000 -1.200000 22.371952 -11.195167 625.835999
3.200000 8.880000 -1.160000 21.484928 3.501023 473.859314
3.200000 8.880000 -1.120000 11.382025 11.422389 260.021484
3.200000 8.880000 -1.080000 1.454066 9.003172 83.171417
3.200000 8.880000 -1.040000 -0.837828 1.769285 3.832325
3.200000 8.880000 -1.000000 3.765741 -1.907347 17.818781
3.200000 8.880000 -0.960000 8.478567 1.151404 73.211830
3.200000 8.880000 -0.920000 7.910120 7.050176 112.274979
3.200000 8.880000 -0.880000 2.855782 9.958722 107.331635
3.200000 8.880000 -0.840000 -1.791923 8.102946 68.868729
3.200000 8.880000 -0.800000 -2.648538 4.622113 28.378681
3.200000 8.920000 -1.200000 29.321537 0.525069 860.028259
3.200000 8.920000 -1.160000 21.481153 14.577736 673.950317
3.200000 8.920000 -1.120000 9.445666 17.608526 399.280823
3.200000 8.920000 -1.080000 3.146488 12.803123 173.820358
3.200000 8.920000 -1.040000 4.533656 9.132797 103.962021
3.200000 8.920000 -1.000000 7.470611 11.774012 194.437378
3.200000 8.920000 -0.960000 5.441507 17.880695 349.329285
3.200000 8.920000 -0.920000 -1.798222 21.080645 447.627197
3.200000 8.920000 -0.880000 -9.221149 18.634325 432.267670
3.200000 8.920000 -0.840000 -12.721481 13.402411 341.460693
3.200000 8.920000 -0.800000 -12.975238 9.513437 258.862274
3.200000 8.960000 -1.200000 27.552502 17.416763 1062.484009
3.200000 8.960000 -1.160000 12.306698 25.640038 808.866333
3.200000 8.960000 -1.120000 0.083153 21.795334 475.043518
3.200000 8.960000 -1.080000 -2.690753 14.855954 227.939529
3.200000 8.960000 -1.040000 -0.080029 13.516810 182.710571
3.200000 8.960000 -1.000000 -0.448758 18.037148 325.540070
3.200000 8.960000 -0.960000 -7.181348 21.767099 525.378357
3.200000 8.960000 -0.920000 -16.086815 19.346985 633.091431
3.200000 8.960000 -0.880000 -21.122202 12.077694 592.018066
3.200000 8.960000 -0.840000 -20.978912 5.251570 467.693756
3.200000 8.960000 -0.800000 -19.266779 1.696827 374.087982
3.200000 9.000000 -1.200000 13.434263 31.363035 1164.119385
3.200000 9.000000 -1.160000 -4.695619 28.345779 825.532043
3.200000 9.000000 -1.120000 -12.624713 16.534595 432.776245
3.200000 9.000000 -1.080000 -9.786475 7.676540 154.704361
3.200000 9.000000 -1.040000 -4.797348 7.549958 80.016411
3.200000 9.000000 -1.000000 -5.736122 11.987232 176.596832
3.200000 9.000000 -0.960000 -12.535254 12.965901 325.247192
3.200000 9.000000 -0.920000 -18.687508 7.399196 403.971039
3.200000 9.000000 -0.880000 -19.145649 -0.610889 366.929077
3.200000 9.000000 -0.840000 -15.299198 -5.413166 263.367828
3.200000 9.000000 -0.800000 -12.175008 -6.124161 185.736160
3.200000 9.040000 -1.200000 -8.264910 32.535805 1126.887329
3.200000 9.040000 -1.160000 -20.605583 17.631105 735.445923
3.200000 9.040000 -1.120000 -18.406670 1.070199 339.950806
3.200000 9.040000 -1.080000 -7.224096 -6.038406 88.649918
3.200000 9.040000 -1.040000 1.706382 -2.194670 7.728314
3.200000 9.040000 -1.000000 1.870750 4.852787 27.049246
3.200000 9.040000 -0.960000 -3.743764 6.754128 59.634010
3.200000 9.040000 -0.920000 -7.481507 2.392325 61.696167
3.200000 9.040000 -0.880000 -5.558086 -2.574142 37.518532
3.200000 9.040000 -0.840000 -1.276201 -2.998552 10.620006
3.200000 9.040000 -0.800000 -0.216182 0.081882 0.053439
3.200000 9.080000 -1.200000 -25.270241 18.025434 963.501343
3.200000 9.080000 -1.160000 -24.463242 -2.024109 602.547241
3.200000 9.080000 -1.120000 -9.873537 -15.122787 326.185394
3.200000 9.080000 -1.080000 8.212246 -13.704596 255.256927
3.200000 9.080000 -1.040000 18.004032 -1.291115 325.812164
3.200000 9.080000 -1.000000 15.784111 11.337574 377.678772
3.200000 9.080000 -0.960000 7.696222 16.080494 317.814117
3.200000 9.080000 -0.920000 2.457325 13.919748 199.797852
3.200000 9.080000 -0.880000 2.630171 11.865408 147.705704
3.200000 9.080000 -0.840000 3.309576 14.283358 214.967590
3.200000 9.080000 -0.800000 -0.979692 18.061127 327.164093
3.200000 9.120000 -1.200000 -26.681364 -3.594897 724.818481
3.200000 9.120000 -1.160000 -12.827419 -17.976810 487.708374
3.200000 9.120000 -1.120000 8.856132 -19.171932 445.994049
3.200000 9.120000 -1.080000 25.992414 -4.965634 700.263123
3.200000 9.120000 -1.040000 28.902407 16.176964 1097.043213
3.200000 9.120000 -1.000000 18.349514 31.798517 1347.850342
3.200000 9.120000 -0.960000 4.007584 35.741360 1293.505493
3.200000 9.120000 -0.920000 -5.038325 32.139740 1058.347656
3.200000 9.120000 -0.880000 -8.267900 29.304394 927.105652
3.200000 9.120000 -0.840000 -12.086882 30.145777 1054.860596
3.200000 9.120000 -0.800000 -20.780270 29.488825 1301.410400
3.200000 9.160000 -1.200000 -12.655603 -17.697533 473.366943
3.200000 9.160000 -1.160000 5.704031 -19.245144 402.911530
3.200000 9.160000 -1.120000 23.696926 -6.864205 608.661621
3.200000 9.160000 -1.080000 30.230095 16.267738 1178.497925
3.200000 9.160000 -1.040000 20.379974 38.664253 1910.267822
3.200000 9.160000 -1.000000 0.146427 49.193275 2419.999756
3.200000 9.160000 -0.960000 -18.634811 46.019768 2465.075195
3.200000 9.160000 -0.920000 -28.705986 36.842358 2181.393066
3.200000 9.160000 -0.880000 -32.649082 30.052177 1969.095947
3.200000 9.160000 -0.840000 -37.596550 26.171124 2098.428223
3.200000 9.160000 -0.800000 -45.487381 18.873465 2425.309570
3.200000 9.200000 -1.200000 4.707577 -15.512386 262.795410
3.200000 9.200000 -1.160000 16.743610 -6.378126 321.028961
3.200000 9.200000 -1.120000 22.638571 12.011285 656.775879
3.200000 9.200000 -1.080000 15.312103 33.303257 1343.567383
3.200000 9.200000 -1.040000 -4.633072 46.659500 2198.574219
3.200000 9.200000 -1.000000 -27.871399 45.458237 2843.266113
3.200000 9.200000 -0.960000 -43.773903 32.964130 3002.788574
3.200000 9.200000 -0.920000 -49.188034 18.672691 2768.132080
3.200000 9.200000 -0.880000 -49.549057 8.896200 2534.251465
3.200000 9.200000 -0.840000 -51.178551 1.574682 2621.723877
3.200000 9.200000 -0.800000 -53.465115 -9.162663 2942.472900
