#kx 	ky 	kz 	real 	imag 	intensity
2.800000 6.800000 -5.200000 0.940259 -46.787849 2189.986816
2.800000 6.800000 -5.160000 20.126566 -41.007927 2086.728760
2.800000 6.800000 -5.120000 28.680307 -26.086559 1503.068604
2.800000 6.800000 -5.080000 25.558479 -13.635178 839.153931
2.800000 6.800000 -5.040000 18.654964 -10.018013 448.368286
2.800000 6.800000 -5.000000 16.119614 -12.515121 416.470215
2.800000 6.800000 -4.960000 19.559433 -14.178605 583.604248
2.800000 6.800000 -4.920000 24.789928 -10.938240 734.185608
2.800000 6.800000 -4.880000 27.273621 -3.927723 759.277405
2.800000 6.800000 -4.840000 25.812223 3.509437 678.587036
2.800000 6.800000 -4.800000 21.699699 9.371815 558.707886
2.800000 6.840000 -5.200000 22.324287 -37.244057 1885.493530
2.800000 6.840000 -5.160000 34.598129 -28.383442 2002.650269
2.800000 6.840000 -5.120000 38.176624 -16.872234 1742.126953
2.800000 6.840000 -5.080000 36.445015 -9.156891 1412.087769
2.800000 6.840000 -5.040000 34.983330 -5.319180 1252.127075
2.800000 6.840000 -5.000000 35.451408 -1.596124 1259.349976
2.800000 6.840000 -4.960000 35.474213 4.013520 1274.528198
2.800000 6.840000 -4.920000 32.969589 9.960924 1186.213745
2.800000 6.840000 -4.880000 28.779709 14.144862 1028.348755
2.800000 6.840000 -4.840000 24.751238 16.831442 895.921204
2.800000 6.840000 -4.800000 20.721134 19.554817 811.756226
2.800000 6.880000 -5.200000 29.438869 -17.827526 1184.467773
2.800000 6.880000 -5.160000 37.086861 -11.604486 1510.099243
2.800000 6.880000 -5.120000 41.131985 -3.887401 1706.952148
2.800000 6.880000 -5.080000 42.942146 4.073494 1860.621338
2.800000 6.880000 -5.040000 42.592846 12.708168 1975.648071
2.800000 6.880000 -5.000000 38.830338 21.159237 1955.508545
2.800000 6.880000 -4.960000 31.959747 26.822445 1740.869019
2.800000 6.880000 -4.920000 24.967648 28.373493 1428.438477
2.800000 6.880000 -4.880000 20.610704 27.959209 1206.518555
2.800000 6.880000 -4.840000 18.001385 28.957853 1162.607178
2.800000 6.880000 -4.800000 13.554897 31.588287 1181.555176
2.800000 6.920000 -5.200000 22.108265 -3.310726 499.736298
2.800000 6.920000 -5.160000 30.410168 -0.060040 924.781921
2.800000 6.920000 -5.120000 36.959755 8.305614 1435.006714
2.800000 6.920000 -5.080000 38.424065 20.170605 1883.261963
2.800000 6.920000 -5.040000 33.174515 31.368637 2084.539795
2.800000 6.920000 -5.000000 23.503813 37.391411 1950.546753
2.800000 6.920000 -4.960000 14.638120 37.255508 1602.247437
2.800000 6.920000 -4.920000 10.243916 34.766945 1313.678223
2.800000 6.920000 -4.880000 8.767643 34.804729 1288.240723
2.800000 6.920000 -4.840000 5.151892 37.902962 1463.176514
2.800000 6.920000 -4.800000 -3.126827 39.280067 1552.700806
2.800000 6.960000 -5.200000 11.685799 -0.737853 137.102325
2.800000 6.960000 -5.160000 22.396076 4.133162 518.667236
2.800000 6.960000 -5.120000 27.534643 16.432386 1028.179932
2.800000 6.960000 -5.080000 23.258106 29.459545 1408.804321
2.800000 6.960000 -5.040000 12.695266 36.057652 1461.323975
2.800000 6.960000 -5.000000 3.340752 34.823177 1223.814331
2.800000 6.960000 -4.960000 0.010620 31.186375 972.590088
2.800000 6.960000 -4.920000 0.216656 31.609903 999.232910
2.800000 6.960000 -4.880000 -2.943097 36.509029 1341.571045
2.800000 6.960000 -4.840000 -12.832091 39.382374 1715.633911
2.800000 6.960000 -4.800000 -24.644939 33.755066 1746.777466
2.800000 7.000000 -5.200000 8.276946 -4.188710 86.053131
2.800000 7.000000 -5.160000 16.998043 5.606568 320.367065
2.800000 7.000000 -5.120000 15.306047 18.706509 584.208557
2.800000 7.000000 -5.080000 5.530143 25.468668 679.235535
2.800000 7.000000 -5.040000 -3.085903 23.134529 544.729248
2.800000 7.000000 -5.000000 -4.029997 18.401344 354.850342
2.800000 7.000000 -4.960000 -0.546020 19.947962 398.219299
2.800000 7.000000 -4.920000 -2.217637 28.438786 813.682434
2.800000 7.000000 -4.880000 -14.189850 34.865906 1416.983154
2.800000 7.000000 -4.840000 -30.390949 29.620451 1800.980957
2.800000 7.000000 -4.800000 -38.515717 13.180642 1657.189819
2.800000 7.040000 -5.200000 10.620058 -3.414718 124.445938
2.800000 7.040000 -5.160000 11.417143 7.902600 192.802231
2.800000 7.040000 -5.120000 3.226841 13.896285 203.519241
2.800000 7.040000 -5.080000 -4.068327 10.000774 116.566772
2.800000 7.040000 -5.040000 -1.894146 3.352038 14.823950
2.800000 7.040000 -5.000000 6.689338 5.333488 73.193336
2.800000 7.040000 -4.960000 9.073410 18.293976 416.996338
2.800000 7.040000 -4.920000 -3.476374 31.095703 979.027954
2.800000 7.040000 -4.880000 -25.061319 29.373688 1490.883301
2.800000 7.040000 -4.840000 -39.195740 10.557701 1647.771118
2.800000 7.040000 -4.800000 -34.441795 -12.176329 1334.500244
2.800000 7.080000 -5.200000 9.258327 3.698721 99.397163
2.800000 7.080000 -5.160000 2.069305 8.122195 70.252075
2.800000 7.080000 -5.120000 -4.331872 2.130388 23.303669
2.800000 7.080000 -5.080000 0.474710 -7.578194 57.654369
2.800000 7.080000 -5.040000 14.890874 -7.143400 272.766296
2.800000 7.080000 -5.000000 24.192259 9.143539 668.869690
2.800000 7.080000 -4.960000 14.637823 30.058193 1117.760864
2.800000 7.080000 -4.920000 -11.001628 36.245270 1434.755371
2.800000 7.080000 -4.880000 -33.565109 19.169603 1494.090332
2.800000 7.080000 -4.840000 -34.767567 -9.218873 1293.771362
2.800000 7.080000 -4.800000 -14.667248 -26.851696 936.141724
2.800000 7.120000 -5.200000 -1.151476 8.746019 77.818748
2.800000 7.120000 -5.160000 -8.259168 0.652145 68.639145
2.800000 7.120000 -5.120000 -2.716370 -12.882993 173.350159
2.800000 7.120000 -5.080000 16.291739 -16.410576 534.727783
2.800000 7.120000 -5.040000 33.839302 0.016563 1145.098633
2.800000 7.120000 -5.000000 31.400867 27.958984 1767.719238
2.800000 7.120000 -4.960000 5.755945 45.168034 2073.282227
2.800000 7.120000 -4.920000 -25.057684 35.624077 1896.962402
2.800000 7.120000 -4.880000 -36.748440 5.713975 1383.097412
2.800000 7.120000 -4.840000 -21.070026 -20.564093 866.827881
2.800000 7.120000 -4.800000 6.789038 -23.480551 597.427246
2.800000 7.160000 -5.200000 -14.557845 2.786843 219.697342
2.800000 7.160000 -5.160000 -11.301928 -14.391273 334.842285
2.800000 7.160000 -5.120000 9.080935 -23.722506 645.220642
2.800000 7.160000 -5.080000 33.531120 -11.313370 1252.328369
2.800000 7.160000 -5.040000 40.735703 19.462021 2038.167725
2.800000 7.160000 -5.000000 20.439266 47.148041 2640.701416
2.800000 7.160000 -4.960000 -14.737438 49.626446 2679.976318
2.800000 7.160000 -4.920000 -38.421253 24.554237 2079.103271
2.800000 7.160000 -4.880000 -33.517075 -7.493610 1179.548462
2.800000 7.160000 -4.840000 -7.270051 -21.261139 504.889679
2.800000 7.160000 -4.800000 16.448290 -9.094420 353.254700
2.800000 7.200000 -5.200000 -19.389881 -12.792656 539.619507
2.800000 7.200000 -5.160000 -2.013121 -28.417269 811.593811
2.800000 7.200000 -5.120000 25.531548 -23.645922 1210.989502
2.800000 7.200000 -5.080000 41.950317 4.020926 1775.996948
2.800000 7.200000 -5.040000 31.316515 37.522747 2388.680664
2.800000 7.200000 -5.000000 -1.754436 52.476624 2756.874023
2.800000 7.200000 -4.960000 -34.049767 37.865929 2593.215332
2.800000 7.200000 -4.920000 -42.877792 6.150738 1876.336670
2.800000 7.200000 -4.880000 -25.282627 -17.449869 943.709167
2.800000 7.200000 -4.840000 0.623342 -16.853434 284.426788
2.800000 7.200000 -4.800000 13.039620 2.473320 176.149017
2.840000 6.800000 -5.200000 45.473064 -30.685715 3009.412598
2.840000 6.800000 -5.160000 52.136253 -9.467041 2807.813721
2.840000 6.800000 -5.120000 43.193127 7.571020 1922.966553
2.840000 6.800000 -5.080000 29.528931 11.374483 1001.336609
2.840000 6.800000 -5.040000 23.073967 6.283562 571.891113
2.840000 6.800000 -5.000000 25.398788 3.267914 655.777710
2.840000 6.800000 -4.960000 28.512035 7.660880 871.625244
2.840000 6.800000 -4.920000 25.326183 14.837696 861.572815
2.840000 6.800000 -4.880000 17.356289 17.287910 600.112610
2.840000 6.800000 -4.840000 11.582633 13.783434 324.140442
2.840000 6.800000 -4.800000 11.435842 9.998343 230.745346
2.840000 6.840000 -5.200000 48.245914 -0.830938 2328.358643
2.840000 6.840000 -5.160000 47.425224 12.358062 2401.873535
2.840000 6.840000 -5.120000 41.878494 21.005238 2195.028320
2.840000 6.840000 -5.080000 36.817196 26.079262 2035.633789
2.840000 6.840000 -5.040000 32.301064 31.613398 2042.765625
2.840000 6.840000 -5.000000 24.337097 37.644882 2009.431519
2.840000 6.840000 -4.960000 11.956245 39.009750 1664.712402
2.840000 6.840000 -4.920000 0.881522 31.935173 1020.632385
2.840000 6.840000 -4.880000 -1.675199 20.308876 415.256744
2.840000 6.840000 -4.840000 4.567276 13.221779 195.675446
2.840000 6.840000 -4.800000 11.483935 15.680231 377.750427
2.840000 6.880000 -5.200000 28.978161 19.143139 1206.193604
2.840000 6.880000 -5.160000 31.397848 23.851677 1554.727295
2.840000 6.880000 -5.120000 33.405716 33.157654 2215.372070
2.840000 6.880000 -5.080000 29.062122 47.074669 3060.631348
2.840000 6.880000 -5.040000 13.825750 58.636398 3629.378662
2.840000 6.880000 -5.000000 -8.311132 57.978268 3430.554443
2.840000 6.880000 -4.960000 -25.034630 42.127213 2401.434570
2.840000 6.880000 -4.920000 -25.592585 20.357656 1069.414551
2.840000 6.880000 -4.880000 -11.481175 7.731339 191.590973
2.840000 6.880000 -4.840000 3.736012 11.623518 149.063965
2.840000 6.880000 -4.800000 6.673882 24.760967 657.646240
2.840000 6.920000 -5.200000 5.400904 16.704556 308.211945
2.840000 6.920000 -5.160000 16.325205 22.090626 754.508057
2.840000 6.920000 -5.120000 19.381756 39.915909 1968.932251
2.840000 6.920000 -5.080000 4.636642 58.734123 3471.195801
2.840000 6.920000 -5.040000 -23.549156 61.749615 4367.577637
2.840000 6.920000 -5.000000 -47.110214 42.233513 4003.041992
2.840000 6.920000 -4.960000 -48.920212 11.888450 2534.522217
2.840000 6.920000 -4.920000 -28.724146 -7.689800 884.209595
2.840000 6.920000 -4.880000 -4.302899 -3.915901 33.849220
2.840000 6.920000 -4.840000 4.390598 15.571068 261.735504
2.840000 6.920000 -4.800000 -6.788137 30.764778 992.550354
2.840000 6.960000 -5.200000 -3.212194 0.051550 10.320850
2.840000 6.960000 -5.160000 10.137337 15.207183 334.023987
2.840000 6.960000 -5.120000 3.353426 39.010349 1533.052856
2.840000 6.960000 -5.080000 -24.046499 49.610489 3039.434814
2.840000 6.960000 -5.040000 -52.590206 33.477608 3886.479980
2.840000 6.960000 -5.000000 -58.822342 -0.170816 3460.097168
2.840000 6.960000 -4.960000 -37.104404 -25.791821 2041.954834
2.840000 6.960000 -4.920000 -5.781238 -24.221806 620.118591
2.840000 6.960000 -4.880000 9.314184 -0.149570 86.776398
2.840000 6.960000 -4.840000 -1.551893 22.956768 529.421570
2.840000 6.960000 -4.800000 -24.399954 25.509676 1246.101318
2.840000 7.000000 -5.200000 5.583486 -11.164506 155.821503
2.840000 7.000000 -5.160000 9.551935 12.501984 247.539062
2.840000 7.000000 -5.120000 -10.688877 30.156269 1023.652649
2.840000 7.000000 -5.080000 -39.625114 22.365509 2070.365723
2.840000 7.000000 -5.040000 -51.010124 -8.002258 2666.068848
2.840000 7.000000 -5.000000 -32.617702 -36.200970 2374.424805
2.840000 7.000000 -4.960000 0.906418 -37.944557 1440.610962
2.840000 7.000000 -4.920000 20.966202 -12.462896 594.905396
2.840000 7.000000 -4.880000 11.739196 16.787937 419.643555
2.840000 7.000000 -4.840000 -15.657286 24.730011 856.723999
2.840000 7.000000 -4.800000 -35.374317 7.936992 1314.338135
2.840000 7.040000 -5.200000 16.604748 -6.171980 313.810974
2.840000 7.040000 -5.160000 5.783113 14.108750 232.501221
2.840000 7.040000 -5.120000 -18.730396 14.772462 569.053406
2.840000 7.040000 -5.080000 -32.946987 -7.931181 1148.407593
2.840000 7.040000 -5.040000 -20.250912 -34.294586 1586.218018
2.840000 7.040000 -5.000000 10.808501 -38.661972 1611.571777
2.840000 7.040000 -4.960000 32.967541 -14.610644 1300.329712
2.840000 7.040000 -4.920000 25.977188 17.733818 989.302612
2.840000 7.040000 -4.880000 -3.845783 30.512709 945.815430
2.840000 7.040000 -4.840000 -30.057558 14.540566 1114.884888
2.840000 7.040000 -4.800000 -31.887997 -13.183565 1190.650757
2.840000 7.080000 -5.200000 14.222659 6.759836 247.979401
2.840000 7.080000 -5.160000 -3.807868 11.687513 151.097824
2.840000 7.080000 -5.120000 -17.222729 -3.375093 308.013611
2.840000 7.080000 -5.080000 -9.181415 -25.036039 711.101685
2.840000 7.080000 -5.040000 17.157421 -30.173473 1204.815552
2.840000 7.080000 -5.000000 38.810905 -8.821545 1584.106079
2.840000 7.080000 -4.960000 34.006851 23.879368 1726.690186
2.840000 7.080000 -4.920000 3.972255 40.421440 1649.671631
2.840000 7.080000 -4.880000 -27.098360 26.811390 1453.171753
2.840000 7.080000 -4.840000 -34.631058 -4.246742 1217.344971
2.840000 7.080000 -4.800000 -16.313200 -26.202215 952.676575
2.840000 7.120000 -5.200000 -1.051867 10.476679 110.867226
2.840000 7.120000 -5.160000 -11.453782 -0.648527 131.609711
2.840000 7.120000 -5.120000 -5.174664 -17.862030 345.829285
2.840000 7.120000 -5.080000 17.185993 -22.401430 797.182434
2.840000 7.120000 -5.040000 37.428509 -3.622194 1414.013550
2.840000 7.120000 -5.000000 34.833576 27.962543 1995.281860
2.840000 7.120000 -4.960000 6.576565 47.483589 2297.942383
2.840000 7.120000 -4.920000 -27.320129 37.944813 2186.198242
2.840000 7.120000 -4.880000 -41.073715 6.563125 1730.124634
2.840000 7.120000 -4.840000 -26.352402 -21.536165 1158.255493
2.840000 7.120000 -4.800000 1.184517 -26.380642 697.341370
2.840000 7.160000 -5.200000 -13.847824 -2.164380 196.446777
2.840000 7.160000 -5.160000 -7.243386 -17.704016 365.898804
2.840000 7.160000 -5.120000 13.303131 -22.021963 661.940186
2.840000 7.160000 -5.080000 32.978745 -5.583146 1118.769043
2.840000 7.160000 -5.040000 33.263180 24.319712 1697.887451
2.840000 7.160000 -5.000000 8.721873 46.434441 2232.228271
2.840000 7.160000 -4.960000 -25.630756 42.686867 2479.104248
2.840000 7.160000 -4.920000 -45.423470 14.650288 2277.922363
2.840000 7.160000 -4.880000 -37.528538 -16.864540 1692.803833
2.840000 7.160000 -4.840000 -10.994622 -29.627438 998.666748
2.840000 7.160000 -4.800000 12.126284 -18.556120 491.376343
2.840000 7.200000 -5.200000 -10.824463 -20.969069 556.870850
2.840000 7.200000 -5.160000 9.178780 -26.988762 812.643250
2.840000 7.200000 -5.120000 29.544586 -13.666198 1059.647583
2.840000 7.200000 -5.080000 33.781574 13.770074 1330.809570
2.840000 7.200000 -5.040000 14.954557 37.775352 1650.616089
2.840000 7.200000 -5.000000 -16.956631 40.831169 1954.711670
2.840000 7.200000 -4.960000 -41.205902 19.700668 2086.042725
2.840000 7.200000 -4.920000 -42.179604 -11.139783 1903.213745
2.840000 7.200000 -4.880000 -21.661312 -30.797644 1417.707275
2.840000 7.200000 -4.840000 3.542378 -28.471418 823.170105
2.840000 7.200000 -4.800000 16.147610 -10.463675 370.233795
2.880000 6.800000 -5.200000 63.960533 21.342213 4546.439941
2.880000 6.800000 -5.160000 47.523621 43.499607 4150.710449
2.880000 6.800000 -5.120000 22.842827 46.794075 2711.480225
2.880000 6.800000 -5.080000 8.077288 34.179085 1233.452393
2.880000 6.800000 -5.040000 9.311264 21.758268 560.121887
2.880000 6.800000 -5.000000 16.130741 21.295712 713.708130
2.880000 6.800000 -4.960000 14.808346 28.774694 1047.270142
2.880000 6.800000 -4.920000 3.780240 30.954964 972.500000
2.880000 6.800000 -4.880000 -5.683147 21.564575 497.329071
2.880000 6.800000 -4.840000 -3.438847 8.468000 83.532700
2.880000 6.800000 -4.800000 7.521619 4.165138 73.923126
2.880000 6.840000 -5.200000 32.993652 48.530334 3443.774414
2.880000 6.840000 -5.160000 19.463238 53.177750 3206.690674
2.880000 6.840000 -5.120000 9.712902 52.018188 2800.232422
2.880000 6.840000 -5.080000 3.695232 52.040318 2721.849365
2.880000 6.840000 -5.040000 -5.327496 54.700882 3020.568848
2.880000 6.840000 -5.000000 -20.904461 52.645573 3208.552979
2.880000 6.840000 -4.960000 -35.961475 38.175041 2750.561523
2.880000 6.840000 -4.920000 -37.942486 14.544226 1651.166748
2.880000 6.840000 -4.880000 -22.460690 -3.763144 518.643799
2.880000 6.840000 -4.840000 -0.317544 -4.064028 16.617155
2.880000 6.840000 -4.800000 11.209328 11.315922 253.699097
2.880000 6.880000 -5.200000 -6.445757 42.758362 1869.825195
2.880000 6.880000 -5.160000 -4.424728 42.214672 1801.656738
2.880000 6.880000 -5.120000 -5.148102 52.434658 2775.896240
2.880000 6.880000 -5.080000 -20.911589 65.485229 4725.609863
2.880000 6.880000 -5.040000 -50.782669 63.700020 6636.572266
2.880000 6.880000 -5.000000 -76.482712 36.779442 7202.332031
2.880000 6.880000 -4.960000 -76.504402 -4.609760 5874.173340
2.880000 6.880000 -4.920000 -46.771473 -34.394543 3370.555420
2.880000 6.880000 -4.880000 -7.151918 -33.078453 1145.333984
2.880000 6.880000 -4.840000 14.559564 -5.651222 243.917206
2.880000 6.880000 -4.800000 6.921253 22.724096 564.288330
2.880000 6.920000 -5.200000 -24.679852 11.223358 735.058838
2.880000 6.920000 -5.160000 -11.377016 22.765553 647.706909
2.880000 6.920000 -5.120000 -20.261068 46.934029 2613.313965
2.880000 6.920000 -5.080000 -55.748100 55.953941 6238.694336
2.880000 6.920000 -5.040000 -93.964386 28.942530 9666.975586
2.880000 6.920000 -5.000000 -101.021072 -24.818104 10821.195312
2.880000 6.920000 -4.960000 -64.477058 -69.536026 8992.549805
2.880000 6.920000 -4.920000 -7.479742 -73.039665 5390.739258
2.880000 6.920000 -4.880000 29.860001 -35.690815 2165.453857
2.880000 6.920000 -4.840000 25.340801 10.102582 744.218384
2.880000 6.920000 -4.800000 -7.455847 29.619015 932.875671
2.880000 6.960000 -5.200000 -11.507503 -17.706779 445.952637
2.880000 6.960000 -5.160000 -4.438966 11.056118 141.942169
2.880000 6.960000 -5.120000 -32.947807 34.741184 2292.507812
2.880000 6.960000 -5.080000 -77.965591 20.759426 6509.586914
2.880000 6.960000 -5.040000 -98.034729 -32.436729 10662.949219
2.880000 6.960000 -5.000000 -67.142471 -88.410118 12324.460938
2.880000 6.960000 -4.960000 -1.697118 -102.908813 10593.103516
2.880000 6.960000 -4.920000 51.393047 -64.057106 6744.558594
2.880000 6.960000 -4.880000 55.863583 -3.539399 3133.267090
2.880000 6.960000 -4.840000 17.207811 32.482582 1351.226929
2.880000 6.960000 -4.800000 -25.719227 24.330427 1253.448242
2.880000 7.000000 -5.200000 15.308200 -21.068541 678.224365
2.880000 7.000000 -5.160000 2.148613 12.123280 151.590439
2.880000 7.000000 -5.120000 -39.434624 16.721073 1834.683838
2.880000 7.000000 -5.080000 -70.849792 -22.660515 5533.191895
2.880000 7.000000 -5.040000 -55.480072 -79.616165 9416.772461
2.880000 7.000000 -5.000000 4.458058 -106.006310 11257.211914
2.880000 7.000000 -4.960000 65.899277 -75.830048 10092.911133
2.880000 7.000000 -4.920000 82.357544 -10.538501 6893.825195
2.880000 7.000000 -4.880000 45.560051 39.903145 3667.979248
2.880000 7.000000 -4.840000 -9.095246 42.133419 1857.948486
2.880000 7.000000 -4.800000 -37.476727 6.717662 1449.631958
2.880000 7.040000 -5.200000 28.466413 -1.894103 813.924316
2.880000 7.040000 -5.160000 -1.640701 16.401224 271.692047
2.880000 7.040000 -5.120000 -36.253601 -3.497945 1326.559204
2.880000 7.040000 -5.080000 -37.694252 -50.279419 3948.876709
2.880000 7.040000 -5.040000 5.604252 -82.854767 6896.320312
2.880000 7.040000 -5.000000 63.618217 -67.042694 8542.000000
2.880000 7.040000 -4.960000 89.334534 -9.284811 8066.866211
2.880000 7.040000 -4.920000 61.546001 47.018131 5998.615234
2.880000 7.040000 -4.880000 4.215748 60.458553 3673.009033
2.880000 7.040000 -4.840000 -36.736214 28.124067 2140.512695
2.880000 7.040000 -4.800000 -35.646259 -15.550654 1512.478638
2.880000 7.080000 -5.200000 17.530254 16.255199 571.541321
2.880000 7.080000 -5.160000 -11.494023 11.379636 261.608704
2.880000 7.080000 -5.120000 -22.632298 -19.808231 904.586914
2.880000 7.080000 -5.080000 1.738694 -49.961647 2499.189209
2.880000 7.080000 -5.040000 46.786766 -46.683899 4368.387695
2.880000 7.080000 -5.000000 74.631500 -4.337994 5588.679199
2.880000 7.080000 -4.960000 58.314964 47.154510 5624.182617
2.880000 7.080000 -4.920000 7.897549 67.723534 4648.848145
2.880000 7.080000 -4.880000 -37.890945 43.306171 3311.148193
2.880000 7.080000 -4.840000 -46.850471 -2.561845 2201.529785
2.880000 7.080000 -4.800000 -20.807192 -32.528957 1491.072266
2.880000 7.120000 -5.200000 -3.046343 14.075621 207.403305
2.880000 7.120000 -5.160000 -14.144773 -4.227494 217.946320
2.880000 7.120000 -5.120000 -2.323977 -26.090542 686.117249
2.880000 7.120000 -5.080000 27.481022 -28.394005 1561.426025
2.880000 7.120000 -5.040000 50.569328 -1.398996 2559.214355
2.880000 7.120000 -5.000000 42.939766 38.381363 3316.952637
2.880000 7.120000 -4.960000 4.675278 59.768791 3594.166504
2.880000 7.120000 -4.920000 -37.498104 44.337208 3371.895752
2.880000 7.120000 -4.880000 -52.884472 3.574754 2809.546143
2.880000 7.120000 -4.840000 -33.567341 -31.473942 2117.375488
2.880000 7.120000 -4.800000 0.503089 -38.095039 1451.485107
2.880000 7.160000 -5.200000 -10.868281 -5.227487 145.446152
2.880000 7.160000 -5.160000 -2.248544 -18.708303 355.056549
2.880000 7.160000 -5.120000 17.064453 -19.935162 688.606201
2.880000 7.160000 -5.080000 32.829525 -2.364107 1083.366699
2.880000 7.160000 -5.040000 28.979908 25.438492 1486.951904
2.880000 7.160000 -5.000000 2.367661 43.174976 1869.684448
2.880000 7.160000 -4.960000 -31.332827 34.758694 2189.912842
2.880000 7.160000 -4.920000 -48.516296 3.194283 2364.034424
2.880000 7.160000 -4.880000 -37.089127 -30.355961 2297.087646
2.880000 7.160000 -4.840000 -6.587170 -43.775902 1959.720337
2.880000 7.160000 -4.800000 20.700048 -31.799185 1439.680176
2.880000 7.200000 -5.200000 1.413300 -21.773224 476.070679
2.880000 7.200000 -5.160000 17.287207 -19.540623 680.683472
2.880000 7.200000 -5.120000 27.865669 -4.938495 800.884277
2.880000 7.200000 -5.080000 24.546822 15.268350 835.668945
2.880000 7.200000 -5.040000 5.878201 28.762712 861.846863
2.880000 7.200000 -5.000000 -19.179802 24.860868 985.927612
2.880000 7.200000 -4.960000 -35.273647 3.006072 1253.266724
2.880000 7.200000 -4.920000 -31.078535 -24.839474 1582.874756
2.880000 7.200000 -4.880000 -8.300549 -41.631184 1802.054443
2.880000 7.200000 -4.840000 18.920429 -37.517563 1765.550171
2.880000 7.200000 -4.800000 34.407841 -16.762402 1464.877686
2.920000 6.800000 -5.200000 34.699528 74.875198 6810.352539
2.920000 6.800000 -5.160000 -0.470874 79.123734 6260.787109
2.920000 6.800000 -5.120000 -26.626801 58.538555 4135.749023
2.920000 6.800000 -5.080000 -28.938103 31.158585 1808.271240
2.920000 6.800000 -5.040000 -14.865467 18.008390 545.284241
2.920000 6.800000 -5.000000 -4.798489 22.478222 528.295959
2.920000 6.800000 -4.960000 -9.808040 29.197556 948.694885
2.920000 6.800000 -4.920000 -20.943249 22.919746 963.934448
2.920000 6.800000 -4.880000 -21.226471 5.964697 486.140686
2.920000 6.800000 -4.840000 -6.063639 -5.109436 62.874054
2.920000 6.800000 -4.800000 11.209148 0.976721 126.598991
2.920000 6.840000 -5.200000 -19.649895 70.807373 5399.802246
2.920000 6.840000 -5.160000 -35.393814 58.789959 4708.981445
2.920000 6.840000 -5.120000 -40.509903 46.532341 3806.311035
2.920000 6.840000 -5.080000 -43.022400 40.799820 3515.552246
2.920000 6.840000 -5.040000 -51.715179 36.173695 3982.995850
2.920000 6.840000 -5.000000 -63.659904 21.416195 4511.236816
2.920000 6.840000 -4.960000 -64.770256 -5.408665 4224.439453
2.920000 6.840000 -4.920000 -44.881729 -30.284557 2931.523926
2.920000 6.840000 -4.880000 -11.697166 -34.610691 1334.723633
2.920000 6.840000 -4.840000 12.954189 -14.285458 371.885315
2.920000 6.840000 -4.800000 12.833838 13.937160 358.951843
2.920000 6.880000 -5.200000 -51.663818 27.649117 3433.623779
2.920000 6.880000 -5.160000 -44.671188 23.959641 2569.579346
2.920000 6.880000 -5.120000 -48.609970 33.147606 3461.692871
2.920000 6.880000 -5.080000 -72.473015 35.162830 6488.762695
2.920000 6.880000 -5.040000 -100.729919 9.827534 10243.096680
2.920000 6.880000 -5.000000 -104.077911 -39.468590 12389.981445
2.920000 6.880000 -4.960000 -67.542740 -82.874458 11430.197266
2.920000 6.880000 -4.920000 -8.631409 -88.336884 7877.905762
2.920000 6.880000 -4.880000 34.466187 -51.327927 3822.474121
2.920000 6.880000 -4.840000 35.568981 -0.694931 1265.635376
2.920000 6.880000 -4.800000 3.101645 26.423685 707.831299
2.920000 6.920000 -5.200000 -39.547539 -21.267612 2016.319092
2.920000 6.920000 -5.160000 -29.119761 -0.794970 848.592407
2.920000 6.920000 -5.120000 -53.590488 19.071791 3235.673584
2.920000 6.920000 -5.080000 -97.128052 2.152784 9438.493164
2.920000 6.920000 -5.040000 -115.871971 -57.245041 16703.308594
2.920000 6.920000 -5.000000 -78.358917 -121.678398 20945.753906
2.920000 6.920000 -4.960000 0.868778 -140.388336 19709.638672
2.920000 6.920000 -4.920000 69.473732 -95.504295 13947.669922
2.920000 6.920000 -4.880000 82.083229 -19.905199 7133.873047
2.920000 6.920000 -4.840000 39.481178 31.538122 2553.416504
2.920000 6.920000 -4.800000 -15.066320 29.949318 1123.955688
2.920000 6.960000 -5.200000 1.870960 -39.559635 1568.465210
2.920000 6.960000 -5.160000 -8.101891 -3.067657 75.051155
2.920000 6.960000 -5.120000 -55.123306 2.494991 3044.803955
2.920000 6.960000 -5.080000 -93.171585 -46.872616 10877.986328
2.920000 6.960000 -5.040000 -72.984512 -122.034317 20219.113281
2.920000 6.960000 -5.000000 8.083889 -160.968628 25976.248047
2.920000 6.960000 -4.960000 97.163895 -124.616432 24970.078125
2.920000 6.960000 -4.920000 130.263290 -34.865677 18184.140625
2.920000 6.960000 -4.880000 88.775909 43.462845 9770.180664
2.920000 6.960000 -4.840000 13.902485 59.990978 3792.196533
2.920000 6.960000 -4.800000 -33.795815 20.204807 1550.391357
2.920000 7.000000 -5.200000 35.684029 -19.488396 1653.147461
2.920000 7.000000 -5.160000 -0.677370 8.376806 70.629715
2.920000 7.000000 -5.120000 -49.647545 -16.108597 2724.365479
2.920000 7.000000 -5.080000 -55.511322 -84.026184 10141.906250
2.920000 7.000000 -5.040000 6.087428 -138.557831 19235.330078
2.920000 7.000000 -5.000000 98.410782 -124.304352 25136.253906
2.920000 7.000000 -4.960000 151.667068 -40.701691 24659.527344
2.920000 7.000000 -4.920000 124.993813 53.867363 18525.146484
2.920000 7.000000 -4.880000 42.905060 93.237701 10534.112305
2.920000 7.000000 -4.840000 -29.007156 60.882019 4548.035645
2.920000 7.000000 -4.800000 -44.107288 -1.191798 1946.873291
2.920000 7.040000 -5.200000 36.893581 13.939348 1555.441772
2.920000 7.040000 -5.160000 -8.744091 14.673328 291.765686
2.920000 7.040000 -5.120000 -34.659828 -31.744282 2209.003174
2.920000 7.040000 -5.080000 -3.671051 -87.941498 7747.183594
2.920000 7.040000 -5.040000 71.747070 -97.520264 14657.843750
2.920000 7.040000 -5.000000 133.677673 -38.289722 19335.824219
2.920000 7.040000 -4.960000 128.842010 52.488655 19355.322266
2.920000 7.040000 -4.920000 57.780270 108.534691 15118.338867
2.920000 7.040000 -4.880000 -25.272387 93.016441 9290.751953
2.920000 7.040000 -4.840000 -61.854378 28.824310 4656.805176
2.920000 7.040000 -4.800000 -39.440350 -27.278923 2299.680664
2.920000 7.080000 -5.200000 12.773083 28.985607 1003.317017
2.920000 7.080000 -5.160000 -17.974583 6.084165 360.102692
2.920000 7.080000 -5.120000 -12.864950 -37.827080 1596.394897
2.920000 7.080000 -5.080000 34.466106 -60.793041 4883.706543
2.920000 7.080000 -5.040000 89.039513 -31.574528 8924.985352
2.920000 7.080000 -5.000000 101.777290 37.141922 11738.139648
2.920000 7.080000 -4.960000 54.576778 95.080605 12018.946289
2.920000 7.080000 -4.920000 -20.734612 97.636032 9962.718750
2.920000 7.080000 -4.880000 -69.680641 45.442547 6920.416992
2.920000 7.080000 -4.840000 -62.910938 -18.076508 4284.546387
2.920000 7.080000 -4.800000 -18.452398 -47.718910 2617.585449
2.920000 7.120000 -5.200000 -8.515415 16.470276 343.782288
2.920000 7.120000 -5.160000 -14.081219 -9.681988 292.021606
2.920000 7.120000 -5.120000 8.244540 -31.489777 1059.578491
2.920000 7.120000 -5.080000 44.769630 -23.817837 2571.609131
2.920000 7.120000 -5.040000 63.194225 16.390772 4262.167480
2.920000 7.120000 -5.000000 40.566353 61.633163 5444.275879
2.920000 7.120000 -4.960000 -12.974045 74.807877 5764.543945
2.920000 7.120000 -4.920000 -59.755733 42.187584 5350.540039
2.920000 7.120000 -4.880000 -66.376816 -13.303220 4582.857422
2.920000 7.120000 -4.840000 -32.107265 -52.153618 3750.876221
2.920000 7.120000 -4.800000 13.137838 -52.387085 2917.009521
2.920000 7.160000 -5.200000 -7.130301 -5.684262 83.152023
2.920000 7.160000 -5.160000 2.788097 -17.073238 299.268982
2.920000 7.160000 -5.120000 21.176796 -16.178078 710.186890
2.920000 7.160000 -5.080000 34.251453 2.346764 1178.669434
2.920000 7.160000 -5.040000 26.770943 28.854212 1549.248901
2.920000 7.160000 -5.000000 -2.739048 42.316406 1798.180664
2.920000 7.160000 -4.960000 -36.227348 27.306862 2058.085449
2.920000 7.160000 -4.920000 -48.516190 -10.480026 2463.651611
2.920000 7.160000 -4.880000 -28.478142 -46.372192 2961.384766
2.920000 7.160000 -4.840000 10.830902 -56.357445 3293.469971
2.920000 7.160000 -4.800000 43.204723 -36.426891 3193.566406
2.920000 7.200000 -5.200000 11.455121 -14.075916 329.351227
2.920000 7.200000 -5.160000 19.453806 -8.948930 458.533905
2.920000 7.200000 -5.120000 23.202446 0.715191 538.864990
2.920000 7.200000 -5.080000 19.381329 12.477781 531.330933
2.920000 7.200000 -5.040000 6.065517 19.940453 434.412140
2.920000 7.200000 -5.000000 -12.028629 14.841858 364.968689
2.920000 7.200000 -4.960000 -22.780014 -5.112492 545.066589
2.920000 7.200000 -4.920000 -14.732972 -30.365692 1139.135742
2.920000 7.200000 -4.880000 11.916926 -43.811348 2061.447266
2.920000 7.200000 -4.840000 42.540947 -33.815552 2953.223633
2.920000 7.200000 -4.800000 58.068298 -4.513441 3392.298340
2.960000 6.800000 -5.200000 -26.754107 91.000900 8996.946289
2.960000 6.800000 -5.160000 -62.926434 67.528336 8519.812500
2.960000 6.800000 -5.120000 -72.281784 26.892521 5947.863770
2.960000 6.800000 -5.080000 -53.070747 -3.408731 2828.123535
2.960000 6.800000 -5.040000 -26.709270 -7.778732 773.893799
2.960000 6.800000 -5.000000 -15.661459 4.035439 261.566071
2.960000 6.800000 -4.960000 -21.574131 9.955734 564.559753
2.960000 6.800000 -4.920000 -26.809387 0.271309 718.816833
2.960000 6.800000 -4.880000 -16.555939 -13.100939 445.733704
2.960000 6.800000 -4.840000 3.794910 -12.128384 161.499039
2.960000 6.800000 -4.800000 15.221196 5.497598 261.908386
2.960000 6.840000 -5.200000 -73.889595 45.549271 7534.408203
2.960000 6.840000 -5.160000 -78.693832 19.487873 6572.496582
2.960000 6.840000 -5.120000 -71.687378 1.717823 5142.030762
2.960000 6.840000 -5.080000 -65.766212 -6.443962 4366.719238
2.960000 6.840000 -5.040000 -66.215576 -15.750130 4632.568848
2.960000 6.840000 -5.000000 -63.735874 -34.682728 5265.153320
2.960000 6.840000 -4.960000 -45.019379 -56.251064 5190.926758
2.960000 6.840000 -4.920000 -10.495102 -62.054348 3960.889404
2.960000 6.840000 -4.880000 20.946394 -41.445618 2156.490723
2.960000 6.840000 -4.840000 27.819143 -5.683182 806.203247
2.960000 6.840000 -4.800000 7.487064 19.544811 438.055756
2.960000 6.880000 -5.200000 -70.720001 -19.322144 5374.663574
2.960000 6.880000 -5.160000 -57.675701 -20.845604 3761.025879
2.960000 6.880000 -5.120000 -63.151115 -15.109377 4216.356934
2.960000 6.880000 -5.080000 -83.357773 -27.797594 7721.224121
2.960000 6.880000 -5.040000 -90.332214 -68.251587 12818.188477
2.960000 6.880000 -5.000000 -58.814274 -113.863571 16424.031250
2.960000 6.880000 -4.960000 4.864914 -126.813278 16105.274414
2.960000 6.880000 -4.920000 62.484322 -89.599007 11932.272461
2.960000 6.880000 -4.880000 75.755966 -24.645439 6346.363770
2.960000 6.880000 -4.840000 40.811722 23.119646 2200.114746
2.960000 6.880000 -4.800000 -8.411203 25.365082 714.135742
2.960000 6.920000 -5.200000 -22.060240 -56.703354 3701.924316
2.960000 6.920000 -5.160000 -21.303619 -30.627687 1391.899414
2.960000 6.920000 -5.120000 -54.582306 -26.078697 3659.326416
2.960000 6.920000 -5.080000 -83.313354 -68.780548 11671.878906
2.960000 6.920000 -5.040000 -61.046902 -135.958862 22211.537109
2.960000 6.920000 -5.000000 18.045750 -170.737427 29476.917969
2.960000 6.920000 -4.960000 106.175766 -133.929260 29210.339844
2.960000 6.920000 -4.920000 141.036819 -43.579765 21790.580078
2.960000 6.920000 -4.880000 101.374748 38.010647 11721.649414
2.960000 6.920000 -4.840000 25.312759 58.735016 4090.537842
2.960000 6.920000 -4.800000 -25.892265 20.437695 1088.108765
2.960000 6.960000 -5.200000 31.921570 -43.946686 2950.297852
2.960000 6.960000 -5.160000 1.787865 -13.927332 197.167038
2.960000 6.960000 -5.120000 -45.902439 -36.865711 3466.114746
2.960000 6.960000 -5.080000 -50.514496 -107.810013 14174.712891
2.960000 6.960000 -5.040000 18.149731 -166.790314 28148.419922
2.960000 6.960000 -5.000000 122.980774 -150.980011 37919.234375
2.960000 6.960000 -4.960000 186.694931 -56.002529 37991.281250
2.960000 6.960000 -4.920000 160.408783 55.089222 28765.800781
2.960000 6.960000 -4.880000 67.906723 106.309662 15913.067383
2.960000 6.960000 -4.840000 -17.436945 74.767029 5894.155273
2.960000 6.960000 -4.800000 -39.472950 5.227840 1585.444092
2.960000 7.000000 -5.200000 51.783375 -0.088871 2681.525635
2.960000 7.000000 -5.160000 0.352894 5.851557 34.365250
2.960000 7.000000 -5.120000 -32.045315 -47.498398 3283.000000
2.960000 7.000000 -5.080000 4.819420 -117.464783 13821.202148
2.960000 7.000000 -5.040000 100.546799 -132.348450 27625.769531
2.960000 7.000000 -5.000000 184.258911 -59.255516 37462.562500
2.960000 7.000000 -4.960000 185.538620 59.374916 37949.957031
2.960000 7.000000 -4.920000 99.224075 139.656830 29349.445312
2.960000 7.000000 -4.880000 -9.404229 129.982758 16983.957031
2.960000 7.000000 -4.840000 -64.152100 53.713432 7000.624512
2.960000 7.000000 -4.800000 -43.500099 -18.548290 2236.297852
2.960000 7.040000 -5.200000 31.673973 34.799652 2214.256348
2.960000 7.040000 -5.160000 -13.365703 9.384911 266.718567
2.960000 7.040000 -5.120000 -11.573414 -51.692799 2806.089355
2.960000 7.040000 -5.080000 53.120987 -89.438568 10821.096680
2.960000 7.040000 -5.040000 135.583633 -53.927166 21291.060547
2.960000 7.040000 -5.000000 164.109009 44.020134 28869.539062
2.960000 7.040000 -4.960000 105.683685 135.752777 29597.857422
2.960000 7.040000 -4.920000 -1.338203 153.659012 23612.882812
2.960000 7.040000 -4.880000 -80.466499 90.548050 14673.806641
2.960000 7.040000 -4.840000 -84.389130 2.545168 7128.003418
2.960000 7.040000 -4.800000 -31.427462 -45.176430 3028.595215
2.960000 7.080000 -5.200000 -0.943730 36.568363 1338.135864
2.960000 7.080000 -5.160000 -19.346457 -2.552402 380.800140
2.960000 7.080000 -5.120000 9.424404 -44.186749 2041.288086
2.960000 7.080000 -5.080000 70.295059 -42.244041 6725.954590
2.960000 7.080000 -5.040000 111.243134 17.290844 12674.008789
2.960000 7.080000 -5.000000 88.122520 96.084137 16997.740234
2.960000 7.080000 -4.960000 7.808167 132.728287 17677.765625
2.960000 7.080000 -4.920000 -74.059418 96.799370 14854.916016
2.960000 7.080000 -4.880000 -100.858772 15.991433 10428.217773
2.960000 7.080000 -4.840000 -62.995758 -49.973637 6465.830078
2.960000 7.080000 -4.800000 -0.777983 -62.336098 3886.394287
2.960000 7.120000 -5.200000 -15.071943 14.633745 441.309967
2.960000 7.120000 -5.160000 -9.703203 -14.121490 293.568634
2.960000 7.120000 -5.120000 22.279350 -27.226154 1237.632935
2.960000 7.120000 -5.080000 56.802773 -4.171616 3243.957275
2.960000 7.120000 -5.040000 59.099171 45.199936 5535.746094
2.960000 7.120000 -5.000000 16.355057 82.866119 7134.281738
2.960000 7.120000 -4.960000 -45.766598 73.939682 7561.658203
2.960000 7.120000 -4.920000 -81.924583 19.072596 7075.401367
2.960000 7.120000 -4.880000 -65.744247 -44.133041 6270.031250
2.960000 7.120000 -4.840000 -11.790723 -73.214996 5499.456543
2.960000 7.120000 -4.800000 39.593609 -55.890671 4691.420898
2.960000 7.160000 -5.200000 -4.131334 -3.456661 29.016430
2.960000 7.160000 -5.160000 6.374693 -12.417469 194.830261
2.960000 7.160000 -5.120000 23.560278 -9.043689 636.875000
2.960000 7.160000 -5.080000 32.984386 10.735130 1203.212769
2.960000 7.160000 -5.040000 20.407089 34.686668 1619.614258
2.960000 7.160000 -5.000000 -11.730095 40.564369 1783.063110
2.960000 7.160000 -4.960000 -40.970444 15.985817 1934.123657
2.960000 7.160000 -4.920000 -41.706741 -26.948433 2465.670410
2.960000 7.160000 -4.880000 -8.108797 -58.620522 3502.118164
2.960000 7.160000 -4.840000 39.127525 -56.008972 4667.968262
2.960000 7.160000 -4.800000 69.633369 -21.615927 5316.054688
2.960000 7.200000 -5.200000 13.684595 -1.169441 188.635742
2.960000 7.200000 -5.160000 14.717087 0.773103 217.190323
2.960000 7.200000 -5.120000 17.204405 3.416261 307.662384
2.960000 7.200000 -5.080000 17.539412 10.087034 409.379211
2.960000 7.200000 -5.040000 9.788044 16.578930 370.666748
2.960000 7.200000 -5.000000 -3.998829 12.793289 179.658875
2.960000 7.200000 -4.960000 -10.929276 -5.454063 149.195892
2.960000 7.200000 -4.920000 1.949259 -27.478283 758.855652
2.960000 7.200000 -4.880000 32.892365 -33.617996 2212.077148
2.960000 7.200000 -4.840000 62.904072 -12.546515 4114.337402
2.960000 7.200000 -4.800000 70.087029 26.763931 5628.499512
3.000000 6.800000 -5.200000 -80.040756 59.064995 9895.196289
3.000000 6.800000 -5.160000 -97.686470 14.297028 9747.051758
3.000000 6.800000 -5.120000 -80.114281 -29.974339 7316.758789
3.000000 6.800000 -5.080000 -41.490562 -47.506721 3978.355469
3.000000 6.800000 -5.040000 -10.379283 -35.540184 1370.834229
3.000000 6.800000 -5.000000 -2.902847 -14.892036 230.199280
3.000000 6.800000 -4.960000 -10.080696 -7.057844 151.433594
3.000000 6.800000 -4.920000 -11.615265 -13.172813 308.437378
3.000000 6.800000 -4.880000 0.269381 -16.786083 281.845154
3.000000 6.800000 -4.840000 13.432686 -5.556482 211.311539
3.000000 6.800000 -4.800000 11.859837 13.542889 324.065552
3.000000 6.840000 -5.200000 -92.484123 -10.209562 8657.548828
3.000000 6.840000 -5.160000 -79.523514 -39.046696 7848.633789
3.000000 6.840000 -5.120000 -58.856823 -52.746986 6246.370117
3.000000 6.840000 -5.080000 -43.212780 -56.010338 5004.502441
3.000000 6.840000 -5.040000 -33.058567 -60.280399 4726.595703
3.000000 6.840000 -5.000000 -18.082367 -68.447853 5012.080566
3.000000 6.840000 -4.960000 7.806641 -69.692261 4917.955078
3.000000 6.840000 -4.920000 34.878910 -51.654858 3884.762695
3.000000 6.840000 -4.880000 44.091259 -17.379566 2246.088379
3.000000 6.840000 -4.840000 26.659376 12.675964 871.402405
3.000000 6.840000 -4.800000 -4.063871 18.212687 348.217010
3.000000 6.880000 -5.200000 -48.975769 -64.815498 6599.674805
3.000000 6.880000 -5.160000 -33.239765 -60.573715 4774.057129
3.000000 6.880000 -5.120000 -36.527744 -58.425400 4747.803711
3.000000 6.880000 -5.080000 -42.407387 -77.783279 7848.625000
3.000000 6.880000 -5.040000 -23.300232 -111.192978 12906.778320
3.000000 6.880000 -5.000000 28.265625 -126.604446 16827.630859
3.000000 6.880000 -4.960000 85.488541 -97.756348 16864.593750
3.000000 6.880000 -4.920000 107.822289 -33.382622 12740.044922
3.000000 6.880000 -4.880000 78.427811 25.715511 6812.208984
3.000000 6.880000 -4.840000 21.659828 41.468353 2188.772461
3.000000 6.880000 -4.800000 -17.838299 12.236624 467.939850
3.000000 6.920000 -5.200000 16.902321 -67.437813 4833.546875
3.000000 6.920000 -5.160000 6.278133 -44.230457 1995.748291
3.000000 6.920000 -5.120000 -22.035139 -56.880829 3720.976074
3.000000 6.920000 -5.080000 -21.234627 -106.353439 11761.962891
3.000000 6.920000 -5.040000 35.231663 -147.748505 23070.890625
3.000000 6.920000 -5.000000 120.198593 -130.123138 31379.734375
3.000000 6.920000 -4.960000 171.303406 -48.120689 31660.458984
3.000000 6.920000 -4.920000 147.060226 47.052773 23840.673828
3.000000 6.920000 -4.880000 66.349930 90.983276 12680.269531
3.000000 6.920000 -4.840000 -8.094604 62.893051 4021.058594
3.000000 6.920000 -4.800000 -26.277264 1.112251 691.731689
3.000000 6.960000 -5.200000 56.931568 -23.553106 3795.952148
3.000000 6.960000 -5.160000 16.271904 -12.861803 430.200867
3.000000 6.960000 -5.120000 -11.343187 -56.961369 3373.265381
3.000000 6.960000 -5.080000 23.824041 -118.708298 14659.245117
3.000000 6.960000 -5.040000 114.864120 -129.892242 30065.761719
3.000000 6.960000 -5.000000 195.068069 -57.118752 41314.101562
3.000000 6.960000 -4.960000 195.683044 60.130405 41907.519531
3.000000 6.960000 -4.920000 110.362976 140.268921 31855.357422
3.000000 6.960000 -4.880000 2.594872 131.738342 17361.722656
3.000000 6.960000 -4.840000 -51.773727 56.877323 5915.548828
3.000000 6.960000 -4.800000 -30.487076 -13.711488 1117.466675
3.000000 7.000000 -5.200000 49.313980 26.925447 3156.848389
3.000000 7.000000 -5.160000 2.241240 5.674314 37.221001
3.000000 7.000000 -5.120000 2.891497 -56.954918 3252.223633
3.000000 7.000000 -5.080000 72.489723 -96.999435 14663.650391
3.000000 7.000000 -5.040000 163.533783 -57.448132 30043.585938
3.000000 7.000000 -5.000000 196.431030 52.208244 41310.847656
3.000000 7.000000 -4.960000 132.686157 156.807343 42194.160156
3.000000 7.000000 -4.920000 13.309691 180.335510 32698.044922
3.000000 7.000000 -4.880000 -76.694809 113.255096 18708.810547
3.000000 7.000000 -4.840000 -83.626900 17.406404 7296.441406
3.000000 7.000000 -4.800000 -27.252068 -33.998047 1898.542358
3.000000 7.040000 -5.200000 12.785937 47.146179 2386.242432
3.000000 7.040000 -5.160000 -13.145761 2.585499 179.495850
3.000000 7.040000 -5.120000 19.963444 -49.274670 2826.532227
3.000000 7.040000 -5.080000 96.183044 -48.290459 11583.146484
3.000000 7.040000 -5.040000 150.080032 26.394819 23220.701172
3.000000 7.040000 -5.000000 123.892448 128.269760 31802.468750
3.000000 7.040000 -4.960000 23.806051 179.572174 32812.894531
3.000000 7.040000 -4.920000 -81.398422 140.155716 26269.328125
3.000000 7.040000 -4.880000 -120.230919 42.891655 16295.167969
3.000000 7.040000 -4.840000 -79.420921 -38.318687 7776.004395
3.000000 7.040000 -4.800000 -8.291624 -55.070324 3101.491455
3.000000 7.080000 -5.200000 -16.333000 33.039646 1358.385010
3.000000 7.080000 -5.160000 -13.858328 -9.428677 280.953186
3.000000 7.080000 -5.120000 31.204683 -31.900459 1991.371582
3.000000 7.080000 -5.080000 83.792931 -0.570246 7021.580566
3.000000 7.080000 -5.040000 90.957794 72.330513 13505.023438
3.000000 7.080000 -5.000000 31.569824 131.524948 18295.466797
3.000000 7.080000 -4.960000 -58.929245 125.288429 19169.845703
3.000000 7.080000 -4.920000 -116.089760 52.708054 16254.970703
3.000000 7.080000 -4.880000 -101.957703 -34.563362 11589.999023
3.000000 7.080000 -4.840000 -35.719475 -78.123405 7379.147461
3.000000 7.080000 -4.800000 28.372488 -61.483727 4585.246582
3.000000 7.120000 -5.200000 -18.520905 9.359625 430.626465
3.000000 7.120000 -5.160000 -2.892385 -13.529205 191.405289
3.000000 7.120000 -5.120000 30.206490 -12.387386 1065.879395
3.000000 7.120000 -5.080000 51.121059 21.863281 3091.365723
3.000000 7.120000 -5.040000 32.440254 66.419250 5463.886719
3.000000 7.120000 -5.000000 -21.923660 81.614548 7141.581543
3.000000 7.120000 -4.960000 -74.221313 46.271587 7649.863281
3.000000 7.120000 -4.920000 -83.194458 -20.257904 7331.700684
3.000000 7.120000 -4.880000 -40.022659 -72.435608 6848.730469
3.000000 7.120000 -4.840000 24.445965 -76.794968 6495.072266
3.000000 7.120000 -4.800000 67.626556 -38.016708 6018.621094
3.000000 7.160000 -5.200000 -3.665025 0.918537 14.276117
3.000000 7.160000 -5.160000 5.972101 -5.617057 67.217316
3.000000 7.160000 -5.120000 20.266172 -0.236333 410.773590
3.000000 7.160000 -5.080000 24.436720 18.559040 941.591187
3.000000 7.160000 -5.040000 7.629730 35.819260 1341.232178
3.000000 7.160000 -5.000000 -21.903557 31.039932 1443.243164
3.000000 7.160000 -4.960000 -39.144920 -0.924438 1533.179443
3.000000 7.160000 -4.920000 -23.438450 -40.378323 2179.770020
3.000000 7.160000 -4.880000 21.000353 -56.841038 3671.918457
3.000000 7.160000 -4.840000 66.151703 -34.940773 5596.905273
3.000000 7.160000 -4.800000 82.928329 12.369714 7030.117676
3.000000 7.200000 -5.200000 5.919201 10.120696 137.465424
3.000000 7.200000 -5.160000 4.528989 5.275603 48.343727
3.000000 7.200000 -5.120000 10.471870 2.729248 117.108864
3.000000 7.200000 -5.080000 15.840832 8.530117 323.694824
3.000000 7.200000 -5.040000 11.552706 16.422934 403.177734
3.000000 7.200000 -5.000000 0.641035 13.888863 193.311417
3.000000 7.200000 -4.960000 -1.782772 -2.019287 7.255796
3.000000 7.200000 -4.920000 15.874540 -17.132612 545.527466
3.000000 7.200000 -4.880000 46.522392 -11.392423 2294.120361
3.000000 7.200000 -4.840000 67.010742 21.043297 4933.259766
3.000000 7.200000 -4.800000 57.757774 63.504898 7368.832520
3.040000 6.800000 -5.200000 -93.712364 3.923603 8797.401367
3.040000 6.800000 -5.160000 -84.263275 -43.890358 9026.663086
3.040000 6.800000 -5.120000 -44.542740 -73.139534 7333.447266
3.040000 6.800000 -5.080000 0.602032 -68.007095 4625.327148
3.040000 6.800000 -5.040000 24.829540 -39.132912 2147.890869
3.040000 6.800000 -5.000000 22.572952 -11.876144 650.580994
3.040000 6.800000 -4.960000 9.901077 -2.073582 102.331078
3.040000 6.800000 -4.920000 4.813560 -4.315842 41.796852
3.040000 6.800000 -4.880000 9.163643 -3.229332 94.400940
3.040000 6.800000 -4.840000 10.814907 6.868666 164.140778
3.040000 6.800000 -4.800000 1.276000 16.293819 267.116730
3.040000 6.840000 -5.200000 -67.679878 -57.959862 7939.911133
3.040000 6.840000 -5.160000 -40.239532 -77.435928 7615.542969
3.040000 6.840000 -5.120000 -11.565737 -78.896545 6358.431152
3.040000 6.840000 -5.080000 8.408459 -70.299095 5012.665039
3.040000 6.840000 -5.040000 21.383720 -61.169712 4198.997070
3.040000 6.840000 -5.000000 34.327705 -51.945030 3876.677490
3.040000 6.840000 -4.960000 47.397598 -35.656647 3517.928711
3.040000 6.840000 -4.920000 50.954498 -10.097027 2698.310791
3.040000 6.840000 -4.880000 36.438725 14.228409 1530.228271
3.040000 6.840000 -4.840000 9.307362 21.404322 544.771973
3.040000 6.840000 -4.800000 -11.779598 6.513548 181.185242
3.040000 6.880000 -5.200000 -4.762321 -78.978584 6260.296387
3.040000 6.880000 -5.160000 9.484104 -69.313782 4894.348633
3.040000 6.880000 -5.120000 10.968185 -67.272644 4645.909668
3.040000 6.880000 -5.080000 19.031227 -79.534653 6687.948242
3.040000 6.880000 -5.040000 48.824249 -88.981171 10301.456055
3.040000 6.880000 -5.000000 90.193985 -70.908791 13163.011719
3.040000 6.880000 -4.960000 112.345642 -21.176975 13070.006836
3.040000 6.880000 -4.920000 92.643845 33.537369 9707.636719
3.040000 6.880000 -4.880000 41.263046 56.778000 4926.380371
3.040000 6.880000 -4.840000 -4.607031 35.733418 1298.101807
3.040000 6.880000 -4.800000 -13.251160 -6.104495 212.858093
3.040000 6.920000 -5.200000 48.965954 -47.525730 4656.359375
3.040000 6.920000 -5.160000 32.942440 -34.027809 2243.096191
3.040000 6.920000 -5.120000 19.805780 -54.194313 3329.292725
3.040000 6.920000 -5.080000 44.242146 -87.199432 9561.108398
3.040000 6.920000 -5.040000 104.337448 -87.921516 18616.496094
3.040000 6.920000 -5.000000 155.795166 -32.625626 25336.564453
3.040000 6.920000 -4.960000 150.874451 51.757309 25441.917969
3.040000 6.920000 -4.920000 85.334137 107.298645 18794.914062
3.040000 6.920000 -4.880000 5.844444 97.011490 9445.386719
3.040000 6.920000 -4.840000 -31.213110 38.515015 2457.664551
3.040000 6.920000 -4.800000 -9.745047 -13.689726 282.374542
3.040000 6.960000 -5.200000 59.046055 7.050114 3536.140625
3.040000 6.960000 -5.160000 24.545778 -2.506685 608.778687
3.040000 6.960000 -5.120000 24.781303 -46.941963 2817.660889
3.040000 6.960000 -5.080000 79.890717 -75.201675 12037.818359
3.040000 6.960000 -5.040000 152.517181 -39.362823 24810.921875
3.040000 6.960000 -5.000000 176.712891 53.714680 34112.710938
3.040000 6.960000 -4.960000 120.098007 141.225220 34368.093750
3.040000 6.960000 -4.920000 17.819700 159.027100 25607.160156
3.040000 6.960000 -4.880000 -57.145115 99.973312 13260.227539
3.040000 6.960000 -4.840000 -59.279781 18.765757 3866.246094
3.040000 6.960000 -4.800000 -7.810396 -20.435453 478.610046
3.040000 7.000000 -5.200000 29.340754 43.247124 2731.193604
3.040000 7.000000 -5.160000 3.787880 6.520020 56.858688
3.040000 7.000000 -5.120000 33.132622 -39.772385 2679.613281
3.040000 7.000000 -5.080000 104.246132 -37.128002 12245.744141
3.040000 7.000000 -5.040000 154.508011 35.928146 25163.556641
3.040000 7.000000 -5.000000 127.646561 134.976456 34512.289062
3.040000 7.000000 -4.960000 29.640610 184.592224 34952.855469
3.040000 7.000000 -4.920000 -72.265488 146.215225 26601.193359
3.040000 7.000000 -4.880000 -108.754494 53.043808 14641.185547
3.040000 7.000000 -4.840000 -68.584625 -22.068333 5190.861816
3.040000 7.000000 -4.800000 -2.220192 -32.956161 1091.037720
3.040000 7.040000 -5.200000 -7.698155 43.070808 1914.356079
3.040000 7.040000 -5.160000 -7.625444 -1.426765 60.183064
3.040000 7.040000 -5.120000 40.480606 -25.464773 2287.134033
3.040000 7.040000 -5.080000 97.800957 10.075785 9666.548828
3.040000 7.040000 -5.040000 104.738121 91.960899 19426.880859
3.040000 7.040000 -5.000000 37.767807 158.378235 26510.074219
3.040000 7.040000 -4.960000 -63.159554 152.174179 27146.109375
3.040000 7.040000 -4.920000 -126.738632 73.549805 21472.253906
3.040000 7.040000 -4.880000 -112.667923 -19.618603 13078.950195
3.040000 7.040000 -4.840000 -44.300526 -64.194534 6083.475098
3.040000 7.040000 -4.800000 18.236637 -45.240364 2379.265381
3.040000 7.080000 -5.200000 -23.859200 21.473621 1030.377808
3.040000 7.080000 -5.160000 -5.053970 -8.986891 106.306824
3.040000 7.080000 -5.120000 37.820930 -6.990603 1479.291260
3.040000 7.080000 -5.080000 63.943718 39.048141 5613.556641
3.040000 7.080000 -5.040000 37.644070 97.583626 10939.640625
3.040000 7.080000 -5.000000 -34.037449 116.970909 14840.741211
3.040000 7.080000 -4.960000 -101.598877 72.147026 15527.525391
3.040000 7.080000 -4.920000 -114.436966 -10.107067 13197.971680
3.040000 7.080000 -4.880000 -64.860168 -73.229675 9569.426758
3.040000 7.080000 -4.840000 7.321399 -79.516220 6376.432129
3.040000 7.080000 -4.800000 52.502159 -38.795517 4261.568848
3.040000 7.120000 -5.200000 -17.626772 5.074706 336.455750
3.040000 7.120000 -5.160000 0.757492 -6.898088 48.157421
3.040000 7.120000 -5.120000 24.430309 4.873075 620.586914
3.040000 7.120000 -5.080000 27.350323 37.288982 2138.508301
3.040000 7.120000 -5.040000 -3.518124 62.901863 3969.021484
3.040000 7.120000 -5.000000 -50.437778 52.356232 5285.144531
3.040000 7.120000 -4.960000 -75.866806 3.423759 5767.494629
3.040000 7.120000 -4.920000 -54.718086 -52.783066 5780.121094
3.040000 7.120000 -4.880000 2.425909 -76.605225 5874.245605
3.040000 7.120000 -4.840000 57.886585 -53.022011 6162.190430
3.040000 7.120000 -4.800000 78.893356 -2.034542 6228.300781
3.040000 7.160000 -5.200000 -7.519851 5.345137 85.118645
3.040000 7.160000 -5.160000 -0.240991 -0.346658 0.178248
3.040000 7.160000 -5.120000 10.241479 4.289850 123.290710
3.040000 7.160000 -5.080000 10.696455 18.046394 440.086517
3.040000 7.160000 -5.040000 -4.665751 26.020447 698.832886
3.040000 7.160000 -5.000000 -23.722258 13.595284 747.577209
3.040000 7.160000 -4.960000 -24.595196 -16.041264 862.245789
3.040000 7.160000 -4.920000 3.301891 -40.190308 1626.163330
3.040000 7.160000 -4.880000 46.231098 -35.090927 3368.687500
3.040000 7.160000 -4.840000 75.398933 2.403708 5690.776855
3.040000 7.160000 -4.800000 70.634636 51.072083 7597.609375
3.040000 7.200000 -5.200000 -8.406951 12.623520 230.030090
3.040000 7.200000 -5.160000 -6.673632 1.372663 46.421570
3.040000 7.200000 -5.120000 4.938163 -2.600368 31.147364
3.040000 7.200000 -5.080000 14.131187 5.140682 226.117065
3.040000 7.200000 -5.040000 11.950414 14.937935 365.954285
3.040000 7.200000 -5.000000 4.217726 14.350178 223.716812
3.040000 7.200000 -4.960000 5.965664 4.024836 51.788445
3.040000 7.200000 -4.920000 23.801575 -0.245119 566.575012
3.040000 7.200000 -4.880000 45.422890 16.893911 2348.643311
3.040000 7.200000 -4.840000 48.797478 52.796654 5168.680664
3.040000 7.200000 -4.800000 22.750273 86.064110 7924.605469
3.080000 6.800000 -5.200000 -68.667175 -37.383167 6112.682617
3.080000 6.800000 -5.160000 -39.069626 -70.422150 6485.714844
3.080000 6.800000 -5.120000 6.674272 -75.460251 5738.795410
3.080000 6.800000 -5.080000 42.361122 -49.733437 4267.879395
3.080000 6.800000 -5.040000 50.328625 -11.884460 2674.210938
3.080000 6.800000 -5.000000 34.530434 14.733541 1409.428101
3.080000 6.800000 -4.960000 13.468834 21.020782 623.282776
3.080000 6.800000 -4.920000 1.706996 15.457283 241.841431
3.080000 6.800000 -4.880000 -0.872553 10.943758 120.527184
3.080000 6.800000 -4.840000 -3.012739 10.993707 129.938187
3.080000 6.800000 -4.800000 -8.726490 9.535067 167.069122
3.080000 6.840000 -5.200000 -24.108738 -71.044189 5628.508301
3.080000 6.840000 -5.160000 7.654064 -75.423424 5747.277344
3.080000 6.840000 -5.120000 34.516159 -62.683685 5120.609375
3.080000 6.840000 -5.080000 48.971313 -41.643501 4132.370605
3.080000 6.840000 -5.040000 52.467422 -21.017054 3194.546875
3.080000 6.840000 -5.000000 49.658943 -3.381817 2477.447510
3.080000 6.840000 -4.960000 41.683857 12.149727 1885.159790
3.080000 6.840000 -4.920000 26.822294 23.381153 1266.113770
3.080000 6.840000 -4.880000 7.249168 24.126554 634.641052
3.080000 6.840000 -4.840000 -7.656191 11.381112 188.146973
3.080000 6.840000 -4.800000 -7.664474 -7.678482 117.703247
3.080000 6.880000 -5.200000 29.432858 -60.105080 4478.913574
3.080000 6.880000 -5.160000 40.229557 -47.619415 3886.025879
3.080000 6.880000 -5.120000 44.811249 -41.185635 3704.304443
3.080000 6.880000 -5.080000 55.439373 -38.963482 4591.677246
3.080000 6.880000 -5.040000 74.082550 -27.287472 6232.830078
3.080000 6.880000 -5.000000 86.158318 2.386154 7428.949707
3.080000 6.880000 -4.960000 74.019821 39.251812 7019.638672
3.080000 6.880000 -4.920000 37.506088 59.009525 4888.830566
3.080000 6.880000 -4.880000 -0.871902 46.418869 2155.471680
3.080000 6.880000 -4.840000 -14.046408 12.142031 344.730469
3.080000 6.880000 -4.800000 4.684793 -14.587502 234.742508
3.080000 6.920000 -5.200000 54.817944 -16.353552 3272.445557
3.080000 6.920000 -5.160000 42.268848 -11.815508 1926.261719
3.080000 6.920000 -5.120000 42.939041 -26.073471 2523.587158
3.080000 6.920000 -5.080000 70.161163 -33.757729 6062.172852
3.080000 6.920000 -5.040000 105.397446 -8.409065 11179.333008
3.080000 6.920000 -5.000000 112.414650 46.537758 14802.816406
3.080000 6.920000 -4.960000 73.427917 94.994591 14415.631836
3.080000 6.920000 -4.920000 10.551325 99.837173 10078.791016
3.080000 6.920000 -4.880000 -31.371658 58.850182 4447.524902
3.080000 6.920000 -4.840000 -25.433956 8.346054 716.542725
3.080000 6.920000 -4.800000 13.137386 -10.133667 275.282104
3.080000 6.960000 -5.200000 41.068680 25.603256 2342.163086
3.080000 6.960000 -5.160000 23.729361 8.032543 627.604309
3.080000 6.960000 -5.120000 41.022682 -18.352468 2019.673584
3.080000 6.960000 -5.080000 86.413887 -13.477907 7649.013672
3.080000 6.960000 -5.040000 117.545319 38.658581 15311.388672
3.080000 6.960000 -5.000000 95.081711 107.570007 20611.837891
3.080000 6.960000 -4.960000 23.666918 140.074097 20180.875000
3.080000 6.960000 -4.920000 -47.857178 109.561508 14294.033203
3.080000 6.960000 -4.880000 -69.708565 42.013222 6624.395020
3.080000 6.960000 -4.840000 -36.041351 -7.893121 1361.280396
3.080000 6.960000 -4.800000 12.520630 -7.108150 207.291977
3.080000 7.000000 -5.200000 8.046403 39.969006 1662.265991
3.080000 7.000000 -5.160000 5.797152 8.133772 99.765213
3.080000 7.000000 -5.120000 42.041443 -9.345152 1854.814819
3.080000 7.000000 -5.080000 86.410522 20.522537 7887.952637
3.080000 7.000000 -5.040000 90.010239 87.835007 15816.832031
3.080000 7.000000 -5.000000 33.314255 141.850464 21231.394531
3.080000 7.000000 -4.960000 -50.211807 135.580017 20903.167969
3.080000 7.000000 -4.920000 -101.214966 70.430405 15204.912109
3.080000 7.000000 -4.880000 -87.557205 -3.943789 7681.817871
3.080000 7.000000 -4.840000 -31.605843 -35.073757 2229.097656
3.080000 7.000000 -4.800000 14.152374 -13.542696 383.694336
3.080000 7.040000 -5.200000 -16.298918 28.592941 1083.210938
3.080000 7.040000 -5.160000 -0.604380 1.383389 2.279041
3.080000 7.040000 -5.120000 38.337906 4.334633 1488.584106
3.080000 7.040000 -5.080000 61.276161 48.965897 6152.426758
3.080000 7.040000 -5.040000 34.128441 104.776001 12142.761719
3.080000 7.040000 -5.000000 -35.505405 122.405792 16243.811523
3.080000 7.040000 -4.960000 -99.692116 79.226791 16215.402344
3.080000 7.040000 -4.920000 -111.272003 2.560167 12388.013672
3.080000 7.040000 -4.880000 -65.725990 -53.625450 7195.594727
3.080000 7.040000 -4.840000 -3.123396 -56.314575 3181.086914
3.080000 7.040000 -4.800000 30.495693 -19.106461 1295.044189
3.080000 7.080000 -5.200000 -21.066265 11.809907 583.261475
3.080000 7.080000 -5.160000 -0.663396 -0.702402 0.933463
3.080000 7.080000 -5.120000 24.446871 14.682754 813.232727
3.080000 7.080000 -5.080000 24.170967 52.171772 3306.129395
3.080000 7.080000 -5.040000 -13.919777 79.244980 6473.526855
3.080000 7.080000 -5.000000 -67.233307 64.650688 8700.029297
3.080000 7.080000 -4.960000 -94.268860 9.506832 8976.998047
3.080000 7.080000 -4.920000 -71.105263 -50.163368 7572.322266
3.080000 7.080000 -4.880000 -13.159267 -73.707886 5606.019043
3.080000 7.080000 -4.840000 38.972900 -50.238880 4042.832031
3.080000 7.080000 -4.800000 55.217209 -4.519224 3069.363525
3.080000 7.120000 -5.200000 -16.154636 4.946514 285.440308
3.080000 7.120000 -5.160000 -3.686738 0.811831 14.251103
3.080000 7.120000 -5.120000 7.022611 12.207329 198.335938
3.080000 7.120000 -5.080000 -0.027943 30.805376 948.971985
3.080000 7.120000 -5.040000 -25.679947 35.463860 1917.145020
3.080000 7.120000 -5.000000 -49.799213 12.544434 2637.324463
3.080000 7.120000 -4.960000 -47.225258 -27.594505 2991.681885
3.080000 7.120000 -4.920000 -11.527540 -56.156204 3286.403564
3.080000 7.120000 -4.880000 36.908058 -50.002350 3862.439941
3.080000 7.120000 -4.840000 67.235115 -11.565659 4654.325195
3.080000 7.120000 -4.800000 63.384819 34.236355 5189.763184
3.080000 7.160000 -5.200000 -15.528256 5.844221 275.281677
3.080000 7.160000 -5.160000 -10.099060 -1.837973 105.369156
3.080000 7.160000 -5.120000 -1.012701 -1.008682 2.043003
3.080000 7.160000 -5.080000 1.187870 6.357372 41.827217
3.080000 7.160000 -5.040000 -5.865289 8.762730 111.187042
3.080000 7.160000 -5.000000 -11.282784 -1.610935 129.896317
3.080000 7.160000 -4.960000 -1.171024 -17.625023 312.012726
3.080000 7.160000 -4.920000 25.509022 -21.193998 1099.895752
3.080000 7.160000 -4.880000 52.357174 -0.115168 2741.286865
3.080000 7.160000 -4.840000 58.243561 38.867157 4902.968262
3.080000 7.160000 -4.800000 35.460815 74.136940 6753.754883
3.080000 7.200000 -5.200000 -20.977924 3.331610 451.172913
3.080000 7.200000 -5.160000 -12.290771 -10.390725 259.030212
3.080000 7.200000 -5.120000 4.703671 -11.786988 161.057617
3.080000 7.200000 -5.080000 16.071253 -0.402477 258.447144
3.080000 7.200000 -5.040000 15.354965 12.261072 386.108856
3.080000 7.200000 -5.000000 9.886265 16.185095 359.695557
3.080000 7.200000 -4.960000 11.459072 14.465305 340.555389
3.080000 7.200000 -4.920000 21.524239 20.025726 864.322571
3.080000 7.200000 -4.880000 27.407232 40.478577 2389.671387
3.080000 7.200000 -4.840000 14.350070 67.446068 4754.896484
3.080000 7.200000 -4.800000 -18.910156 82.076965 7094.222656
3.120000 6.800000 -5.200000 -31.740803 -45.861988 3110.800537
3.120000 6.800000 -5.160000 1.716064 -57.501511 3309.368652
3.120000 6.800000 -5.120000 36.898994 -43.243881 3231.568848
3.120000 6.800000 -5.080000 53.775986 -9.183836 2976.199463
3.120000 6.800000 -5.040000 44.239853 25.235109 2593.975342
3.120000 6.800000 -5.000000 17.664026 42.170570 2090.375000
3.120000 6.800000 -4.960000 -8.017151 37.889782 1499.910278
3.120000 6.800000 -4.920000 -20.630951 22.367817 925.955383
3.120000 6.800000 -4.880000 -20.490427 8.254769 487.998840
3.120000 6.800000 -4.840000 -15.293353 0.856796 234.620743
3.120000 6.800000 -4.800000 -10.662222 -2.280974 118.885818
3.120000 6.840000 -5.200000 6.273197 -53.541958 2906.094238
3.120000 6.840000 -5.160000 32.158623 -45.633003 3116.548096
3.120000 6.840000 -5.120000 48.961922 -24.177916 2981.841309
3.120000 6.840000 -5.080000 50.671322 1.637211 2570.263184
3.120000 6.840000 -5.040000 39.105743 22.053074 2015.597168
3.120000 6.840000 -5.000000 20.833546 31.807148 1445.731201
3.120000 6.840000 -4.960000 2.639656 30.556087 940.642273
3.120000 6.840000 -4.920000 -10.442970 20.647888 535.390930
3.120000 6.840000 -4.880000 -14.814876 5.969462 255.115021
3.120000 6.840000 -4.840000 -8.797968 -7.650616 135.936157
3.120000 6.840000 -4.800000 5.153427 -13.342459 204.579010
3.120000 6.880000 -5.200000 36.147163 -31.449635 2295.697021
3.120000 6.880000 -5.160000 43.687935 -18.348261 2245.294434
3.120000 6.880000 -5.120000 46.330616 -6.526327 2189.118896
3.120000 6.880000 -5.080000 47.783337 4.967643 2307.924805
3.120000 6.880000 -5.040000 46.341751 19.558355 2530.087158
3.120000 6.880000 -5.000000 36.070381 35.281631 2545.865967
3.120000 6.880000 -4.960000 15.562708 42.856918 2078.913330
3.120000 6.880000 -4.920000 -5.860577 34.015446 1191.396851
3.120000 6.880000 -4.880000 -13.500734 12.294212 333.417480
3.120000 6.880000 -4.840000 -0.903862 -6.332562 40.918316
3.120000 6.880000 -4.800000 21.869421 -6.050737 514.882996
3.120000 6.920000 -5.200000 40.008026 1.747014 1603.694214
3.120000 6.920000 -5.160000 34.994026 4.474900 1244.606689
3.120000 6.920000 -5.120000 38.854294 2.272957 1514.822510
3.120000 6.920000 -5.080000 51.485435 9.408758 2739.274658
3.120000 6.920000 -5.040000 57.701935 32.580467 4391.000000
3.120000 6.920000 -5.000000 42.303829 59.670078 5350.132324
3.120000 6.920000 -4.960000 8.488762 68.608063 4779.125488
3.120000 6.920000 -4.920000 -21.064960 49.429634 2887.021484
3.120000 6.920000 -4.880000 -24.188663 16.824238 868.146423
3.120000 6.920000 -4.840000 -1.151289 -1.480009 3.515893
3.120000 6.920000 -4.800000 24.176149 9.557154 675.825378
3.120000 6.960000 -5.200000 22.347992 23.457970 1049.709106
3.120000 6.960000 -5.160000 19.249287 13.030341 540.324829
3.120000 6.960000 -5.120000 34.308762 7.194888 1228.857422
3.120000 6.960000 -5.080000 54.113762 23.869093 3498.032959
3.120000 6.960000 -5.040000 53.339294 59.456100 6380.108398
3.120000 6.960000 -5.000000 20.959316 87.442070 8085.408691
3.120000 6.960000 -4.960000 -24.847580 82.214432 7376.615234
3.120000 6.960000 -4.920000 -50.809319 45.260937 4630.139648
3.120000 6.960000 -4.880000 -39.563141 6.108691 1602.558228
3.120000 6.960000 -4.840000 -6.555882 -4.622451 64.346642
3.120000 6.960000 -4.800000 14.775903 16.227545 481.660522
3.120000 7.000000 -5.200000 1.069393 26.049345 679.711975
3.120000 7.000000 -5.160000 7.937713 12.157645 210.815613
3.120000 7.000000 -5.120000 29.633163 14.788820 1096.833618
3.120000 7.000000 -5.080000 42.582294 43.047375 3666.328125
3.120000 7.000000 -5.040000 24.291506 78.929230 6819.900391
3.120000 7.000000 -5.000000 -21.439657 90.619179 8671.495117
3.120000 7.000000 -4.960000 -63.575508 62.875607 7995.187012
3.120000 7.000000 -4.920000 -70.930161 13.913535 5224.674316
3.120000 7.000000 -4.880000 -41.369133 -19.829159 2104.600586
3.120000 7.000000 -4.840000 -3.621519 -17.005896 302.315887
3.120000 7.000000 -4.800000 10.400594 10.175775 211.718735
3.120000 7.040000 -5.200000 -11.112875 18.204430 454.897217
3.120000 7.040000 -5.160000 1.262020 10.371974 109.170540
3.120000 7.040000 -5.120000 17.815258 22.001017 801.428162
3.120000 7.040000 -5.080000 16.129942 50.002327 2760.407715
3.120000 7.040000 -5.040000 -13.795003 70.346741 5138.966309
3.120000 7.040000 -5.000000 -55.167107 59.224197 6550.915039
3.120000 7.040000 -4.960000 -76.422180 17.605585 6150.306152
3.120000 7.040000 -4.920000 -59.841248 -26.591305 4288.072266
3.120000 7.040000 -4.880000 -18.563732 -42.668907 2165.247803
3.120000 7.040000 -4.840000 15.477137 -24.397243 834.767212
3.120000 7.040000 -4.800000 20.817812 6.413824 474.518433
3.120000 7.080000 -5.200000 -15.317476 11.099224 357.817841
3.120000 7.080000 -5.160000 -6.252178 8.562834 112.411850
3.120000 7.080000 -5.120000 0.610825 19.112610 365.664978
3.120000 7.080000 -5.080000 -8.491179 34.684013 1275.080933
3.120000 7.080000 -5.040000 -33.074505 36.554832 2430.178711
3.120000 7.080000 -5.000000 -54.488388 14.043041 3166.191406
3.120000 7.080000 -4.960000 -51.465874 -21.976656 3131.709473
3.120000 7.080000 -4.920000 -20.739801 -46.096832 2555.057373
3.120000 7.080000 -4.880000 18.236439 -40.468849 1970.295410
3.120000 7.080000 -4.840000 39.932060 -10.467324 1704.134277
3.120000 7.080000 -4.800000 34.523560 21.293720 1645.298706
3.120000 7.120000 -5.200000 -18.937239 6.519605 401.124268
3.120000 7.120000 -5.160000 -14.635655 1.405118 216.176773
3.120000 7.120000 -5.120000 -9.902722 3.263222 108.712524
3.120000 7.120000 -5.080000 -12.511024 7.449322 212.018127
3.120000 7.120000 -5.040000 -20.822495 3.721905 447.428833
3.120000 7.120000 -5.000000 -23.069881 -11.401039 662.203125
3.120000 7.120000 -4.960000 -8.881290 -27.879307 856.133057
3.120000 7.120000 -4.920000 18.466536 -29.547037 1214.040283
3.120000 7.120000 -4.880000 42.418617 -9.212196 1884.203613
3.120000 7.120000 -4.840000 46.657074 23.717461 2739.400391
3.120000 7.120000 -4.800000 28.748034 50.798370 3406.923828
3.120000 7.160000 -5.200000 -23.549374 -1.032578 555.639221
3.120000 7.160000 -5.160000 -16.607552 -12.191279 424.438049
3.120000 7.160000 -5.120000 -4.120039 -14.667292 232.104172
3.120000 7.160000 -5.080000 4.762470 -9.223864 107.760780
3.120000 7.160000 -5.040000 7.249740 -3.567661 65.286926
3.120000 7.160000 -5.000000 9.218420 -2.480347 91.131393
3.120000 7.160000 -4.960000 17.219936 -1.496815 298.766663
3.120000 7.160000 -4.920000 29.123363 8.466328 919.848999
3.120000 7.160000 -4.880000 34.066822 30.312626 2079.403564
3.120000 7.160000 -4.840000 22.307896 55.414352 3568.392578
3.120000 7.160000 -4.800000 -5.029737 69.656036 4877.261719
3.120000 7.200000 -5.200000 -22.985008 -13.418318 708.361877
3.120000 7.200000 -5.160000 -7.101975 -24.033571 628.050598
3.120000 7.200000 -5.120000 12.795984 -19.602211 547.983887
3.120000 7.200000 -5.080000 24.038008 -3.284204 588.611816
3.120000 7.200000 -5.040000 22.728111 13.728733 705.045166
3.120000 7.200000 -5.000000 15.416574 23.709974 799.833679
3.120000 7.200000 -4.960000 10.137840 28.888844 937.341125
3.120000 7.200000 -4.920000 7.036945 36.551147 1385.504883
3.120000 7.200000 -4.880000 -1.333724 48.800735 2383.290527
3.120000 7.200000 -4.840000 -20.771702 58.361969 3837.583008
3.120000 7.200000 -4.800000 -47.481014 54.868927 5265.045898
3.160000 6.800000 -5.200000 -9.408712 -30.406296 1013.066711
3.160000 6.800000 -5.160000 13.610455 -27.273197 929.071777
3.160000 6.800000 -5.120000 31.204357 -7.680591 1032.703369
3.160000 6.800000 -5.080000 31.439690 20.585291 1412.208252
3.160000 6.800000 -5.040000 12.162521 42.175724 1926.718628
3.160000 6.800000 -5.000000 -16.070568 44.880074 2272.484131
3.160000 6.800000 -4.960000 -37.148438 28.667580 2201.836426
3.160000 6.800000 -4.920000 -41.027740 5.211378 1710.433960
3.160000 6.800000 -4.880000 -29.987995 -11.594586 1033.714233
3.160000 6.800000 -4.840000 -14.666432 -15.675660 460.830566
3.160000 6.800000 -4.800000 -4.363751 -10.948465 138.911224
3.160000 6.840000 -5.200000 10.884336 -29.794830 1006.200684
3.160000 6.840000 -5.160000 26.138012 -17.807482 1000.302124
3.160000 6.840000 -5.120000 31.200569 2.851059 981.604065
3.160000 6.840000 -5.080000 21.729580 22.778736 991.045410
3.160000 6.840000 -5.040000 1.763638 31.818199 1015.508240
3.160000 6.840000 -5.000000 -18.418928 25.710602 1000.291992
3.160000 6.840000 -4.960000 -28.700489 8.700466 899.416199
3.160000 6.840000 -4.920000 -25.073679 -9.503846 719.012451
3.160000 6.840000 -4.880000 -11.147146 -19.803942 516.454956
3.160000 6.840000 -4.840000 4.989042 -18.445473 365.126007
3.160000 6.840000 -4.800000 15.781998 -7.846193 310.634216
3.160000 6.880000 -5.200000 24.115034 -16.430946 851.510864
3.160000 6.880000 -5.160000 29.038944 -3.931006 858.713074
3.160000 6.880000 -5.120000 26.226315 9.216401 772.761597
3.160000 6.880000 -5.080000 17.106873 18.270725 626.464478
3.160000 6.880000 -5.040000 5.289325 20.620205 453.169800
3.160000 6.880000 -5.000000 -5.066547 15.923923 279.241211
3.160000 6.880000 -4.960000 -9.921076 5.975847 134.138489
3.160000 6.880000 -4.920000 -6.368460 -4.847152 64.052155
3.160000 6.880000 -4.880000 5.029530 -10.118596 127.682152
3.160000 6.880000 -4.840000 18.487177 -4.648652 363.385651
3.160000 6.880000 -4.800000 25.007572 10.910950 744.427490
3.160000 6.920000 -5.200000 25.533844 -0.009334 651.977234
3.160000 6.920000 -5.160000 24.560909 7.212466 655.257935
3.160000 6.920000 -5.120000 22.117695 12.296928 640.406860
3.160000 6.920000 -5.080000 19.527542 16.965168 669.141846
3.160000 6.920000 -5.040000 14.845585 21.980679 703.541626
3.160000 6.920000 -5.000000 6.660375 24.248114 632.331604
3.160000 6.920000 -4.960000 -1.484468 20.000288 402.215179
3.160000 6.920000 -4.920000 -2.783948 11.009614 128.961975
3.160000 6.920000 -4.880000 5.241378 5.789270 60.987694
3.160000 6.920000 -4.840000 15.509794 12.283826 391.446106
3.160000 6.920000 -4.800000 15.849141 28.608330 1069.631836
3.160000 6.960000 -5.200000 18.670044 12.126291 495.617462
3.160000 6.960000 -5.160000 17.095377 14.483018 502.009735
3.160000 6.960000 -5.120000 18.375437 16.837894 621.171387
3.160000 6.960000 -5.080000 19.638462 23.866032 955.256653
3.160000 6.960000 -5.040000 14.278630 33.896206 1352.832031
3.160000 6.960000 -5.000000 0.894076 38.585991 1489.677979
3.160000 6.960000 -4.960000 -12.479635 31.875919 1171.815552
3.160000 6.960000 -4.920000 -15.342840 18.433043 575.179810
3.160000 6.960000 -4.880000 -6.471665 10.917636 161.077209
3.160000 6.960000 -4.840000 2.804851 17.238895 305.046692
3.160000 6.960000 -4.800000 -0.925110 31.000896 961.911438
3.160000 7.000000 -5.200000 8.458699 18.700071 421.242249
3.160000 7.000000 -5.160000 7.281342 19.111038 418.249725
3.160000 7.000000 -5.120000 9.459270 22.032988 574.930298
3.160000 7.000000 -5.080000 8.734424 30.841047 1027.460327
3.160000 7.000000 -5.040000 -1.442979 39.768948 1583.651367
3.160000 7.000000 -5.000000 -18.253658 38.657715 1827.614990
3.160000 7.000000 -4.960000 -29.820953 24.671299 1497.962158
3.160000 7.000000 -4.920000 -26.800163 7.592630 775.896790
3.160000 7.000000 -4.880000 -13.142430 1.323915 174.476227
3.160000 7.000000 -4.840000 -3.418729 9.552568 102.939270
3.160000 7.000000 -4.800000 -8.271260 21.123653 514.622498
3.160000 7.040000 -5.200000 -3.411058 20.537449 433.422119
3.160000 7.040000 -5.160000 -5.936389 18.915390 393.032715
3.160000 7.040000 -5.120000 -5.378239 19.944744 426.718262
3.160000 7.040000 -5.080000 -8.294522 24.953449 691.473755
3.160000 7.040000 -5.040000 -18.406616 27.071941 1071.693604
3.160000 7.040000 -5.000000 -29.868965 18.924543 1250.293457
3.160000 7.040000 -4.960000 -31.834221 2.600607 1020.180786
3.160000 7.040000 -4.920000 -20.236202 -10.169960 512.931946
3.160000 7.040000 -4.880000 -3.637630 -9.104747 96.128769
3.160000 7.040000 -4.840000 4.250416 3.724728 31.939634
3.160000 7.040000 -4.800000 -1.811002 15.421307 241.096420
3.160000 7.080000 -5.200000 -16.197784 16.166946 523.738403
3.160000 7.080000 -5.160000 -19.025923 9.379895 449.968201
3.160000 7.080000 -5.120000 -16.811800 5.130764 308.961365
3.160000 7.080000 -5.080000 -15.529549 4.768416 263.904663
3.160000 7.080000 -5.040000 -17.758497 3.172808 325.430939
3.160000 7.080000 -5.000000 -18.769627 -3.728199 366.198364
3.160000 7.080000 -4.960000 -12.081171 -12.300131 297.247925
3.160000 7.080000 -4.920000 1.838677 -13.722462 191.686691
3.160000 7.080000 -4.880000 14.033019 -3.413449 208.577271
3.160000 7.080000 -4.840000 15.183867 13.086015 401.793579
3.160000 7.080000 -4.800000 4.880814 24.759548 636.857544
3.160000 7.120000 -5.200000 -25.611761 3.597246 668.902466
3.160000 7.120000 -5.160000 -23.201555 -8.909895 617.698425
3.160000 7.120000 -5.120000 -13.194672 -15.677422 419.880920
3.160000 7.120000 -5.080000 -3.038421 -14.700354 225.332397
3.160000 7.120000 -5.040000 3.011969 -10.415672 117.558189
3.160000 7.120000 -5.000000 6.940548 -7.001266 97.188942
3.160000 7.120000 -4.960000 12.401431 -3.274225 164.516037
3.160000 7.120000 -4.920000 18.542892 5.102774 369.877167
3.160000 7.120000 -4.880000 19.695869 19.131880 753.956116
3.160000 7.120000 -4.840000 11.296639 33.490616 1249.235352
3.160000 7.120000 -4.800000 -4.740635 40.695271 1678.578735
3.160000 7.160000 -5.200000 -24.811039 -14.060462 813.284241
3.160000 7.160000 -5.160000 -12.476126 -26.253563 844.903320
3.160000 7.160000 -5.120000 5.958151 -26.857811 756.841553
3.160000 7.160000 -5.080000 20.362598 -15.922146 668.150146
3.160000 7.160000 -5.040000 25.413595 -0.449219 646.052612
3.160000 7.160000 -5.000000 23.056583 12.894957 697.885925
3.160000 7.160000 -4.960000 17.907824 22.744320 837.994263
3.160000 7.160000 -4.920000 11.599403 31.444363 1123.294067
3.160000 7.160000 -4.880000 1.993244 39.900578 1596.029053
3.160000 7.160000 -4.840000 -12.746590 45.116562 2197.979736
3.160000 7.160000 -4.800000 -30.477091 42.789242 2759.772217
3.160000 7.200000 -5.200000 -11.388062 -27.283428 874.073425
3.160000 7.200000 -5.160000 7.991005 -30.314098 982.800720
3.160000 7.200000 -5.120000 26.453999 -18.721117 1050.294189
3.160000 7.200000 -5.080000 34.015495 2.447418 1163.043823
3.160000 7.200000 -5.040000 28.234537 23.219814 1336.348877
3.160000 7.200000 -5.000000 14.137927 36.408676 1525.472656
3.160000 7.200000 -4.960000 -1.502014 41.297310 1707.723877
3.160000 7.200000 -4.920000 -15.431020 41.122292 1929.159180
3.160000 7.200000 -4.880000 -28.281012 38.211380 2259.925293
3.160000 7.200000 -4.840000 -41.102676 31.875954 2705.506348
3.160000 7.200000 -4.800000 -52.488663 20.278423 3166.274170
3.200000 6.800000 -5.200000 -8.194860 -12.664194 227.537537
3.200000 6.800000 -5.160000 0.220945 -8.009675 64.203712
3.200000 6.800000 -5.120000 5.169125 4.011470 42.811737
3.200000 6.800000 -5.080000 -0.559062 19.277699 371.942230
3.200000 6.800000 -5.040000 -18.095875 27.317915 1073.729248
3.200000 6.800000 -5.000000 -38.352242 19.624363 1856.010010
3.200000 6.800000 -4.960000 -47.672680 -1.487208 2274.895996
3.200000 6.800000 -4.920000 -39.267250 -23.077599 2074.492432
3.200000 6.800000 -4.880000 -19.441929 -31.891047 1395.027344
3.200000 6.800000 -4.840000 -1.990593 -25.345705 646.367249
3.200000 6.800000 -4.800000 4.024077 -12.478127 171.896851
3.200000 6.840000 -5.200000 0.643606 -19.189842 368.664246
3.200000 6.840000 -5.160000 7.438867 -11.411073 185.549316
3.200000 6.840000 -5.120000 6.544871 1.114341 44.077091
3.200000 6.840000 -5.080000 -4.671183 10.101604 123.862350
3.200000 6.840000 -5.040000 -20.378328 7.425913 470.420471
3.200000 6.840000 -5.000000 -29.530561 -7.279891 925.050903
3.200000 6.840000 -4.960000 -24.560398 -25.036608 1230.044922
3.200000 6.840000 -4.920000 -7.813649 -34.061565 1221.243286
3.200000 6.840000 -4.880000 10.239234 -28.885332 939.204346
3.200000 6.840000 -4.840000 19.407936 -13.965363 571.699341
3.200000 6.840000 -4.800000 17.139193 1.069458 294.895660
3.200000 6.880000 -5.200000 13.671440 -18.732910 537.830200
3.200000 6.880000 -5.160000 16.720680 -8.110506 345.361450
3.200000 6.880000 -5.120000 10.493706 1.108512 111.346657
3.200000 6.880000 -5.080000 -0.311281 1.678161 2.913119
3.200000 6.880000 -5.040000 -6.879877 -6.869483 94.522514
3.200000 6.880000 -5.000000 -3.507266 -17.774031 328.217072
3.200000 6.880000 -4.960000 8.128225 -22.558973 574.975342
3.200000 6.880000 -4.920000 20.827751 -17.228586 730.619385
3.200000 6.880000 -4.880000 27.406151 -4.208914 768.812073
3.200000 6.880000 -4.840000 24.889019 10.440693 728.471313
3.200000 6.880000 -4.800000 14.868884 21.149042 668.365723
3.200000 6.920000 -5.200000 25.198856 -8.498329 707.203979
3.200000 6.920000 -5.160000 22.167955 3.009106 500.472961
3.200000 6.920000 -5.120000 13.081114 6.520179 213.628281
3.200000 6.920000 -5.080000 7.410069 1.407018 56.888824
3.200000 6.920000 -5.040000 10.318443 -5.082924 132.306396
3.200000 6.920000 -5.000000 18.728710 -5.344330 379.326447
3.200000 6.920000 -4.960000 25.466427 2.131771 653.083313
3.200000 6.920000 -4.920000 25.924679 13.203295 846.416016
3.200000 6.920000 -4.880000 20.295977 23.156849 948.166260
3.200000 6.920000 -4.840000 10.670020 29.897022 1007.681213
3.200000 6.920000 -4.800000 -1.806759 32.561916 1063.542847
3.200000 6.960000 -5.200000 27.483950 9.230273 840.565430
3.200000 6.960000 -5.160000 17.373230 17.525454 608.970642
3.200000 6.960000 -5.120000 8.384023 14.423915 278.341156
3.200000 6.960000 -5.080000 8.859301 7.592834 136.138336
3.200000 6.960000 -5.040000 16.241360 7.183493 315.384338
3.200000 6.960000 -5.000000 21.225660 15.578503 693.218384
3.200000 6.960000 -4.960000 17.859165 26.502642 1021.339783
3.200000 6.960000 -4.920000 8.296494 32.886314 1150.341431
3.200000 6.960000 -4.880000 -1.861023 33.564686 1130.051514
3.200000 6.960000 -4.840000 -10.544527 31.608437 1110.280273
3.200000 6.960000 -4.800000 -19.661438 27.916245 1165.888916
3.200000 7.000000 -5.200000 15.882969 25.710621 913.304688
3.200000 7.000000 -5.160000 1.123075 25.805780 667.199585
3.200000 7.000000 -5.120000 -4.444987 16.207005 282.424896
3.200000 7.000000 -5.080000 1.398256 9.890972 99.786446
3.200000 7.000000 -5.040000 9.117096 14.330857 288.494904
3.200000 7.000000 -5.000000 8.567377 25.025379 699.669556
3.200000 7.000000 -4.960000 -0.958193 31.982664 1023.808960
3.200000 7.000000 -4.920000 -12.058273 30.610979 1082.433960
3.200000 7.000000 -4.880000 -18.712786 24.677696 959.157043
3.200000 7.000000 -4.840000 -22.001646 19.398626 860.379150
3.200000 7.000000 -4.800000 -25.898327 14.363276 877.026978
3.200000 7.040000 -5.200000 -5.740629 29.947531 929.809448
3.200000 7.040000 -5.160000 -18.731049 19.257811 721.715454
3.200000 7.040000 -5.120000 -16.977673 5.147509 314.738220
3.200000 7.040000 -5.080000 -5.758155 0.830606 33.846256
3.200000 7.040000 -5.040000 2.110144 8.240320 72.355583
3.200000 7.040000 -5.000000 -0.548194 18.261517 333.783508
3.200000 7.040000 -4.960000 -9.789300 21.562801 560.784790
3.200000 7.040000 -4.920000 -17.101900 17.427736 596.200928
3.200000 7.040000 -4.880000 -19.051882 11.795193 502.100769
3.200000 7.040000 -4.840000 -19.005596 8.633454 435.749207
3.200000 7.040000 -4.800000 -20.390198 5.820494 449.638306
3.200000 7.080000 -5.200000 -25.147514 16.960899 920.069580
3.200000 7.080000 -5.160000 -28.783014 -1.446707 830.554871
3.200000 7.080000 -5.120000 -16.952389 -14.863703 508.313141
3.200000 7.080000 -5.080000 -0.485913 -13.984711 195.808243
3.200000 7.080000 -5.040000 8.137222 -2.275570 71.392601
3.200000 7.080000 -5.000000 5.464457 9.506958 120.242531
3.200000 7.080000 -4.960000 -2.494326 14.138559 206.120529
3.200000 7.080000 -4.920000 -8.446886 12.792856 235.007050
3.200000 7.080000 -4.880000 -10.747545 10.608567 228.051422
3.200000 7.080000 -4.840000 -12.311944 9.799072 247.605789
3.200000 7.080000 -4.800000 -14.834052 8.464531 291.697388
3.200000 7.120000 -5.200000 -29.473743 -6.640372 912.796082
3.200000 7.120000 -5.160000 -20.217852 -24.226526 995.686096
3.200000 7.120000 -5.120000 -0.062437 -29.701294 882.170776
3.200000 7.120000 -5.080000 18.084124 -19.553253 709.365234
3.200000 7.120000 -5.040000 24.351601 -1.122522 594.260498
3.200000 7.120000 -5.000000 18.367336 14.809351 556.675903
3.200000 7.120000 -4.960000 6.864097 22.435307 550.458801
3.200000 7.120000 -4.920000 -3.480250 22.984241 540.387451
3.200000 7.120000 -4.880000 -10.510191 20.611296 535.289612
3.200000 7.120000 -4.840000 -15.461937 17.777081 555.096069
3.200000 7.120000 -4.800000 -19.544895 14.546810 593.612610
3.200000 7.160000 -5.200000 -15.324676 -25.897467 905.524475
3.200000 7.160000 -5.160000 2.688850 -33.565582 1133.878174
3.200000 7.160000 -5.120000 23.608654 -26.522846 1260.829834
3.200000 7.160000 -5.080000 36.030445 -6.745112 1343.689575
3.200000 7.160000 -5.040000 33.960243 16.447927 1423.832397
3.200000 7.160000 -5.000000 19.753796 33.159100 1489.738281
3.200000 7.160000 -4.960000 1.038009 38.718544 1500.203125
3.200000 7.160000 -4.920000 -14.878275 34.785103 1431.366455
3.200000 7.160000 -4.880000 -24.721514 26.370003 1306.530273
3.200000 7.160000 -4.840000 -29.397438 17.938051 1185.983032
3.200000 7.160000 -4.800000 -31.754131 11.201704 1133.802979
3.200000 7.200000 -5.200000 7.590977 -28.362692 862.065186
3.200000 7.200000 -5.160000 24.417683 -23.012911 1125.817261
3.200000 7.200000 -5.120000 36.656143 -6.244188 1382.662720
3.200000 7.200000 -5.080000 37.131241 16.690998 1657.318359
3.200000 7.200000 -5.040000 24.122749 36.923347 1945.240723
3.200000 7.200000 -5.000000 2.219021 46.745712 2190.085693
3.200000 7.200000 -4.960000 -20.290104 43.496067 2303.596191
3.200000 7.200000 -4.920000 -35.896667 30.562675 2222.647949
3.200000 7.200000 -4.880000 -41.765461 14.929739 1967.250854
3.200000 7.200000 -4.840000 -40.638626 2.630691 1658.418457
3.200000 7.200000 -4.800000 -37.918945 -4.951709 1462.365845
