#kx 	ky 	kz 	real 	imag 	intensity
4.800000 0.800000 0.800000 -26.009941 15.338209 911.777710
4.800000 0.800000 0.840000 -24.002480 3.142230 585.992615
4.800000 0.800000 0.880000 -18.509485 -0.831445 343.292358
4.800000 0.800000 0.920000 -17.689447 -0.816567 313.583313
4.800000 0.800000 0.960000 -20.128592 -4.839232 428.578339
4.800000 0.800000 1.000000 -17.748322 -13.622992 500.588806
4.800000 0.800000 1.040000 -6.944273 -19.006521 409.470795
4.800000 0.800000 1.080000 5.541679 -13.544146 214.154083
4.800000 0.800000 1.120000 9.079346 0.055914 82.437645
4.800000 0.800000 1.160000 0.594841 10.758006 116.088531
4.800000 0.800000 1.200000 -12.025417 10.378687 252.327789
4.800000 0.840000 0.800000 -28.109892 -7.025893 839.529175
4.800000 0.840000 0.840000 -18.987598 -15.013372 585.930237
4.800000 0.840000 0.880000 -11.108841 -15.014545 348.842926
4.800000 0.840000 0.920000 -8.254573 -12.744828 230.568619
4.800000 0.840000 0.960000 -7.806947 -12.675152 221.607895
4.800000 0.840000 1.000000 -6.000278 -14.079458 234.234482
4.800000 0.840000 1.040000 -2.807918 -13.921953 201.705185
4.800000 0.840000 1.080000 -0.960919 -11.774701 139.566956
4.800000 0.840000 1.120000 -1.418184 -10.241799 106.905701
4.800000 0.840000 1.160000 -1.773340 -10.911231 122.199699
4.800000 0.840000 1.200000 0.231690 -11.647057 135.707611
4.800000 0.880000 0.800000 -13.699629 -23.692348 749.007202
4.800000 0.880000 0.840000 -1.760289 -23.999670 579.082825
4.800000 0.880000 0.880000 5.719728 -18.450935 373.152313
4.800000 0.880000 0.920000 7.420246 -11.495834 187.214249
4.800000 0.880000 0.960000 4.329420 -6.504333 61.050232
4.800000 0.880000 1.000000 -1.457632 -5.982895 37.919724
4.800000 0.880000 1.040000 -6.150448 -11.355865 166.783691
4.800000 0.880000 1.080000 -4.719642 -20.715645 451.412964
4.800000 0.880000 1.120000 5.321135 -27.601768 790.172058
4.800000 0.880000 1.160000 19.687382 -24.663757 995.893921
4.800000 0.880000 1.200000 28.420662 -10.676167 921.714539
4.800000 0.920000 0.800000 6.921686 -24.224173 634.720276
4.800000 0.920000 0.840000 16.042156 -17.035822 547.570007
4.800000 0.920000 0.880000 18.932728 -6.903532 406.106934
4.800000 0.920000 0.920000 14.641905 2.540890 220.841492
4.800000 0.920000 0.960000 4.001706 6.163867 54.006908
4.800000 0.920000 1.000000 -7.297571 -0.903405 54.070683
4.800000 0.920000 1.040000 -9.298144 -17.379972 388.518921
4.800000 0.920000 1.080000 4.644235 -32.539173 1080.366699
4.800000 0.920000 1.120000 29.224144 -32.225018 1892.502441
4.800000 0.920000 1.160000 47.798618 -11.494577 2416.833252
4.800000 0.920000 1.200000 44.951096 18.174452 2350.911621
4.800000 0.960000 0.800000 19.432983 -10.223826 482.167480
4.800000 0.960000 0.840000 21.481636 0.507134 461.717865
4.800000 0.960000 0.880000 16.992805 10.586349 400.826233
4.800000 0.960000 0.920000 5.791473 15.899567 286.337372
4.800000 0.960000 0.960000 -8.139226 10.522403 176.967957
4.800000 0.960000 1.000000 -14.360941 -7.052153 255.969482
4.800000 0.960000 1.040000 -2.624338 -27.232761 748.510437
4.800000 0.960000 1.080000 25.357594 -32.652443 1709.189575
4.800000 0.960000 1.120000 51.982754 -12.578925 2860.436035
4.800000 0.960000 1.160000 55.585846 24.333820 3681.921143
4.800000 0.960000 1.200000 29.580406 53.553715 3743.000732
4.800000 1.000000 0.800000 16.540388 6.598907 317.130005
4.800000 1.000000 0.840000 10.956337 14.864655 340.999268
4.800000 1.000000 0.880000 0.935524 18.711723 351.003815
4.800000 1.000000 0.920000 -11.275782 14.468573 336.482849
4.800000 1.000000 0.960000 -18.392757 -0.301241 338.384277
4.800000 1.000000 1.000000 -10.591308 -19.775524 503.247131
4.800000 1.000000 1.040000 14.176080 -28.841234 1032.778076
4.800000 1.000000 1.080000 42.551170 -13.998281 2006.553955
4.800000 1.000000 1.120000 52.299129 21.867981 3213.407471
4.800000 1.000000 1.160000 30.816946 56.827183 4179.012695
4.800000 1.000000 1.200000 -11.235319 65.637383 4434.498535
4.800000 1.040000 0.800000 2.567938 14.117925 205.910110
4.800000 1.040000 0.840000 -6.827789 14.922039 269.285950
4.800000 1.040000 0.880000 -15.705757 9.436919 335.726257
4.800000 1.040000 0.920000 -19.911547 -2.587848 403.166656
4.800000 1.040000 0.960000 -13.518206 -17.552605 490.835815
4.800000 1.040000 1.000000 5.756749 -25.415260 679.075623
4.800000 1.040000 1.040000 29.622133 -15.059763 1104.267212
4.800000 1.040000 1.080000 40.712044 14.246470 1860.432373
4.800000 1.040000 1.120000 25.480967 46.976650 2856.085449
4.800000 1.040000 1.160000 -11.819598 60.229149 3767.253174
4.800000 1.040000 1.200000 -48.878799 42.289993 4177.580566
4.800000 1.080000 0.800000 -11.411413 8.529898 202.979507
4.800000 1.080000 0.840000 -18.193005 0.840423 331.691711
4.800000 1.080000 0.880000 -18.545856 -10.711909 458.693787
4.800000 1.080000 0.920000 -10.277697 -21.479715 567.009216
4.800000 1.080000 0.960000 5.754469 -24.926340 654.436340
4.800000 1.080000 1.000000 23.095619 -15.083403 760.916687
4.800000 1.080000 1.040000 30.371731 7.729697 982.190247
4.800000 1.080000 1.080000 18.295921 32.992294 1423.232178
4.800000 1.080000 1.120000 -11.159029 44.310722 2087.963867
4.800000 1.080000 1.160000 -42.597309 31.327217 2795.925293
4.800000 1.080000 1.200000 -56.814583 -0.495293 3228.142090
4.800000 1.120000 0.800000 -16.659199 -4.643557 299.091522
4.800000 1.120000 0.840000 -15.407204 -17.034843 527.567810
4.800000 1.120000 0.880000 -4.684128 -26.574413 728.140503
4.800000 1.120000 0.920000 11.539535 -26.503151 835.577881
4.800000 1.120000 0.960000 25.046135 -14.331219 832.692749
4.800000 1.120000 1.000000 27.214046 5.822856 774.509949
4.800000 1.120000 1.040000 14.133722 24.043173 777.836243
4.800000 1.120000 1.080000 -9.720992 29.398201 958.751892
4.800000 1.120000 1.120000 -32.511833 16.875040 1341.786255
4.800000 1.120000 1.160000 -41.646919 -8.235472 1802.288940
4.800000 1.120000 1.200000 -32.204243 -32.732403 2108.523438
4.800000 1.160000 0.800000 -12.172052 -16.647104 425.284912
4.800000 1.160000 0.840000 -1.684612 -27.363157 751.580261
4.800000 1.160000 0.880000 15.758902 -27.580927 1009.050537
4.800000 1.160000 0.920000 29.640770 -14.128519 1078.190308
4.800000 1.160000 0.960000 29.989710 6.599916 942.941589
4.800000 1.160000 1.000000 14.922710 22.259970 718.193542
4.800000 1.160000 1.040000 -7.423024 22.925385 580.674561
4.800000 1.160000 1.080000 -24.190418 7.900108 647.588013
4.800000 1.160000 1.120000 -26.348515 -14.033936 891.195557
4.800000 1.160000 1.160000 -14.196248 -30.866516 1154.275269
4.800000 1.160000 1.200000 3.867355 -35.261101 1258.301636
4.800000 1.200000 0.800000 -3.007211 -22.398993 510.758179
4.800000 1.200000 0.840000 13.345383 -26.375107 873.745483
4.800000 1.200000 0.880000 29.579697 -15.721020 1122.108887
4.800000 1.200000 0.920000 33.024742 5.129653 1116.946899
4.800000 1.200000 0.960000 19.248501 22.383934 871.545288
4.800000 1.200000 1.000000 -3.171412 23.534672 563.938660
4.800000 1.200000 1.040000 -18.842051 7.588044 412.601257
4.800000 1.200000 1.080000 -17.565351 -14.120207 507.921814
4.800000 1.200000 1.120000 -1.823357 -27.167778 741.412781
4.800000 1.200000 1.160000 16.357597 -25.079224 896.538452
4.800000 1.200000 1.200000 25.661520 -12.926907 825.618530
4.840000 0.800000 0.800000 -31.532801 12.831271 1158.958984
4.840000 0.800000 0.840000 -32.071487 0.278770 1028.658081
4.840000 0.800000 0.880000 -28.284483 -9.314465 886.771240
4.840000 0.800000 0.920000 -22.490383 -16.671223 783.746948
4.840000 0.800000 0.960000 -13.935947 -22.042236 680.070801
4.840000 0.800000 1.000000 -2.527401 -22.568157 515.709473
4.840000 0.800000 1.040000 7.527103 -15.512257 297.287415
4.840000 0.800000 1.080000 9.972675 -3.370411 110.813927
4.840000 0.800000 1.120000 2.897251 6.161274 46.355362
4.840000 0.800000 1.160000 -8.130556 6.631632 110.084488
4.840000 0.800000 1.200000 -14.612939 -0.986609 214.511383
4.840000 0.840000 0.800000 -28.014065 -11.322277 912.981812
4.840000 0.840000 0.840000 -15.307502 -20.816235 667.635254
4.840000 0.840000 0.880000 -0.911037 -19.142147 367.251770
4.840000 0.840000 0.920000 6.776833 -9.052673 127.876358
4.840000 0.840000 0.960000 4.403854 1.669268 22.180389
4.840000 0.840000 1.000000 -4.589684 5.741676 54.032043
4.840000 0.840000 1.040000 -12.879930 1.078304 167.055344
4.840000 0.840000 1.080000 -14.431391 -8.365292 278.243164
4.840000 0.840000 1.120000 -8.407644 -15.778226 319.640900
4.840000 0.840000 1.160000 0.668657 -16.373718 268.545776
4.840000 0.840000 1.200000 6.447279 -10.677982 155.586731
4.840000 0.880000 0.800000 -8.063509 -24.297554 655.391357
4.840000 0.880000 0.840000 13.119913 -19.451767 550.503357
4.840000 0.880000 0.880000 24.587225 1.876427 608.052612
4.840000 0.880000 0.920000 14.734066 26.719147 931.005493
4.840000 0.880000 0.960000 -13.072571 35.950798 1463.351929
4.840000 0.880000 1.000000 -40.215061 19.634731 2002.773804
4.840000 0.880000 1.040000 -46.250099 -13.164295 2312.370361
4.840000 0.880000 1.080000 -25.629612 -39.994476 2256.435059
4.840000 0.880000 1.120000 7.098036 -42.596191 1864.817627
4.840000 0.880000 1.160000 28.909626 -21.524712 1299.079712
4.840000 0.880000 1.200000 26.981121 5.115927 754.153625
4.840000 0.920000 0.800000 13.092642 -17.632532 482.323456
4.840000 0.920000 0.840000 28.954403 5.640591 870.173706
4.840000 0.920000 0.880000 20.072659 39.411377 1956.168213
4.840000 0.920000 0.920000 -17.337620 58.160671 3683.256592
4.840000 0.920000 0.960000 -62.280884 40.514660 5520.346191
4.840000 0.920000 1.000000 -81.446442 -9.349102 6720.928711
4.840000 0.920000 1.040000 -56.464264 -60.011131 6789.548828
4.840000 0.920000 1.080000 -1.797739 -76.085281 5792.202148
4.840000 0.920000 1.120000 44.928520 -47.461723 4271.187012
4.840000 0.920000 1.160000 53.329247 2.129900 2848.544922
4.840000 0.920000 1.200000 24.389202 35.588478 1861.373047
4.840000 0.960000 0.800000 19.811241 1.449670 394.586823
4.840000 0.960000 0.840000 16.959053 34.158554 1454.416260
4.840000 0.960000 0.880000 -17.609911 59.717415 3876.278564
4.840000 0.960000 0.920000 -69.909286 49.397102 7327.381836
4.840000 0.960000 0.960000 -102.938568 -3.779593 10610.633789
4.840000 0.960000 1.000000 -85.095383 -71.138931 12301.971680
4.840000 0.960000 1.040000 -20.356283 -106.216873 11696.402344
4.840000 0.960000 1.080000 49.761665 -82.556992 9291.879883
4.840000 0.960000 1.120000 78.030121 -17.543182 6396.462891
4.840000 0.960000 1.160000 50.078415 41.095482 4196.686523
4.840000 0.960000 1.200000 -5.436390 54.960251 3050.183594
4.840000 1.000000 0.800000 8.795376 16.573280 352.032257
4.840000 1.000000 0.840000 -14.482923 41.491180 1931.273071
4.840000 1.000000 0.880000 -60.592644 40.568665 5317.285156
4.840000 1.000000 0.920000 -99.512009 -2.740374 9910.149414
4.840000 1.000000 0.960000 -94.276657 -71.482323 13997.810547
4.840000 1.000000 1.000000 -34.926609 -120.403404 15716.847656
4.840000 1.000000 1.040000 45.712372 -110.693779 14342.733398
4.840000 1.000000 1.080000 93.868271 -44.933342 10830.256836
4.840000 1.000000 1.120000 78.214615 31.528835 7111.593262
4.840000 1.000000 1.160000 15.858097 66.803871 4714.236328
4.840000 1.000000 1.200000 -43.386353 44.312939 3846.012207
4.840000 1.040000 0.800000 -9.221601 16.001404 341.082855
4.840000 1.040000 0.840000 -40.319122 20.493366 2045.609619
4.840000 1.040000 0.880000 -73.990967 -7.069551 5524.641602
4.840000 1.040000 0.920000 -78.359894 -62.488003 10045.023438
4.840000 1.040000 0.960000 -34.825912 -112.270370 13817.480469
4.840000 1.040000 1.000000 38.938236 -116.322235 15047.048828
4.840000 1.040000 1.040000 96.078461 -63.192039 13224.304688
4.840000 1.040000 1.080000 96.552666 15.166718 9552.446289
4.840000 1.040000 1.120000 41.260185 66.189301 6083.426270
4.840000 1.040000 1.160000 -27.787548 58.914684 4243.087891
4.840000 1.040000 1.200000 -62.516792 7.726119 3968.042236
4.840000 1.080000 0.800000 -19.457626 1.337133 380.387146
4.840000 1.080000 0.840000 -40.768097 -12.786385 1825.529297
4.840000 1.080000 0.880000 -47.124748 -48.337051 4557.212402
4.840000 1.080000 0.920000 -20.466764 -86.425743 7888.297852
4.840000 1.080000 0.960000 34.092728 -96.184738 10413.818359
4.840000 1.080000 1.000000 84.835793 -60.680614 10879.249023
4.840000 1.080000 1.040000 95.450989 3.918648 9126.247070
4.840000 1.080000 1.080000 55.637180 56.494026 6287.070801
4.840000 1.080000 1.120000 -7.795668 62.609375 3980.706299
4.840000 1.080000 1.160000 -51.392353 22.311148 3138.961426
4.840000 1.080000 1.200000 -49.751987 -31.127569 3444.185791
4.840000 1.120000 0.800000 -15.051342 -15.670402 472.104370
4.840000 1.120000 0.840000 -17.454054 -34.187672 1473.440918
4.840000 1.120000 0.880000 -1.808403 -55.595291 3094.106689
4.840000 1.120000 0.920000 31.590790 -61.875179 4826.515625
4.840000 1.120000 0.960000 65.400307 -40.004620 5877.569824
4.840000 1.120000 1.000000 75.378304 3.667778 5695.341309
4.840000 1.120000 1.040000 50.147362 43.713379 4425.617188
4.840000 1.120000 1.080000 3.243170 53.529369 2875.911377
4.840000 1.120000 1.120000 -35.119080 26.742134 1948.491455
4.840000 1.120000 1.160000 -41.102768 -17.067682 1980.743286
4.840000 1.120000 1.200000 -15.273739 -48.112595 2548.108887
4.840000 1.160000 0.800000 -0.754518 -23.837219 568.782288
4.840000 1.160000 0.840000 10.574238 -32.147243 1145.259766
4.840000 1.160000 0.880000 29.192234 -31.020424 1814.453247
4.840000 1.160000 0.920000 45.469757 -15.225414 2299.312012
4.840000 1.160000 0.960000 47.277485 10.556269 2346.595459
4.840000 1.160000 1.000000 29.619843 32.314075 1921.534546
4.840000 1.160000 1.040000 0.575268 35.764748 1279.448120
4.840000 1.160000 1.080000 -22.717920 17.449974 820.605469
4.840000 1.160000 1.120000 -26.040483 -11.600281 812.673279
4.840000 1.160000 1.160000 -8.544208 -33.484364 1194.206177
4.840000 1.160000 1.200000 17.138079 -36.503216 1626.198486
4.840000 1.200000 0.800000 13.216770 -20.673952 602.095337
4.840000 1.200000 0.840000 25.257385 -14.745680 855.370544
4.840000 1.200000 0.880000 31.121735 -0.183888 968.596191
4.840000 1.200000 0.920000 24.990250 15.895576 877.181946
4.840000 1.200000 0.960000 8.648597 23.587788 631.181946
4.840000 1.200000 1.000000 -8.734882 17.429159 380.073792
4.840000 1.200000 1.040000 -16.718426 0.732686 280.042603
4.840000 1.200000 1.080000 -10.820942 -16.554157 391.132904
4.840000 1.200000 1.120000 4.715122 -24.792618 636.906250
4.840000 1.200000 1.160000 20.541409 -20.917025 859.471375
4.840000 1.200000 1.200000 28.963146 -9.393203 927.096069
4.880000 0.800000 0.800000 -36.125252 6.645477 1349.196167
4.880000 0.800000 0.840000 -37.343102 -9.866911 1491.863159
4.880000 0.800000 0.880000 -28.824812 -24.995932 1455.666382
4.880000 0.800000 0.920000 -12.992531 -32.753113 1241.572266
4.880000 0.800000 0.960000 3.972557 -29.703888 898.102173
4.880000 0.800000 1.000000 14.561802 -17.546143 519.913208
4.880000 0.800000 1.040000 14.346626 -3.163864 215.835724
4.880000 0.800000 1.080000 5.378956 5.268951 56.695015
4.880000 0.800000 1.120000 -4.860306 3.977870 39.446022
4.880000 0.800000 1.160000 -9.058617 -3.709660 95.820107
4.880000 0.800000 1.200000 -5.684851 -10.495865 142.480713
4.880000 0.840000 0.800000 -25.790157 -15.652466 910.131897
4.880000 0.840000 0.840000 -7.589249 -22.052895 543.926880
4.880000 0.840000 0.880000 9.283363 -11.392138 215.961624
4.880000 0.840000 0.920000 10.771591 8.921261 195.616074
4.880000 0.840000 0.960000 -5.356018 22.374687 529.313538
4.880000 0.840000 1.000000 -26.646799 17.180611 1005.225220
4.880000 0.840000 1.040000 -36.117710 -3.435028 1316.288452
4.880000 0.840000 1.080000 -26.533100 -24.020844 1281.006348
4.880000 0.840000 1.120000 -5.922775 -30.190845 946.566406
4.880000 0.840000 1.160000 10.243795 -20.261593 515.467468
4.880000 0.840000 1.200000 12.535545 -5.084486 182.991882
4.880000 0.880000 0.800000 -3.231644 -21.219477 460.709717
4.880000 0.880000 0.840000 19.842524 -1.081079 394.894470
4.880000 0.880000 0.880000 16.140202 36.915108 1623.231323
4.880000 0.880000 0.920000 -22.712013 61.674797 4319.616211
4.880000 0.880000 0.960000 -73.507347 45.852051 7505.740723
4.880000 0.880000 1.000000 -97.600555 -7.264404 9578.639648
4.880000 0.880000 1.040000 -73.991608 -62.863922 9426.630859
4.880000 0.880000 1.080000 -18.595612 -82.871498 7213.481934
4.880000 0.880000 1.120000 29.096010 -57.829182 4190.791992
4.880000 0.880000 1.160000 39.782391 -13.038631 1752.644409
4.880000 0.880000 1.200000 17.063507 15.859757 542.695190
4.880000 0.920000 0.800000 12.884033 -7.646072 224.460724
4.880000 0.920000 0.840000 15.781305 36.697376 1595.746948
4.880000 0.920000 0.880000 -28.946104 75.598343 6552.986328
4.880000 0.920000 0.920000 -102.195442 64.475357 14600.980469
4.880000 0.920000 0.960000 -150.102081 -7.687019 22589.724609
4.880000 0.920000 1.000000 -128.450195 -100.043640 26508.183594
4.880000 0.920000 1.040000 -44.393227 -149.345932 24274.964844
4.880000 0.920000 1.080000 45.808403 -123.077301 17246.431641
4.880000 0.920000 1.120000 83.404312 -46.893356 9155.265625
4.880000 0.920000 1.160000 55.330406 19.449400 3439.732910
4.880000 0.920000 1.200000 -0.212423 34.263996 1174.066650
4.880000 0.960000 0.800000 10.305441 11.149300 230.509003
4.880000 0.960000 0.840000 -21.583378 56.197910 3624.047363
4.880000 0.960000 0.880000 -97.072968 60.359558 13066.437500
4.880000 0.960000 0.920000 -164.255280 -7.599476 27037.548828
4.880000 0.960000 0.960000 -159.976318 -119.521255 39877.750000
4.880000 0.960000 1.000000 -68.600906 -200.953293 45088.312500
4.880000 0.960000 1.040000 56.231754 -191.619492 39880.042969
4.880000 0.960000 1.080000 132.281815 -98.713982 27242.929688
4.880000 0.960000 1.120000 116.904686 8.286263 13735.368164
4.880000 0.960000 1.160000 39.708134 57.433472 4875.339844
4.880000 0.960000 1.200000 -29.253736 32.628311 1920.387817
4.880000 1.000000 0.800000 -6.332594 17.737549 354.722382
4.880000 1.000000 0.840000 -62.852654 36.133938 5256.117676
4.880000 1.000000 0.880000 -132.303452 -8.679073 17579.529297
4.880000 1.000000 0.920000 -149.391724 -112.400696 34951.804688
4.880000 1.000000 0.960000 -75.199509 -210.995056 50173.878906
4.880000 1.000000 1.000000 58.429497 -228.168488 55474.867188
4.880000 1.000000 1.040000 166.207550 -142.720459 47994.078125
4.880000 1.000000 1.080000 178.361893 -11.576450 31946.978516
4.880000 1.000000 1.120000 98.787430 76.300514 15580.724609
4.880000 1.000000 1.160000 -1.809271 73.645813 5426.979004
4.880000 1.000000 1.200000 -49.908070 8.269554 2559.200928
4.880000 1.040000 0.800000 -20.598709 6.532290 466.977631
4.880000 1.040000 0.840000 -73.638992 -10.632790 5535.757324
4.880000 1.040000 0.880000 -102.649124 -83.654556 17534.927734
4.880000 1.040000 0.920000 -59.129608 -174.299881 33876.757812
4.880000 1.040000 0.960000 53.113853 -211.732956 47651.925781
4.880000 1.040000 1.000000 168.339600 -153.076447 51770.617188
4.880000 1.040000 1.040000 207.998749 -27.107765 43998.312500
4.880000 1.040000 1.080000 147.143188 83.943306 28697.595703
4.880000 1.040000 1.120000 36.098610 111.368462 13706.043945
4.880000 1.040000 1.160000 -43.622570 54.761978 4901.802734
4.880000 1.040000 1.200000 -47.573391 -24.902901 2883.382080
4.880000 1.080000 0.800000 -19.361015 -12.421362 529.139160
4.880000 1.080000 0.840000 -45.436684 -48.908104 4456.495117
4.880000 1.080000 0.880000 -29.487446 -111.285820 13254.043945
4.880000 1.080000 0.920000 43.312901 -151.462036 24816.755859
4.880000 1.080000 0.960000 137.532349 -123.403496 34143.570312
4.880000 1.080000 1.000000 188.613998 -28.520699 36388.671875
4.880000 1.080000 1.040000 156.210175 77.040230 30336.816406
4.880000 1.080000 1.080000 61.271896 125.082596 19399.902344
4.880000 1.080000 1.120000 -29.505020 91.206474 9189.166992
4.880000 1.080000 1.160000 -58.925583 12.639946 3631.992676
4.880000 1.080000 1.200000 -23.482012 -47.316441 2790.250488
4.880000 1.120000 0.800000 -3.504725 -23.628563 570.592041
4.880000 1.120000 0.840000 -1.502348 -52.949951 2805.954346
4.880000 1.120000 0.880000 33.207657 -79.469666 7418.176270
4.880000 1.120000 0.920000 89.937340 -71.127869 13147.898438
4.880000 1.120000 0.960000 130.993256 -16.408726 17428.478516
4.880000 1.120000 1.000000 120.780716 58.392410 17997.654297
4.880000 1.120000 1.040000 58.638390 105.455009 14559.219727
4.880000 1.120000 1.080000 -16.394955 93.851257 9076.853516
4.880000 1.120000 1.120000 -55.801140 35.675732 4386.524902
4.880000 1.120000 1.160000 -40.330482 -24.606762 2232.040527
4.880000 1.120000 1.200000 7.560926 -47.610786 2323.954590
4.880000 1.160000 0.800000 14.757758 -19.662930 604.422241
4.880000 1.160000 0.840000 26.313469 -27.194571 1431.943359
4.880000 1.160000 0.880000 47.965775 -23.403835 2848.455078
4.880000 1.160000 0.920000 66.115295 0.092056 4371.240723
4.880000 1.160000 0.960000 62.962021 35.949970 5256.616211
4.880000 1.160000 1.000000 32.808697 62.665703 5003.400879
4.880000 1.160000 1.040000 -9.464310 60.569641 3758.254639
4.880000 1.160000 1.080000 -37.604248 29.022976 2256.412598
4.880000 1.160000 1.120000 -34.278770 -11.365341 1304.205078
4.880000 1.160000 1.160000 -4.725107 -34.522427 1214.124634
4.880000 1.160000 1.200000 28.482220 -28.983873 1651.301758
4.880000 1.200000 0.800000 23.709387 -5.707237 594.707581
4.880000 1.200000 0.840000 25.544512 2.408358 658.322266
4.880000 1.200000 0.880000 22.757236 11.520061 650.603638
4.880000 1.200000 0.920000 14.718189 18.457344 557.298645
4.880000 1.200000 0.960000 3.176239 19.664610 396.785370
4.880000 1.200000 1.000000 -7.510849 13.144876 229.200607
4.880000 1.200000 1.040000 -11.938469 0.496952 142.774002
4.880000 1.200000 1.080000 -6.799803 -12.785782 209.713531
4.880000 1.200000 1.120000 6.383650 -19.851479 434.832184
4.880000 1.200000 1.160000 21.399658 -16.677418 736.081665
4.880000 1.200000 1.200000 30.931646 -4.866610 980.450623
4.920000 0.800000 0.800000 -36.607941 -1.857952 1343.593384
4.920000 0.800000 0.840000 -34.139839 -22.302156 1662.914795
4.920000 0.800000 0.880000 -17.459084 -37.293026 1695.589355
4.920000 0.800000 0.920000 5.413620 -37.393097 1427.550903
4.920000 0.800000 0.960000 21.490913 -22.621643 973.598083
4.920000 0.800000 1.000000 22.404667 -3.147751 511.877411
4.920000 0.800000 1.040000 10.819754 8.358063 186.924286
4.920000 0.800000 1.080000 -2.102486 6.537849 47.163921
4.920000 0.800000 1.120000 -6.193127 -3.142185 48.228146
4.920000 0.800000 1.160000 -0.293837 -10.194910 104.022530
4.920000 0.800000 1.200000 8.221093 -8.611675 141.747314
4.920000 0.840000 0.800000 -21.849602 -17.821529 795.011963
4.920000 0.840000 0.840000 -2.131584 -16.284784 269.737854
4.920000 0.840000 0.880000 7.349434 3.219849 64.381607
4.920000 0.840000 0.920000 -5.819420 23.828217 601.649536
4.920000 0.840000 0.960000 -33.659477 24.649620 1740.564209
4.920000 0.840000 1.000000 -53.239304 0.541702 2834.716797
4.920000 0.840000 1.040000 -46.901337 -31.979576 3222.428711
4.920000 0.840000 1.080000 -18.168556 -48.886749 2720.010742
4.920000 0.840000 1.120000 11.746971 -39.568947 1703.692871
4.920000 0.840000 1.160000 23.120710 -14.813957 754.020569
4.920000 0.840000 1.200000 13.968450 4.769776 217.868347
4.920000 0.880000 0.800000 -2.761646 -15.617346 251.528183
4.920000 0.880000 0.840000 7.007782 18.686447 398.292328
4.920000 0.880000 0.880000 -24.795429 54.581280 3593.929443
4.920000 0.880000 0.920000 -85.656418 50.562927 9893.631836
4.920000 0.880000 0.960000 -129.279297 -7.145287 16764.191406
4.920000 0.880000 1.000000 -114.942711 -85.765030 20567.466797
4.920000 0.880000 1.040000 -45.946701 -130.661026 19183.404297
4.920000 0.880000 1.080000 30.914017 -112.251686 13556.118164
4.920000 0.880000 1.120000 65.519569 -50.775066 6870.921387
4.920000 0.880000 1.160000 46.169319 4.161596 2148.924805
4.920000 0.880000 1.200000 4.210045 18.195957 348.817352
4.920000 0.920000 0.800000 3.988363 -0.809429 16.562218
4.920000 0.920000 0.840000 -23.792511 47.983757 2868.524414
4.920000 0.920000 0.880000 -101.590347 56.324173 13493.010742
4.920000 0.920000 0.920000 -174.094666 -12.704422 30470.355469
4.920000 0.920000 0.960000 -172.096741 -130.632904 46682.242188
4.920000 0.920000 1.000000 -77.602104 -218.085373 53583.316406
4.920000 0.920000 1.040000 52.926857 -211.003845 47323.875000
4.920000 0.920000 1.080000 133.529327 -117.344009 31599.699219
4.920000 0.920000 1.120000 121.271263 -9.473419 14796.465820
4.920000 0.920000 1.160000 48.228924 40.263069 3947.143799
4.920000 0.920000 1.200000 -14.823544 18.731165 570.593994
4.920000 0.960000 0.800000 -5.431293 9.904626 127.600563
4.920000 0.960000 0.840000 -72.439362 37.121765 6625.486328
4.920000 0.960000 0.880000 -159.930939 -14.711124 25794.322266
4.920000 0.960000 0.920000 -184.078400 -142.498032 54190.546875
4.920000 0.960000 0.960000 -94.490952 -266.038513 79705.031250
4.920000 0.960000 1.000000 69.423958 -289.947357 88889.156250
4.920000 0.960000 1.040000 202.402039 -188.715073 76579.968750
4.920000 0.960000 1.080000 220.662506 -32.818356 49768.984375
4.920000 0.960000 1.120000 131.538284 71.355026 22393.859375
4.920000 0.960000 1.160000 20.375734 71.288971 5497.287598
4.920000 0.960000 1.200000 -29.557673 3.814651 888.207581
4.920000 1.000000 0.800000 -18.971865 4.974937 384.681641
4.920000 1.000000 0.840000 -96.131912 -13.511135 9423.895508
4.920000 1.000000 0.880000 -142.602722 -115.580559 33694.402344
4.920000 1.000000 0.920000 -85.067398 -247.085068 68287.492188
4.920000 1.000000 0.960000 72.904968 -304.958801 98315.000000
4.920000 1.000000 1.000000 237.618378 -226.936707 107962.765625
4.920000 1.000000 1.040000 298.138184 -53.729195 91773.203125
4.920000 1.000000 1.080000 220.911880 99.945007 58791.062500
4.920000 1.000000 1.120000 76.705444 141.579926 25928.599609
4.920000 1.000000 1.160000 -25.052891 74.431480 6167.692871
4.920000 1.000000 1.200000 -30.152231 -18.106201 1236.991577
4.920000 1.040000 0.800000 -20.930725 -11.233120 564.278198
4.920000 1.040000 0.840000 -71.339432 -66.971359 9574.477539
4.920000 1.040000 0.880000 -53.467026 -172.491913 32612.183594
4.920000 1.040000 0.920000 62.344677 -246.565582 64681.445312
4.920000 1.040000 0.960000 219.370209 -209.236725 91903.296875
4.920000 1.040000 1.000000 310.466522 -59.812302 99966.968750
4.920000 1.040000 1.040000 268.176697 111.360527 84319.906250
4.920000 1.040000 1.080000 125.219139 194.819275 53634.382812
4.920000 1.040000 1.120000 -13.488537 152.752869 23515.380859
4.920000 1.040000 1.160000 -61.153870 44.242695 5697.211914
4.920000 1.040000 1.200000 -16.499250 -35.211792 1512.095459
4.920000 1.080000 0.800000 -7.025599 -23.401157 596.973206
4.920000 1.080000 0.840000 -15.728701 -83.376053 7198.958496
4.920000 1.080000 0.880000 44.484898 -146.960861 23576.400391
4.920000 1.080000 0.920000 157.941284 -145.012924 45974.195312
4.920000 1.080000 0.960000 249.789169 -47.487244 64649.667969
4.920000 1.080000 1.000000 245.263535 98.328117 69822.625000
4.920000 1.080000 1.040000 137.523026 199.235199 58607.246094
4.920000 1.080000 1.080000 -1.693729 192.895447 37211.519531
4.920000 1.080000 1.120000 -81.396378 99.159897 16458.054688
4.920000 1.080000 1.160000 -65.874886 -1.552860 4341.911621
4.920000 1.080000 1.200000 3.990690 -40.162323 1628.937866
4.920000 1.120000 0.800000 12.339968 -20.157417 558.596313
4.920000 1.120000 0.840000 29.231075 -55.404896 3924.158203
4.920000 1.120000 0.880000 86.325874 -68.044022 12082.145508
4.920000 1.120000 0.920000 149.855408 -23.929535 23029.265625
4.920000 1.120000 0.960000 165.634293 67.264847 31959.277344
4.920000 1.120000 1.000000 107.238632 150.716415 34215.562500
4.920000 1.120000 1.040000 4.721962 169.006332 28585.437500
4.920000 1.120000 1.080000 -76.360733 111.273285 18212.705078
4.920000 1.120000 1.120000 -88.429565 22.725880 8336.253906
4.920000 1.120000 1.160000 -38.864044 -34.590179 2706.894531
4.920000 1.120000 1.200000 22.309895 -32.561268 1557.967529
4.920000 1.160000 0.800000 22.711571 -3.986820 531.710144
4.920000 1.160000 0.840000 36.378242 -11.475462 1455.062866
4.920000 1.160000 0.880000 60.687325 -0.816856 3683.618652
4.920000 1.160000 0.920000 73.508728 34.396572 6586.657227
4.920000 1.160000 0.960000 54.125050 76.831139 8832.544922
4.920000 1.160000 1.000000 4.833168 96.010590 9241.392578
4.920000 1.160000 1.040000 -46.246346 74.071976 7625.381836
4.920000 1.160000 1.080000 -66.348534 23.069931 4934.349609
4.920000 1.160000 1.120000 -44.879601 -23.390598 2561.298828
4.920000 1.160000 1.160000 -1.390947 -37.213993 1386.815918
4.920000 1.160000 1.200000 32.118843 -16.973455 1319.718262
4.920000 1.200000 0.800000 18.694836 12.657444 509.707764
4.920000 1.200000 0.840000 13.871101 13.947119 386.929565
4.920000 1.200000 0.880000 10.910021 14.431267 327.290009
4.920000 1.200000 0.920000 7.843048 16.295776 327.065735
4.920000 1.200000 0.960000 1.626122 17.882515 322.428589
4.920000 1.200000 1.000000 -7.223511 14.599072 265.312012
4.920000 1.200000 1.040000 -13.138725 4.015518 188.750488
4.920000 1.200000 1.080000 -9.711321 -9.931648 192.947388
4.920000 1.200000 1.120000 3.950733 -18.511623 358.288513
4.920000 1.200000 1.160000 20.949165 -14.894997 660.728455
4.920000 1.200000 1.200000 31.132542 -0.093468 969.243896
4.960000 0.800000 0.800000 -32.109985 -8.689873 1106.565063
4.960000 0.800000 0.840000 -23.690397 -29.123783 1409.429688
4.960000 0.800000 0.880000 -1.705444 -38.134411 1457.141846
4.960000 0.800000 0.920000 20.301727 -28.728462 1237.484619
4.960000 0.800000 0.960000 28.210354 -7.650658 854.356567
4.960000 0.800000 1.000000 19.044031 9.793221 458.582275
4.960000 0.800000 1.040000 3.210640 12.625549 169.712708
4.960000 0.800000 1.080000 -5.131233 3.109299 35.997292
4.960000 0.800000 1.120000 -0.522453 -6.511814 42.676682
4.960000 0.800000 1.160000 10.054112 -5.948595 136.470963
4.960000 0.800000 1.200000 15.104389 4.121307 245.127747
4.960000 0.840000 0.800000 -18.866959 -17.051132 646.703247
4.960000 0.840000 0.840000 -4.971233 -8.563122 98.040222
4.960000 0.840000 0.880000 -8.545265 10.016411 173.350037
4.960000 0.840000 0.920000 -31.595276 16.933037 1284.989258
4.960000 0.840000 0.960000 -55.078152 -1.783249 3036.782715
4.960000 0.840000 1.000000 -55.464340 -36.949089 4441.528320
4.960000 0.840000 1.040000 -27.093796 -62.699032 4665.242676
4.960000 0.840000 1.080000 11.566338 -59.324383 3653.162598
4.960000 0.840000 1.120000 34.107323 -30.623322 2101.097168
4.960000 0.840000 1.160000 29.059498 0.678127 844.914246
4.960000 0.840000 1.200000 7.727884 14.006001 255.888275
4.960000 0.880000 0.800000 -8.145489 -12.405315 220.240829
4.960000 0.880000 0.840000 -20.443295 20.910442 855.174927
4.960000 0.880000 0.880000 -71.013954 30.559135 5976.842285
4.960000 0.880000 0.920000 -122.673447 -14.101791 15247.634766
4.960000 0.880000 0.960000 -124.088356 -96.608963 24731.210938
4.960000 0.880000 1.000000 -58.668434 -160.790222 29295.480469
4.960000 0.880000 1.040000 35.451691 -158.438034 26359.433594
4.960000 0.880000 1.080000 96.163437 -92.452057 17794.789062
4.960000 0.880000 1.120000 90.494919 -13.646244 8375.550781
4.960000 0.880000 1.160000 39.615768 25.211208 2205.014160
4.960000 0.880000 1.200000 -6.115526 13.166699 210.761627
4.960000 0.920000 0.800000 -8.683788 -4.616641 96.721558
4.960000 0.920000 0.840000 -63.220821 21.376724 4453.836426
4.960000 0.920000 0.880000 -139.521362 -21.495918 19928.285156
4.960000 0.920000 0.920000 -161.835068 -133.395569 43984.968750
4.960000 0.920000 0.960000 -83.033234 -243.419922 66147.773438
4.960000 0.920000 1.000000 62.915504 -265.553650 74477.101562
4.960000 0.920000 1.040000 182.137390 -176.231842 64231.687500
4.960000 0.920000 1.080000 199.913757 -38.075504 41415.253906
4.960000 0.920000 1.120000 123.136513 54.648697 18149.080078
4.960000 0.920000 1.160000 27.530174 56.507812 3951.043457
4.960000 0.920000 1.200000 -14.680975 1.234650 217.055374
4.960000 0.960000 0.800000 -15.817509 -5.505264 280.501526
4.960000 0.960000 0.840000 -94.240662 -21.361019 9337.595703
4.960000 0.960000 0.880000 -143.371674 -125.596817 36330.000000
4.960000 0.960000 0.920000 -84.317635 -262.433563 75980.835938
4.960000 0.960000 0.960000 80.244308 -323.172668 110879.718750
4.960000 0.960000 1.000000 252.120590 -242.296875 122272.570312
4.960000 0.960000 1.040000 315.692810 -62.903839 103618.843750
4.960000 0.960000 1.080000 237.506516 95.524673 65534.304688
4.960000 0.960000 1.120000 92.308365 138.984421 27837.503906
4.960000 0.960000 1.160000 -8.065735 73.935608 5531.530273
4.960000 0.960000 1.200000 -12.041451 -12.813625 309.185547
4.960000 1.000000 0.800000 -16.974733 -16.066002 546.257996
4.960000 1.000000 0.840000 -78.879395 -79.860260 12599.620117
4.960000 1.000000 0.880000 -59.741352 -206.217712 46094.773438
4.960000 1.000000 0.920000 78.268578 -296.433472 93998.773438
4.960000 1.000000 0.960000 266.923523 -252.972595 135243.296875
4.960000 1.000000 1.000000 376.967316 -75.126419 147748.343750
4.960000 1.000000 1.040000 328.448059 128.216400 124317.570312
4.960000 1.000000 1.080000 162.235291 227.535004 78092.468750
4.960000 1.000000 1.120000 3.004959 181.216980 32848.625000
4.960000 1.000000 1.160000 -50.401821 61.739956 6352.166016
4.960000 1.000000 1.200000 -2.036999 -20.524818 425.417511
4.960000 1.040000 0.800000 -5.477262 -25.262289 668.183655
4.960000 1.040000 0.840000 -21.647293 -108.489105 12238.491211
4.960000 1.040000 0.880000 59.620831 -199.846344 43493.207031
4.960000 1.040000 0.920000 217.714600 -200.616287 87646.546875
4.960000 1.040000 0.960000 347.503021 -67.535690 125319.421875
4.960000 1.040000 1.000000 344.471863 133.466690 136474.218750
4.960000 1.040000 1.040000 199.976410 273.401001 114738.671875
4.960000 1.040000 1.080000 13.469345 268.373779 72205.906250
4.960000 1.040000 1.120000 -92.616356 148.321640 30577.097656
4.960000 1.040000 1.160000 -74.712326 22.514339 6088.827148
4.960000 1.040000 1.200000 8.064317 -20.986805 505.479187
4.960000 1.080000 0.800000 11.916912 -21.567347 607.163208
4.960000 1.080000 0.840000 36.604847 -85.669792 8679.228516
4.960000 1.080000 0.880000 132.895782 -113.149017 30463.988281
4.960000 1.080000 0.920000 243.403168 -43.681145 61153.144531
4.960000 1.080000 0.960000 275.344116 107.387299 87346.414062
4.960000 1.080000 1.000000 183.736801 247.986023 95256.281250
4.960000 1.080000 1.040000 18.699425 283.040466 80461.578125
4.960000 1.080000 1.080000 -112.547592 196.213501 51166.699219
4.960000 1.080000 1.120000 -135.539902 62.027142 22218.429688
4.960000 1.080000 1.160000 -66.137825 -22.252819 4869.399902
4.960000 1.080000 1.200000 15.358734 -18.291290 570.462036
4.960000 1.120000 0.800000 21.495079 -4.996414 487.002563
4.960000 1.120000 0.840000 56.300636 -32.818558 4246.819336
4.960000 1.120000 0.880000 120.626808 -14.841202 14771.088867
4.960000 1.120000 0.920000 159.628021 65.010254 29707.437500
4.960000 1.120000 0.960000 123.410667 165.371948 42578.074219
4.960000 1.120000 1.000000 17.274185 215.469864 46725.660156
4.960000 1.120000 1.040000 -95.249069 175.678558 39935.339844
4.960000 1.120000 1.080000 -143.399460 73.749489 26002.390625
4.960000 1.120000 1.120000 -107.678513 -18.668602 11943.178711
4.960000 1.120000 1.160000 -31.594015 -46.950954 3202.573730
4.960000 1.120000 1.200000 21.661682 -14.505676 679.643127
4.960000 1.160000 0.800000 16.069618 12.788850 421.787323
4.960000 1.160000 0.840000 33.720165 7.934765 1200.010010
4.960000 1.160000 0.880000 55.246815 28.966061 3891.243164
4.960000 1.160000 0.920000 52.279148 71.636002 7864.826172
4.960000 1.160000 0.960000 11.123962 106.121880 11385.595703
4.960000 1.160000 1.000000 -49.774193 101.016052 12681.712891
4.960000 1.160000 1.040000 -91.589638 52.462898 11141.017578
4.960000 1.160000 1.080000 -87.123703 -9.878838 7688.130859
4.960000 1.160000 1.120000 -43.514111 -46.698532 4074.230713
4.960000 1.160000 1.160000 5.211565 -40.751194 1687.820190
4.960000 1.160000 1.200000 27.656155 -7.571075 822.184082
4.960000 1.200000 0.800000 1.444599 19.937841 399.604370
4.960000 1.200000 0.840000 -0.761967 13.152401 173.566254
4.960000 1.200000 0.880000 2.304279 10.501184 115.584572
4.960000 1.200000 0.920000 3.520203 14.164768 213.032486
4.960000 1.200000 0.960000 -2.668495 18.471748 348.326355
4.960000 1.200000 1.000000 -13.721931 15.047173 414.708801
4.960000 1.200000 1.040000 -20.151869 1.493073 408.327087
4.960000 1.200000 1.080000 -13.904709 -14.906342 415.539948
4.960000 1.200000 1.120000 3.722778 -22.452354 517.967285
4.960000 1.200000 1.160000 22.142351 -14.770302 708.445557
4.960000 1.200000 1.200000 29.584673 3.791565 889.628845
5.000000 0.800000 0.800000 -25.679787 -10.504311 769.791931
5.000000 0.800000 0.840000 -13.465458 -27.015259 911.142761
5.000000 0.800000 0.880000 7.861870 -29.440344 928.542847
5.000000 0.800000 0.920000 23.925167 -15.610878 816.113159
5.000000 0.800000 0.960000 24.359512 3.983490 609.254028
5.000000 0.800000 1.000000 11.745705 15.066299 364.954956
5.000000 0.800000 1.040000 -1.136520 12.046175 146.402008
5.000000 0.800000 1.080000 -3.344505 2.320698 16.571354
5.000000 0.800000 1.120000 4.434227 -1.687622 22.510437
5.000000 0.800000 1.160000 11.652550 5.328793 164.177948
5.000000 0.800000 1.200000 8.919499 17.066521 370.823578
5.000000 0.840000 0.800000 -19.147549 -15.670040 612.178772
5.000000 0.840000 0.840000 -14.634092 -7.689627 273.287018
5.000000 0.840000 0.880000 -25.530663 -1.084991 652.991943
5.000000 0.840000 0.920000 -42.689243 -11.652786 1958.158936
5.000000 0.840000 0.960000 -45.960930 -39.161606 3646.038330
5.000000 0.840000 1.000000 -23.938507 -64.673653 4755.733398
5.000000 0.840000 1.040000 13.235138 -66.742317 4629.706055
5.000000 0.840000 1.080000 41.256386 -41.249321 3403.595703
5.000000 0.840000 1.120000 42.613480 -5.573242 1846.969727
5.000000 0.840000 1.160000 21.033600 16.857550 726.589294
5.000000 0.840000 1.200000 -3.830812 16.356739 282.218018
5.000000 0.880000 0.800000 -15.368277 -16.649958 513.405029
5.000000 0.880000 0.840000 -41.838726 -1.628040 1753.129517
5.000000 0.880000 0.880000 -84.073715 -25.202477 7703.554688
5.000000 0.880000 0.920000 -96.442635 -90.714630 17530.326172
5.000000 0.880000 0.960000 -48.218437 -156.705750 26881.708984
5.000000 0.880000 1.000000 41.915176 -169.918854 30629.298828
5.000000 0.880000 1.040000 116.731537 -114.016922 26626.109375
5.000000 0.880000 1.080000 128.851028 -26.383003 17298.650391
5.000000 0.880000 1.120000 80.815048 34.221779 7702.202148
5.000000 0.880000 1.160000 18.947792 37.949059 1799.149902
5.000000 0.880000 1.200000 -10.964469 4.262640 138.389679
5.000000 0.920000 0.800000 -14.271571 -19.759350 594.109680
5.000000 0.920000 0.840000 -69.446762 -30.380989 5745.856934
5.000000 0.920000 0.880000 -104.528709 -107.842224 22556.195312
5.000000 0.920000 0.920000 -57.868202 -210.762543 47769.578125
5.000000 0.920000 0.960000 69.505089 -255.465881 70093.773438
5.000000 0.920000 1.000000 202.055984 -191.053543 77328.078125
5.000000 0.920000 1.040000 250.380768 -50.896393 65280.968750
5.000000 0.920000 1.080000 188.930634 72.358223 40930.496094
5.000000 0.920000 1.120000 76.105469 106.293137 17090.273438
5.000000 0.920000 1.160000 -1.605167 56.751194 3223.274658
5.000000 0.920000 1.200000 -5.332865 -8.657727 103.395683
5.000000 0.960000 0.800000 -9.465925 -26.504562 792.095581
5.000000 0.960000 0.840000 -62.614231 -81.085556 10495.409180
5.000000 0.960000 0.880000 -44.267998 -192.594299 39052.218750
5.000000 0.960000 0.920000 80.945358 -271.841949 80450.195312
5.000000 0.960000 0.960000 251.281372 -230.159668 116115.796875
5.000000 0.960000 1.000000 349.371521 -67.463730 126611.812500
5.000000 0.960000 1.040000 303.625122 116.669258 105799.929688
5.000000 0.960000 1.080000 152.848221 205.331680 65523.675781
5.000000 0.960000 1.120000 10.622513 163.118759 26720.568359
5.000000 0.960000 1.160000 -35.562767 57.801762 4605.753906
5.000000 0.960000 1.200000 7.121119 -11.399164 180.651276
5.000000 1.000000 0.800000 3.164101 -30.211412 922.740967
5.000000 1.000000 0.840000 -13.428051 -114.078415 13194.197266
5.000000 1.000000 0.880000 70.872208 -207.459259 48062.214844
5.000000 1.000000 0.920000 235.099106 -206.671814 97984.828125
5.000000 1.000000 0.960000 369.042725 -66.622513 140631.093750
5.000000 1.000000 1.000000 363.998627 142.769012 152877.984375
5.000000 1.000000 1.040000 212.921234 286.757782 127565.476562
5.000000 1.000000 1.080000 21.112892 280.201782 78958.796875
5.000000 1.000000 1.120000 -85.390640 157.690857 32157.968750
5.000000 1.000000 1.160000 -65.842194 33.694557 5470.517578
5.000000 1.000000 1.200000 14.419096 -4.303238 226.428177
5.000000 1.040000 0.800000 18.425724 -22.828186 860.633423
5.000000 1.040000 0.840000 47.437325 -99.542358 12158.980469
5.000000 1.040000 0.880000 163.474915 -132.443314 44265.277344
5.000000 1.040000 0.920000 296.545837 -47.901764 90234.015625
5.000000 1.040000 0.960000 333.954681 134.608582 129645.195312
5.000000 1.040000 1.000000 222.769470 302.801422 141314.937500
5.000000 1.040000 1.040000 25.766819 343.275055 118501.695312
5.000000 1.040000 1.080000 -127.922676 240.056976 73991.562500
5.000000 1.040000 1.120000 -152.916809 85.274048 30655.214844
5.000000 1.040000 1.160000 -73.761581 -6.894001 5488.298340
5.000000 1.040000 1.200000 12.041467 2.281868 150.203842
5.000000 1.080000 0.800000 25.080517 -4.842991 652.486938
5.000000 1.080000 0.840000 77.246696 -46.654842 8143.726562
5.000000 1.080000 0.880000 172.609802 -20.150646 30200.193359
5.000000 1.080000 0.920000 229.606750 97.074913 62142.800781
5.000000 1.080000 0.960000 176.306442 242.622162 89949.468750
5.000000 1.080000 1.000000 23.338776 313.583862 98879.531250
5.000000 1.080000 1.040000 -135.561783 256.009399 83917.812500
5.000000 1.080000 1.080000 -201.065643 114.066742 53438.617188
5.000000 1.080000 1.120000 -151.434631 -9.471214 23022.150391
5.000000 1.080000 1.160000 -53.059830 -42.888992 4654.811035
5.000000 1.080000 1.200000 7.331676 0.553034 54.059326
5.000000 1.120000 0.800000 16.851498 12.941404 451.452911
5.000000 1.120000 0.840000 60.070862 4.627991 3629.926758
5.000000 1.120000 0.880000 106.597961 51.911102 14057.887695
5.000000 1.120000 0.920000 99.229309 140.615326 29619.125000
5.000000 1.120000 0.960000 15.741463 208.220245 43603.464844
5.000000 1.120000 1.000000 -101.928024 195.935242 48779.937500
5.000000 1.120000 1.040000 -178.086517 103.330994 42392.101562
5.000000 1.120000 1.080000 -167.284210 -8.311615 28053.089844
5.000000 1.120000 1.120000 -91.432495 -68.407120 13039.435547
5.000000 1.120000 1.160000 -15.848753 -55.163719 3294.218750
5.000000 1.120000 1.200000 10.039358 -5.613838 132.303894
5.000000 1.160000 0.800000 -0.431114 18.747353 351.649078
5.000000 1.160000 0.840000 19.170422 20.835142 801.608215
5.000000 1.160000 0.880000 29.587242 49.682415 3343.747070
5.000000 1.160000 0.920000 6.456917 86.381836 7503.513672
5.000000 1.160000 0.960000 -47.178528 96.456161 11529.604492
5.000000 1.160000 1.000000 -98.417114 61.335022 13447.914062
5.000000 1.160000 1.040000 -111.110405 -2.240097 12350.540039
5.000000 1.160000 1.080000 -77.102798 -54.652565 8931.744141
5.000000 1.160000 1.120000 -22.584503 -66.375359 4915.747559
5.000000 1.160000 1.160000 15.615751 -40.528736 1886.430176
5.000000 1.160000 1.200000 20.200268 -5.446819 437.718658
5.000000 1.200000 0.800000 -13.699181 10.988520 308.415131
5.000000 1.200000 0.840000 -8.210340 3.517658 79.783607
5.000000 1.200000 0.880000 -1.440704 4.919491 26.277018
5.000000 1.200000 0.920000 -1.945686 11.655930 139.646378
5.000000 1.200000 0.960000 -11.218567 14.175659 326.805542
5.000000 1.200000 1.000000 -21.560514 5.743706 497.845917
5.000000 1.200000 1.040000 -22.468433 -10.840912 622.355896
5.000000 1.200000 1.080000 -9.864319 -24.877113 716.175598
5.000000 1.200000 1.120000 10.053177 -26.259514 790.628418
5.000000 1.200000 1.160000 25.387115 -13.417128 824.524902
5.000000 1.200000 1.200000 27.393555 5.702250 782.922485
5.040000 0.800000 0.800000 -22.061501 -7.947315 549.869629
5.040000 0.800000 0.840000 -10.169847 -20.469627 522.431458
5.040000 0.800000 0.880000 7.558954 -20.596199 481.341187
5.040000 0.800000 0.920000 19.481308 -8.088181 444.940033
5.040000 0.800000 0.960000 18.414062 7.722641 398.716888
5.040000 0.800000 1.000000 7.773926 15.869904 312.287750
5.040000 0.800000 1.040000 -1.995232 13.367945 182.682892
5.040000 0.800000 1.080000 -3.514557 7.101593 62.784737
5.040000 0.800000 1.120000 0.877403 6.189701 39.082237
5.040000 0.800000 1.160000 2.394094 12.592457 164.301651
5.040000 0.800000 1.200000 -4.608339 19.441544 399.210388
5.040000 0.840000 0.800000 -21.668224 -17.268574 767.715576
5.040000 0.840000 0.840000 -21.990992 -17.321049 783.622437
5.040000 0.840000 0.880000 -27.065548 -24.032410 1310.100586
5.040000 0.840000 0.920000 -25.768837 -40.339417 2291.301514
5.040000 0.840000 0.960000 -8.973083 -56.376617 3258.839111
5.040000 0.840000 1.000000 19.265640 -57.178822 3640.582520
5.040000 0.840000 1.040000 42.722733 -36.942795 3190.001953
5.040000 0.840000 1.080000 46.180561 -5.844307 2166.800293
5.040000 0.840000 1.120000 28.487234 17.599312 1121.258301
5.040000 0.840000 1.160000 3.153874 21.614136 477.117798
5.040000 0.840000 1.200000 -13.667165 9.588896 278.738312
5.040000 0.880000 0.800000 -16.755537 -27.863186 1057.105103
5.040000 0.880000 0.840000 -38.121719 -34.921108 2672.749268
5.040000 0.880000 0.880000 -49.790157 -73.352295 7859.619141
5.040000 0.880000 0.920000 -20.897552 -122.736183 15500.878906
5.040000 0.880000 0.960000 47.571014 -140.736298 22069.707031
5.040000 0.880000 1.000000 116.306808 -101.887787 23908.394531
5.040000 0.880000 1.040000 139.008118 -24.459885 19921.541016
5.040000 0.880000 1.080000 102.899445 42.473679 12392.309570
5.040000 0.880000 1.120000 39.327606 60.573223 5215.776367
5.040000 0.880000 1.160000 -5.408339 32.819313 1106.357422
5.040000 0.880000 1.200000 -9.948380 -4.865611 122.644424
5.040000 0.920000 0.800000 -4.599186 -36.591957 1360.123779
5.040000 0.920000 0.840000 -33.314354 -70.666809 6103.644043
5.040000 0.920000 0.880000 -16.533752 -140.244415 19941.861328
5.040000 0.920000 0.920000 68.728912 -187.175079 39758.175781
5.040000 0.920000 0.960000 181.168945 -153.676941 56438.789062
5.040000 0.920000 1.000000 242.979202 -41.108894 60728.835938
5.040000 0.920000 1.040000 207.730835 83.047440 50048.980469
5.040000 0.920000 1.080000 103.151779 140.824615 30471.861328
5.040000 0.920000 1.120000 6.342812 109.926224 12124.005859
5.040000 0.920000 1.160000 -24.433569 37.362419 1992.949585
5.040000 0.920000 1.200000 4.640172 -9.762135 116.830467
5.040000 0.960000 0.800000 13.777203 -36.815022 1545.157104
5.040000 0.960000 0.840000 4.513000 -97.627808 9551.555664
5.040000 0.960000 0.880000 71.776909 -165.361984 32496.511719
5.040000 0.960000 0.920000 199.397980 -159.533478 65210.484375
5.040000 0.960000 0.960000 301.050354 -45.687218 92718.632812
5.040000 0.960000 1.000000 292.209137 120.040176 99795.820312
5.040000 0.960000 1.040000 169.338135 231.281586 82166.578125
5.040000 0.960000 1.080000 17.269939 222.519760 49813.292969
5.040000 0.960000 1.120000 -64.716400 123.770226 19507.281250
5.040000 0.960000 1.160000 -46.958340 26.981930 2933.110352
5.040000 0.960000 1.200000 16.010582 -0.050556 256.341309
5.040000 1.000000 0.800000 30.488934 -23.775442 1494.846680
5.040000 1.000000 0.840000 57.034542 -88.066071 11008.572266
5.040000 1.000000 0.880000 160.349030 -113.600098 38616.792969
5.040000 1.000000 0.920000 277.593506 -34.050125 78217.570312
5.040000 1.000000 0.960000 307.129517 132.210281 111808.093750
5.040000 1.000000 1.000000 202.441620 282.684448 120893.109375
5.040000 1.000000 1.040000 22.683611 315.439087 100016.367188
5.040000 1.000000 1.080000 -114.166687 218.955032 60975.335938
5.040000 1.000000 1.120000 -132.967468 79.723877 24036.244141
5.040000 1.000000 1.160000 -60.323009 1.042984 3639.953369
5.040000 1.000000 1.200000 12.808573 13.761078 353.426819
5.040000 1.040000 0.800000 34.774651 -1.285998 1210.930176
5.040000 1.040000 0.840000 88.250732 -41.770531 9532.968750
5.040000 1.040000 0.880000 185.844391 -11.531769 34671.117188
5.040000 1.040000 0.920000 242.111954 112.459854 71265.421875
5.040000 1.040000 0.960000 182.496246 263.713867 102849.875000
5.040000 1.040000 1.000000 20.434662 334.327209 112192.257812
5.040000 1.040000 1.040000 -143.919830 270.320496 93786.093750
5.040000 1.040000 1.080000 -207.809265 121.826569 58026.406250
5.040000 1.040000 1.120000 -153.246643 -2.189598 23489.328125
5.040000 1.040000 1.160000 -54.215317 -30.460487 3867.141846
5.040000 1.040000 1.200000 -0.789703 16.389168 269.228455
5.040000 1.080000 0.800000 22.295645 18.216988 828.954407
5.040000 1.080000 0.840000 76.865211 10.567745 6019.937988
5.040000 1.080000 0.880000 133.423676 72.795197 23101.017578
5.040000 1.080000 0.920000 120.275696 184.868958 48642.773438
5.040000 1.080000 0.960000 12.232529 266.793213 71328.250000
5.040000 1.080000 1.000000 -134.590698 246.695374 78973.265625
5.040000 1.080000 1.040000 -224.956543 128.900909 67220.890625
5.040000 1.080000 1.080000 -206.621216 -6.355019 42732.714844
5.040000 1.080000 1.120000 -113.441391 -73.113449 18214.525391
5.040000 1.080000 1.160000 -28.963684 -51.851254 3527.447510
5.040000 1.080000 1.200000 -8.954702 4.425039 99.767662
5.040000 1.120000 0.800000 0.845587 22.690701 515.582947
5.040000 1.120000 0.840000 36.096336 34.198456 2472.479980
5.040000 1.120000 0.880000 49.102806 89.559235 10431.941406
5.040000 1.120000 0.920000 2.497032 151.513489 22962.572266
5.040000 1.120000 0.960000 -91.339111 162.188080 34647.804688
5.040000 1.120000 1.000000 -173.024628 97.224701 39390.164062
5.040000 1.120000 1.040000 -185.963165 -7.505989 34638.640625
5.040000 1.120000 1.080000 -126.204544 -84.920929 23139.150391
5.040000 1.120000 1.120000 -44.036934 -94.316170 10834.791992
5.040000 1.120000 1.160000 3.043303 -52.234329 2737.686768
5.040000 1.120000 1.200000 -1.125013 -9.430258 90.195419
5.040000 1.160000 0.800000 -14.686647 11.139395 339.783722
5.040000 1.160000 0.840000 0.613823 21.156914 447.991760
5.040000 1.160000 0.880000 -4.333656 48.024155 2325.099854
5.040000 1.160000 0.920000 -39.100937 64.742310 5720.449707
5.040000 1.160000 0.960000 -84.146133 46.417435 9235.150391
5.040000 1.160000 1.000000 -105.519363 -4.540085 11154.948242
5.040000 1.160000 1.040000 -84.900620 -57.896988 10560.176758
5.040000 1.160000 1.080000 -35.935013 -81.135880 7874.355957
5.040000 1.160000 1.120000 8.591534 -66.364807 4478.102051
5.040000 1.160000 1.160000 25.205940 -33.582180 1763.102295
5.040000 1.160000 1.200000 16.354042 -9.578169 359.195984
5.040000 1.200000 0.800000 -14.878425 -4.840542 244.798370
5.040000 1.200000 0.840000 -6.185650 -5.495693 68.464905
5.040000 1.200000 0.880000 -2.975636 0.189243 8.890220
5.040000 1.200000 0.920000 -7.919014 4.337448 81.524239
5.040000 1.200000 0.960000 -15.898632 0.349312 252.888519
5.040000 1.200000 1.000000 -18.514946 -11.345436 471.522156
5.040000 1.200000 1.040000 -11.038803 -23.764418 686.602722
5.040000 1.200000 1.080000 4.166191 -28.885979 851.756958
5.040000 1.200000 1.120000 19.746662 -23.189997 927.706604
5.040000 1.200000 1.160000 28.326607 -9.350138 889.821716
5.040000 1.200000 1.200000 26.536793 5.933418 739.406799
5.080000 0.800000 0.800000 -23.408958 -5.407845 577.224121
5.080000 0.800000 0.840000 -13.466259 -17.202061 477.251038
5.080000 0.800000 0.880000 3.071161 -18.780174 362.126984
5.080000 0.800000 0.920000 15.927624 -7.845856 315.246643
5.080000 0.800000 0.960000 16.747826 8.367202 350.499725
5.080000 0.800000 1.000000 6.506760 18.879026 398.755554
5.080000 0.800000 1.040000 -5.673466 18.531342 375.598816
5.080000 0.800000 1.080000 -11.344621 11.810951 268.198975
5.080000 0.800000 1.120000 -10.280731 7.219891 157.820251
5.080000 0.800000 1.160000 -9.213221 8.235008 152.698792
5.080000 0.800000 1.200000 -13.592644 10.337690 291.627808
5.080000 0.840000 0.800000 -22.394085 -22.831203 1022.758911
5.080000 0.840000 0.840000 -18.551607 -31.236996 1319.911987
5.080000 0.840000 0.880000 -9.221428 -40.787357 1748.643311
5.080000 0.840000 0.920000 7.716850 -45.470909 2127.153320
5.080000 0.840000 0.960000 27.414185 -38.530788 2236.159180
5.080000 0.840000 1.000000 39.939407 -19.486588 1974.883301
5.080000 0.840000 1.040000 37.773903 3.591431 1439.766113
5.080000 0.840000 1.080000 22.111134 19.257004 859.734375
5.080000 0.840000 1.120000 2.199734 20.958899 444.114258
5.080000 0.840000 1.160000 -11.710714 11.145815 261.369995
5.080000 0.840000 1.200000 -15.374185 -1.949081 240.164474
5.080000 0.880000 0.800000 -7.764194 -38.552841 1546.604248
5.080000 0.880000 0.840000 -10.036970 -54.282127 3047.290039
5.080000 0.880000 0.880000 6.989620 -79.260826 6331.133301
5.080000 0.880000 0.920000 49.039001 -89.498810 10414.861328
5.080000 0.880000 0.960000 95.893349 -64.149368 13310.675781
5.080000 0.880000 1.000000 115.243568 -8.460358 13352.658203
5.080000 0.880000 1.040000 91.085030 46.211178 10431.955078
5.080000 0.880000 1.080000 39.328300 67.418739 6092.001953
5.080000 0.880000 1.120000 -5.216900 48.604454 2389.609131
5.080000 0.880000 1.160000 -18.311069 12.493008 491.370483
5.080000 0.880000 1.200000 -4.220730 -11.351116 146.662399
5.080000 0.920000 0.800000 17.112801 -41.343040 2002.094849
5.080000 0.920000 0.840000 19.798332 -69.993134 5291.012695
5.080000 0.920000 0.880000 61.432892 -98.959839 13567.049805
5.080000 0.920000 0.920000 131.388351 -86.036545 24665.185547
5.080000 0.920000 0.960000 181.863998 -15.356369 33310.332031
5.080000 0.920000 1.000000 168.222351 79.246437 34578.757812
5.080000 0.920000 1.040000 92.119789 138.143417 27569.660156
5.080000 0.920000 1.080000 3.737812 126.983971 16138.900391
5.080000 0.920000 1.120000 -41.021667 65.913589 6027.378418
5.080000 0.920000 1.160000 -27.536524 8.757441 834.952881
5.080000 0.920000 1.200000 10.952614 -6.469681 161.816513
5.080000 0.960000 0.800000 39.749409 -25.336321 2221.944580
5.080000 0.960000 0.840000 59.481743 -59.378929 7063.934570
5.080000 0.960000 0.880000 125.572189 -68.232658 20424.070312
5.080000 0.960000 0.920000 197.509796 -9.971596 39109.554688
5.080000 0.960000 0.960000 209.636719 101.988449 54349.199219
5.080000 0.960000 1.000000 133.333969 199.279587 57490.304688
5.080000 0.960000 1.040000 10.280624 215.271820 46447.648438
5.080000 0.960000 1.080000 -79.784348 145.008698 27393.062500
5.080000 0.960000 1.120000 -87.955261 49.181232 10154.921875
5.080000 0.960000 1.160000 -35.227089 -2.116640 1245.427979
5.080000 0.960000 1.200000 14.632662 9.826122 310.667480
5.080000 1.000000 0.800000 45.817307 3.223738 2109.618164
5.080000 1.000000 0.840000 83.358261 -20.573898 7371.884766
5.080000 1.000000 0.880000 152.163574 6.548615 23196.638672
5.080000 1.000000 0.920000 188.840546 102.135880 46092.488281
5.080000 1.000000 0.960000 137.557129 215.656464 65429.671875
5.080000 1.000000 1.000000 9.940925 264.916077 70279.351562
5.080000 1.000000 1.040000 -115.760284 210.067413 57528.757812
5.080000 1.000000 1.080000 -160.668015 92.495911 34369.703125
5.080000 1.000000 1.120000 -113.703979 -1.725639 12931.572266
5.080000 1.000000 1.160000 -35.886948 -18.678883 1636.773682
5.080000 1.000000 1.200000 1.595280 21.382225 459.744476
5.080000 1.040000 0.800000 30.310368 28.011650 1703.370850
5.080000 1.040000 0.840000 73.172256 24.809633 5969.697266
5.080000 1.040000 0.880000 117.491898 80.178932 20233.007812
5.080000 1.040000 0.920000 101.040817 177.201141 41609.492188
5.080000 1.040000 0.960000 2.274853 245.550232 60300.093750
5.080000 1.040000 1.000000 -127.878204 222.435425 65830.351562
5.080000 1.040000 1.040000 -204.344955 114.075691 54770.125000
5.080000 1.040000 1.080000 -182.683228 -5.484346 33403.238281
5.080000 1.040000 1.120000 -97.316345 -59.659676 13029.748047
5.080000 1.040000 1.160000 -25.753033 -35.182148 1901.002197
5.080000 1.040000 1.200000 -15.851847 15.007232 476.498047
5.080000 1.080000 0.800000 3.139350 33.944054 1162.054199
5.080000 1.080000 0.840000 35.961578 47.966660 3594.035645
5.080000 1.080000 0.880000 44.966782 105.858398 13228.012695
5.080000 1.080000 0.920000 -8.164593 168.115509 28329.484375
5.080000 1.080000 0.960000 -108.526512 174.116272 42094.480469
5.080000 1.080000 1.000000 -191.868423 100.563148 46926.437500
5.080000 1.080000 1.040000 -199.584213 -10.953342 39953.835938
5.080000 1.080000 1.080000 -132.113373 -87.925354 25184.810547
5.080000 1.080000 1.120000 -47.412872 -90.717094 10477.571289
5.080000 1.080000 1.160000 -6.247856 -43.672577 1946.329590
5.080000 1.080000 1.200000 -19.283863 -4.906996 395.945984
5.080000 1.120000 0.800000 -17.282223 19.308449 671.491455
5.080000 1.120000 0.840000 -0.676674 37.811600 1430.174927
5.080000 1.120000 0.880000 -14.636898 75.541748 5920.794434
5.080000 1.120000 0.920000 -68.510208 93.742836 13481.368164
5.080000 1.120000 0.960000 -130.865997 60.560753 20793.515625
5.080000 1.120000 1.000000 -154.018219 -14.673035 23936.910156
5.080000 1.120000 1.040000 -117.740677 -85.429779 21161.113281
5.080000 1.120000 1.080000 -48.607109 -108.416237 14116.731445
5.080000 1.120000 1.120000 4.693077 -80.931686 6571.962891
5.080000 1.120000 1.160000 15.132011 -38.875187 1740.257935
5.080000 1.120000 1.200000 -3.070019 -19.575987 392.644287
5.080000 1.160000 0.800000 -18.439186 -2.296012 345.275238
5.080000 1.160000 0.840000 -12.846140 10.201155 269.086884
5.080000 1.160000 0.880000 -27.736702 24.178776 1353.937866
5.080000 1.160000 0.920000 -56.462349 18.113815 3516.107178
5.080000 1.160000 0.960000 -75.181068 -14.123032 5851.652832
5.080000 1.160000 1.000000 -64.557938 -54.947495 7186.954590
5.080000 1.160000 1.040000 -28.201370 -77.895683 6863.054688
5.080000 1.160000 1.080000 10.673351 -70.947334 5147.444824
5.080000 1.160000 1.120000 30.448013 -45.387604 2987.116211
5.080000 1.160000 1.160000 28.599314 -22.682238 1332.404663
5.080000 1.160000 1.200000 19.226145 -14.326149 574.883179
5.080000 1.200000 0.800000 -3.952482 -13.158135 188.758636
5.080000 1.200000 0.840000 -0.804137 -8.117744 66.544411
5.080000 1.200000 0.880000 -3.913205 -5.280075 43.192368
5.080000 1.200000 0.920000 -7.950963 -8.795204 140.573425
5.080000 1.200000 0.960000 -7.011238 -16.372200 317.206390
5.080000 1.200000 1.000000 0.027374 -22.369320 500.387238
5.080000 1.200000 1.040000 9.748383 -23.274860 636.750061
5.080000 1.200000 1.080000 18.481892 -19.530060 723.003540
5.080000 1.200000 1.120000 24.932562 -12.893692 787.879944
5.080000 1.200000 1.160000 28.695917 -3.942892 839.002075
5.080000 1.200000 1.200000 28.037436 6.734571 831.452209
5.120000 0.800000 0.800000 -27.214092 -7.056338 790.398743
5.120000 0.800000 0.840000 -16.970556 -20.572392 711.223083
5.120000 0.800000 0.880000 2.385967 -22.502363 512.049194
5.120000 0.800000 0.920000 17.670918 -8.515541 384.775757
5.120000 0.800000 0.960000 17.119663 12.346200 445.511505
5.120000 0.800000 1.000000 1.519838 24.910858 622.860779
5.120000 0.800000 1.040000 -16.391438 21.418175 727.417480
5.120000 0.800000 1.080000 -23.873056 7.866211 631.800110
5.120000 0.800000 1.120000 -19.426704 -3.013381 386.477325
5.120000 0.800000 1.160000 -12.230329 -4.466908 169.534195
5.120000 0.800000 1.200000 -11.277931 -1.067653 128.331619
5.120000 0.840000 0.800000 -18.208906 -29.111050 1179.017456
5.120000 0.840000 0.840000 -5.110891 -38.527576 1510.495361
5.120000 0.840000 0.880000 14.641977 -38.124260 1667.846680
5.120000 0.840000 0.920000 31.458994 -23.947769 1563.163940
5.120000 0.840000 0.960000 35.232536 -1.616108 1243.943481
5.120000 0.840000 1.000000 23.801540 16.926449 853.017944
5.120000 0.840000 1.040000 4.928396 22.511139 531.040466
5.120000 0.840000 1.080000 -10.161541 15.309855 337.648560
5.120000 0.840000 1.120000 -15.407240 3.128065 247.167831
5.120000 0.840000 1.160000 -12.885036 -6.171444 204.110855
5.120000 0.840000 1.200000 -8.425473 -10.503103 181.303772
5.120000 0.880000 0.800000 7.689091 -39.923771 1653.029541
5.120000 0.880000 0.840000 21.404562 -46.232582 2595.606934
5.120000 0.880000 0.880000 44.239979 -43.933834 3887.357422
5.120000 0.880000 0.920000 66.572586 -23.934479 5004.768555
5.120000 0.880000 0.960000 72.355843 10.605999 5347.855469
5.120000 0.880000 1.000000 53.214291 42.761456 4660.302734
5.120000 0.880000 1.040000 17.939137 53.952026 3232.633789
5.120000 0.880000 1.080000 -12.832214 39.327942 1711.352783
5.120000 0.880000 1.120000 -22.824589 11.859875 661.618469
5.120000 0.880000 1.160000 -12.429879 -8.966920 234.907547
5.120000 0.880000 1.200000 4.008489 -13.177593 189.716934
5.120000 0.920000 0.800000 36.821083 -27.958487 2137.468994
5.120000 0.920000 0.840000 51.246449 -32.176632 3661.534180
5.120000 0.920000 0.880000 78.522301 -23.408485 6713.708984
5.120000 0.920000 0.920000 101.094444 11.301983 10347.821289
5.120000 0.920000 0.960000 94.137512 62.149029 12724.373047
5.120000 0.920000 1.000000 50.642319 98.992950 12364.249023
5.120000 0.920000 1.040000 -7.082256 96.159866 9296.877930
5.120000 0.920000 1.080000 -43.607830 56.516571 5095.765625
5.120000 0.920000 1.120000 -40.392578 10.314198 1737.943115
5.120000 0.920000 1.160000 -10.799676 -11.247265 243.133972
5.120000 0.920000 1.200000 14.404608 -2.337271 212.955551
5.120000 0.960000 0.800000 49.773010 3.174528 2487.430176
5.120000 0.960000 0.840000 65.407036 1.884841 4281.633301
5.120000 0.960000 0.880000 92.166901 22.515396 9001.680664
5.120000 0.960000 0.920000 100.996674 72.722260 15488.855469
5.120000 0.960000 0.960000 66.125847 127.176964 20546.607422
5.120000 0.960000 1.000000 -4.435896 145.139648 21085.195312
5.120000 0.960000 1.040000 -69.040779 108.382294 16513.351562
5.120000 0.960000 1.080000 -87.055557 41.444073 9296.281250
5.120000 0.960000 1.120000 -55.250084 -8.356428 3122.401611
5.120000 0.960000 1.160000 -9.497997 -12.902306 256.681427
5.120000 0.960000 1.200000 10.156287 13.881542 295.847382
5.120000 1.000000 0.800000 36.357986 34.899300 2539.864258
5.120000 1.000000 0.840000 51.912895 38.167694 4151.721680
5.120000 1.000000 0.880000 68.648895 69.869293 9594.388672
5.120000 1.000000 0.920000 52.440025 122.676392 17799.453125
5.120000 1.000000 0.960000 -9.521372 157.187836 24798.671875
5.120000 1.000000 1.000000 -87.292015 136.846039 26346.734375
5.120000 1.000000 1.040000 -129.630737 66.354515 21207.050781
5.120000 1.000000 1.080000 -110.300919 -7.583149 12223.796875
5.120000 1.000000 1.120000 -53.012806 -37.101002 4186.841797
5.120000 1.000000 1.160000 -8.690006 -15.867732 327.301147
5.120000 1.000000 1.200000 -7.464827 18.947178 414.719177
5.120000 1.040000 0.800000 4.995338 46.779633 2213.287354
5.120000 1.040000 0.840000 17.565552 54.682091 3298.679688
5.120000 1.040000 0.880000 17.842779 88.464264 8144.290527
5.120000 1.040000 0.920000 -20.421680 124.848083 16004.088867
5.120000 1.040000 0.960000 -88.782906 123.503181 23135.441406
5.120000 1.040000 1.000000 -143.530731 68.190994 25251.082031
5.120000 1.040000 1.040000 -143.821884 -11.412890 20814.988281
5.120000 1.040000 1.080000 -91.389732 -63.037590 12325.820312
5.120000 1.040000 1.120000 -30.319956 -59.216068 4425.842285
5.120000 1.040000 1.160000 -5.605366 -21.132402 477.998566
5.120000 1.040000 1.200000 -22.149057 5.156506 517.170288
5.120000 1.080000 0.800000 -22.722218 32.640129 1581.677246
5.120000 1.080000 0.840000 -15.496021 42.920971 2082.336426
5.120000 1.080000 0.880000 -29.069752 67.427612 5391.533203
5.120000 1.080000 0.920000 -72.308388 76.799194 11126.619141
5.120000 1.080000 0.960000 -120.627747 45.302662 16603.384766
5.120000 1.080000 1.000000 -134.979523 -18.933300 18577.941406
5.120000 1.080000 1.040000 -99.624886 -76.053680 15709.280273
5.120000 1.080000 1.080000 -39.642708 -89.853485 9645.193359
5.120000 1.080000 1.120000 1.582415 -61.307053 3761.058838
5.120000 1.080000 1.160000 2.781215 -25.725857 669.554871
5.120000 1.080000 1.200000 -17.936340 -16.682837 600.029358
5.120000 1.120000 0.800000 -28.861382 5.765543 866.220825
5.120000 1.120000 0.840000 -27.249201 15.275127 975.848450
5.120000 1.120000 0.880000 -44.810844 25.016832 2633.853516
5.120000 1.120000 0.920000 -74.335968 13.222641 5700.674316
5.120000 1.120000 0.960000 -90.176254 -25.205452 8767.071289
5.120000 1.120000 1.000000 -72.635422 -69.182388 10062.107422
5.120000 1.120000 1.040000 -29.018238 -89.073868 8776.211914
5.120000 1.120000 1.080000 11.585716 -74.504807 5685.195312
5.120000 1.120000 1.120000 25.408936 -43.622349 2548.523438
5.120000 1.120000 1.160000 15.217157 -24.182693 816.364563
5.120000 1.120000 1.200000 4.202309 -26.427614 716.078247
5.120000 1.160000 0.800000 -13.439507 -12.095577 326.923340
5.120000 1.160000 0.840000 -16.082239 -5.706255 291.199768
5.120000 1.160000 0.880000 -28.113049 -7.508337 846.718628
5.120000 1.160000 0.920000 -36.898556 -24.088825 1941.774902
5.120000 1.160000 0.960000 -29.256680 -47.027786 3067.566162
5.120000 1.160000 1.000000 -5.441845 -59.714119 3595.389893
5.120000 1.160000 1.040000 20.181568 -53.243206 3242.134521
5.120000 1.160000 1.080000 32.835453 -34.668152 2280.047852
5.120000 1.160000 1.120000 30.908651 -19.017799 1317.021484
5.120000 1.160000 1.160000 25.321394 -14.035826 838.177368
5.120000 1.160000 1.200000 26.251095 -14.040475 886.254944
5.120000 1.200000 0.800000 6.474924 -8.866385 120.537415
5.120000 1.200000 0.840000 1.394163 -6.944128 50.164604
5.120000 1.200000 0.880000 -1.845240 -12.860228 168.790359
5.120000 1.200000 0.920000 3.273195 -20.744518 441.048859
5.120000 1.200000 0.960000 14.469643 -22.033852 694.861206
5.120000 1.200000 1.000000 23.195541 -14.851745 758.607483
5.120000 1.200000 1.040000 24.188595 -5.757290 618.234497
5.120000 1.200000 1.080000 21.047871 -1.804424 446.268799
5.120000 1.200000 1.120000 21.283846 -2.219002 457.926086
5.120000 1.200000 1.160000 26.628147 0.409431 709.225891
5.120000 1.200000 1.200000 30.182592 10.578012 1022.883240
5.160000 0.800000 0.800000 -28.798092 -12.988989 998.043945
5.160000 0.800000 0.840000 -15.189575 -26.953854 957.233459
5.160000 0.800000 0.880000 7.257881 -24.875912 671.487793
5.160000 0.800000 0.920000 20.698292 -4.651476 450.055511
5.160000 0.800000 0.960000 12.979889 18.970667 528.363708
5.160000 0.800000 1.000000 -10.070218 27.168644 839.544495
5.160000 0.800000 1.040000 -29.546133 14.487492 1082.861450
5.160000 0.800000 1.080000 -31.064569 -6.596298 1008.518616
5.160000 0.800000 1.120000 -17.365990 -18.386765 639.650757
5.160000 0.800000 1.160000 -3.705128 -14.705961 229.993271
5.160000 0.800000 1.200000 -1.695069 -4.913630 27.017015
5.160000 0.840000 0.800000 -10.416830 -31.567421 1105.012451
5.160000 0.840000 0.840000 8.539658 -34.127316 1237.599487
5.160000 0.840000 0.880000 26.391443 -20.344057 1110.388916
5.160000 0.840000 0.920000 29.132702 3.957211 864.373779
5.160000 0.840000 0.960000 13.086990 22.904858 695.901855
5.160000 0.840000 1.000000 -10.762496 23.813225 682.901001
5.160000 0.840000 1.040000 -25.893040 8.077367 735.693359
5.160000 0.840000 1.080000 -24.268299 -10.803432 705.664490
5.160000 0.840000 1.120000 -11.836590 -19.819527 532.918457
5.160000 0.840000 1.160000 -1.003731 -17.150158 295.135406
5.160000 0.840000 1.200000 1.563464 -11.107874 125.829285
5.160000 0.880000 0.800000 19.576513 -30.136433 1291.444458
5.160000 0.880000 0.840000 33.753559 -20.554264 1561.780518
5.160000 0.880000 0.880000 40.512291 -1.394869 1643.191406
5.160000 0.880000 0.920000 33.211540 19.882416 1498.316772
5.160000 0.880000 0.960000 13.165514 31.999750 1197.314819
5.160000 0.880000 1.000000 -9.557929 27.939365 871.962158
5.160000 0.880000 1.040000 -22.672562 10.721003 628.984924
5.160000 0.880000 1.080000 -20.505096 -8.524049 493.118408
5.160000 0.880000 1.120000 -7.654422 -18.898390 415.739319
5.160000 0.880000 1.160000 5.548552 -17.419666 334.231201
5.160000 0.880000 1.200000 11.563730 -9.684511 227.509613
5.160000 0.920000 0.800000 40.723000 -4.563034 1679.183960
5.160000 0.920000 0.840000 42.838276 9.847282 1932.086914
5.160000 0.920000 0.880000 38.575180 25.806328 2154.011230
5.160000 0.920000 0.920000 25.559731 40.025105 2255.308838
5.160000 0.920000 0.960000 4.346104 45.763054 2113.145752
5.160000 0.920000 1.000000 -17.838594 37.091408 1693.988037
5.160000 0.920000 1.040000 -29.567648 15.781075 1123.288086
5.160000 0.920000 1.080000 -23.916405 -6.918461 619.859497
5.160000 0.920000 1.120000 -5.561712 -17.611687 341.104156
5.160000 0.920000 1.160000 11.754603 -11.705657 275.193115
5.160000 0.920000 1.200000 16.449848 2.552621 277.113373
5.160000 0.960000 0.800000 35.916061 30.311081 2208.725098
5.160000 0.960000 0.840000 26.853874 39.499596 2281.348633
5.160000 0.960000 0.880000 17.170641 47.020973 2505.802734
5.160000 0.960000 0.920000 2.850800 53.808758 2903.509277
5.160000 0.960000 0.960000 -18.310791 53.171558 3162.499756
5.160000 0.960000 1.000000 -38.694931 37.583740 2909.835205
5.160000 0.960000 1.040000 -44.544540 10.173616 2087.718506
5.160000 0.960000 1.080000 -29.678818 -13.417034 1060.848999
5.160000 0.960000 1.120000 -4.487534 -17.691734 333.135437
5.160000 0.960000 1.160000 11.426778 -2.598535 137.323639
5.160000 0.960000 1.200000 7.288169 15.241850 285.431396
5.160000 1.000000 0.800000 6.516599 50.642319 2607.110596
5.160000 1.000000 0.840000 -5.856215 49.317677 2466.528320
5.160000 1.000000 0.880000 -14.566497 48.841675 2597.692139
5.160000 1.000000 0.920000 -27.578133 49.392715 3200.193848
5.160000 1.000000 0.960000 -46.429306 41.259094 3857.993164
5.160000 1.000000 1.000000 -59.639603 18.011061 3881.280762
5.160000 1.000000 1.040000 -53.284142 -11.331997 2967.613770
5.160000 1.000000 1.080000 -28.010813 -27.339510 1532.054443
5.160000 1.000000 1.120000 -2.359816 -19.288361 377.609589
5.160000 1.000000 1.160000 3.862828 2.166266 19.614153
5.160000 1.000000 1.200000 -10.329387 14.184535 307.897278
5.160000 1.040000 0.800000 -27.169899 42.656540 2557.783936
5.160000 1.040000 0.840000 -34.776730 33.604397 2338.676270
5.160000 1.040000 0.880000 -39.547234 28.999537 2404.956787
5.160000 1.040000 0.920000 -49.636234 24.223644 3050.540771
5.160000 1.040000 0.960000 -61.522381 9.040784 3866.739258
5.160000 1.040000 1.000000 -61.537254 -16.683474 4065.172119
5.160000 1.040000 1.040000 -42.107567 -38.059158 3221.546875
5.160000 1.040000 1.080000 -13.841030 -39.025154 1714.536743
5.160000 1.040000 1.120000 2.304448 -20.642845 431.437531
5.160000 1.040000 1.160000 -3.761164 -2.389615 19.856613
5.160000 1.040000 1.200000 -19.762663 -2.961754 399.334808
5.160000 1.080000 0.800000 -41.879147 14.309067 1958.612305
5.160000 1.080000 0.840000 -42.789856 4.730682 1853.351196
5.160000 1.080000 0.880000 -44.497337 -0.897971 1980.819458
5.160000 1.080000 0.920000 -49.601219 -10.069361 2561.673096
5.160000 1.080000 0.960000 -50.001396 -27.525295 3257.781494
5.160000 1.080000 1.000000 -36.517815 -45.781750 3429.519287
5.160000 1.080000 1.040000 -12.247886 -50.840714 2734.788818
5.160000 1.080000 1.080000 7.186577 -37.941917 1491.235962
5.160000 1.080000 1.120000 8.899549 -19.137558 445.448090
5.160000 1.080000 1.160000 -2.762622 -12.271792 158.228973
5.160000 1.080000 1.200000 -9.608347 -22.090490 580.310120
5.160000 1.120000 0.800000 -30.392874 -11.374447 1053.104736
5.160000 1.120000 0.840000 -29.228016 -16.953781 1141.707642
5.160000 1.120000 0.880000 -29.633190 -23.497267 1430.247559
5.160000 1.120000 0.920000 -27.438368 -34.612629 1950.898071
5.160000 1.120000 0.960000 -16.356871 -46.350414 2415.907959
5.160000 1.120000 1.000000 2.562880 -49.234398 2430.594238
5.160000 1.120000 1.040000 18.903900 -38.770477 1860.507324
5.160000 1.120000 1.080000 22.448414 -22.392473 1005.354126
5.160000 1.120000 1.120000 14.566238 -13.441403 392.846619
5.160000 1.120000 1.160000 8.008657 -17.361397 365.556702
5.160000 1.120000 1.200000 13.860678 -25.134495 823.861206
5.160000 1.160000 0.800000 -6.766882 -15.855099 297.174835
5.160000 1.160000 0.840000 -9.070078 -19.538239 464.009094
5.160000 1.160000 0.880000 -7.776134 -28.508949 873.228455
5.160000 1.160000 0.920000 2.381503 -37.254589 1393.575928
5.160000 1.160000 0.960000 18.758633 -36.995483 1720.552002
5.160000 1.160000 1.000000 31.231453 -25.124916 1606.665039
5.160000 1.160000 1.040000 31.650131 -9.530045 1092.552612
5.160000 1.160000 1.080000 22.724594 -1.739923 519.434509
5.160000 1.160000 1.120000 16.040030 -5.174521 284.058228
5.160000 1.160000 1.160000 20.250168 -11.115971 533.634094
5.160000 1.160000 1.200000 31.569229 -7.540780 1053.479614
5.160000 1.200000 0.800000 6.864033 -0.176528 47.146107
5.160000 1.200000 0.840000 0.771955 -8.009109 64.741753
5.160000 1.200000 0.880000 6.468616 -19.366081 416.888092
5.160000 1.200000 0.920000 22.092731 -21.379330 945.164551
5.160000 1.200000 0.960000 34.743080 -9.069378 1289.335327
5.160000 1.200000 1.000000 33.298016 8.431650 1179.850586
5.160000 1.200000 1.040000 20.341251 16.679239 691.963501
5.160000 1.200000 1.080000 9.861090 11.025587 218.804657
5.160000 1.200000 1.120000 12.480797 1.686117 158.613281
5.160000 1.200000 1.160000 23.916908 2.846190 580.119263
5.160000 1.200000 1.200000 29.404882 17.207882 1160.758301
5.200000 0.800000 0.800000 -25.818909 -19.596771 1050.649414
5.200000 0.800000 0.840000 -8.769115 -30.567123 1011.246460
5.200000 0.800000 0.880000 12.601273 -22.247061 653.723755
5.200000 0.800000 0.920000 18.958809 1.454584 361.552246
5.200000 0.800000 0.960000 3.030645 21.001089 450.230560
5.200000 0.800000 1.000000 -22.128338 19.268864 860.952393
5.200000 0.800000 1.040000 -34.875866 -1.882575 1219.870117
5.200000 0.800000 1.080000 -25.378750 -23.434484 1193.255981
5.200000 0.800000 1.120000 -4.222682 -27.686420 784.368958
5.200000 0.800000 1.160000 9.106308 -14.575562 295.371826
5.200000 0.800000 1.200000 5.486980 0.206603 30.149639
5.200000 0.840000 0.800000 -3.714043 -29.120716 861.810242
5.200000 0.840000 0.840000 13.233999 -23.829302 742.974365
5.200000 0.840000 0.880000 20.591028 -4.682175 445.913208
5.200000 0.840000 0.920000 9.258492 14.700727 301.831055
5.200000 0.840000 0.960000 -14.091034 18.114388 526.688293
5.200000 0.840000 1.000000 -31.635077 1.767127 1003.900818
5.200000 0.840000 1.040000 -30.021460 -21.712223 1372.708618
5.200000 0.840000 1.080000 -12.043539 -34.581181 1340.904907
5.200000 0.840000 1.120000 6.881213 -29.634750 925.569519
5.200000 0.840000 1.160000 13.467309 -15.157309 411.112427
5.200000 0.840000 1.200000 7.814898 -5.174601 87.849113
5.200000 0.880000 0.800000 20.599571 -16.717323 703.811279
5.200000 0.880000 0.840000 23.271336 -0.375056 541.695740
5.200000 0.880000 0.880000 11.861209 14.455073 349.637421
5.200000 0.880000 0.920000 -8.257288 16.469400 339.423950
5.200000 0.880000 0.960000 -24.179657 2.705614 591.976196
5.200000 0.880000 1.000000 -25.269901 -18.426746 978.112915
5.200000 0.880000 1.040000 -11.378076 -33.499657 1251.687622
5.200000 0.880000 1.080000 7.581346 -34.312737 1234.840698
5.200000 0.880000 1.120000 19.968800 -23.304523 941.853760
5.200000 0.880000 1.160000 21.130125 -9.977129 546.025269
5.200000 0.880000 1.200000 15.200919 -2.416545 236.907639
5.200000 0.920000 0.800000 27.311771 12.636514 905.614319
5.200000 0.920000 0.840000 10.911331 24.555695 722.039246
5.200000 0.920000 0.880000 -9.853918 21.301577 550.856873
5.200000 0.920000 0.920000 -22.523027 4.646677 528.878357
5.200000 0.920000 0.960000 -20.628683 -15.378993 662.056030
5.200000 0.920000 1.000000 -6.970278 -28.251577 846.736389
5.200000 0.920000 1.040000 10.070097 -29.333420 961.856384
5.200000 0.920000 1.080000 22.637596 -20.752142 943.112183
5.200000 0.920000 1.120000 27.028984 -8.147583 796.949097
5.200000 0.920000 1.160000 23.757530 2.910513 572.891296
5.200000 0.920000 1.200000 16.024143 8.808168 334.356995
5.200000 0.960000 0.800000 8.075449 38.429047 1542.004517
5.200000 0.960000 0.840000 -17.719124 32.238007 1353.256348
5.200000 0.960000 0.880000 -31.027611 9.744721 1057.672241
5.200000 0.960000 0.920000 -25.197243 -13.920773 828.688965
5.200000 0.960000 0.960000 -7.209147 -25.806005 717.921692
5.200000 0.960000 1.000000 10.834751 -23.658802 677.130737
5.200000 0.960000 1.040000 21.595909 -13.477459 648.025208
5.200000 0.960000 1.080000 24.648331 -1.722129 610.505920
5.200000 0.960000 1.120000 22.010307 8.605726 558.512146
5.200000 0.960000 1.160000 14.753473 15.841844 468.628967
5.200000 0.960000 1.200000 4.628044 17.274681 319.833405
5.200000 1.000000 0.800000 -24.885757 40.781826 2282.458252
5.200000 1.000000 0.840000 -43.417805 15.855370 2136.498535
5.200000 1.000000 0.880000 -38.346207 -13.762495 1659.837769
5.200000 1.000000 0.920000 -16.076273 -29.499119 1128.644531
5.200000 1.000000 0.960000 6.870755 -26.162701 731.694153
5.200000 1.000000 1.000000 18.885921 -12.109612 503.320740
5.200000 1.000000 1.040000 19.711073 1.877973 392.053192
5.200000 1.000000 1.080000 14.778931 11.353680 347.322815
5.200000 1.000000 1.120000 7.321117 16.831158 336.886627
5.200000 1.000000 1.160000 -2.162523 17.771988 320.520081
5.200000 1.000000 1.200000 -10.838653 11.810682 256.968597
5.200000 1.040000 0.800000 -47.717651 17.821375 2594.575684
5.200000 1.040000 0.840000 -48.991493 -13.495407 2582.292480
5.200000 1.040000 0.880000 -28.289074 -35.447166 2056.773438
5.200000 1.040000 0.920000 -1.166548 -36.550289 1337.284424
5.200000 1.040000 0.960000 16.172276 -21.687962 731.910156
5.200000 1.040000 1.000000 18.823006 -3.809822 368.820282
5.200000 1.040000 1.040000 12.081659 8.179886 212.877014
5.200000 1.040000 1.080000 2.502422 13.063974 176.929535
5.200000 1.040000 1.120000 -7.020812 12.231737 198.907181
5.200000 1.040000 1.160000 -14.457569 5.588847 240.256516
5.200000 1.040000 1.200000 -15.313721 -5.770329 267.806732
5.200000 1.080000 0.800000 -44.965302 -12.174325 2170.092529
5.200000 1.080000 0.840000 -32.857243 -35.913048 2369.345215
5.200000 1.080000 0.880000 -8.441195 -44.555187 2056.418457
5.200000 1.080000 0.920000 13.376019 -35.557251 1443.235962
5.200000 1.080000 0.960000 22.646198 -17.483974 818.539673
5.200000 1.080000 1.000000 19.167854 -1.044647 368.497925
5.200000 1.080000 1.040000 8.542404 7.786809 133.607071
5.200000 1.080000 1.080000 -3.335297 7.888562 73.353615
5.200000 1.080000 1.120000 -11.661419 0.386391 136.137985
5.200000 1.080000 1.160000 -11.969078 -11.397376 273.158997
5.200000 1.080000 1.200000 -2.119492 -20.536133 426.225006
5.200000 1.120000 0.800000 -22.564125 -26.529907 1212.975708
5.200000 1.120000 0.840000 -9.230661 -38.856049 1594.997559
5.200000 1.120000 0.880000 9.568616 -39.999157 1691.490967
5.200000 1.120000 0.920000 24.932302 -29.433254 1487.936157
5.200000 1.120000 0.960000 30.333403 -12.462078 1075.418701
5.200000 1.120000 1.000000 24.259912 2.938925 597.180603
5.200000 1.120000 1.040000 10.690136 9.594128 206.326294
5.200000 1.120000 1.080000 -2.222481 4.562627 25.756989
5.200000 1.120000 1.120000 -5.849079 -8.296702 103.046997
5.200000 1.120000 1.160000 3.202024 -19.150160 376.981567
5.200000 1.120000 1.200000 19.195137 -18.146599 697.752319
5.200000 1.160000 0.800000 -1.730833 -17.655443 314.710449
5.200000 1.160000 0.840000 4.786551 -26.119362 705.132141
5.200000 1.160000 0.880000 18.644762 -28.698284 1171.218628
5.200000 1.160000 0.920000 33.081120 -19.861370 1488.834473
5.200000 1.160000 0.960000 38.024136 -1.885151 1449.388672
5.200000 1.160000 1.000000 28.575340 14.532450 1027.742188
5.200000 1.160000 1.040000 10.991753 18.013557 445.306885
5.200000 1.160000 1.080000 -0.874496 6.876725 48.054085
5.200000 1.160000 1.120000 2.781554 -7.936267 70.721375
5.200000 1.160000 1.160000 18.313866 -11.613577 470.272827
5.200000 1.160000 1.200000 31.005569 1.218653 962.830444
5.200000 1.200000 0.800000 0.422123 1.641017 2.871125
5.200000 1.200000 0.840000 3.136249 -12.338642 162.078156
5.200000 1.200000 0.880000 19.408621 -18.611710 723.090271
5.200000 1.200000 0.920000 36.664505 -7.543964 1401.197266
5.200000 1.200000 0.960000 38.926094 14.749253 1732.781250
5.200000 1.200000 1.000000 22.834852 30.536203 1453.890137
5.200000 1.200000 1.040000 2.189536 27.284182 749.220642
5.200000 1.200000 1.080000 -4.887536 10.424967 132.567932
5.200000 1.200000 1.120000 6.158505 -1.623915 40.564289
5.200000 1.200000 1.160000 21.730724 4.268413 490.443726
5.200000 1.200000 1.200000 23.807625 22.905243 1091.453125
