#kx 	ky 	kz 	real 	imag 	intensity
0.800000 0.800000 -9.200000 -33.538944 -5.517663 1155.305420
0.800000 0.800000 -9.160000 -21.697268 -35.268257 1714.621338
0.800000 0.800000 -9.120000 9.904718 -43.188637 1963.361694
0.800000 0.800000 -9.080000 34.386631 -23.219545 1721.587646
0.800000 0.800000 -9.040000 32.977440 5.803698 1121.194458
0.800000 0.800000 -9.000000 11.371174 19.379971 504.886841
0.800000 0.800000 -8.960000 -8.349688 10.102180 171.771317
0.800000 0.800000 -8.920000 -10.168617 -8.322563 172.665833
0.800000 0.800000 -8.880000 2.427261 -17.598560 315.600922
0.800000 0.800000 -8.840000 14.072313 -12.964165 366.099548
0.800000 0.800000 -8.800000 15.502559 -4.519676 260.756805
0.800000 0.840000 -9.200000 -20.452042 -26.749611 1133.827637
0.800000 0.840000 -9.160000 5.832346 -42.898605 1874.306519
0.800000 0.840000 -9.120000 35.132957 -32.622097 2298.525879
0.800000 0.840000 -9.080000 45.238750 -5.211005 2073.699219
0.800000 0.840000 -9.040000 31.973602 16.611126 1298.240723
0.800000 0.840000 -9.000000 11.181413 18.059647 451.174835
0.800000 0.840000 -8.960000 2.065075 4.323586 22.957926
0.800000 0.840000 -8.920000 9.479786 -7.334948 143.667801
0.800000 0.840000 -8.880000 22.218925 -5.612010 525.175293
0.800000 0.840000 -8.840000 26.924402 5.478539 754.937866
0.800000 0.840000 -8.800000 21.634846 13.944255 662.508789
0.800000 0.880000 -9.200000 1.389478 -28.024410 787.298218
0.800000 0.880000 -9.160000 27.153343 -26.149717 1421.111816
0.800000 0.880000 -9.120000 42.645786 -6.000617 1854.670532
0.800000 0.880000 -9.080000 38.374619 16.629154 1749.140137
0.800000 0.880000 -9.040000 21.889408 25.884769 1149.167480
0.800000 0.880000 -9.000000 9.418279 19.771698 479.624023
0.800000 0.880000 -8.960000 10.201036 10.053516 205.134338
0.800000 0.880000 -8.920000 19.099136 9.340948 452.030334
0.800000 0.880000 -8.880000 23.773663 18.979620 925.412964
0.800000 0.880000 -8.840000 17.876554 29.513546 1190.620605
0.800000 0.880000 -8.800000 6.507595 31.759735 1051.029541
0.800000 0.920000 -9.200000 11.858438 -13.375589 319.528931
0.800000 0.920000 -9.160000 26.197147 -1.878726 689.820129
0.800000 0.920000 -9.120000 27.610250 15.527735 1003.436462
0.800000 0.920000 -9.080000 17.470196 26.571224 1011.237671
0.800000 0.920000 -9.040000 6.333279 26.026983 717.514282
0.800000 0.920000 -9.000000 3.472610 19.894808 407.862396
0.800000 0.920000 -8.960000 8.144660 18.520485 409.343842
0.800000 0.920000 -8.920000 11.193836 25.858627 793.970581
0.800000 0.920000 -8.880000 4.988151 35.676018 1297.659790
0.800000 0.920000 -8.840000 -8.641621 38.256943 1538.271240
0.800000 0.920000 -8.800000 -20.366684 30.319719 1334.087158
0.800000 0.960000 -9.200000 5.201988 -0.629623 27.457102
0.800000 0.960000 -9.160000 8.690377 9.221010 160.549683
0.800000 0.960000 -9.120000 4.131712 17.555340 325.260986
0.800000 0.960000 -9.080000 -3.307076 18.873501 367.145782
0.800000 0.960000 -9.040000 -6.308191 15.005531 264.959259
0.800000 0.960000 -9.000000 -3.160856 13.370173 188.752518
0.800000 0.960000 -8.960000 -0.038707 18.991764 360.688599
0.800000 0.960000 -8.920000 -4.854687 28.406364 830.489563
0.800000 0.960000 -8.880000 -18.574701 32.177715 1380.424927
0.800000 0.960000 -8.840000 -33.056671 24.010506 1669.247925
0.800000 0.960000 -8.800000 -38.013344 7.380618 1499.487793
0.800000 1.000000 -9.200000 -6.801185 -1.915654 49.925842
0.800000 1.000000 -9.160000 -6.760500 2.281977 50.911777
0.800000 1.000000 -9.120000 -10.231670 3.702134 118.392876
0.800000 1.000000 -9.080000 -12.250197 0.628508 150.462357
0.800000 1.000000 -9.040000 -8.865026 -2.474492 84.711807
0.800000 1.000000 -9.000000 -2.968257 0.708790 9.312933
0.800000 1.000000 -8.960000 -2.779551 10.435970 116.635376
0.800000 1.000000 -8.920000 -13.279350 18.424952 515.820007
0.800000 1.000000 -8.880000 -29.375469 14.812904 1082.340332
0.800000 1.000000 -8.840000 -38.801857 -1.703727 1508.486816
0.800000 1.000000 -8.800000 -32.957695 -21.099625 1531.403809
0.800000 1.040000 -9.200000 -9.663643 -12.585796 251.788269
0.800000 1.040000 -9.160000 -8.726608 -10.525926 186.948807
0.800000 1.040000 -9.120000 -10.285047 -11.894808 247.268631
0.800000 1.040000 -9.080000 -8.000483 -16.844545 347.746429
0.800000 1.040000 -9.040000 0.590923 -18.305809 335.451813
0.800000 1.040000 -9.000000 8.719307 -10.230025 180.679733
0.800000 1.040000 -8.960000 6.284235 3.356075 50.754856
0.800000 1.040000 -8.920000 -8.406402 9.899122 168.660217
0.800000 1.040000 -8.880000 -24.208261 0.404835 586.203796
0.800000 1.040000 -8.840000 -26.299398 -20.116989 1096.351562
0.800000 1.040000 -8.800000 -10.494032 -35.647900 1380.897461
0.800000 1.080000 -9.200000 -1.763037 -18.947594 362.119598
0.800000 1.080000 -9.160000 -2.323539 -15.985809 260.944916
0.800000 1.080000 -9.120000 -3.719773 -20.291224 425.570465
0.800000 1.080000 -9.080000 3.536818 -27.369564 761.602112
0.800000 1.080000 -9.040000 18.398449 -25.298912 978.537903
0.800000 1.080000 -9.000000 27.799187 -9.512891 863.289917
0.800000 1.080000 -8.960000 20.258026 9.171028 494.495392
0.800000 1.080000 -8.920000 -0.042821 13.765572 189.492798
0.800000 1.080000 -8.880000 -15.036828 -1.176981 227.491486
0.800000 1.080000 -8.840000 -9.984182 -22.422115 602.435181
0.800000 1.080000 -8.800000 11.501053 -29.982101 1031.200562
0.800000 1.120000 -9.200000 5.780765 -14.668628 248.585876
0.800000 1.120000 -9.160000 0.365472 -14.084188 198.497910
0.800000 1.120000 -9.120000 1.287635 -24.158745 585.302979
0.800000 1.120000 -9.080000 16.996489 -31.132408 1258.107422
0.800000 1.120000 -9.040000 37.345192 -20.183247 1802.026733
0.800000 1.120000 -9.000000 42.545395 6.095448 1847.265137
0.800000 1.120000 -8.960000 24.584269 27.500355 1360.655762
0.800000 1.120000 -8.920000 -2.347702 25.912243 676.956055
0.800000 1.120000 -8.880000 -14.740323 4.305539 235.814789
0.800000 1.120000 -8.840000 -3.020180 -15.505495 249.541870
0.800000 1.120000 -8.800000 19.131109 -14.432977 574.310181
0.800000 1.160000 -9.200000 3.246677 -7.408652 65.429047
0.800000 1.160000 -9.160000 -3.917916 -15.359894 251.276398
0.800000 1.160000 -9.120000 5.683236 -29.892094 925.836487
0.800000 1.160000 -9.080000 30.749540 -29.548656 1818.657349
0.800000 1.160000 -9.040000 49.726158 -4.890120 2496.604248
0.800000 1.160000 -9.000000 42.306442 28.753494 2616.598633
0.800000 1.160000 -8.960000 11.438919 44.730579 2131.673584
0.800000 1.160000 -8.920000 -18.061140 31.371284 1310.362305
0.800000 1.160000 -8.880000 -23.425774 3.589701 561.652771
0.800000 1.160000 -8.840000 -5.603042 -12.300558 182.697800
0.800000 1.160000 -8.800000 13.430979 -4.458703 200.271225
0.800000 1.200000 -9.200000 -6.022525 -9.229179 121.448555
0.800000 1.200000 -9.160000 -5.819380 -26.137869 717.053345
0.800000 1.200000 -9.120000 16.029648 -36.784142 1610.022705
0.800000 1.200000 -9.080000 43.748482 -21.898792 2393.486816
0.800000 1.200000 -9.040000 50.821426 14.044439 2780.063721
0.800000 1.200000 -9.000000 26.689276 44.634735 2704.576904
0.800000 1.200000 -8.960000 -11.525527 46.173157 2264.798340
0.800000 1.200000 -8.920000 -34.775192 20.220778 1618.193848
0.800000 1.200000 -8.880000 -29.247665 -8.842812 933.621216
0.800000 1.200000 -8.840000 -7.477118 -18.009090 380.234619
0.800000 1.200000 -8.800000 6.634520 -6.374189 84.647141
0.840000 0.800000 -9.200000 -9.693984 -31.475368 1084.672119
0.840000 0.800000 -9.160000 20.803362 -41.145935 2125.767822
0.840000 0.800000 -9.120000 48.129200 -21.160736 2764.196777
0.840000 0.800000 -9.080000 49.409752 12.350319 2593.853760
0.840000 0.800000 -9.040000 26.215860 32.552925 1746.964355
0.840000 0.800000 -9.000000 0.713593 27.506500 757.116760
0.840000 0.800000 -8.960000 -7.366922 8.937078 134.142914
0.840000 0.800000 -8.920000 1.606796 -2.785882 10.342933
0.840000 0.800000 -8.880000 11.792934 0.271803 139.147186
0.840000 0.800000 -8.840000 11.207964 8.555027 198.806946
0.840000 0.800000 -8.800000 3.776222 9.081846 96.739784
0.840000 0.840000 -9.200000 10.720387 -30.971931 1074.187256
0.840000 0.840000 -9.160000 41.484135 -25.203682 2356.159180
0.840000 0.840000 -9.120000 58.273895 3.301705 3406.748291
0.840000 0.840000 -9.080000 49.199963 34.336414 3599.625488
0.840000 0.840000 -9.040000 23.667124 47.867401 2851.420898
0.840000 0.840000 -9.000000 1.529686 40.761711 1663.857056
0.840000 0.840000 -8.960000 -5.462576 25.990229 705.331726
0.840000 0.840000 -8.920000 -1.426304 17.508038 308.565704
0.840000 0.840000 -8.880000 2.296266 17.695896 318.417572
0.840000 0.840000 -8.840000 0.567792 19.148493 366.987152
0.840000 0.840000 -8.800000 -1.998583 16.250740 268.080872
0.840000 0.880000 -9.200000 20.464251 -14.749866 636.344116
0.840000 0.880000 -9.160000 42.538284 1.025865 1810.557983
0.840000 0.880000 -9.120000 47.574852 30.100325 3169.395996
0.840000 0.880000 -9.080000 31.544506 55.231743 4045.601318
0.840000 0.880000 -9.040000 4.917516 63.314785 4032.943848
0.840000 0.880000 -9.000000 -17.175884 54.377159 3251.886475
0.840000 0.880000 -8.960000 -26.728870 38.529175 2198.929688
0.840000 0.880000 -8.920000 -26.157633 25.732357 1346.375977
0.840000 0.880000 -8.880000 -22.292196 18.909313 854.504150
0.840000 0.880000 -8.840000 -19.047531 15.523515 603.787964
0.840000 0.880000 -8.800000 -16.072615 13.411378 438.194000
0.840000 0.920000 -9.200000 12.129868 -0.366397 147.267929
0.840000 0.920000 -9.160000 24.639269 17.106163 899.714355
0.840000 0.920000 -9.120000 21.653580 42.011711 2233.861328
0.840000 0.920000 -9.080000 1.467223 60.555481 3669.119141
0.840000 0.920000 -9.040000 -26.491196 62.262493 4578.401367
0.840000 0.920000 -9.000000 -48.578449 47.210873 4588.732422
0.840000 0.920000 -8.960000 -56.379856 24.806770 3794.063965
0.840000 0.920000 -8.920000 -51.031799 6.078413 2641.191650
0.840000 0.920000 -8.880000 -39.914272 -3.458128 1605.107788
0.840000 0.920000 -8.840000 -30.092291 -5.110526 931.663452
0.840000 0.920000 -8.800000 -24.378080 -3.231905 604.736023
0.840000 0.960000 -9.200000 -2.593305 -1.999216 10.722094
0.840000 0.960000 -9.160000 4.744101 13.556555 206.286667
0.840000 0.960000 -9.120000 -2.913747 33.885658 1156.727661
0.840000 0.960000 -9.080000 -25.939756 44.969658 2695.141113
0.840000 0.960000 -9.040000 -52.816574 37.186958 4172.460449
0.840000 0.960000 -9.000000 -68.511665 13.435450 4874.359375
0.840000 0.960000 -8.960000 -65.855743 -13.239456 4512.262207
0.840000 0.960000 -8.920000 -49.869499 -30.024151 3388.416748
0.840000 0.960000 -8.880000 -32.026810 -33.165466 2125.664551
0.840000 0.960000 -8.840000 -20.652895 -28.131638 1217.931152
0.840000 0.960000 -8.800000 -16.263092 -22.573616 774.056274
0.840000 1.000000 -9.200000 -6.430791 -15.904308 294.302094
0.840000 1.000000 -9.160000 -1.751513 -0.568230 3.390682
0.840000 1.000000 -9.120000 -13.609507 15.199987 416.258301
0.840000 1.000000 -9.080000 -36.925140 16.450184 1634.074463
0.840000 1.000000 -9.040000 -55.810234 -1.493378 3117.012451
0.840000 1.000000 -9.000000 -56.998482 -28.502270 4061.206299
0.840000 1.000000 -8.960000 -40.627769 -48.494320 4002.314453
0.840000 1.000000 -8.920000 -18.567841 -52.704079 3122.484619
0.840000 1.000000 -8.880000 -3.062790 -44.905792 2025.910889
0.840000 1.000000 -8.840000 2.709792 -35.055054 1236.199829
0.840000 1.000000 -8.800000 3.916519 -29.188454 867.304932
0.840000 1.040000 -9.200000 4.936463 -25.611240 680.304260
0.840000 1.040000 -9.160000 4.645312 -9.316628 108.378471
0.840000 1.040000 -9.120000 -10.932767 -0.820851 120.199188
0.840000 1.040000 -9.080000 -28.486244 -10.330120 918.177490
0.840000 1.040000 -9.040000 -32.080868 -32.111103 2060.305176
0.840000 1.040000 -9.000000 -17.766506 -50.059048 2821.556885
0.840000 1.040000 -8.960000 3.928122 -52.593567 2781.513428
0.840000 1.040000 -8.920000 19.034534 -41.828545 2111.940674
0.840000 1.040000 -8.880000 22.628971 -28.852932 1344.562012
0.840000 1.040000 -8.840000 20.556046 -21.641739 890.915894
0.840000 1.040000 -8.800000 20.434336 -18.656424 765.624207
0.840000 1.080000 -9.200000 19.131088 -20.257124 776.349609
0.840000 1.080000 -9.160000 11.088019 -6.966065 171.470245
0.840000 1.080000 -9.120000 -3.701108 -9.002342 94.740364
0.840000 1.080000 -9.080000 -8.399889 -24.561850 673.842651
0.840000 1.080000 -9.040000 3.787719 -38.358871 1485.749878
0.840000 1.080000 -9.000000 23.416260 -37.169136 1929.865967
0.840000 1.080000 -8.960000 35.111320 -22.289902 1729.644531
0.840000 1.080000 -8.920000 32.751373 -6.572061 1115.844482
0.840000 1.080000 -8.880000 23.735331 -0.391912 563.519531
0.840000 1.080000 -8.840000 19.092375 -2.036837 368.667480
0.840000 1.080000 -8.800000 21.300049 -1.983593 457.626709
0.840000 1.120000 -9.200000 21.332478 -5.901103 489.897614
0.840000 1.120000 -9.160000 8.408887 -2.194765 75.526375
0.840000 1.120000 -9.120000 2.140145 -13.255574 180.290466
0.840000 1.120000 -9.080000 12.365602 -24.707855 763.386169
0.840000 1.120000 -9.040000 30.969437 -21.071325 1403.106812
0.840000 1.120000 -9.000000 40.462589 -2.004122 1641.237549
0.840000 1.120000 -8.960000 32.020809 17.612885 1335.546021
0.840000 1.120000 -8.920000 13.880810 23.195065 730.687927
0.840000 1.120000 -8.880000 1.859342 14.719337 220.116043
0.840000 1.120000 -8.840000 2.959458 5.034618 34.105774
0.840000 1.120000 -8.800000 9.553392 5.190168 118.205154
0.840000 1.160000 -9.200000 10.329590 1.818598 110.007721
0.840000 1.160000 -9.160000 1.297258 -6.082387 38.678310
0.840000 1.160000 -9.120000 8.488798 -17.986378 395.569489
0.840000 1.160000 -9.080000 27.036892 -15.868669 982.808167
0.840000 1.160000 -9.040000 38.096973 4.628325 1472.800781
0.840000 1.160000 -9.000000 28.159658 28.800186 1622.417114
0.840000 1.160000 -8.960000 2.995589 37.237724 1395.621582
0.840000 1.160000 -8.920000 -18.074230 24.771412 940.300659
0.840000 1.160000 -8.880000 -21.160852 4.549099 468.475983
0.840000 1.160000 -8.840000 -10.102084 -6.096988 139.225357
0.840000 1.160000 -8.800000 -0.284018 -2.458488 6.124832
0.840000 1.200000 -9.200000 -0.717757 -5.166749 27.210470
0.840000 1.200000 -9.160000 2.050755 -18.283978 338.509430
0.840000 1.200000 -9.120000 19.545841 -21.001740 823.112976
0.840000 1.200000 -9.080000 34.563816 -3.698169 1208.333740
0.840000 1.200000 -9.040000 29.283989 22.978218 1385.550537
0.840000 1.200000 -9.000000 3.450263 37.438297 1413.530396
0.840000 1.200000 -8.960000 -24.658545 27.629707 1371.444580
0.840000 1.200000 -8.920000 -35.274246 2.003320 1248.285767
0.840000 1.200000 -8.880000 -24.729351 -19.401550 987.960999
0.840000 1.200000 -8.840000 -6.539956 -23.826998 610.496826
0.840000 1.200000 -8.800000 3.468809 -15.497248 252.197327
0.880000 0.800000 -9.200000 27.113129 -26.508322 1437.812866
0.880000 0.800000 -9.160000 54.164860 -6.501058 2976.095703
0.880000 0.800000 -9.120000 54.494469 30.267147 3885.747559
0.880000 0.800000 -9.080000 26.314476 53.852791 3592.574707
0.880000 0.800000 -9.040000 -6.414288 47.924442 2337.895264
0.880000 0.800000 -9.000000 -18.992912 24.092989 941.202820
0.880000 0.800000 -8.960000 -9.542252 7.327650 144.749023
0.880000 0.800000 -8.920000 2.835585 9.577660 99.772102
0.880000 0.800000 -8.880000 1.070016 19.962538 399.647827
0.880000 0.800000 -8.840000 -11.849333 20.136099 545.869141
0.880000 0.800000 -8.800000 -18.618141 6.087654 383.694733
0.880000 0.840000 -9.200000 32.865479 -7.042962 1129.742920
0.880000 0.840000 -9.160000 50.044186 18.067442 2830.852783
0.880000 0.840000 -9.120000 42.647156 50.594265 4378.559570
0.880000 0.840000 -9.080000 14.794866 68.804779 4952.985840
0.880000 0.840000 -9.040000 -14.855024 64.431534 4372.094238
0.880000 0.840000 -9.000000 -31.149239 46.820080 3162.395020
0.880000 0.840000 -8.960000 -33.710648 30.439219 2062.953613
0.880000 0.840000 -8.920000 -31.766733 20.860010 1444.265381
0.880000 0.840000 -8.880000 -31.090755 13.593636 1151.421997
0.880000 0.840000 -8.840000 -28.659222 4.299246 839.834534
0.880000 0.840000 -8.800000 -19.774296 -3.476731 403.110413
0.880000 0.880000 -9.200000 20.002094 8.365221 470.060699
0.880000 0.880000 -9.160000 30.270834 32.628540 1980.944946
0.880000 0.880000 -9.120000 19.561451 62.304565 4264.509277
0.880000 0.880000 -9.080000 -10.687666 80.066147 6524.813965
0.880000 0.880000 -9.040000 -46.891964 75.552551 7907.043945
0.880000 0.880000 -9.000000 -73.102020 51.224934 7967.899414
0.880000 0.880000 -8.960000 -80.493774 18.780987 6831.973145
0.880000 0.880000 -8.920000 -70.196198 -8.989084 5008.310059
0.880000 0.880000 -8.880000 -49.905094 -24.244537 3078.315918
0.880000 0.880000 -8.840000 -28.935495 -25.536613 1489.381592
0.880000 0.880000 -8.800000 -14.807799 -16.558939 493.469360
0.880000 0.920000 -9.200000 1.148344 5.030281 26.622421
0.880000 0.920000 -9.160000 9.010642 29.027113 923.764954
0.880000 0.920000 -9.120000 -6.416597 59.082142 3531.872070
0.880000 0.920000 -9.080000 -45.498924 73.539238 7478.171875
0.880000 0.920000 -9.040000 -90.169739 56.767624 11353.145508
0.880000 0.920000 -9.000000 -115.292130 12.430931 13446.803711
0.880000 0.920000 -8.960000 -106.640106 -37.716545 12794.650391
0.880000 0.920000 -8.920000 -70.838928 -68.926514 9769.017578
0.880000 0.920000 -8.880000 -29.576622 -70.189636 5801.361328
0.880000 0.920000 -8.840000 -3.569897 -49.607918 2473.689697
0.880000 0.920000 -8.800000 0.484135 -25.613705 656.296265
0.880000 0.960000 -9.200000 -4.250717 -13.037344 188.040924
0.880000 0.960000 -9.160000 0.386893 14.648302 214.722443
0.880000 0.960000 -9.120000 -24.868343 42.990639 2466.629639
0.880000 0.960000 -9.080000 -72.761688 43.876305 7219.393555
0.880000 0.960000 -9.040000 -113.422775 5.080410 12890.536133
0.880000 0.960000 -9.000000 -116.846863 -56.168610 16808.101562
0.880000 0.960000 -8.960000 -77.605843 -104.604736 16964.816406
0.880000 0.960000 -8.920000 -19.488642 -114.034081 13383.579102
0.880000 0.960000 -8.880000 23.843462 -86.359161 8026.415527
0.880000 0.960000 -8.840000 34.487743 -46.680450 3368.468750
0.880000 0.960000 -8.800000 20.136633 -20.960997 844.847351
0.880000 1.000000 -9.200000 9.918633 -26.730076 812.876221
0.880000 1.000000 -9.160000 5.374549 4.438121 48.582695
0.880000 1.000000 -9.120000 -30.691204 22.552128 1450.548462
0.880000 1.000000 -9.080000 -76.202438 2.139612 5811.389648
0.880000 1.000000 -9.040000 -94.423523 -53.207535 11746.843750
0.880000 1.000000 -9.000000 -65.266846 -109.920029 16342.173828
0.880000 1.000000 -8.960000 -3.624297 -130.852814 17135.593750
0.880000 1.000000 -8.920000 52.568840 -105.267441 13844.716797
0.880000 1.000000 -8.880000 73.295929 -55.370552 8438.191406
0.880000 1.000000 -8.840000 58.059395 -15.090121 3598.604980
0.880000 1.000000 -8.800000 30.346720 -2.353326 926.461548
0.880000 1.040000 -9.200000 30.096367 -21.313065 1360.038086
0.880000 1.040000 -9.160000 12.442455 5.862896 189.188248
0.880000 1.040000 -9.120000 -26.383640 5.879608 730.666260
0.880000 1.040000 -9.080000 -53.970268 -31.293606 3892.079590
0.880000 1.040000 -9.040000 -41.644142 -83.157211 8649.356445
0.880000 1.040000 -9.000000 9.003622 -111.675247 12552.425781
0.880000 1.040000 -8.960000 66.073509 -95.301285 13448.042969
0.880000 1.040000 -8.920000 94.075623 -46.331905 10996.868164
0.880000 1.040000 -8.880000 82.233810 1.642841 6765.098145
0.880000 1.040000 -8.840000 49.096729 22.823902 2931.419189
0.880000 1.040000 -8.800000 22.030460 17.265398 783.435181
0.880000 1.080000 -9.200000 37.039150 -1.182282 1373.296509
0.880000 1.080000 -9.160000 10.728118 12.547584 272.534363
0.880000 1.080000 -9.120000 -17.821247 -4.401493 336.970001
0.880000 1.080000 -9.080000 -20.154329 -42.329819 2198.010498
0.880000 1.080000 -9.040000 12.143997 -70.741028 5151.769531
0.880000 1.080000 -9.000000 58.419033 -64.539536 7578.134766
0.880000 1.080000 -8.960000 86.289658 -25.815039 8112.320801
0.880000 1.080000 -8.920000 78.925453 18.996273 6590.085449
0.880000 1.080000 -8.880000 46.909035 42.725082 4025.890137
0.880000 1.080000 -8.840000 15.409278 38.816910 1744.198242
0.880000 1.080000 -8.800000 1.256474 21.656801 470.595764
0.880000 1.120000 -9.200000 25.156590 15.292999 866.729858
0.880000 1.120000 -9.160000 1.429113 12.677999 162.774033
0.880000 1.120000 -9.120000 -8.574680 -10.150719 176.562225
0.880000 1.120000 -9.080000 7.177622 -32.635525 1116.595825
0.880000 1.120000 -9.040000 37.922729 -32.740242 2510.056885
0.880000 1.120000 -9.000000 59.133636 -6.885315 3544.194336
0.880000 1.120000 -8.960000 54.030373 27.118450 3654.691650
0.880000 1.120000 -8.920000 27.196350 46.267017 2880.278320
0.880000 1.120000 -8.880000 -1.595840 41.615295 1734.379517
0.880000 1.120000 -8.840000 -15.744600 22.895872 772.113403
0.880000 1.120000 -8.800000 -14.131765 6.314298 239.577148
0.880000 1.160000 -9.200000 7.085668 14.732718 267.259674
0.880000 1.160000 -9.160000 -4.375173 2.541187 25.599773
0.880000 1.160000 -9.120000 1.491731 -12.929285 169.391678
0.880000 1.160000 -9.080000 19.509312 -14.954411 604.247681
0.880000 1.160000 -9.040000 32.560165 1.177549 1061.551025
0.880000 1.160000 -9.000000 27.252552 23.682114 1303.544189
0.880000 1.160000 -8.960000 5.789803 35.094212 1265.125488
0.880000 1.160000 -8.920000 -16.819258 27.539333 1041.302246
0.880000 1.160000 -8.880000 -26.519672 8.160343 769.884216
0.880000 1.160000 -8.840000 -21.266335 -9.131073 535.633484
0.880000 1.160000 -8.800000 -9.765486 -16.229664 358.766693
0.880000 1.200000 -9.200000 -0.301086 1.300882 1.782947
0.880000 1.200000 -9.160000 1.610585 -9.359859 90.200958
0.880000 1.200000 -9.120000 12.741743 -11.333956 290.810577
0.880000 1.200000 -9.080000 20.667755 -0.446313 427.355286
0.880000 1.200000 -9.040000 15.080707 14.763752 445.396057
0.880000 1.200000 -9.000000 -2.473911 20.763630 437.248566
0.880000 1.200000 -8.960000 -19.952017 11.141315 522.211914
0.880000 1.200000 -8.920000 -25.392252 -8.245422 712.753479
0.880000 1.200000 -8.880000 -16.473272 -25.077503 900.249878
0.880000 1.200000 -8.840000 -0.733704 -30.977648 960.153015
0.880000 1.200000 -8.800000 12.275371 -26.730457 865.202026
0.920000 0.800000 -9.200000 45.740410 7.617622 2150.213135
0.920000 0.800000 -9.160000 46.516834 45.307007 4216.541016
0.920000 0.800000 -9.120000 13.798332 71.875961 5356.547852
0.920000 0.800000 -9.080000 -27.871172 63.664879 4830.019043
0.920000 0.800000 -9.040000 -46.101059 29.837881 3015.606689
0.920000 0.800000 -9.000000 -32.972191 1.817737 1090.469604
0.920000 0.800000 -8.960000 -10.772335 0.452995 116.248413
0.920000 0.800000 -8.920000 -6.313996 16.271706 304.634949
0.920000 0.800000 -8.880000 -22.545691 22.817335 1028.938965
0.920000 0.800000 -8.840000 -37.724663 6.938068 1471.286987
0.920000 0.800000 -8.800000 -31.264297 -17.454849 1282.128052
0.920000 0.840000 -9.200000 26.210957 25.568878 1340.781738
0.920000 0.840000 -9.160000 19.705593 53.914577 3295.092041
0.920000 0.840000 -9.120000 -8.367291 70.864204 5091.747070
0.920000 0.840000 -9.080000 -40.656872 64.487404 5811.606445
0.920000 0.840000 -9.040000 -59.384270 41.994759 5290.051270
0.920000 0.840000 -9.000000 -61.568344 19.407188 4167.299805
0.920000 0.840000 -8.960000 -56.871769 4.909134 3258.497803
0.920000 0.840000 -8.920000 -53.214310 -5.704803 2864.307373
0.920000 0.840000 -8.880000 -47.991425 -18.533669 2646.673584
0.920000 0.840000 -8.840000 -34.499683 -30.518545 2121.609863
0.920000 0.840000 -8.800000 -14.318626 -31.832895 1218.356323
0.920000 0.880000 -9.200000 0.581577 20.234282 409.764374
0.920000 0.880000 -9.160000 -2.812901 43.589405 1907.948608
0.920000 0.880000 -9.120000 -26.963131 63.136204 4713.190430
0.920000 0.880000 -9.080000 -64.342300 63.184319 8132.189453
0.920000 0.880000 -9.040000 -97.925552 38.251587 11052.597656
0.920000 0.880000 -9.000000 -111.678123 -3.653618 12485.351562
0.920000 0.880000 -8.960000 -99.324303 -46.085705 11989.208984
0.920000 0.880000 -8.920000 -66.762558 -73.057053 9794.572266
0.920000 0.880000 -8.880000 -28.293434 -76.503632 6653.324219
0.920000 0.880000 -8.840000 0.559980 -59.425335 3531.683838
0.920000 0.880000 -8.800000 10.455037 -33.870934 1256.547852
0.920000 0.920000 -9.200000 -8.268032 -3.642044 81.624840
0.920000 0.920000 -9.160000 -9.273136 25.405277 731.419128
0.920000 0.920000 -9.120000 -41.691544 50.606094 4299.161621
0.920000 0.920000 -9.080000 -94.530975 43.663635 10842.618164
0.920000 0.920000 -9.040000 -135.258270 -5.336830 18323.281250
0.920000 0.920000 -9.000000 -133.220459 -75.953758 23516.664062
0.920000 0.920000 -8.960000 -84.081985 -129.903900 23944.804688
0.920000 0.920000 -8.920000 -14.329491 -138.753647 19457.908203
0.920000 0.920000 -8.880000 38.299259 -103.980057 12278.685547
0.920000 0.920000 -8.840000 51.847588 -53.377419 5537.321289
0.920000 0.920000 -8.800000 32.767418 -18.346146 1410.284790
0.920000 0.960000 -9.200000 7.944695 -23.375671 609.540161
0.920000 0.960000 -9.160000 -2.054455 14.632763 218.338531
0.920000 0.960000 -9.120000 -51.559078 33.588844 3786.549072
0.920000 0.960000 -9.080000 -111.127480 1.344633 12351.124023
0.920000 0.960000 -9.040000 -132.450317 -76.583450 23408.111328
0.920000 0.960000 -9.000000 -88.776329 -155.000641 31906.435547
0.920000 0.960000 -8.960000 -0.143101 -182.956131 33472.964844
0.920000 0.960000 -8.920000 80.791595 -144.456009 27394.820312
0.920000 0.960000 -8.880000 110.197464 -69.807327 17016.544922
0.920000 0.960000 -8.840000 85.012100 -8.581923 7300.706543
0.920000 0.960000 -8.800000 38.796650 9.897117 1603.132935
0.920000 1.000000 -9.200000 34.194885 -19.742365 1559.051147
0.920000 1.000000 -9.160000 5.659915 17.031525 322.107483
0.920000 1.000000 -9.120000 -53.994667 13.520340 3098.223633
0.920000 1.000000 -9.080000 -96.868950 -47.146690 11606.404297
0.920000 1.000000 -9.040000 -77.190605 -132.402924 23488.921875
0.920000 1.000000 -9.000000 5.898321 -182.002258 33159.609375
0.920000 1.000000 -8.960000 103.035896 -157.648575 35469.468750
0.920000 1.000000 -8.920000 153.753143 -75.310181 29311.652344
0.920000 1.000000 -8.880000 134.793442 9.356192 18256.810547
0.920000 1.000000 -8.840000 74.264885 47.886902 7808.428223
0.920000 1.000000 -8.800000 21.917696 34.687088 1683.579468
0.920000 1.040000 -9.200000 46.459862 4.698447 2180.594238
0.920000 1.040000 -9.160000 3.137193 24.789366 624.354614
0.920000 1.040000 -9.120000 -47.303738 -5.431839 2267.148438
0.920000 1.040000 -9.080000 -55.398464 -76.085953 8858.062500
0.920000 1.040000 -9.040000 0.990782 -136.427643 18613.484375
0.920000 1.040000 -9.000000 91.843224 -135.666992 26840.710938
0.920000 1.040000 -8.960000 156.594894 -67.498772 29078.044922
0.920000 1.040000 -8.920000 153.923767 23.552040 24247.224609
0.920000 1.040000 -8.880000 94.137939 79.955963 15254.907227
0.920000 1.040000 -8.840000 25.658344 77.500656 6664.702148
0.920000 1.040000 -8.800000 -8.686972 38.361931 1547.101196
0.920000 1.080000 -9.200000 34.574829 28.868053 2028.783325
0.920000 1.080000 -9.160000 -8.025231 25.618351 720.704285
0.920000 1.080000 -9.120000 -33.292244 -18.191662 1439.310059
0.920000 1.080000 -9.080000 -9.695171 -72.765869 5388.868164
0.920000 1.080000 -9.040000 55.736595 -91.356979 11452.666016
0.920000 1.080000 -9.000000 118.403152 -51.142681 16634.880859
0.920000 1.080000 -8.960000 132.245361 24.811535 18104.447266
0.920000 1.080000 -8.920000 88.311646 85.992508 15193.658203
0.920000 1.080000 -8.880000 20.354053 96.448364 9716.574219
0.920000 1.080000 -8.840000 -26.263611 61.456089 4466.627930
0.920000 1.080000 -8.800000 -31.646173 16.443539 1271.870239
0.920000 1.120000 -9.200000 10.515462 34.105854 1273.784180
0.920000 1.120000 -9.160000 -16.755901 15.380212 517.311157
0.920000 1.120000 -9.120000 -16.887352 -22.120018 774.477844
0.920000 1.120000 -9.080000 17.599796 -47.225651 2540.015137
0.920000 1.120000 -9.040000 63.705551 -33.991608 5213.826660
0.920000 1.120000 -9.000000 85.040688 13.795113 7422.223633
0.920000 1.120000 -8.960000 62.695114 63.669914 7984.535156
0.920000 1.120000 -8.920000 11.448536 81.201889 6724.815430
0.920000 1.120000 -8.880000 -33.544453 57.941769 4482.479004
0.920000 1.120000 -8.840000 -46.424927 15.431994 2393.420410
0.920000 1.120000 -8.800000 -29.028011 -16.308073 1108.578613
0.920000 1.160000 -9.200000 -5.228230 21.045044 470.228241
0.920000 1.160000 -9.160000 -14.434345 1.611592 210.947556
0.920000 1.160000 -9.120000 -3.107816 -18.415941 348.805389
0.920000 1.160000 -9.080000 21.780836 -20.686089 902.319092
0.920000 1.160000 -9.040000 39.811108 0.068272 1584.928955
0.920000 1.160000 -9.000000 33.925228 29.592113 2026.614258
0.920000 1.160000 -8.960000 5.617554 44.965939 2053.492676
0.920000 1.160000 -8.920000 -25.643574 33.622250 1788.048584
0.920000 1.160000 -8.880000 -38.507011 3.381729 1494.225952
0.920000 1.160000 -8.840000 -26.598864 -25.127441 1338.887939
0.920000 1.160000 -8.800000 -1.341806 -35.844265 1286.611694
0.920000 1.200000 -9.200000 -3.957654 6.000772 51.672279
0.920000 1.200000 -9.160000 -3.355919 -4.822471 34.518417
0.920000 1.200000 -9.120000 5.451018 -10.485369 139.656555
0.920000 1.200000 -9.080000 14.847567 -6.025770 256.760132
0.920000 1.200000 -9.040000 15.726765 5.064108 272.976318
0.920000 1.200000 -9.000000 5.408802 12.672105 189.837387
0.920000 1.200000 -8.960000 -9.094128 8.098343 148.286316
0.920000 1.200000 -8.920000 -15.963039 -8.276878 323.325348
0.920000 1.200000 -8.880000 -7.958410 -26.529591 767.155457
0.920000 1.200000 -8.840000 11.695920 -34.664284 1338.407104
0.920000 1.200000 -8.800000 31.949274 -27.637571 1784.591431
0.960000 0.800000 -9.200000 30.040705 44.077705 2845.288086
0.960000 0.800000 -9.160000 -0.657301 73.166290 5353.738281
0.960000 0.800000 -9.120000 -48.286667 66.628899 6771.012695
0.960000 0.800000 -9.080000 -74.420044 25.025932 6164.640137
0.960000 0.800000 -9.040000 -59.887714 -17.820496 3904.108398
0.960000 0.800000 -9.000000 -23.970993 -28.838352 1406.259033
0.960000 0.800000 -8.960000 -3.566061 -8.510902 85.152252
0.960000 0.800000 -8.920000 -14.937496 12.001648 367.168335
0.960000 0.800000 -8.880000 -38.766144 5.388498 1531.849854
0.960000 0.800000 -8.840000 -43.263184 -23.405365 2419.514160
0.960000 0.800000 -8.800000 -19.033493 -44.541267 2346.198486
0.960000 0.840000 -9.200000 -3.819962 39.622131 1584.505493
0.960000 0.840000 -9.160000 -28.112257 53.007210 3600.063477
0.960000 0.840000 -9.120000 -58.969460 43.984314 5412.017090
0.960000 0.840000 -9.080000 -76.048386 16.473051 6054.718262
0.960000 0.840000 -9.040000 -72.598618 -11.544056 5403.824219
0.960000 0.840000 -9.000000 -59.182129 -27.163872 4240.400391
0.960000 0.840000 -8.960000 -48.982422 -33.505539 3521.898682
0.960000 0.840000 -8.920000 -42.813610 -41.302399 3538.893555
0.960000 0.840000 -8.880000 -31.079472 -52.732422 3746.641846
0.960000 0.840000 -8.840000 -9.213135 -57.437160 3383.909180
0.960000 0.840000 -8.800000 12.869286 -45.649185 2249.466553
0.960000 0.880000 -9.200000 -19.405748 10.310354 482.886475
0.960000 0.880000 -9.160000 -31.494980 25.403465 1637.269775
0.960000 0.880000 -9.120000 -59.406395 28.596275 4346.866699
0.960000 0.880000 -9.080000 -89.779327 9.062092 8142.449219
0.960000 0.880000 -9.040000 -104.755157 -30.689209 11915.469727
0.960000 0.880000 -9.000000 -93.042198 -75.868607 14412.896484
0.960000 0.880000 -8.960000 -56.463322 -107.660355 14778.858398
0.960000 0.880000 -8.920000 -8.973907 -113.163254 12886.453125
0.960000 0.880000 -8.880000 30.447495 -91.911324 9374.741211
0.960000 0.880000 -8.840000 47.448395 -56.131008 5402.040039
0.960000 0.880000 -8.800000 39.901901 -24.284018 2181.875244
0.960000 0.920000 -9.200000 -3.678961 -17.804277 330.527069
0.960000 0.920000 -9.160000 -17.003464 11.244625 415.559357
0.960000 0.920000 -9.120000 -61.320381 19.470999 4139.309082
0.960000 0.920000 -9.080000 -108.543182 -16.783628 12063.312500
0.960000 0.920000 -9.040000 -118.742271 -88.554199 21941.572266
0.960000 0.920000 -9.000000 -72.614799 -155.942810 29591.070312
0.960000 0.920000 -8.960000 10.315018 -176.787582 31360.250000
0.960000 0.920000 -8.920000 84.594109 -138.882782 26444.589844
0.960000 0.920000 -8.880000 112.475281 -68.576454 17353.417969
0.960000 0.920000 -8.840000 90.157303 -9.148796 8212.040039
0.960000 0.920000 -8.800000 45.899696 11.601116 2241.368164
0.960000 0.960000 -9.200000 28.393877 -19.311798 1179.157837
0.960000 0.960000 -9.160000 -4.057047 16.343269 283.562073
0.960000 0.960000 -9.120000 -66.929787 7.010948 4528.749512
0.960000 0.960000 -9.080000 -108.198730 -62.508911 15614.329102
0.960000 0.960000 -9.040000 -80.471382 -155.097687 30530.937500
0.960000 0.960000 -9.000000 14.735750 -205.845428 42589.480469
0.960000 0.960000 -8.960000 122.717903 -174.776413 45606.476562
0.960000 0.960000 -8.920000 177.788010 -80.589539 38103.250000
0.960000 0.960000 -8.880000 154.881454 15.199525 24219.291016
0.960000 0.960000 -8.840000 85.131592 58.648117 10686.989258
0.960000 0.960000 -8.800000 24.413017 42.604404 2411.130615
0.960000 1.000000 -9.200000 47.639130 6.988914 2318.331543
0.960000 1.000000 -9.160000 -6.532074 28.322535 844.833923
0.960000 1.000000 -9.120000 -67.623550 -13.389400 4752.220215
0.960000 1.000000 -9.080000 -73.796028 -104.680817 16403.927734
0.960000 1.000000 -9.040000 2.112242 -180.953827 32748.748047
0.960000 1.000000 -9.000000 121.199036 -177.719589 46273.457031
0.960000 1.000000 -8.960000 205.469437 -87.220764 49825.148438
0.960000 1.000000 -8.920000 201.329865 32.773922 41607.843750
0.960000 1.000000 -8.880000 121.925301 106.913925 26296.367188
0.960000 1.000000 -8.840000 30.979237 102.620026 11490.583008
0.960000 1.000000 -8.800000 -13.772461 48.744709 2565.727295
0.960000 1.040000 -9.200000 37.843414 37.960476 2873.121582
0.960000 1.040000 -9.160000 -21.010048 30.490475 1371.091187
0.960000 1.040000 -9.120000 -55.055092 -34.687656 4234.296875
0.960000 1.040000 -9.080000 -17.992537 -115.668564 13702.948242
0.960000 1.040000 -9.040000 81.466003 -143.924438 27350.953125
0.960000 1.040000 -9.000000 178.198090 -83.991318 38809.101562
0.960000 1.040000 -8.960000 202.319717 31.577587 41930.414062
0.960000 1.040000 -8.920000 137.953125 126.923004 35140.515625
0.960000 1.040000 -8.880000 34.753441 145.543060 22390.583984
0.960000 1.040000 -8.840000 -37.117088 93.202667 10064.416016
0.960000 1.040000 -8.800000 -44.682041 24.132294 2578.852539
0.960000 1.080000 -9.200000 9.276513 48.971676 2484.278809
0.960000 1.080000 -9.160000 -32.514313 18.100029 1384.791626
0.960000 1.080000 -9.120000 -31.573334 -44.998360 3021.727783
0.960000 1.080000 -9.080000 28.485184 -89.965454 8905.188477
0.960000 1.080000 -9.040000 112.277039 -70.023804 17509.466797
0.960000 1.080000 -9.000000 156.787231 13.286602 24758.769531
0.960000 1.080000 -8.960000 124.474190 106.103294 26751.734375
0.960000 1.080000 -8.920000 36.344826 145.676361 22542.548828
0.960000 1.080000 -8.880000 -46.389702 111.887978 14670.923828
0.960000 1.080000 -8.840000 -74.326218 39.690155 7099.695312
0.960000 1.080000 -8.800000 -46.778427 -16.201334 2450.704346
0.960000 1.120000 -9.200000 -13.823824 36.173344 1499.608887
0.960000 1.120000 -9.160000 -30.500584 1.182198 931.683167
0.960000 1.120000 -9.120000 -8.893826 -39.586414 1646.184326
0.960000 1.120000 -9.080000 44.135723 -48.610592 4310.951660
0.960000 1.120000 -9.040000 89.951874 -8.268852 8159.713379
0.960000 1.120000 -9.000000 88.773552 58.579380 11312.287109
0.960000 1.120000 -8.960000 35.371841 104.118896 12091.911133
0.960000 1.120000 -8.920000 -34.337975 95.199287 10242.000977
0.960000 1.120000 -8.880000 -73.122818 40.691231 7002.722656
0.960000 1.120000 -8.840000 -60.995564 -18.368622 4057.864990
0.960000 1.120000 -8.800000 -17.372297 -45.054531 2331.707520
0.960000 1.160000 -9.200000 -17.501736 16.518581 579.174316
0.960000 1.160000 -9.160000 -18.406862 -7.254951 391.446899
0.960000 1.160000 -9.120000 2.719578 -25.116657 638.242615
0.960000 1.160000 -9.080000 33.351986 -18.381058 1450.218262
0.960000 1.160000 -9.040000 48.123409 13.287548 2492.421387
0.960000 1.160000 -9.000000 30.722050 47.367775 3187.550293
0.960000 1.160000 -8.960000 -9.441147 55.734726 3195.494873
0.960000 1.160000 -8.920000 -43.019241 29.133099 2699.392578
0.960000 1.160000 -8.880000 -44.957432 -14.136837 2221.020752
0.960000 1.160000 -8.840000 -15.002737 -43.772820 2141.141846
0.960000 1.160000 -8.800000 24.098587 -42.500340 2387.020752
0.960000 1.200000 -9.200000 -9.009581 7.777043 141.654953
0.960000 1.200000 -9.160000 -8.225156 -4.312483 86.250702
0.960000 1.200000 -9.120000 2.802800 -12.594614 166.479980
0.960000 1.200000 -9.080000 16.968868 -8.676540 363.224854
0.960000 1.200000 -9.040000 21.784767 5.671092 506.737366
0.960000 1.200000 -9.000000 11.427708 17.602451 440.438782
0.960000 1.200000 -8.960000 -5.708916 14.084625 230.968384
0.960000 1.200000 -8.920000 -12.846405 -5.052605 190.558929
0.960000 1.200000 -8.880000 0.211889 -25.173012 633.725464
0.960000 1.200000 -8.840000 27.145100 -28.837158 1568.438110
0.960000 1.200000 -8.800000 49.997444 -10.825294 2616.931396
1.000000 0.800000 -9.200000 -7.254349 54.955658 3072.749756
1.000000 0.800000 -9.160000 -52.122643 54.720505 5711.103516
1.000000 0.800000 -9.120000 -84.822845 14.671015 7410.153809
1.000000 0.800000 -9.080000 -75.053986 -38.184143 7091.129395
1.000000 0.800000 -9.040000 -30.603619 -62.703232 4868.276855
1.000000 0.800000 -9.000000 9.171737 -44.345306 2050.626953
1.000000 0.800000 -8.960000 12.531281 -9.097054 239.789368
1.000000 0.800000 -8.920000 -13.791580 4.180580 207.684937
1.000000 0.800000 -8.880000 -34.114918 -16.512760 1436.498901
1.000000 0.800000 -8.840000 -22.480621 -46.258625 2645.238770
1.000000 0.800000 -8.800000 11.184038 -51.937817 2822.619629
1.000000 0.840000 -9.200000 -32.056190 24.912304 1648.222168
1.000000 0.840000 -9.160000 -56.835243 16.493267 3502.272705
1.000000 0.840000 -9.120000 -70.983299 -11.467201 5170.125488
1.000000 0.840000 -9.080000 -62.461800 -42.389687 5698.361816
1.000000 0.840000 -9.040000 -39.204247 -58.092533 4911.715332
1.000000 0.840000 -9.000000 -19.295763 -56.750778 3592.977295
1.000000 0.840000 -8.960000 -11.157112 -51.856842 2813.613281
1.000000 0.840000 -8.920000 -6.416847 -54.436089 3004.463867
1.000000 0.840000 -8.880000 7.049393 -59.742550 3618.866211
1.000000 0.840000 -8.840000 27.986385 -53.928467 3691.517334
1.000000 0.840000 -8.800000 41.191513 -32.641132 2762.184082
1.000000 0.880000 -9.200000 -21.664879 -11.270863 596.399292
1.000000 0.880000 -9.160000 -34.807030 -5.802885 1245.202759
1.000000 0.880000 -9.120000 -55.344597 -16.381952 3331.392822
1.000000 0.880000 -9.080000 -67.246216 -45.632072 6604.339844
1.000000 0.880000 -9.040000 -57.382378 -82.837158 10154.732422
1.000000 0.880000 -9.000000 -24.219040 -110.628326 12825.188477
1.000000 0.880000 -8.960000 21.220749 -115.119080 13702.722656
1.000000 0.880000 -8.920000 61.300926 -93.344261 12470.955078
1.000000 0.880000 -8.880000 80.758698 -54.804710 9525.523438
1.000000 0.880000 -8.840000 74.535782 -16.794769 5837.647461
1.000000 0.880000 -8.800000 50.725708 4.612006 2594.367920
1.000000 0.920000 -9.200000 13.374266 -21.661589 648.095398
1.000000 0.920000 -9.160000 -11.614204 -0.171993 134.919327
1.000000 0.920000 -9.120000 -54.190216 -14.058350 3134.216797
1.000000 0.920000 -9.080000 -75.681656 -69.080322 10499.803711
1.000000 0.920000 -9.040000 -45.591152 -134.907242 20278.517578
1.000000 0.920000 -9.000000 30.486134 -165.680817 28379.537109
1.000000 0.920000 -8.960000 111.604881 -135.971832 30943.988281
1.000000 0.920000 -8.920000 151.648376 -61.458317 26774.355469
1.000000 0.920000 -8.880000 133.659714 13.376942 18043.863281
1.000000 0.920000 -8.840000 79.841827 49.405159 8815.586914
1.000000 0.920000 -8.800000 30.764334 39.765305 2527.723633
1.000000 0.960000 -9.200000 40.717613 2.107832 1662.367065
1.000000 0.960000 -9.160000 -9.305851 18.915615 444.399353
1.000000 0.960000 -9.120000 -61.891930 -23.201195 4368.906250
1.000000 0.960000 -9.080000 -60.816711 -107.747177 15308.126953
1.000000 0.960000 -9.040000 15.122503 -173.743240 30415.402344
1.000000 0.960000 -9.000000 126.890633 -164.011414 43000.976562
1.000000 0.960000 -8.960000 202.555893 -74.897095 46638.464844
1.000000 0.960000 -8.920000 194.965714 38.522388 39495.601562
1.000000 0.960000 -8.880000 118.375366 107.172066 25498.578125
1.000000 0.960000 -8.840000 32.380390 102.115768 11476.119141
1.000000 0.960000 -8.800000 -9.513245 50.725883 2663.616943
1.000000 1.000000 -9.200000 36.540215 37.945938 2775.081543
1.000000 1.000000 -9.160000 -26.639156 27.113602 1444.791992
1.000000 1.000000 -9.120000 -59.668167 -45.774620 5655.606445
1.000000 1.000000 -9.080000 -14.053490 -132.404022 17728.324219
1.000000 1.000000 -9.040000 97.395203 -158.307388 34547.054688
1.000000 1.000000 -9.000000 202.002380 -87.630234 48484.019531
1.000000 1.000000 -8.960000 224.755325 41.266060 52217.843750
1.000000 1.000000 -8.920000 151.053223 144.889542 43810.054688
1.000000 1.000000 -8.880000 37.112419 163.020477 27953.007812
1.000000 1.000000 -8.840000 -40.221283 104.049171 12443.982422
1.000000 1.000000 -8.800000 -46.004910 28.649014 2937.217773
1.000000 1.040000 -9.200000 6.465966 55.490707 3121.027344
1.000000 1.040000 -9.160000 -43.488930 14.442505 2099.873047
1.000000 1.040000 -9.120000 -37.745674 -65.191795 5674.706055
1.000000 1.040000 -9.080000 42.102219 -118.869064 15902.451172
1.000000 1.040000 -9.040000 149.155243 -88.848038 30141.261719
1.000000 1.040000 -9.000000 203.545609 20.321968 41843.796875
1.000000 1.040000 -8.960000 159.725998 138.845245 44790.398438
1.000000 1.040000 -8.920000 46.639271 187.880920 37474.464844
1.000000 1.040000 -8.880000 -57.319893 144.069000 24041.447266
1.000000 1.040000 -8.840000 -90.679398 53.590309 11094.673828
1.000000 1.040000 -8.800000 -54.682343 -13.862040 3182.314941
1.000000 1.080000 -9.200000 -22.853352 44.359676 2490.056641
1.000000 1.080000 -9.160000 -42.909420 -7.180833 1892.782715
1.000000 1.080000 -9.120000 -6.613647 -64.586937 4215.212891
1.000000 1.080000 -9.080000 73.965912 -73.042336 10806.138672
1.000000 1.080000 -9.040000 140.914322 -8.549538 19929.939453
1.000000 1.080000 -9.000000 136.575577 93.157867 27331.277344
1.000000 1.080000 -8.960000 55.433037 161.230820 29068.199219
1.000000 1.080000 -8.920000 -48.157875 148.401062 24342.056641
1.000000 1.080000 -8.880000 -105.264404 69.776787 15949.394531
1.000000 1.080000 -8.840000 -88.657455 -13.726089 8048.550293
1.000000 1.080000 -8.800000 -28.714821 -49.442215 3269.073730
1.000000 1.120000 -9.200000 -31.090326 20.451731 1384.881714
1.000000 1.120000 -9.160000 -27.304132 -18.821831 1099.776978
1.000000 1.120000 -9.120000 13.706467 -44.580269 2175.267578
1.000000 1.120000 -9.080000 67.821426 -25.521469 5251.091309
1.000000 1.120000 -9.040000 90.337540 36.038132 9459.618164
1.000000 1.120000 -9.000000 54.937592 98.721420 12764.057617
1.000000 1.120000 -8.960000 -19.251297 114.164925 13404.242188
1.000000 1.120000 -8.920000 -80.594543 68.784210 11226.748047
1.000000 1.120000 -8.880000 -87.744217 -4.221081 7716.864746
1.000000 1.120000 -8.840000 -42.723259 -54.027382 4744.234863
1.000000 1.120000 -8.800000 15.471390 -54.390129 3197.650146
1.000000 1.160000 -9.200000 -21.906105 6.184861 518.129944
1.000000 1.160000 -9.160000 -13.174426 -14.504615 383.949341
1.000000 1.160000 -9.120000 13.619106 -22.065689 672.374695
1.000000 1.160000 -9.080000 40.027710 -2.719364 1609.612427
1.000000 1.160000 -9.040000 41.006451 34.386276 2863.945068
1.000000 1.160000 -9.000000 9.310749 60.301556 3722.967529
1.000000 1.160000 -8.960000 -33.737392 50.668755 3705.534424
1.000000 1.160000 -8.920000 -54.234207 8.990528 3022.178711
1.000000 1.160000 -8.880000 -34.853031 -34.515457 2406.050537
1.000000 1.160000 -8.840000 10.332798 -48.369095 2446.335938
1.000000 1.160000 -8.800000 49.099331 -25.614073 3066.825195
1.000000 1.200000 -9.200000 -14.255789 7.231990 255.529190
1.000000 1.200000 -9.160000 -12.162849 -5.472956 177.888153
1.000000 1.200000 -9.120000 1.874914 -12.876083 169.308823
1.000000 1.200000 -9.080000 17.780098 -5.259919 343.798645
1.000000 1.200000 -9.040000 20.534439 12.765133 584.611816
1.000000 1.200000 -9.000000 6.311951 24.338600 632.208130
1.000000 1.200000 -8.960000 -11.239614 16.598698 401.845703
1.000000 1.200000 -8.920000 -12.731438 -5.114922 188.251923
1.000000 1.200000 -8.880000 8.026321 -20.417971 481.315369
1.000000 1.200000 -8.840000 36.878193 -12.270087 1510.556152
1.000000 1.200000 -8.800000 51.473721 17.309937 2949.177734
1.040000 0.800000 -9.200000 -37.288048 35.194763 2629.069824
1.040000 0.800000 -9.160000 -69.943001 6.089211 4929.102051
1.040000 0.800000 -9.120000 -68.825729 -44.864876 6749.837891
1.040000 0.800000 -9.080000 -27.306084 -79.292564 7032.932617
1.040000 0.800000 -9.040000 24.150501 -69.987061 5481.435059
1.040000 0.800000 -9.000000 45.743385 -28.525459 2906.159180
1.040000 0.800000 -8.960000 26.656006 5.688097 742.897095
1.040000 0.800000 -8.920000 -5.774529 4.300490 51.839397
1.040000 0.800000 -8.880000 -15.300846 -23.409981 782.143127
1.040000 0.800000 -8.840000 6.698993 -43.169804 1908.508423
1.040000 0.800000 -8.800000 35.265118 -32.747135 2316.003418
1.040000 0.840000 -9.200000 -37.218864 -3.769722 1399.454712
1.040000 0.840000 -9.160000 -47.206116 -25.374655 2872.290527
1.040000 0.840000 -9.120000 -37.901833 -53.412590 4289.453613
1.040000 0.840000 -9.080000 -10.646341 -68.614296 4821.266113
1.040000 0.840000 -9.040000 16.984924 -62.166698 4153.186035
1.040000 0.840000 -9.000000 29.085251 -44.438820 2820.760498
1.040000 0.840000 -8.960000 27.083633 -32.903740 1816.179321
1.040000 0.840000 -8.920000 25.827560 -33.084213 1761.628052
1.040000 0.840000 -8.880000 35.029396 -34.050304 2386.481934
1.040000 0.840000 -8.840000 47.654510 -23.180271 2808.277344
1.040000 0.840000 -8.800000 48.600395 -2.760490 2369.618896
1.040000 0.880000 -9.200000 -5.535558 -24.227762 617.626831
1.040000 0.880000 -9.160000 -14.587885 -24.570169 816.499634
1.040000 0.880000 -9.120000 -22.354733 -39.587128 2066.874756
1.040000 0.880000 -9.080000 -15.669966 -63.439178 4270.077148
1.040000 0.880000 -9.040000 9.288479 -81.973053 6805.857422
1.040000 0.880000 -9.000000 44.591686 -82.755074 8836.820312
1.040000 0.880000 -8.960000 75.975121 -62.543190 9683.869141
1.040000 0.880000 -8.920000 90.889252 -28.420887 9068.603516
1.040000 0.880000 -8.880000 84.532089 6.229996 7184.487305
1.040000 0.880000 -8.840000 61.934265 28.155231 4628.570312
1.040000 0.880000 -8.800000 35.752327 30.729385 2222.523926
1.040000 0.920000 -9.200000 27.758728 -8.478350 842.429443
1.040000 0.920000 -9.160000 -2.605801 -0.533567 7.074891
1.040000 0.920000 -9.120000 -29.856266 -29.955658 1788.738037
1.040000 0.920000 -9.080000 -20.438959 -81.174080 7006.982422
1.040000 0.920000 -9.040000 33.545715 -115.036545 14358.721680
1.040000 0.920000 -9.000000 104.245316 -99.686516 20804.488281
1.040000 0.920000 -8.960000 147.975189 -37.249413 23284.175781
1.040000 0.920000 -8.920000 138.790283 36.830132 20619.201172
1.040000 0.920000 -8.880000 87.383331 81.152298 14221.541992
1.040000 0.920000 -8.840000 30.356651 78.779236 7127.694336
1.040000 0.920000 -8.800000 0.826582 45.984726 2115.278320
1.040000 0.960000 -9.200000 32.309746 27.717796 1812.195923
1.040000 0.960000 -9.160000 -18.473570 17.480837 646.852417
1.040000 0.960000 -9.120000 -40.967388 -42.024204 3444.360596
1.040000 0.960000 -9.080000 0.848831 -108.101006 11686.547852
1.040000 0.960000 -9.040000 91.963272 -121.790268 23290.113281
1.040000 0.960000 -9.000000 172.442017 -58.731064 33185.585938
1.040000 0.960000 -8.960000 184.831909 46.801460 36353.210938
1.040000 0.960000 -8.920000 121.387985 128.166794 31161.769531
1.040000 0.960000 -8.880000 28.821381 139.964233 20420.658203
1.040000 0.960000 -8.840000 -32.372536 91.204819 9366.300781
1.040000 0.960000 -8.800000 -35.808563 30.804810 2231.189453
1.040000 1.000000 -9.200000 5.585333 51.555222 2689.136963
1.040000 1.000000 -9.160000 -41.595520 10.095812 1832.112671
1.040000 1.000000 -9.120000 -32.183647 -65.929657 5382.506836
1.040000 1.000000 -9.080000 47.226624 -112.827286 14960.349609
1.040000 1.000000 -9.040000 148.134018 -78.216019 28061.433594
1.040000 1.000000 -9.000000 194.864777 28.989290 38812.660156
1.040000 1.000000 -8.960000 148.068512 140.333252 41617.707031
1.040000 1.000000 -8.920000 38.981438 182.949692 34990.140625
1.040000 1.000000 -8.880000 -57.588242 138.573029 22518.890625
1.040000 1.000000 -8.840000 -85.944252 53.327431 10230.229492
1.040000 1.000000 -8.800000 -50.204910 -7.273272 2573.433350
1.040000 1.040000 -9.200000 -27.339371 44.905655 2763.958984
1.040000 1.040000 -9.160000 -46.857395 -14.440179 2404.134277
1.040000 1.040000 -9.120000 -2.043983 -76.197357 5810.214844
1.040000 1.040000 -9.080000 88.916336 -79.852898 14282.599609
1.040000 1.040000 -9.040000 159.713562 -3.194258 25518.625000
1.040000 1.040000 -9.000000 149.221649 110.113953 34392.183594
1.040000 1.040000 -8.960000 56.221127 181.868195 36236.855469
1.040000 1.040000 -8.920000 -56.800713 163.987610 30118.255859
1.040000 1.040000 -8.880000 -115.859085 77.303932 19399.224609
1.040000 1.040000 -8.840000 -95.378769 -10.448940 9206.290039
1.040000 1.040000 -8.800000 -31.698841 -44.373848 2973.854980
1.040000 1.080000 -9.200000 -40.414764 19.093567 1997.917480
1.040000 1.080000 -9.160000 -30.140312 -31.790394 1919.067627
1.040000 1.080000 -9.120000 27.335133 -59.614578 4301.107422
1.040000 1.080000 -9.080000 96.050880 -27.094629 9959.890625
1.040000 1.080000 -9.040000 118.572502 56.839195 17290.132812
1.040000 1.080000 -9.000000 66.252968 135.945953 22870.757812
1.040000 1.080000 -8.960000 -31.093470 150.963593 23756.810547
1.040000 1.080000 -8.920000 -106.999428 90.337822 19609.800781
1.040000 1.080000 -8.880000 -113.375053 -0.253601 12853.966797
1.040000 1.080000 -8.840000 -58.005547 -58.327221 6766.708008
1.040000 1.080000 -8.800000 8.605529 -56.089241 3220.058105
1.040000 1.120000 -9.200000 -31.133469 -0.524944 969.568420
1.040000 1.120000 -9.160000 -9.946671 -28.218544 895.222534
1.040000 1.120000 -9.120000 33.715302 -29.099516 1983.503418
1.040000 1.120000 -9.080000 67.540970 10.776833 4677.922852
1.040000 1.120000 -9.040000 57.302231 69.930893 8173.875000
1.040000 1.120000 -9.000000 0.470135 103.679840 10749.729492
1.040000 1.120000 -8.960000 -65.798958 81.793663 11019.706055
1.040000 1.120000 -8.920000 -93.529556 16.796143 9029.888672
1.040000 1.120000 -8.880000 -64.290314 -45.237705 6179.694336
1.040000 1.120000 -8.840000 -3.330524 -63.512436 4044.921875
1.040000 1.120000 -8.800000 44.805824 -34.561661 3202.070312
1.040000 1.160000 -9.200000 -18.524035 -1.853200 346.574219
1.040000 1.160000 -9.160000 -5.476691 -13.626409 215.673157
1.040000 1.160000 -9.120000 17.253262 -9.779465 393.312988
1.040000 1.160000 -9.080000 30.467823 14.899463 1150.282227
1.040000 1.160000 -9.040000 17.069031 44.320869 2255.691406
1.040000 1.160000 -9.000000 -18.163694 52.213753 3056.195801
1.040000 1.160000 -8.960000 -48.280373 26.823029 3050.469238
1.040000 1.160000 -8.920000 -46.624496 -15.295036 2407.781982
1.040000 1.160000 -8.880000 -11.285316 -41.706833 1866.818359
1.040000 1.160000 -8.840000 32.437199 -31.899323 2069.738770
1.040000 1.160000 -8.800000 54.099220 6.005891 2962.796387
1.040000 1.200000 -9.200000 -19.361786 3.903883 390.119049
1.040000 1.200000 -9.160000 -16.026245 -8.539505 329.763702
1.040000 1.200000 -9.120000 -1.154808 -13.448550 182.197098
1.040000 1.200000 -9.080000 12.564615 -3.145180 167.761703
1.040000 1.200000 -9.040000 11.487728 14.036594 328.993896
1.040000 1.200000 -9.000000 -3.364871 21.057774 454.752197
1.040000 1.200000 -8.960000 -15.568972 10.200359 346.440216
1.040000 1.200000 -8.920000 -9.446789 -7.343063 143.162399
1.040000 1.200000 -8.880000 13.219070 -11.285779 302.112610
1.040000 1.200000 -8.840000 33.448235 8.003828 1182.845703
1.040000 1.200000 -8.800000 32.343399 39.771389 2627.858887
1.080000 0.800000 -9.200000 -41.108337 4.305531 1708.432983
1.080000 0.800000 -9.160000 -46.292278 -33.889671 3291.484863
1.080000 0.800000 -9.120000 -16.848658 -68.226357 4938.713379
1.080000 0.800000 -9.080000 31.840874 -69.310303 5817.759277
1.080000 0.800000 -9.040000 64.628891 -33.635551 5308.244141
1.080000 0.800000 -9.000000 58.696362 10.717051 3560.118164
1.080000 0.800000 -8.960000 25.056362 29.639889 1506.344238
1.080000 0.800000 -8.920000 -2.876141 14.650230 222.901443
1.080000 0.800000 -8.880000 -2.120779 -11.381023 134.025391
1.080000 0.800000 -8.840000 19.299618 -19.466665 751.426270
1.080000 0.800000 -8.800000 34.200996 -3.665550 1183.144409
1.080000 0.840000 -9.200000 -20.169048 -22.335810 905.678894
1.080000 0.840000 -9.160000 -12.872138 -41.250633 1867.306641
1.080000 0.840000 -9.120000 10.095312 -53.393959 2952.830078
1.080000 0.840000 -9.080000 37.797562 -46.440441 3585.370117
1.080000 0.840000 -9.040000 52.845432 -23.413179 3340.816650
1.080000 0.840000 -9.000000 48.496513 -0.820595 2352.585205
1.080000 0.840000 -8.960000 34.943974 7.611015 1279.008911
1.080000 0.840000 -8.920000 27.785015 3.953102 787.634094
1.080000 0.840000 -8.880000 31.470936 1.692848 993.285522
1.080000 0.840000 -8.840000 36.087791 9.298228 1388.785767
1.080000 0.840000 -8.800000 30.614388 20.544531 1359.318481
1.080000 0.880000 -9.200000 12.616198 -18.193218 490.161621
1.080000 0.880000 -9.160000 8.106922 -19.382750 441.413147
1.080000 0.880000 -9.120000 10.056538 -29.633766 979.294067
1.080000 0.880000 -9.080000 24.431297 -38.831047 2104.738525
1.080000 0.880000 -9.040000 46.481586 -36.387169 3484.563965
1.080000 0.880000 -9.000000 65.223770 -19.401936 4630.575195
1.080000 0.880000 -8.960000 71.503372 6.267395 5152.012695
1.080000 0.880000 -8.920000 62.920101 30.710831 4902.094238
1.080000 0.880000 -8.880000 43.780464 45.419231 3979.635498
1.080000 0.880000 -8.840000 22.365471 46.525703 2664.855469
1.080000 0.880000 -8.800000 7.607451 36.067970 1358.771729
1.080000 0.920000 -9.200000 25.624067 11.764858 795.004761
1.080000 0.920000 -9.160000 -0.867443 6.091032 37.853127
1.080000 0.920000 -9.120000 -8.444036 -24.831207 687.890625
1.080000 0.920000 -9.080000 18.573345 -54.449196 3309.684082
1.080000 0.920000 -9.040000 67.243065 -52.948002 7325.121094
1.080000 0.920000 -9.000000 104.691841 -12.424141 11114.741211
1.080000 0.920000 -8.960000 103.965088 45.639801 12891.730469
1.080000 0.920000 -8.920000 65.014023 86.954544 11787.916016
1.080000 0.920000 -8.880000 13.577597 90.586418 8390.250977
1.080000 0.920000 -8.840000 -19.792835 62.863911 4343.627441
1.080000 0.920000 -8.800000 -21.985481 29.154861 1333.367310
1.080000 0.960000 -9.200000 7.209417 38.559837 1538.836792
1.080000 0.960000 -9.160000 -26.471542 8.357445 770.589417
1.080000 0.960000 -9.120000 -17.356529 -43.872593 2226.053467
1.080000 0.960000 -9.080000 39.418221 -71.837173 6714.375977
1.080000 0.960000 -9.040000 106.596550 -42.271816 13149.730469
1.080000 0.960000 -9.000000 132.797546 34.106274 18798.425781
1.080000 0.960000 -8.960000 95.094803 108.608475 20838.822266
1.080000 0.960000 -8.920000 18.215359 133.617859 18185.531250
1.080000 0.960000 -8.880000 -46.698380 100.130371 12206.830078
1.080000 0.960000 -8.840000 -63.887680 41.238022 5782.209961
1.080000 0.960000 -8.800000 -38.025776 1.057785 1447.078491
1.080000 1.000000 -9.200000 -24.429436 38.430256 2073.681885
1.080000 1.000000 -9.160000 -40.077206 -13.673252 1793.140137
1.080000 1.000000 -9.120000 0.027003 -64.080521 4106.313477
1.080000 1.000000 -9.080000 75.843727 -62.891602 9707.625000
1.080000 1.000000 -9.040000 130.618195 3.897646 17076.304688
1.080000 1.000000 -9.000000 116.783844 96.616982 22973.306641
1.080000 1.000000 -8.960000 37.789303 151.519501 24386.189453
1.080000 1.000000 -8.920000 -53.312187 133.034027 20540.242188
1.080000 1.000000 -8.880000 -98.035477 61.583843 13403.525391
1.080000 1.000000 -8.840000 -79.022263 -7.287717 6297.628906
1.080000 1.000000 -8.800000 -27.894194 -31.109350 1745.877686
1.080000 1.040000 -9.200000 -41.430618 14.940078 1939.702026
1.080000 1.040000 -9.160000 -27.975983 -36.390034 2106.890137
1.080000 1.040000 -9.120000 31.025095 -60.277817 4595.971680
1.080000 1.040000 -9.080000 96.260818 -23.767906 9831.058594
1.080000 1.040000 -9.040000 112.901367 59.208820 16252.403320
1.080000 1.040000 -9.000000 58.205315 132.496750 20943.248047
1.080000 1.040000 -8.960000 -35.124279 142.308319 21485.373047
1.080000 1.040000 -8.920000 -103.965439 82.535751 17620.962891
1.080000 1.040000 -8.880000 -106.717033 -1.054120 11389.636719
1.080000 1.040000 -8.840000 -54.794014 -51.240623 5627.985352
1.080000 1.040000 -8.800000 3.384124 -45.916763 2119.801514
1.080000 1.080000 -9.200000 -34.160305 -7.945302 1230.054199
1.080000 1.080000 -9.160000 -4.163138 -37.920967 1455.331421
1.080000 1.080000 -9.120000 47.310806 -32.010040 3262.955078
1.080000 1.080000 -9.080000 80.737953 19.264130 6889.723633
1.080000 1.080000 -9.040000 61.464024 85.999260 11173.699219
1.080000 1.080000 -9.000000 -6.551226 118.487961 14082.315430
1.080000 1.080000 -8.960000 -78.745209 88.854019 14095.844727
1.080000 1.080000 -8.920000 -105.128052 16.519339 11324.795898
1.080000 1.080000 -8.880000 -71.543457 -47.526028 7377.189453
1.080000 1.080000 -8.840000 -9.044616 -63.503494 4114.499023
1.080000 1.080000 -8.800000 35.969421 -33.004059 2383.067383
1.080000 1.120000 -9.200000 -17.858025 -12.469327 474.393188
1.080000 1.120000 -9.160000 6.737661 -20.899250 482.174744
1.080000 1.120000 -9.120000 35.017738 -3.966692 1241.976562
1.080000 1.120000 -9.080000 41.404579 35.259907 2957.600098
1.080000 1.120000 -9.040000 11.757866 70.173485 5062.565430
1.080000 1.120000 -9.000000 -38.836552 70.464439 6473.515137
1.080000 1.120000 -8.960000 -74.211243 30.057640 6410.770508
1.080000 1.120000 -8.920000 -66.819069 -24.316746 5056.092285
1.080000 1.120000 -8.880000 -21.831484 -54.192612 3413.452881
1.080000 1.120000 -8.840000 27.566442 -41.275276 2463.557129
1.080000 1.120000 -8.800000 49.040581 -0.507962 2405.236572
1.080000 1.160000 -9.200000 -12.965963 -4.313265 186.720474
1.080000 1.160000 -9.160000 -3.292016 -7.760023 71.055328
1.080000 1.160000 -9.120000 8.897869 0.099958 79.182068
1.080000 1.160000 -9.080000 10.169756 18.347410 440.051392
1.080000 1.160000 -9.040000 -6.407543 32.253170 1081.323608
1.080000 1.160000 -9.000000 -30.336649 26.043816 1598.592529
1.080000 1.160000 -8.960000 -40.284996 0.121510 1622.895630
1.080000 1.160000 -8.920000 -23.735050 -25.895327 1233.920532
1.080000 1.160000 -8.880000 9.709560 -29.344162 955.355408
1.080000 1.160000 -8.840000 35.466129 -4.878320 1281.644287
1.080000 1.160000 -8.800000 35.093678 30.958441 2189.991211
1.080000 1.200000 -9.200000 -22.015839 -3.124301 494.458405
1.080000 1.200000 -9.160000 -17.823587 -15.025455 543.444580
1.080000 1.200000 -9.120000 -3.797024 -18.460949 355.224030
1.080000 1.200000 -9.080000 7.559132 -8.697554 132.787903
1.080000 1.200000 -9.040000 6.131185 5.108875 63.692032
1.080000 1.200000 -9.000000 -4.406841 9.631588 112.187737
1.080000 1.200000 -8.960000 -10.226196 2.214319 109.478302
1.080000 1.200000 -8.920000 -2.491924 -5.541220 36.914803
1.080000 1.200000 -8.880000 12.267300 0.280844 150.565506
1.080000 1.200000 -8.840000 17.842314 20.949450 757.227600
1.080000 1.200000 -8.800000 4.192659 42.836807 1852.570435
1.120000 0.800000 -9.200000 -23.840454 -13.719165 756.582764
1.120000 0.800000 -9.160000 -7.187294 -38.828304 1559.294434
1.120000 0.800000 -9.120000 27.614536 -44.827007 2772.023193
1.120000 0.800000 -9.080000 58.533585 -21.703848 3897.237305
1.120000 0.800000 -9.040000 62.958111 17.506702 4270.208008
1.120000 0.800000 -9.000000 38.276634 45.967716 3578.131836
1.120000 0.800000 -8.960000 4.773916 46.246052 2161.487549
1.120000 0.800000 -8.920000 -12.861611 25.005630 790.702637
1.120000 0.800000 -8.880000 -7.450360 4.770367 78.264267
1.120000 0.800000 -8.840000 6.877199 1.470752 49.458977
1.120000 0.800000 -8.800000 11.678311 10.679745 250.439896
1.120000 0.840000 -9.200000 0.187957 -19.834740 393.452240
1.120000 0.840000 -9.160000 14.884230 -25.675665 880.780029
1.120000 0.840000 -9.120000 34.632191 -20.026016 1600.429932
1.120000 0.840000 -9.080000 47.703209 -0.502718 2275.848877
1.120000 0.840000 -9.040000 44.416504 23.358109 2518.427002
1.120000 0.840000 -9.000000 27.222961 37.416988 2141.120605
1.120000 0.840000 -8.960000 9.066977 35.757668 1360.820923
1.120000 0.840000 -8.920000 1.190574 25.511152 652.236389
1.120000 0.840000 -8.880000 3.228827 18.485729 352.147522
1.120000 0.840000 -8.840000 5.986494 18.926947 394.067413
1.120000 0.840000 -8.800000 3.222020 20.701820 438.946777
1.120000 0.880000 -9.200000 16.661621 -1.628655 280.262146
1.120000 0.880000 -9.160000 14.077652 -1.081150 199.349167
1.120000 0.880000 -9.120000 17.925650 -3.548464 333.920502
1.120000 0.880000 -9.080000 27.361986 -0.686118 749.149048
1.120000 0.880000 -9.040000 34.929680 10.846991 1337.739746
1.120000 0.880000 -9.000000 33.877182 26.793106 1865.533936
1.120000 0.880000 -8.960000 23.490482 39.592930 2119.402832
1.120000 0.880000 -8.920000 8.485264 44.191509 2024.889282
1.120000 0.880000 -8.880000 -5.127300 40.230293 1644.765625
1.120000 0.880000 -8.840000 -13.050604 30.625893 1108.263550
1.120000 0.880000 -8.800000 -13.318229 19.741720 567.110718
1.120000 0.920000 -9.200000 8.502647 21.842117 549.373108
1.120000 0.920000 -9.160000 -7.514500 9.028578 137.982925
1.120000 0.920000 -9.120000 -2.333534 -11.845242 145.755142
1.120000 0.920000 -9.080000 22.217169 -19.006092 854.834106
1.120000 0.920000 -9.040000 46.974079 -1.046768 2207.659912
1.120000 0.920000 -9.000000 51.074150 33.289764 3716.777344
1.120000 0.920000 -8.960000 28.783188 62.095039 4684.265625
1.120000 0.920000 -8.920000 -6.494032 67.602829 4612.314941
1.120000 0.920000 -8.880000 -33.357426 49.123116 3525.798340
1.120000 0.920000 -8.840000 -38.565220 21.818962 1963.343384
1.120000 0.920000 -8.800000 -25.129797 3.964600 647.224792
1.120000 0.960000 -9.200000 -16.117298 26.985437 987.981079
1.120000 0.960000 -9.160000 -26.263193 -5.602020 721.137939
1.120000 0.960000 -9.120000 -2.008636 -34.489819 1193.582275
1.120000 0.960000 -9.080000 40.939365 -31.172461 2647.753906
1.120000 0.960000 -9.040000 68.664001 8.811207 4792.382324
1.120000 0.960000 -9.000000 56.472569 60.144302 6806.488281
1.120000 0.960000 -8.960000 9.659325 87.393478 7730.922852
1.120000 0.960000 -8.920000 -40.747993 73.386414 7045.964844
1.120000 0.960000 -8.880000 -63.372311 31.762882 5024.930664
1.120000 0.960000 -8.840000 -50.501839 -6.253325 2589.539795
1.120000 0.960000 -8.800000 -20.739630 -17.823732 747.817627
1.120000 1.000000 -9.200000 -33.525200 9.683610 1217.711426
1.120000 1.000000 -9.160000 -22.406010 -29.156164 1352.111206
1.120000 1.000000 -9.120000 20.763367 -45.016754 2457.625488
1.120000 1.000000 -9.080000 65.319855 -17.526596 4573.865234
1.120000 1.000000 -9.040000 74.069641 40.017143 7087.683105
1.120000 1.000000 -9.000000 34.642803 88.064407 8955.463867
1.120000 1.000000 -8.960000 -28.385107 92.046066 9278.192383
1.120000 1.000000 -8.920000 -72.770607 50.567993 7852.682617
1.120000 1.000000 -8.880000 -72.706093 -4.564890 5307.014160
1.120000 1.000000 -8.840000 -37.614120 -35.935051 2706.149902
1.120000 1.000000 -8.800000 -0.234245 -30.291002 917.599670
1.120000 1.040000 -9.200000 -29.581409 -12.220175 1024.392456
1.120000 1.040000 -9.160000 -0.733913 -37.383713 1398.080566
1.120000 1.040000 -9.120000 43.161957 -29.422176 2728.618896
1.120000 1.040000 -9.080000 68.417099 14.963188 4904.796387
1.120000 1.040000 -9.040000 49.843075 68.470978 7172.606934
1.120000 1.040000 -9.000000 -5.653952 92.057167 8506.489258
1.120000 1.040000 -8.960000 -61.527336 66.838226 8252.961914
1.120000 1.040000 -8.920000 -80.323219 10.559715 6563.327148
1.120000 1.040000 -8.880000 -53.765842 -37.109039 4267.846680
1.120000 1.040000 -8.840000 -7.311451 -47.391861 2299.445801
1.120000 1.040000 -8.800000 23.882570 -23.640985 1129.273315
1.120000 1.080000 -9.200000 -12.944883 -19.305185 540.260193
1.120000 1.080000 -9.160000 15.577030 -23.729155 805.716614
1.120000 1.080000 -9.120000 41.980568 -1.499177 1764.615601
1.120000 1.080000 -9.080000 42.935513 38.541840 3328.931641
1.120000 1.080000 -9.040000 10.312776 69.250893 4902.039551
1.120000 1.080000 -9.000000 -37.667072 65.440216 5701.230469
1.120000 1.080000 -8.960000 -67.999855 26.202679 5310.561035
1.120000 1.080000 -8.920000 -59.351608 -22.048454 4008.747803
1.120000 1.080000 -8.880000 -19.823706 -46.501671 2555.384521
1.120000 1.080000 -8.840000 20.618813 -34.441757 1611.370117
1.120000 1.080000 -8.800000 35.944450 -1.335438 1293.786987
1.120000 1.120000 -9.200000 -3.373666 -10.889982 129.973328
1.120000 1.120000 -9.160000 10.722594 -5.631231 146.684799
1.120000 1.120000 -9.120000 18.498955 11.643715 477.787415
1.120000 1.120000 -9.080000 9.624662 32.689476 1161.235962
1.120000 1.120000 -9.040000 -15.325089 41.289970 1939.719971
1.120000 1.120000 -9.000000 -40.790627 26.711437 2377.375977
1.120000 1.120000 -8.960000 -46.789421 -4.257364 2207.375244
1.120000 1.120000 -8.920000 -26.328058 -30.068823 1597.300781
1.120000 1.120000 -8.880000 7.059576 -31.558121 1045.752563
1.120000 1.120000 -8.840000 29.969400 -8.094069 963.678955
1.120000 1.120000 -8.800000 28.533680 22.666855 1327.957275
1.120000 1.160000 -9.200000 -9.096068 -3.676123 96.252335
1.120000 1.160000 -9.160000 -6.674239 -4.653069 66.196518
1.120000 1.160000 -9.120000 -2.789478 -1.725405 10.758210
1.120000 1.160000 -9.080000 -3.374323 4.906901 35.463737
1.120000 1.160000 -9.040000 -10.775217 8.326719 185.439545
1.120000 1.160000 -9.000000 -18.599453 2.376186 351.585907
1.120000 1.160000 -8.960000 -16.834030 -9.720503 377.872742
1.120000 1.160000 -8.920000 -2.825911 -16.151833 268.867462
1.120000 1.160000 -8.880000 13.917821 -7.378153 248.142868
1.120000 1.160000 -8.840000 19.227282 13.876369 562.242004
1.120000 1.160000 -8.800000 6.999815 34.140682 1214.583618
1.120000 1.200000 -9.200000 -18.303062 -11.460377 466.342346
1.120000 1.200000 -9.160000 -13.416356 -22.548725 688.443604
1.120000 1.200000 -9.120000 0.031710 -25.735437 662.313721
1.120000 1.200000 -9.080000 11.559219 -17.327332 433.851990
1.120000 1.200000 -9.040000 13.041806 -4.372032 189.203384
1.120000 1.200000 -9.000000 6.637298 3.328587 55.133209
1.120000 1.200000 -8.960000 1.246151 3.591052 14.448544
1.120000 1.200000 -8.920000 1.942139 3.230464 14.207800
1.120000 1.200000 -8.880000 4.274257 9.338641 105.479492
1.120000 1.200000 -8.840000 -0.489004 20.546535 422.399261
1.120000 1.200000 -8.800000 -15.409223 27.809643 1010.820374
1.160000 0.800000 -9.200000 -5.557992 -11.236425 157.148529
1.160000 0.800000 -9.160000 14.266171 -15.335425 438.698914
1.160000 0.800000 -9.120000 33.797626 -2.869437 1150.513184
1.160000 0.800000 -9.080000 39.819992 21.970207 2068.321777
1.160000 0.800000 -9.040000 26.498331 45.330036 2756.973877
1.160000 0.800000 -9.000000 0.967947 53.364632 2848.720947
1.160000 0.800000 -8.960000 -21.668488 42.838852 2304.690674
1.160000 0.800000 -8.920000 -30.129541 23.045950 1438.905029
1.160000 0.800000 -8.880000 -24.980812 7.118725 674.717224
1.160000 0.800000 -8.840000 -15.727192 1.021204 248.387421
1.160000 0.800000 -8.800000 -10.415472 0.509282 108.741425
1.160000 0.840000 -9.200000 6.928958 -5.549954 78.812454
1.160000 0.840000 -9.160000 16.632568 0.153764 276.665985
1.160000 0.840000 -9.120000 22.886776 12.671693 684.376282
1.160000 0.840000 -9.080000 20.070585 28.819073 1233.367310
1.160000 0.840000 -9.040000 6.746735 40.721672 1703.772949
1.160000 0.840000 -9.000000 -11.306133 41.504238 1850.430420
1.160000 0.840000 -8.960000 -24.765348 31.283173 1591.959473
1.160000 0.840000 -8.920000 -28.130722 17.168434 1086.092651
1.160000 0.840000 -8.880000 -23.496241 6.881105 599.422913
1.160000 0.840000 -8.840000 -16.997066 2.556106 295.433960
1.160000 0.840000 -8.800000 -12.072594 0.977436 146.702896
1.160000 0.880000 -9.200000 6.126391 8.620102 111.838837
1.160000 0.880000 -9.160000 2.866292 10.483118 118.111397
1.160000 0.880000 -9.120000 2.655461 12.021565 151.569504
1.160000 0.880000 -9.080000 2.625834 16.681982 285.183502
1.160000 0.880000 -9.040000 -1.450773 23.043650 533.114502
1.160000 0.880000 -9.000000 -10.231701 26.467749 805.229431
1.160000 0.880000 -8.960000 -20.065441 23.788572 968.518066
1.160000 0.880000 -8.920000 -26.343090 15.951833 948.419312
1.160000 0.880000 -8.880000 -26.911215 6.610148 767.907593
1.160000 0.880000 -8.840000 -22.468157 -0.781395 505.428650
1.160000 0.880000 -8.800000 -14.927404 -4.152589 240.071411
1.160000 0.920000 -9.200000 -8.161205 14.286516 270.709808
1.160000 0.920000 -9.160000 -13.947220 3.049539 203.824631
1.160000 0.920000 -9.120000 -7.483911 -5.943188 91.330399
1.160000 0.920000 -9.080000 3.671578 -3.861658 28.392891
1.160000 0.920000 -9.040000 8.302269 8.271769 137.349823
1.160000 0.920000 -9.000000 0.802739 21.031115 442.952148
1.160000 0.920000 -8.960000 -14.787828 24.515844 819.706482
1.160000 0.920000 -8.920000 -28.482666 15.853277 1062.588623
1.160000 0.920000 -8.880000 -32.006844 0.726125 1024.965210
1.160000 0.920000 -8.840000 -24.335405 -11.294279 719.772705
1.160000 0.920000 -8.800000 -11.648979 -13.395222 315.130676
1.160000 0.960000 -9.200000 -20.922659 3.894998 452.928680
1.160000 0.960000 -9.160000 -16.041729 -15.952091 511.806274
1.160000 0.960000 -9.120000 3.186734 -23.709713 572.305786
1.160000 0.960000 -9.080000 21.764389 -12.317567 625.411072
1.160000 0.960000 -9.040000 24.645443 10.735939 722.658264
1.160000 0.960000 -9.000000 8.326001 28.899649 904.511963
1.160000 0.960000 -8.960000 -16.483532 29.170630 1122.632446
1.160000 0.960000 -8.920000 -33.196911 11.793781 1241.128174
1.160000 0.960000 -8.880000 -31.948170 -10.494753 1130.825439
1.160000 0.960000 -8.840000 -16.431103 -22.697409 785.153503
1.160000 0.960000 -8.800000 0.036115 -18.804897 353.625488
1.160000 1.000000 -9.200000 -18.871792 -12.644680 516.032471
1.160000 1.000000 -9.160000 -0.679187 -27.482445 755.746094
1.160000 1.000000 -9.120000 23.971394 -22.864670 1097.420898
1.160000 1.000000 -9.080000 37.510120 0.334435 1407.120972
1.160000 1.000000 -9.040000 28.773371 27.399393 1578.633545
1.160000 1.000000 -9.000000 2.097119 39.703358 1580.754517
1.160000 1.000000 -8.960000 -25.049305 28.623844 1446.792114
1.160000 1.000000 -8.920000 -34.973598 2.321853 1228.543579
1.160000 1.000000 -8.880000 -23.148422 -20.624689 961.227234
1.160000 1.000000 -8.840000 -1.030020 -25.823231 667.900146
1.160000 1.000000 -8.800000 14.009858 -13.736526 384.968262
1.160000 1.040000 -9.200000 -4.857788 -19.372047 398.874329
1.160000 1.040000 -9.160000 16.334747 -20.210459 675.286621
1.160000 1.040000 -9.120000 33.092419 -4.137134 1112.223999
1.160000 1.040000 -9.080000 33.201748 21.044413 1545.223389
1.160000 1.040000 -9.040000 14.065145 39.743675 1777.388062
1.160000 1.040000 -9.000000 -13.551552 38.889687 1696.052246
1.160000 1.040000 -8.960000 -31.877668 18.246162 1349.108154
1.160000 1.040000 -8.920000 -29.165667 -8.243913 918.598206
1.160000 1.040000 -8.880000 -8.994313 -22.709129 596.602173
1.160000 1.040000 -8.840000 12.699261 -17.248764 458.791077
1.160000 1.040000 -8.800000 20.838955 0.461312 434.474854
1.160000 1.080000 -9.200000 6.011426 -11.923890 178.316406
1.160000 1.080000 -9.160000 17.639099 -3.043253 320.399200
1.160000 1.080000 -9.120000 20.806593 12.583976 591.270752
1.160000 1.080000 -9.080000 11.938827 27.541607 901.075684
1.160000 1.080000 -9.040000 -6.038874 32.634075 1101.450928
1.160000 1.080000 -9.000000 -23.139717 23.050913 1066.791138
1.160000 1.080000 -8.960000 -27.985561 3.594051 796.108826
1.160000 1.080000 -8.920000 -16.697891 -12.975863 447.192566
1.160000 1.080000 -8.880000 2.854107 -15.185365 238.741241
1.160000 1.080000 -8.840000 16.649498 -2.239353 282.220490
1.160000 1.080000 -8.800000 15.905813 15.362568 489.003387
1.160000 1.120000 -9.200000 3.617747 -1.708662 16.007618
1.160000 1.120000 -9.160000 3.334312 4.445114 30.876678
1.160000 1.120000 -9.120000 0.340670 9.139822 83.652405
1.160000 1.120000 -9.080000 -4.813950 11.778779 161.913757
1.160000 1.120000 -9.040000 -11.272146 10.620550 239.857361
1.160000 1.120000 -9.000000 -15.625332 4.435749 263.826874
1.160000 1.120000 -8.960000 -13.417830 -4.037614 196.340515
1.160000 1.120000 -8.920000 -4.063264 -8.158399 83.069580
1.160000 1.120000 -8.880000 6.545443 -2.779835 50.570301
1.160000 1.120000 -8.840000 9.990682 10.180330 203.452850
1.160000 1.120000 -8.800000 2.746076 22.458208 511.912048
1.160000 1.160000 -9.200000 -6.007252 -2.445041 42.065300
1.160000 1.160000 -9.160000 -8.905303 -6.540284 122.079742
1.160000 1.160000 -9.120000 -5.746956 -11.249688 159.582977
1.160000 1.160000 -9.080000 0.588785 -11.029102 121.987762
1.160000 1.160000 -9.040000 4.448362 -6.034266 56.200302
1.160000 1.160000 -9.000000 3.884734 -0.804347 15.738136
1.160000 1.160000 -8.960000 1.875657 1.728490 6.505767
1.160000 1.160000 -8.920000 1.558457 3.391316 13.929813
1.160000 1.160000 -8.880000 1.781654 7.632759 61.433292
1.160000 1.160000 -8.840000 -1.635829 14.358301 208.836746
1.160000 1.160000 -8.800000 -10.685277 19.151802 480.966675
1.160000 1.200000 -9.200000 -7.798060 -14.369099 267.280731
1.160000 1.200000 -9.160000 -2.911688 -24.058559 587.292175
1.160000 1.200000 -9.120000 10.526031 -26.860176 832.266357
1.160000 1.200000 -9.080000 23.347353 -17.837917 863.290161
1.160000 1.200000 -9.040000 26.448116 -1.888469 703.069153
1.160000 1.200000 -9.000000 18.785280 11.291372 480.381836
1.160000 1.200000 -8.960000 6.934862 16.061203 306.054565
1.160000 1.200000 -8.920000 -2.197786 14.414120 212.597107
1.160000 1.200000 -8.880000 -7.291028 11.768311 191.652222
1.160000 1.200000 -8.840000 -11.691266 10.625072 249.577850
1.160000 1.200000 -8.800000 -18.118006 8.894518 407.374603
1.200000 0.800000 -9.200000 -0.768912 0.645585 1.008006
1.200000 0.800000 -9.160000 7.297132 8.568018 126.659073
1.200000 0.800000 -9.120000 8.012897 20.224630 473.242188
1.200000 0.800000 -9.080000 1.048603 30.448185 928.191528
1.200000 0.800000 -9.040000 -11.299558 35.277336 1372.170532
1.200000 0.800000 -9.000000 -25.269073 32.556190 1698.431641
1.200000 0.800000 -8.960000 -36.378483 22.347523 1822.805786
1.200000 0.800000 -8.920000 -40.691658 7.373703 1710.182495
1.200000 0.800000 -8.880000 -36.677113 -7.590693 1402.829224
1.200000 0.800000 -8.840000 -26.190590 -17.951965 1008.220093
1.200000 0.800000 -8.800000 -13.246300 -21.664982 644.835876
1.200000 0.840000 -9.200000 -0.282251 3.871388 15.067310
1.200000 0.840000 -9.160000 -0.642917 11.751045 138.500412
1.200000 0.840000 -9.120000 -5.358293 18.433144 368.492096
1.200000 0.840000 -9.080000 -13.359993 22.216528 672.063538
1.200000 0.840000 -9.040000 -23.210163 21.596972 1005.140869
1.200000 0.840000 -9.000000 -32.406532 15.514444 1290.881348
1.200000 0.840000 -8.960000 -37.564529 4.673730 1432.937622
1.200000 0.840000 -8.920000 -36.181870 -7.785378 1369.739746
1.200000 0.840000 -8.880000 -28.496664 -17.641716 1123.290039
1.200000 0.840000 -8.840000 -17.364056 -22.024601 786.593506
1.200000 0.840000 -8.800000 -6.250751 -20.618641 464.200256
1.200000 0.880000 -9.200000 -5.695255 4.851477 55.972759
1.200000 0.880000 -9.160000 -10.411948 6.264902 147.657654
1.200000 0.880000 -9.120000 -14.761244 5.880322 252.472504
1.200000 0.880000 -9.080000 -18.876013 4.361687 375.328186
1.200000 0.880000 -9.040000 -22.874611 1.285190 524.899536
1.200000 0.880000 -9.000000 -25.801920 -3.924928 681.144104
1.200000 0.880000 -8.960000 -26.077950 -10.741176 795.432312
1.200000 0.880000 -8.920000 -22.792580 -17.405264 822.444946
1.200000 0.880000 -8.880000 -16.370068 -21.891275 747.207031
1.200000 0.880000 -8.840000 -8.222937 -22.762806 585.762024
1.200000 0.880000 -8.800000 -0.264901 -19.315363 373.153412
1.200000 0.920000 -9.200000 -10.501991 -1.718893 113.246422
1.200000 0.920000 -9.160000 -12.141480 -6.520377 189.930862
1.200000 0.920000 -9.120000 -11.233757 -10.259336 231.451263
1.200000 0.920000 -9.080000 -9.465336 -12.286688 240.555267
1.200000 0.920000 -9.040000 -7.976659 -13.075404 234.593277
1.200000 0.920000 -9.000000 -7.226999 -13.420096 232.328506
1.200000 0.920000 -8.960000 -7.104122 -14.220466 252.690201
1.200000 0.920000 -8.920000 -6.649055 -16.159031 305.324219
1.200000 0.920000 -8.880000 -4.259589 -18.724140 368.737518
1.200000 0.920000 -8.840000 0.820214 -19.622799 385.726990
1.200000 0.920000 -8.800000 6.684178 -16.133196 304.958252
1.200000 0.960000 -9.200000 -6.843124 -11.309345 174.729645
1.200000 0.960000 -9.160000 -2.121516 -15.912674 257.714020
1.200000 0.960000 -9.120000 3.343101 -17.099293 303.562134
1.200000 0.960000 -9.080000 8.127323 -15.546991 307.762329
1.200000 0.960000 -9.040000 11.143650 -11.778662 262.917816
1.200000 0.960000 -9.000000 11.014534 -7.079908 171.445068
1.200000 0.960000 -8.960000 7.604100 -4.215882 75.596001
1.200000 0.960000 -8.920000 3.623887 -5.473238 43.088890
1.200000 0.960000 -8.880000 3.147294 -9.640369 102.842178
1.200000 0.960000 -8.840000 7.400639 -11.960940 197.833542
1.200000 0.960000 -8.800000 12.399582 -8.492597 225.873840
1.200000 1.000000 -9.200000 4.292222 -14.155328 218.796478
1.200000 1.000000 -9.160000 11.322831 -12.752289 290.827393
1.200000 1.000000 -9.120000 15.963276 -9.350019 342.249023
1.200000 1.000000 -9.080000 19.140863 -4.829838 389.699982
1.200000 1.000000 -9.040000 20.189203 1.373886 409.491516
1.200000 1.000000 -9.000000 17.045105 7.773775 350.967194
1.200000 1.000000 -8.960000 10.076958 10.399495 209.694580
1.200000 1.000000 -8.920000 3.869463 6.981525 63.714439
1.200000 1.000000 -8.880000 3.411606 0.727263 12.167967
1.200000 1.000000 -8.840000 8.357057 -1.888941 73.408493
1.200000 1.000000 -8.800000 12.465204 2.113758 159.849289
1.200000 1.040000 -9.200000 13.147934 -6.620546 216.699799
1.200000 1.040000 -9.160000 15.454730 -0.058753 238.852127
1.200000 1.040000 -9.120000 15.110224 3.951707 243.934845
1.200000 1.040000 -9.080000 15.515095 7.079963 290.844055
1.200000 1.040000 -9.040000 15.276285 12.113120 380.092560
1.200000 1.040000 -9.000000 11.033153 17.551273 429.777649
1.200000 1.040000 -8.960000 3.358688 18.697781 360.887787
1.200000 1.040000 -8.920000 -2.345576 13.861051 197.630447
1.200000 1.040000 -8.880000 -1.683238 7.530739 59.545319
1.200000 1.040000 -8.840000 3.249261 6.001573 46.576576
1.200000 1.040000 -8.800000 5.744578 10.198956 137.018875
1.200000 1.080000 -9.200000 11.780407 4.041506 155.111755
1.200000 1.080000 -9.160000 6.669353 9.109621 127.465469
1.200000 1.080000 -9.120000 3.197789 7.991272 74.086281
1.200000 1.080000 -9.080000 4.725460 6.914001 70.133392
1.200000 1.080000 -9.040000 6.958363 10.519790 159.084778
1.200000 1.080000 -9.000000 4.402192 16.294794 284.899628
1.200000 1.080000 -8.960000 -2.472248 18.205372 337.547577
1.200000 1.080000 -8.920000 -7.849520 14.370310 268.120758
1.200000 1.080000 -8.880000 -7.689093 9.306334 145.729980
1.200000 1.080000 -8.840000 -4.382592 8.383138 89.484116
1.200000 1.080000 -8.800000 -3.521778 11.567243 146.204025
1.200000 1.120000 -9.200000 3.053061 7.306236 62.702263
1.200000 1.120000 -9.160000 -5.044399 5.157413 52.044876
1.200000 1.120000 -9.120000 -5.265669 -2.189377 32.520638
1.200000 1.120000 -9.080000 2.148598 -4.699886 26.705404
1.200000 1.120000 -9.040000 8.580546 1.666304 76.402344
1.200000 1.120000 -9.000000 6.899624 11.399690 177.557739
1.200000 1.120000 -8.960000 -1.464267 16.208233 264.850891
1.200000 1.120000 -8.920000 -9.243961 13.665163 272.187500
1.200000 1.120000 -8.880000 -11.546646 8.456496 204.837372
1.200000 1.120000 -8.840000 -10.090025 6.142565 139.539703
1.200000 1.120000 -8.800000 -9.735979 7.405492 149.630600
1.200000 1.160000 -9.200000 -2.308963 0.965105 6.262737
1.200000 1.160000 -9.160000 -6.255716 -7.569941 96.437996
1.200000 1.160000 -9.120000 1.202499 -15.807144 251.311813
1.200000 1.160000 -9.080000 14.285855 -13.379793 383.104523
1.200000 1.160000 -9.040000 21.191168 -0.043836 449.067505
1.200000 1.160000 -9.000000 15.649973 14.548983 456.594543
1.200000 1.160000 -8.960000 2.099363 20.476906 423.710999
1.200000 1.160000 -8.920000 -9.706394 16.146614 354.927216
1.200000 1.160000 -8.880000 -13.953505 7.923670 257.484833
1.200000 1.160000 -8.840000 -12.554080 2.796887 165.427490
1.200000 1.160000 -8.800000 -11.244081 2.366299 132.028732
1.200000 1.200000 -9.200000 2.507384 -6.320608 46.237057
1.200000 1.200000 -9.160000 5.640468 -14.903265 253.922195
1.200000 1.200000 -9.120000 18.405336 -17.152700 632.971558
1.200000 1.200000 -9.080000 30.929619 -6.289738 996.202087
1.200000 1.200000 -9.040000 31.760410 12.804695 1172.683838
1.200000 1.200000 -9.000000 18.447132 27.804401 1113.381348
1.200000 1.200000 -8.960000 -0.679313 29.794046 888.146667
1.200000 1.200000 -8.920000 -14.313776 20.108006 609.216064
1.200000 1.200000 -8.880000 -17.443182 7.605659 362.110657
1.200000 1.200000 -8.840000 -13.777536 0.237805 189.877060
1.200000 1.200000 -8.800000 -10.637842 -0.832647 113.856987
