#kx 	ky 	kz 	real 	imag 	intensity
6.800000 4.800000 -3.200000 -11.794226 -17.811985 456.370575
6.800000 4.800000 -3.160000 -2.092897 -22.616722 515.896362
6.800000 4.800000 -3.120000 5.625532 -18.380701 369.496765
6.800000 4.800000 -3.080000 5.110912 -12.508726 182.589661
6.800000 4.800000 -3.040000 0.678363 -13.535482 183.669464
6.800000 4.800000 -3.000000 2.042713 -20.714006 433.242737
6.800000 4.800000 -2.960000 12.548718 -24.324650 749.158936
6.800000 4.800000 -2.920000 24.373238 -16.665741 871.801636
6.800000 4.800000 -2.880000 26.450392 -1.270206 701.236633
6.800000 4.800000 -2.840000 16.428776 10.192387 373.789398
6.800000 4.800000 -2.800000 3.152357 10.031984 110.578064
6.800000 4.840000 -3.200000 1.027319 -27.101820 735.564026
6.800000 4.840000 -3.160000 12.637405 -29.483917 1029.005371
6.800000 4.840000 -3.120000 22.024685 -24.901054 1105.149170
6.800000 4.840000 -3.080000 26.383722 -18.030300 1021.192566
6.800000 4.840000 -3.040000 27.638283 -12.354502 916.508423
6.800000 4.840000 -3.000000 28.278263 -7.528395 856.336914
6.800000 4.840000 -2.960000 27.956350 -1.975897 785.461670
6.800000 4.840000 -2.920000 24.851639 3.524595 630.026733
6.800000 4.840000 -2.880000 19.351704 6.195513 412.872803
6.800000 4.840000 -2.840000 14.760005 5.068604 243.548492
6.800000 4.840000 -2.800000 13.595792 2.985794 193.760513
6.800000 4.880000 -3.200000 14.711843 -24.907784 836.835999
6.800000 4.880000 -3.160000 28.535622 -24.889668 1433.777222
6.800000 4.880000 -3.120000 40.788040 -16.655975 1941.085693
6.800000 4.880000 -3.080000 46.652237 -2.539618 2182.880859
6.800000 4.880000 -3.040000 43.419540 12.358891 2037.998657
6.800000 4.880000 -3.000000 32.434967 21.726593 1524.071899
6.800000 4.880000 -2.960000 19.655737 21.539505 850.298279
6.800000 4.880000 -2.920000 12.721955 13.646735 348.081543
6.800000 4.880000 -2.880000 15.264300 5.588953 264.235260
6.800000 4.880000 -2.840000 23.252390 5.167957 567.381409
6.800000 4.880000 -2.800000 27.647768 13.609911 949.628723
6.800000 4.920000 -3.200000 21.998699 -16.121637 743.849976
6.800000 4.920000 -3.160000 37.893906 -11.259944 1562.734497
6.800000 4.920000 -3.120000 49.063171 4.416668 2426.701660
6.800000 4.920000 -3.080000 47.733429 25.508026 2929.139648
6.800000 4.920000 -3.040000 32.352699 40.920738 2721.204102
6.800000 4.920000 -3.000000 11.381986 41.120293 1820.427979
6.800000 4.920000 -2.960000 -1.213515 26.836128 721.650391
6.800000 4.920000 -2.920000 2.946155 10.400490 116.850014
6.800000 4.920000 -2.880000 18.558601 6.416924 385.598602
6.800000 4.920000 -2.840000 30.253555 18.999723 1276.267090
6.800000 4.920000 -2.800000 25.842762 37.666199 2086.590820
6.800000 4.960000 -3.200000 22.855974 -6.986604 571.208191
6.800000 4.960000 -3.160000 36.770084 5.286013 1379.980957
6.800000 4.960000 -3.120000 39.409077 26.490372 2254.815186
6.800000 4.960000 -3.080000 25.833302 45.266518 2716.416992
6.800000 4.960000 -3.040000 2.599071 48.880802 2396.087891
6.800000 4.960000 -3.000000 -14.612465 34.439255 1399.586426
6.800000 4.960000 -2.960000 -13.182723 13.705776 361.632477
6.800000 4.960000 -2.920000 4.538926 4.760509 43.264297
6.800000 4.960000 -2.880000 21.773140 16.363836 741.844727
6.800000 4.960000 -2.840000 21.426611 39.470486 2017.018799
6.800000 4.960000 -2.800000 1.291043 54.804375 3005.186279
6.800000 5.000000 -3.200000 20.150848 0.682360 406.522308
6.800000 5.000000 -3.160000 25.384720 17.934958 966.046631
6.800000 5.000000 -3.120000 16.032558 35.416481 1511.370117
6.800000 5.000000 -3.080000 -3.861960 40.876335 1685.789551
6.800000 5.000000 -3.040000 -20.692871 29.554102 1301.639893
6.800000 5.000000 -3.000000 -21.499422 10.325999 568.851440
6.800000 5.000000 -2.960000 -5.962868 -0.009968 35.555889
6.800000 5.000000 -2.920000 11.605377 8.979998 215.325134
6.800000 5.000000 -2.880000 13.806568 31.304819 1170.613037
6.800000 5.000000 -2.840000 -4.558933 48.897556 2411.754883
6.800000 5.000000 -2.800000 -31.773069 47.087616 3226.771484
6.800000 5.040000 -3.200000 14.005476 7.468560 251.932739
6.800000 5.040000 -3.160000 7.655956 20.900841 495.458832
6.800000 5.040000 -3.120000 -7.234921 24.674480 661.174072
6.800000 5.040000 -3.080000 -19.287775 15.142318 601.308105
6.800000 5.040000 -3.040000 -18.131790 0.035784 328.763092
6.800000 5.040000 -3.000000 -4.196811 -6.783968 63.635441
6.800000 5.040000 -2.960000 10.149017 2.734953 110.482521
6.800000 5.040000 -2.920000 10.475215 22.851200 631.907471
6.800000 5.040000 -2.880000 -7.149667 37.980110 1493.606445
6.800000 5.040000 -2.840000 -32.452541 35.560131 2317.690430
6.800000 5.040000 -2.800000 -49.600811 16.189133 2722.328613
6.800000 5.080000 -3.200000 2.695349 10.976265 127.743301
6.800000 5.080000 -3.160000 -9.163591 11.281582 211.245483
6.800000 5.080000 -3.120000 -16.063614 0.238055 258.096375
6.800000 5.080000 -3.080000 -9.527699 -12.841122 255.671448
6.800000 5.080000 -3.040000 7.047902 -14.671207 264.917236
6.800000 5.080000 -3.000000 19.728699 -0.285868 389.303284
6.800000 5.080000 -2.960000 15.732701 21.210924 697.421143
6.800000 5.080000 -2.920000 -5.067298 33.573006 1152.824219
6.800000 5.080000 -2.880000 -29.701866 26.946606 1608.320435
6.800000 5.080000 -2.840000 -43.042145 5.503063 1882.909912
6.800000 5.080000 -2.800000 -39.638924 -17.433338 1875.165527
6.800000 5.120000 -3.200000 -11.510421 5.742442 165.465439
6.800000 5.120000 -3.160000 -16.424158 -8.333673 339.203064
6.800000 5.120000 -3.120000 -5.247484 -23.378645 574.097107
6.800000 5.120000 -3.080000 17.209362 -23.567923 851.609131
6.800000 5.120000 -3.040000 33.392166 -3.652470 1128.377319
6.800000 5.120000 -3.000000 27.882746 23.959290 1351.495117
6.800000 5.120000 -2.960000 1.965677 38.545315 1489.605225
6.800000 5.120000 -2.920000 -26.587530 28.889961 1541.526611
6.800000 5.120000 -2.880000 -38.770229 2.526619 1509.514526
6.800000 5.120000 -2.840000 -29.848078 -22.108084 1379.675171
6.800000 5.120000 -2.800000 -10.692385 -32.162743 1148.769043
6.800000 5.160000 -3.200000 -20.311031 -10.132154 515.198547
6.800000 5.160000 -3.160000 -8.834558 -29.141582 927.281250
6.800000 5.160000 -3.120000 18.251926 -32.930428 1417.545898
6.800000 5.160000 -3.080000 41.805813 -11.947386 1890.465942
6.800000 5.160000 -3.040000 41.178547 22.424925 2198.550049
6.800000 5.160000 -3.000000 13.617857 45.161041 2224.965576
6.800000 5.160000 -2.960000 -21.498697 38.953270 1979.551270
6.800000 5.160000 -2.920000 -38.901924 9.461931 1602.887939
6.800000 5.160000 -2.880000 -28.959215 -20.398724 1254.744141
6.800000 5.160000 -2.840000 -3.893720 -31.257278 992.178528
6.800000 5.160000 -2.800000 16.105177 -22.513811 766.248413
6.800000 5.200000 -3.200000 -15.734262 -29.741367 1132.115967
6.800000 5.200000 -3.160000 10.832911 -40.214432 1734.552490
6.800000 5.200000 -3.120000 40.721764 -24.796036 2273.105469
6.800000 5.200000 -3.080000 49.964359 11.222141 2622.373779
6.800000 5.200000 -3.040000 28.136753 43.361565 2671.902344
6.800000 5.200000 -3.000000 -10.288050 47.759148 2386.780273
6.800000 5.200000 -2.960000 -37.049778 22.202473 1865.635864
6.800000 5.200000 -2.920000 -34.233868 -11.974623 1315.349243
6.800000 5.200000 -2.880000 -8.597692 -29.179523 925.364868
6.800000 5.200000 -2.840000 17.032028 -21.180571 738.706543
6.800000 5.200000 -2.800000 25.450758 -0.688067 648.214539
6.840000 4.800000 -3.200000 13.693209 -5.829123 221.482635
6.840000 4.800000 -3.160000 13.149308 -1.508958 175.181274
6.840000 4.800000 -3.120000 8.492322 -0.175781 72.150429
6.840000 4.800000 -3.080000 4.872473 -5.018803 48.929371
6.840000 4.800000 -3.040000 8.459639 -12.270592 222.132904
6.840000 4.800000 -3.000000 18.825169 -13.569853 538.527832
6.840000 4.800000 -2.960000 27.566132 -4.639779 781.419128
6.840000 4.800000 -2.920000 25.961292 9.049063 755.874268
6.840000 4.800000 -2.880000 14.119400 16.634750 476.072357
6.840000 4.800000 -2.840000 1.491373 12.403759 156.077438
6.840000 4.800000 -2.800000 -2.320277 1.375963 7.276961
6.840000 4.840000 -3.200000 16.646816 -1.864944 280.594513
6.840000 4.840000 -3.160000 20.254305 -2.613141 417.065369
6.840000 4.840000 -3.120000 25.936558 -0.372606 672.843872
6.840000 4.840000 -3.080000 30.625298 6.723537 983.114807
6.840000 4.840000 -3.040000 29.977530 17.316078 1198.498779
6.840000 4.840000 -3.000000 21.787432 26.276758 1165.160156
6.840000 4.840000 -2.960000 9.020086 27.732559 850.456787
6.840000 4.840000 -2.920000 -1.086402 20.120148 406.000610
6.840000 4.840000 -2.880000 -2.396084 8.567104 79.136497
6.840000 4.840000 -2.840000 4.587762 1.368248 22.919662
6.840000 4.840000 -2.800000 12.714465 2.869642 169.892471
6.840000 4.880000 -3.200000 14.675497 2.432104 221.285339
6.840000 4.880000 -3.160000 27.220373 3.260379 751.578796
6.840000 4.880000 -3.120000 38.296150 17.481375 1772.193604
6.840000 4.880000 -3.080000 35.175953 40.258072 2858.060059
6.840000 4.880000 -3.040000 13.831394 56.367477 3368.599854
6.840000 4.880000 -3.000000 -14.675014 52.086411 2928.350098
6.840000 4.880000 -2.960000 -31.267881 28.173244 1771.412109
6.840000 4.880000 -2.920000 -24.678335 1.159681 610.365051
6.840000 4.880000 -2.880000 -1.719208 -9.785522 98.712120
6.840000 4.880000 -2.840000 18.251686 0.858927 333.861816
6.840000 4.880000 -2.800000 20.228642 20.726257 838.775635
6.840000 4.920000 -3.200000 10.837410 2.775966 125.155441
6.840000 4.920000 -3.160000 28.335152 14.351723 1008.852722
6.840000 4.920000 -3.120000 30.850304 42.412373 2750.550537
6.840000 4.920000 -3.080000 6.835123 67.639404 4621.807617
6.840000 4.920000 -3.040000 -33.073212 66.678360 5539.841309
6.840000 4.920000 -3.000000 -61.012482 34.233719 4894.470703
6.840000 4.920000 -2.960000 -54.997696 -8.718637 3100.761230
6.840000 4.920000 -2.920000 -19.434423 -30.908783 1333.049683
6.840000 4.920000 -2.880000 17.370142 -17.664312 613.749756
6.840000 4.920000 -2.840000 27.651430 16.497444 1036.767212
6.840000 4.920000 -2.800000 7.890194 41.766613 1806.705078
6.840000 4.960000 -3.200000 9.780945 0.772474 96.263603
6.840000 4.960000 -3.160000 20.522957 25.070433 1049.718384
6.840000 4.960000 -3.120000 3.884349 54.873642 3026.204834
6.840000 4.960000 -3.080000 -36.783611 62.278183 5231.605957
6.840000 4.960000 -3.040000 -73.299545 32.644505 6438.486816
6.840000 4.960000 -3.000000 -74.798790 -17.813652 5912.185059
6.840000 4.960000 -2.960000 -36.461102 -52.233490 4057.749268
6.840000 4.960000 -2.920000 13.407120 -44.471210 2157.439453
6.840000 4.960000 -2.880000 36.839333 -2.644298 1364.128784
6.840000 4.960000 -2.840000 19.037294 38.171486 1819.480957
6.840000 4.960000 -2.800000 -20.391510 47.393204 2661.929443
6.840000 5.000000 -3.200000 10.988899 1.295819 122.435051
6.840000 5.000000 -3.160000 5.473538 28.584675 847.043213
6.840000 5.000000 -3.120000 -26.131149 42.752937 2510.650635
6.840000 5.000000 -3.080000 -62.773876 23.411476 4488.656738
6.840000 5.000000 -3.040000 -72.226509 -22.717392 5732.748535
6.840000 5.000000 -3.000000 -40.512032 -62.466969 5543.346680
6.840000 5.000000 -2.960000 11.977676 -63.408775 4164.137695
6.840000 5.000000 -2.920000 45.613121 -23.429035 2629.476562
6.840000 5.000000 -2.880000 35.590481 26.100025 1947.893677
6.840000 5.000000 -2.840000 -6.973053 47.618351 2316.130859
6.840000 5.000000 -2.800000 -46.742035 29.358896 3046.762695
6.840000 5.040000 -3.200000 8.996239 5.012496 106.057426
6.840000 5.040000 -3.160000 -10.215552 20.515047 525.224670
6.840000 5.040000 -3.120000 -39.081448 11.567707 1661.171387
6.840000 5.040000 -3.080000 -51.176151 -22.559200 3127.916016
6.840000 5.040000 -3.040000 -29.234715 -57.834778 4199.530273
6.840000 5.040000 -3.000000 15.839127 -63.823170 4324.274902
6.840000 5.040000 -2.960000 50.835781 -31.406750 3570.660645
6.840000 5.040000 -2.920000 48.069237 16.839195 2594.210205
6.840000 5.040000 -2.880000 9.732706 44.951431 2115.356689
6.840000 5.040000 -2.840000 -34.399452 34.104813 2346.460449
6.840000 5.040000 -2.800000 -53.443588 -3.230785 2866.655029
6.840000 5.080000 -3.200000 0.958826 5.811454 34.692341
6.840000 5.080000 -3.160000 -17.734032 2.361852 320.074219
6.840000 5.080000 -3.120000 -26.569387 -19.752892 1096.109131
6.840000 5.080000 -3.080000 -11.160888 -44.677456 2120.640381
6.840000 5.080000 -3.040000 22.896132 -49.075836 2932.670654
6.840000 5.080000 -3.000000 51.135078 -23.330032 3159.086426
6.840000 5.080000 -2.960000 50.002533 17.299316 2799.519775
6.840000 5.080000 -2.920000 17.835825 43.737595 2231.093750
6.840000 5.080000 -2.880000 -22.914944 37.195305 1908.585449
6.840000 5.080000 -2.840000 -44.578903 4.124782 2004.292358
6.840000 5.080000 -2.800000 -36.424187 -31.249681 2303.264160
6.840000 5.120000 -3.200000 -7.656878 -2.609424 65.436882
6.840000 5.120000 -3.160000 -11.239561 -17.799919 443.164856
6.840000 5.120000 -3.120000 2.632854 -33.330631 1117.862915
6.840000 5.120000 -3.080000 28.731287 -32.377720 1873.803711
6.840000 5.120000 -3.040000 48.235390 -8.851313 2404.998535
6.840000 5.120000 -3.000000 43.663094 24.520803 2507.735352
6.840000 5.120000 -2.960000 14.699600 44.814941 2224.457275
6.840000 5.120000 -2.920000 -20.215656 37.479996 1813.422852
6.840000 5.120000 -2.880000 -38.575890 8.004273 1552.167603
6.840000 5.120000 -2.840000 -31.236216 -23.704685 1537.613281
6.840000 5.120000 -2.800000 -7.086967 -40.040169 1653.440186
6.840000 5.160000 -3.200000 -7.101782 -18.079813 377.314941
6.840000 5.160000 -3.160000 7.416110 -29.293882 913.130249
6.840000 5.160000 -3.120000 30.564392 -24.586079 1538.657349
6.840000 5.160000 -3.080000 45.258492 -0.607911 2048.700684
6.840000 5.160000 -3.040000 37.274822 29.640793 2267.989014
6.840000 5.160000 -3.000000 8.501905 45.613571 2152.880371
6.840000 5.160000 -2.960000 -23.096914 35.850056 1818.693848
6.840000 5.160000 -2.920000 -37.545551 7.323418 1463.300903
6.840000 5.160000 -2.880000 -28.183813 -20.980970 1234.528442
6.840000 5.160000 -2.840000 -4.655388 -33.608837 1151.226562
6.840000 5.160000 -2.800000 17.622286 -28.727482 1135.813110
6.840000 5.200000 -3.200000 6.224617 -29.808245 927.277283
6.840000 5.200000 -3.160000 28.681435 -25.871593 1491.964111
6.840000 5.200000 -3.120000 43.580849 -3.063830 1908.677490
6.840000 5.200000 -3.080000 36.740715 26.604019 2057.654053
6.840000 5.200000 -3.040000 9.197876 43.082069 1940.665649
6.840000 5.200000 -3.000000 -21.823742 34.450768 1663.131104
6.840000 5.200000 -2.960000 -36.234077 6.991045 1361.783081
6.840000 5.200000 -2.920000 -26.831329 -20.281576 1131.262573
6.840000 5.200000 -2.880000 -3.315771 -31.265581 988.530884
6.840000 5.200000 -2.840000 17.921755 -23.943048 894.458862
6.840000 5.200000 -2.800000 27.281193 -7.936420 807.250244
6.880000 4.800000 -3.200000 19.238773 27.826527 1144.446045
6.880000 4.800000 -3.160000 3.056551 28.533909 823.526489
6.880000 4.800000 -3.120000 -8.020102 16.599823 339.876160
6.880000 4.800000 -3.080000 -5.320080 1.087505 29.485918
6.880000 4.800000 -3.040000 8.357479 -5.007199 94.919502
6.880000 4.800000 -3.000000 20.170143 3.268164 417.515594
6.880000 4.800000 -2.960000 18.854782 17.576515 664.436707
6.880000 4.800000 -2.920000 5.579687 23.894714 602.090332
6.880000 4.800000 -2.880000 -7.198372 15.989118 307.468445
6.880000 4.800000 -2.840000 -8.003391 1.135960 65.344681
6.880000 4.800000 -2.800000 2.735477 -7.668848 66.294067
6.880000 4.840000 -3.200000 2.645728 30.099625 912.987305
6.880000 4.840000 -3.160000 -0.049277 23.044289 531.041687
6.880000 4.840000 -3.120000 4.754816 20.763350 453.724945
6.880000 4.840000 -3.080000 8.037338 27.699173 831.843018
6.880000 4.840000 -3.040000 0.894066 37.695740 1421.768066
6.880000 4.840000 -3.000000 -15.740194 38.890709 1760.240967
6.880000 4.840000 -2.960000 -30.268463 25.273281 1554.918579
6.880000 4.840000 -2.920000 -30.388990 3.756201 937.599792
6.880000 4.840000 -2.880000 -14.893944 -10.919008 341.054291
6.880000 4.840000 -2.840000 4.538947 -9.339586 107.829918
6.880000 4.840000 -2.800000 13.855668 4.062965 208.487228
6.880000 4.880000 -3.200000 -11.330784 19.666441 515.155518
6.880000 4.880000 -3.160000 0.790999 20.883034 436.726776
6.880000 4.880000 -3.120000 4.704069 39.222473 1560.530640
6.880000 4.880000 -3.080000 -14.312149 58.902603 3674.354248
6.880000 4.880000 -3.040000 -49.627914 56.565929 5662.634277
6.880000 4.880000 -3.000000 -75.533562 24.317783 6296.673340
6.880000 4.880000 -2.960000 -69.352928 -19.683880 5197.283691
6.880000 4.880000 -2.920000 -33.043911 -45.081867 3124.274902
6.880000 4.880000 -2.880000 7.128899 -35.761017 1329.671509
6.880000 4.880000 -2.840000 23.456533 -3.775183 564.460999
6.880000 4.880000 -2.800000 10.607895 22.621664 624.267090
6.880000 4.920000 -3.200000 -13.351592 3.044506 187.534027
6.880000 4.920000 -3.160000 -0.170828 23.034491 530.616943
6.880000 4.920000 -3.120000 -16.826225 52.946190 3086.420898
6.880000 4.920000 -3.080000 -62.415192 58.621445 7332.129883
6.880000 4.920000 -3.040000 -103.890610 20.469505 11212.259766
6.880000 4.920000 -3.000000 -103.245850 -43.171803 12523.509766
6.880000 4.920000 -2.960000 -53.575615 -87.784180 10576.408203
6.880000 4.920000 -2.920000 11.549982 -81.057762 6703.762695
6.880000 4.920000 -2.880000 46.335861 -31.806849 3158.687500
6.880000 4.920000 -2.840000 32.393173 18.658348 1397.451538
6.880000 4.920000 -2.800000 -7.845284 34.209503 1231.838623
6.880000 4.960000 -3.200000 -3.609720 -7.939307 76.062683
6.880000 4.960000 -3.160000 -6.744167 24.753426 658.215820
6.880000 4.960000 -3.120000 -47.508614 43.273319 4129.648438
6.880000 4.960000 -3.080000 -98.257950 15.053318 9881.227539
6.880000 4.960000 -3.040000 -111.482132 -53.520683 15292.729492
6.880000 4.960000 -3.000000 -64.030029 -115.397232 17416.367188
6.880000 4.960000 -2.960000 16.993570 -121.907852 15150.305664
6.880000 4.960000 -2.920000 74.554344 -67.035324 10052.084961
6.880000 4.960000 -2.880000 70.971344 6.235855 5075.817383
6.880000 4.960000 -2.840000 19.402805 44.338005 2342.327393
6.880000 4.960000 -2.800000 -31.822750 29.181126 1864.225586
6.880000 5.000000 -3.200000 7.881483 -7.139208 113.086075
6.880000 5.000000 -3.160000 -16.561996 19.696339 662.245483
6.880000 5.000000 -3.120000 -63.732391 9.958742 4160.994141
6.880000 5.000000 -3.080000 -89.468971 -45.917519 10113.115234
6.880000 5.000000 -3.040000 -57.788280 -112.222137 15933.293945
6.880000 5.000000 -3.000000 20.995171 -134.526825 18538.263672
6.880000 5.000000 -2.960000 93.202133 -88.834549 16578.214844
6.880000 5.000000 -2.920000 106.811417 -6.004086 11444.727539
6.880000 5.000000 -2.880000 56.873795 53.937042 6143.833008
6.880000 5.000000 -2.840000 -12.081539 53.750641 3035.094971
6.880000 5.000000 -2.800000 -47.888702 7.830804 2354.649414
6.880000 5.040000 -3.200000 11.110194 0.117311 123.450180
6.880000 5.040000 -3.160000 -22.093739 6.056547 524.815063
6.880000 5.040000 -3.120000 -51.083195 -27.423161 3361.522461
6.880000 5.040000 -3.080000 -38.551224 -82.473846 8288.132812
6.880000 5.040000 -3.040000 21.758678 -112.984238 13238.877930
6.880000 5.040000 -3.000000 91.970520 -84.852364 15658.500000
6.880000 5.040000 -2.960000 119.247940 -10.248977 14325.113281
6.880000 5.040000 -2.920000 82.149071 59.195461 10252.572266
6.880000 5.040000 -2.880000 10.008644 76.025215 5880.006348
6.880000 5.040000 -2.840000 -43.506588 36.530289 3227.285156
6.880000 5.040000 -2.800000 -46.708622 -20.522217 2602.856689
6.880000 5.080000 -3.200000 6.061241 2.958986 45.494240
6.880000 5.080000 -3.160000 -16.595142 -10.561445 386.942871
6.880000 5.080000 -3.120000 -16.488512 -45.673828 2357.969727
6.880000 5.080000 -3.080000 20.025261 -72.636917 5677.132812
6.880000 5.080000 -3.040000 73.465599 -59.866684 8981.213867
6.880000 5.080000 -3.000000 102.951836 -5.214382 10626.269531
6.880000 5.080000 -2.960000 81.191513 57.011494 9842.372070
6.880000 5.080000 -2.920000 20.279545 82.976830 7296.414062
6.880000 5.080000 -2.880000 -37.227047 56.337200 4559.733398
6.880000 5.080000 -2.840000 -54.123756 0.747662 2929.940186
6.880000 5.080000 -2.800000 -27.578527 -42.880878 2599.344971
6.880000 5.120000 -3.200000 2.231476 -3.308620 15.926455
6.880000 5.120000 -3.160000 -0.239954 -20.513262 420.851501
6.880000 5.120000 -3.120000 18.433731 -36.402966 1664.978271
6.880000 5.120000 -3.080000 50.508656 -30.291796 3468.717285
6.880000 5.120000 -3.040000 71.282356 4.041464 5097.507812
6.880000 5.120000 -3.000000 58.975479 48.211220 5802.428711
6.880000 5.120000 -2.960000 15.503742 71.385918 5336.315430
6.880000 5.120000 -2.920000 -32.230110 55.586731 4128.665039
6.880000 5.120000 -2.880000 -53.227104 11.137659 2957.171875
6.880000 5.120000 -2.840000 -36.747318 -32.097519 2380.616211
6.880000 5.120000 -2.800000 1.613067 -49.024723 2406.025635
6.880000 5.160000 -3.200000 7.995512 -12.133368 211.146835
6.880000 5.160000 -3.160000 18.993446 -17.376331 662.687866
6.880000 5.160000 -3.120000 35.335392 -10.418529 1357.135742
6.880000 5.160000 -3.080000 44.032555 11.242346 2065.256104
6.880000 5.160000 -3.040000 33.429649 37.353588 2512.832031
6.880000 5.160000 -3.000000 4.366436 50.362541 2555.451172
6.880000 5.160000 -2.960000 -27.769312 38.782501 2275.217041
6.880000 5.160000 -2.920000 -43.294495 7.210108 1926.398804
6.880000 5.160000 -2.880000 -32.711311 -26.237953 1758.460083
6.880000 5.160000 -2.840000 -3.115083 -42.976429 1856.677124
6.880000 5.160000 -2.800000 28.219858 -36.314419 2115.097412
6.880000 5.200000 -3.200000 21.172127 -12.819917 612.609192
6.880000 5.200000 -3.160000 30.828133 -3.151815 960.307739
6.880000 5.200000 -3.120000 31.684193 13.760044 1193.226807
6.880000 5.200000 -3.080000 19.473417 29.152740 1229.096191
6.880000 5.200000 -3.040000 -1.814539 33.027596 1094.114624
6.880000 5.200000 -3.000000 -21.446798 21.197723 909.308594
6.880000 5.200000 -2.960000 -28.565384 -1.333120 817.758362
6.880000 5.200000 -2.920000 -19.033360 -23.280819 904.265259
6.880000 5.200000 -2.880000 2.424684 -33.950874 1158.541016
6.880000 5.200000 -2.840000 25.688320 -28.890778 1494.566772
6.880000 5.200000 -2.800000 40.988598 -11.085320 1802.949463
6.920000 4.800000 -3.200000 -7.197811 57.205109 3324.233154
6.920000 4.800000 -3.160000 -31.716242 41.453079 2724.277832
6.920000 4.800000 -3.120000 -36.751751 13.878487 1543.303589
6.920000 4.800000 -3.080000 -20.989269 -5.580004 471.685883
6.920000 4.800000 -3.040000 -0.160450 -4.644077 21.593197
6.920000 4.800000 -3.000000 7.362154 10.281395 159.908401
6.920000 4.800000 -2.960000 -2.335643 20.889114 441.810333
6.920000 4.800000 -2.920000 -15.929375 15.168047 483.814636
6.920000 4.800000 -2.880000 -17.104908 -1.314346 294.305389
6.920000 4.800000 -2.840000 -3.005708 -12.213041 158.192657
6.920000 4.800000 -2.800000 13.959764 -7.611639 252.812042
6.920000 4.840000 -3.200000 -35.952187 40.213074 2909.650879
6.920000 4.840000 -3.160000 -37.585484 23.064590 1944.643921
6.920000 4.840000 -3.120000 -29.932981 16.078671 1154.507080
6.920000 4.840000 -3.080000 -27.296207 19.995880 1144.918213
6.920000 4.840000 -3.040000 -36.697144 22.389420 1847.966431
6.920000 4.840000 -3.000000 -49.726978 10.904182 2591.673584
6.920000 4.840000 -2.960000 -50.306606 -12.698753 2692.012939
6.920000 4.840000 -2.920000 -31.276024 -32.394596 2027.599609
6.920000 4.840000 -2.880000 -2.987988 -32.698029 1078.089233
6.920000 4.840000 -2.840000 15.417066 -13.828743 428.920044
6.920000 4.840000 -2.800000 13.795574 8.183455 257.286804
6.920000 4.880000 -3.200000 -44.779022 8.049145 2069.949707
6.920000 4.880000 -3.160000 -32.927471 9.674818 1177.820435
6.920000 4.880000 -3.120000 -37.942623 24.495895 2039.691650
6.920000 4.880000 -3.080000 -65.203499 27.126907 4987.365234
6.920000 4.880000 -3.040000 -92.830002 -1.198715 8618.845703
6.920000 4.880000 -3.000000 -90.479225 -50.383057 10724.942383
6.920000 4.880000 -2.960000 -49.409573 -86.772491 9970.771484
6.920000 4.880000 -2.920000 6.224632 -82.773636 6890.220703
6.920000 4.880000 -2.880000 39.342388 -42.535004 3357.050049
6.920000 4.880000 -2.840000 32.536293 1.706383 1061.522095
6.920000 4.880000 -2.800000 1.900753 19.135008 369.761383
6.920000 4.920000 -3.200000 -29.489504 -19.231766 1239.491699
6.920000 4.920000 -3.160000 -26.633984 4.369506 728.461670
6.920000 4.920000 -3.120000 -59.342556 19.161070 3888.685547
6.920000 4.920000 -3.080000 -103.423271 -8.775532 10773.382812
6.920000 4.920000 -3.040000 -112.393112 -75.612488 18349.460938
6.920000 4.920000 -3.000000 -62.229031 -136.047577 22381.394531
6.920000 4.920000 -2.960000 21.291584 -141.705948 20533.908203
6.920000 4.920000 -2.920000 81.867371 -85.930450 14086.308594
6.920000 4.920000 -2.880000 81.767311 -10.914387 6805.017090
6.920000 4.920000 -2.840000 33.657005 30.248997 2047.795898
6.920000 4.920000 -2.800000 -14.789610 19.650776 604.885559
6.920000 4.960000 -3.200000 -3.097424 -26.522652 713.045105
6.920000 4.960000 -3.160000 -24.424088 1.897627 600.137085
6.920000 4.960000 -3.120000 -74.234840 -8.793402 5588.135254
6.920000 4.960000 -3.080000 -101.405762 -72.886864 15595.624023
6.920000 4.960000 -3.040000 -62.219002 -150.139282 26413.007812
6.920000 4.960000 -3.000000 32.799599 -176.431122 32203.755859
6.920000 4.960000 -2.960000 121.182800 -122.542572 29701.953125
6.920000 4.960000 -2.920000 141.591461 -23.784294 20613.835938
6.920000 4.960000 -2.880000 87.619118 49.985287 10175.638672
6.920000 4.960000 -2.840000 10.638807 55.508797 3194.410889
6.920000 4.960000 -2.800000 -29.528688 9.728542 966.587952
6.920000 5.000000 -3.200000 15.870993 -15.210087 483.235168
6.920000 5.000000 -3.160000 -23.923174 -3.993301 588.264709
6.920000 5.000000 -3.120000 -63.206444 -45.835361 6095.934570
6.920000 5.000000 -3.080000 -48.478413 -120.750519 16930.843750
6.920000 5.000000 -3.040000 33.389824 -166.080627 28697.656250
6.920000 5.000000 -3.000000 133.407196 -131.933044 35203.808594
6.920000 5.000000 -2.960000 178.576523 -30.957474 32847.937500
6.920000 5.000000 -2.920000 136.392349 68.278793 23264.867188
6.920000 5.000000 -2.880000 43.570171 100.298813 11958.210938
6.920000 5.000000 -2.840000 -28.564552 57.841049 4161.520508
6.920000 5.000000 -2.800000 -37.323421 -8.602515 1467.041138
6.920000 5.040000 -3.200000 18.939827 0.410259 358.885345
6.920000 5.040000 -3.160000 -18.566320 -13.098589 516.281250
6.920000 5.040000 -3.120000 -26.834925 -66.941811 5201.319336
6.920000 5.040000 -3.080000 24.277151 -117.371109 14365.357422
6.920000 5.040000 -3.040000 111.669456 -109.222023 24399.517578
6.920000 5.040000 -3.000000 171.096710 -29.705482 30156.500000
6.920000 5.040000 -2.960000 152.368576 73.000732 28545.291016
6.920000 5.040000 -2.920000 65.881332 128.206009 20777.130859
6.920000 5.040000 -2.880000 -25.422544 103.401917 11338.261719
6.920000 5.040000 -2.840000 -61.259647 29.521364 4624.255371
6.920000 5.040000 -2.800000 -33.126274 -31.575806 2094.381348
6.920000 5.080000 -3.200000 12.573217 7.545012 215.013000
6.920000 5.080000 -3.160000 -5.710326 -18.680599 381.572601
6.920000 5.080000 -3.120000 13.755711 -57.886246 3540.036865
6.920000 5.080000 -3.080000 71.036308 -67.525429 9605.840820
6.920000 5.080000 -3.040000 125.661812 -21.174604 16239.254883
6.920000 5.080000 -3.000000 128.328979 60.669090 20149.064453
6.920000 5.080000 -2.960000 66.504501 122.222046 19361.078125
6.920000 5.080000 -2.920000 -20.631502 119.132172 14618.133789
6.920000 5.080000 -2.880000 -74.203323 56.795769 8731.892578
6.920000 5.080000 -2.840000 -64.884521 -16.014797 4466.474609
6.920000 5.080000 -2.800000 -13.270488 -50.830273 2759.822510
6.920000 5.120000 -3.200000 8.852192 5.671532 110.527573
6.920000 5.120000 -3.160000 9.533015 -14.457817 299.906860
6.920000 5.120000 -3.120000 35.263794 -27.085152 1977.140625
6.920000 5.120000 -3.080000 70.129692 -8.860966 4996.690430
6.920000 5.120000 -3.040000 81.365570 39.683281 8195.119141
6.920000 5.120000 -3.000000 48.462044 87.858170 10067.627930
6.920000 5.120000 -2.960000 -14.494259 97.947639 9803.824219
6.920000 5.120000 -2.920000 -66.736526 58.178955 7838.554688
6.920000 5.120000 -2.880000 -73.709961 -5.635477 5464.916992
6.920000 5.120000 -2.840000 -34.912552 -51.316360 3852.255127
6.920000 5.120000 -2.800000 18.563845 -54.371193 3300.842773
6.920000 5.160000 -3.200000 12.587402 3.885928 173.543137
6.920000 5.160000 -3.160000 18.465126 -1.275736 342.588379
6.920000 5.160000 -3.120000 31.149035 3.461679 982.245544
6.920000 5.160000 -3.080000 37.812675 23.018248 1959.638184
6.920000 5.160000 -3.040000 24.665236 47.629269 2876.920898
6.920000 5.160000 -3.000000 -8.345993 57.255318 3347.826904
6.920000 5.160000 -2.960000 -42.901268 38.110794 3292.951416
6.920000 5.160000 -2.920000 -54.656147 -3.218475 2997.653076
6.920000 5.160000 -2.880000 -32.901806 -42.272961 2869.531982
6.920000 5.160000 -2.840000 10.047968 -54.826450 3106.901367
6.920000 5.160000 -2.800000 48.339546 -34.915573 3555.809082
6.920000 5.200000 -3.200000 17.899921 9.241453 405.811646
6.920000 5.200000 -3.160000 16.591070 13.152332 448.247437
6.920000 5.200000 -3.120000 13.694809 17.708601 501.142334
6.920000 5.200000 -3.080000 7.212599 22.277493 548.308289
6.920000 5.200000 -3.040000 -4.163773 22.992096 545.973450
6.920000 5.200000 -3.000000 -17.000443 14.517826 499.782318
6.920000 5.200000 -2.960000 -22.600756 -4.232010 528.704041
6.920000 5.200000 -2.920000 -12.677854 -25.783226 825.502686
6.920000 5.200000 -2.880000 12.607939 -36.765274 1510.645508
6.920000 5.200000 -2.840000 41.851082 -27.185518 2490.565430
6.920000 5.200000 -2.800000 58.739353 1.103917 3451.530273
6.960000 4.800000 -3.200000 -50.174889 56.829987 5747.166992
6.960000 4.800000 -3.160000 -67.872002 22.134565 5096.547363
6.960000 4.800000 -3.120000 -56.447536 -13.226227 3361.257568
6.960000 4.800000 -3.080000 -27.173862 -27.205462 1478.555908
6.960000 4.800000 -3.040000 -3.909687 -16.697865 294.104340
6.960000 4.800000 -3.000000 -1.274297 0.981705 2.587576
6.960000 4.800000 -2.960000 -12.390278 6.024635 189.815216
6.960000 4.800000 -2.920000 -18.111015 -4.716076 350.250244
6.960000 4.800000 -2.880000 -7.671383 -16.548027 332.687317
6.960000 4.800000 -2.840000 10.914224 -13.940367 313.454102
6.960000 4.800000 -2.800000 20.698996 2.960955 437.215668
6.960000 4.840000 -3.200000 -71.785294 15.997350 5409.043457
6.960000 4.840000 -3.160000 -64.608765 -8.138424 4240.526367
6.960000 4.840000 -3.120000 -50.535828 -17.534575 2861.331055
6.960000 4.840000 -3.080000 -43.856411 -17.243950 2220.738525
6.960000 4.840000 -3.040000 -45.964237 -21.178879 2561.256104
6.960000 4.840000 -3.000000 -44.619686 -35.852428 3276.312988
6.960000 4.840000 -2.960000 -28.142349 -51.977089 3493.609375
6.960000 4.840000 -2.920000 0.201389 -53.239010 2834.432617
6.960000 4.840000 -2.880000 23.174986 -33.643227 1668.946655
6.960000 4.840000 -2.840000 25.636719 -5.191328 684.191223
6.960000 4.840000 -2.800000 9.464771 12.626007 248.997955
6.960000 4.880000 -3.200000 -58.985435 -27.779345 4250.973633
6.960000 4.880000 -3.160000 -47.253067 -26.281986 2923.595215
6.960000 4.880000 -3.120000 -54.822945 -21.494593 3467.572754
6.960000 4.880000 -3.080000 -72.647400 -37.208519 6662.118164
6.960000 4.880000 -3.040000 -72.659637 -76.128082 11074.908203
6.960000 4.880000 -3.000000 -36.768028 -112.273010 13957.116211
6.960000 4.880000 -2.960000 21.311165 -113.497864 13335.930664
6.960000 4.880000 -2.920000 64.884575 -72.850456 9517.197266
6.960000 4.880000 -2.880000 66.623184 -17.270229 4736.909180
6.960000 4.880000 -2.840000 32.983856 15.884689 1340.258179
6.960000 4.880000 -2.800000 -3.106524 11.759098 147.926865
6.960000 4.920000 -3.200000 -22.074236 -48.759365 2864.747559
6.960000 4.920000 -3.160000 -29.242207 -30.288015 1772.470459
6.960000 4.920000 -3.120000 -60.953449 -38.761444 5217.772461
6.960000 4.920000 -3.080000 -76.532860 -88.810669 13744.613281
6.960000 4.920000 -3.040000 -39.110603 -148.928696 23709.394531
6.960000 4.920000 -3.000000 43.336933 -166.106812 29469.562500
6.960000 4.920000 -2.960000 118.642197 -115.948746 27520.082031
6.960000 4.920000 -2.920000 135.240128 -28.623173 19109.177734
6.960000 4.920000 -2.880000 88.319153 36.361404 9122.424805
6.960000 4.920000 -2.840000 22.379715 42.571846 2313.213623
6.960000 4.920000 -2.800000 -11.347023 5.538778 159.432999
6.960000 4.960000 -3.200000 13.925135 -39.534103 1756.854736
6.960000 4.960000 -3.160000 -17.578178 -27.845228 1084.349121
6.960000 4.960000 -3.120000 -51.027256 -66.552109 7032.963867
6.960000 4.960000 -3.080000 -32.575226 -137.540878 19978.638672
6.960000 4.960000 -3.040000 51.519501 -178.636627 34565.304688
6.960000 4.960000 -3.000000 152.212753 -140.219025 42830.097656
6.960000 4.960000 -2.960000 196.622986 -35.816441 39943.414062
6.960000 4.960000 -2.920000 153.403824 65.289978 27795.513672
6.960000 4.960000 -2.880000 60.852631 98.391136 13383.858398
6.960000 4.960000 -2.840000 -9.504330 58.407097 3501.721191
6.960000 4.960000 -2.800000 -17.117998 -2.501502 299.283356
6.960000 5.000000 -3.200000 29.940166 -13.764364 1085.871338
6.960000 5.000000 -3.160000 -9.750774 -25.740944 757.673767
6.960000 5.000000 -3.120000 -18.279463 -85.167320 7587.611328
6.960000 5.000000 -3.080000 41.522285 -141.994324 21886.488281
6.960000 5.000000 -3.040000 143.879547 -131.231964 37923.152344
6.960000 5.000000 -3.000000 213.960266 -37.347260 47173.812500
6.960000 5.000000 -2.960000 193.365906 83.622910 44383.164062
6.960000 5.000000 -2.920000 94.684875 149.890152 31432.285156
6.960000 5.000000 -2.880000 -9.071547 125.114990 15736.053711
6.960000 5.000000 -2.840000 -49.899078 46.464096 4648.830078
6.960000 5.000000 -2.800000 -21.130882 -15.327791 681.455383
6.960000 5.040000 -3.200000 25.473618 8.499372 721.144531
6.960000 5.040000 -3.160000 -0.862694 -23.334591 545.247375
6.960000 5.040000 -3.120000 22.599852 -76.667969 6388.730957
6.960000 5.040000 -3.080000 99.679749 -92.731369 18535.160156
6.960000 5.040000 -3.040000 176.653549 -32.639935 32271.841797
6.960000 5.040000 -3.000000 185.424500 78.240021 40503.746094
6.960000 5.040000 -2.960000 106.979645 165.162201 38723.195312
6.960000 5.040000 -2.920000 -7.460346 167.964233 28267.640625
6.960000 5.040000 -2.880000 -80.128746 93.298050 15125.142578
6.960000 5.040000 -2.840000 -73.467316 5.216846 5424.661621
6.960000 5.040000 -2.800000 -16.230965 -34.636669 1463.143066
6.960000 5.080000 -3.200000 13.508982 17.511568 489.147614
6.960000 5.080000 -3.160000 8.494223 -16.036436 329.319122
6.960000 5.080000 -3.120000 47.142200 -43.309776 4098.123535
6.960000 5.080000 -3.080000 107.407196 -21.756868 12009.666992
6.960000 5.080000 -3.040000 135.062836 53.361004 21089.365234
6.960000 5.080000 -3.000000 92.389603 135.202377 26815.523438
6.960000 5.080000 -2.960000 -2.622524 161.973816 26242.394531
6.960000 5.080000 -2.920000 -87.245575 111.580391 20061.974609
6.960000 5.080000 -2.880000 -106.952888 21.682404 11909.046875
6.960000 5.080000 -2.840000 -60.304466 -44.218517 5591.905762
6.960000 5.080000 -2.800000 5.871395 -51.053658 2640.949219
6.960000 5.120000 -3.200000 5.631289 17.601122 341.510925
6.960000 5.120000 -3.160000 12.529425 -3.246931 167.529037
6.960000 5.120000 -3.120000 43.061432 -6.501411 1896.555176
6.960000 5.120000 -3.080000 70.310600 26.317549 5636.193848
6.960000 5.120000 -3.040000 59.646217 80.263123 9999.839844
6.960000 5.120000 -3.000000 3.377007 113.598358 12915.991211
6.960000 5.120000 -2.960000 -66.034416 93.321289 13069.407227
6.960000 5.120000 -2.920000 -100.338989 26.708492 10781.256836
6.960000 5.120000 -2.880000 -76.275772 -42.458714 7620.735840
6.960000 5.120000 -2.840000 -14.442718 -70.293808 5149.811523
6.960000 5.120000 -2.800000 40.650650 -47.577431 3916.087158
6.960000 5.160000 -3.200000 2.924859 17.605711 318.515869
6.960000 5.160000 -3.160000 7.472834 9.053751 137.813644
6.960000 5.160000 -3.120000 20.268721 12.457174 566.002258
6.960000 5.160000 -3.080000 24.577438 32.208633 1641.446533
6.960000 5.160000 -3.040000 5.739456 53.719376 2918.712646
6.960000 5.160000 -3.000000 -31.092194 53.340454 3811.928711
6.960000 5.160000 -2.960000 -60.383438 20.691048 4074.279053
6.960000 5.160000 -2.920000 -56.378517 -28.128281 3969.737305
6.960000 5.160000 -2.880000 -16.288548 -60.950157 3980.238281
6.960000 5.160000 -2.840000 35.637177 -55.367123 4335.526367
6.960000 5.160000 -2.800000 67.395287 -16.401009 4811.117676
6.960000 5.200000 -3.200000 -0.335937 20.285845 411.628357
6.960000 5.200000 -3.160000 -3.218691 13.878346 202.968475
6.960000 5.200000 -3.120000 -0.290909 10.068515 101.459618
6.960000 5.200000 -3.080000 1.746819 12.641088 162.848495
6.960000 5.200000 -3.040000 -4.011734 16.076954 274.562439
6.960000 5.200000 -3.000000 -14.949255 10.027023 324.021423
6.960000 5.200000 -2.960000 -18.359955 -8.702965 412.829529
6.960000 5.200000 -2.920000 -2.841324 -29.148487 857.707397
6.960000 5.200000 -2.880000 28.689636 -33.064190 1916.335815
6.960000 5.200000 -2.840000 57.889599 -10.831477 3468.526367
6.960000 5.200000 -2.800000 64.503395 28.468962 4971.169922
7.000000 4.800000 -3.200000 -79.635498 24.887133 6961.181641
7.000000 4.800000 -3.160000 -78.838158 -18.757889 6567.313477
7.000000 4.800000 -3.120000 -49.469803 -49.030758 4851.276367
7.000000 4.800000 -3.080000 -12.265011 -50.241005 2674.589111
7.000000 4.800000 -3.040000 8.959883 -29.837936 970.581909
7.000000 4.800000 -3.000000 7.722984 -9.874226 157.144806
7.000000 4.800000 -2.960000 -2.132309 -5.530262 35.130539
7.000000 4.800000 -2.920000 -2.976822 -12.330580 160.904663
7.000000 4.800000 -2.880000 8.297482 -14.141047 268.817383
7.000000 4.800000 -2.840000 18.934181 -2.158522 363.162415
7.000000 4.800000 -2.800000 15.916372 15.776661 502.233948
7.000000 4.840000 -3.200000 -78.750656 -27.237902 6943.569336
7.000000 4.840000 -3.160000 -59.841389 -50.675594 6149.007812
7.000000 4.840000 -3.120000 -37.676956 -57.724159 4751.631836
7.000000 4.840000 -3.080000 -22.893652 -55.865715 3645.097412
7.000000 4.840000 -3.040000 -13.889004 -55.542908 3277.918945
7.000000 4.840000 -3.000000 -1.678040 -58.103096 3378.785645
7.000000 4.840000 -2.960000 17.339142 -54.764072 3299.749268
7.000000 4.840000 -2.920000 34.869583 -37.752266 2641.121582
7.000000 4.840000 -2.880000 38.069809 -11.386993 1578.973877
7.000000 4.840000 -2.840000 23.363688 9.484260 635.813049
7.000000 4.840000 -2.800000 1.800381 13.010715 172.520096
7.000000 4.880000 -3.200000 -42.284912 -63.394341 5806.856445
7.000000 4.880000 -3.160000 -29.535423 -62.390953 4764.972168
7.000000 4.880000 -3.120000 -29.796041 -65.714905 5206.252930
7.000000 4.880000 -3.080000 -26.538260 -84.893799 7911.236328
7.000000 4.880000 -3.040000 -0.577629 -107.965317 11656.843750
7.000000 4.880000 -3.000000 46.093964 -108.850662 13973.120117
7.000000 4.880000 -2.960000 86.992760 -74.018623 13046.497070
7.000000 4.880000 -2.920000 93.743805 -19.298779 9160.343750
7.000000 4.880000 -2.880000 62.934769 21.565323 4425.848145
7.000000 4.880000 -2.840000 20.195492 26.396942 1104.656494
7.000000 4.880000 -2.800000 -2.989175 3.451145 20.845570
7.000000 4.920000 -3.200000 5.466244 -64.299179 4164.264160
7.000000 4.920000 -3.160000 -4.087675 -56.210716 3176.353516
7.000000 4.920000 -3.120000 -17.484272 -78.684052 6496.879883
7.000000 4.920000 -3.080000 2.347015 -121.295639 14718.140625
7.000000 4.920000 -3.040000 65.156830 -141.523926 24274.433594
7.000000 4.920000 -3.000000 136.042160 -105.307785 29597.199219
7.000000 4.920000 -2.960000 163.321793 -23.967152 27248.431641
7.000000 4.920000 -2.920000 126.179184 51.323162 18555.253906
7.000000 4.920000 -2.880000 54.786087 74.029572 8481.892578
7.000000 4.920000 -2.840000 2.700113 42.617710 1823.559814
7.000000 4.920000 -2.800000 -1.156840 -2.137335 5.906480
7.000000 4.960000 -3.200000 36.655663 -36.290268 2660.621094
7.000000 4.960000 -3.160000 10.375713 -42.824776 1941.616821
7.000000 4.960000 -3.120000 8.354836 -88.055511 7823.576172
7.000000 4.960000 -3.080000 62.554512 -129.764587 20751.914062
7.000000 4.960000 -3.040000 150.158737 -112.804855 35272.582031
7.000000 4.960000 -3.000000 206.396774 -25.771030 43263.773438
7.000000 4.960000 -2.960000 182.622223 80.769814 39874.636719
7.000000 4.960000 -2.920000 93.126564 136.092194 27193.642578
7.000000 4.960000 -2.880000 3.452288 111.792709 12509.528320
7.000000 4.960000 -2.840000 -28.716688 44.112316 2770.544678
7.000000 4.960000 -2.800000 -1.953787 -4.166609 21.177912
7.000000 5.000000 -3.200000 40.305923 -1.870504 1628.066284
7.000000 5.000000 -3.160000 17.097622 -29.503286 1162.772583
7.000000 5.000000 -3.120000 42.347527 -78.565659 7965.875488
7.000000 5.000000 -3.080000 119.971954 -89.721497 22443.216797
7.000000 5.000000 -3.040000 195.110214 -24.597157 38673.015625
7.000000 5.000000 -3.000000 199.684021 89.239059 47837.316406
7.000000 5.000000 -2.960000 117.278320 175.584381 44584.078125
7.000000 5.000000 -2.920000 2.284206 176.098175 31015.783203
7.000000 5.000000 -2.880000 -67.491974 101.750183 14908.265625
7.000000 5.000000 -2.840000 -58.745209 19.272762 3822.438965
7.000000 5.000000 -2.800000 -5.551352 -12.123005 177.784760
7.000000 5.040000 -3.200000 25.277897 20.223648 1047.968018
7.000000 5.040000 -3.160000 19.740583 -16.494579 661.761780
7.000000 5.040000 -3.120000 65.215958 -46.352085 6401.636719
7.000000 5.040000 -3.080000 135.462051 -18.695690 18699.496094
7.000000 5.040000 -3.040000 166.248886 71.179306 32705.185547
7.000000 5.040000 -3.000000 114.553062 167.093094 41042.507812
7.000000 5.040000 -2.960000 3.800907 197.572601 39049.378906
7.000000 5.040000 -2.920000 -92.262650 140.204742 28169.765625
7.000000 5.040000 -2.880000 -113.595139 41.674629 14640.629883
7.000000 5.040000 -2.840000 -63.942196 -25.897240 4759.271484
7.000000 5.040000 -2.800000 0.154114 -28.418333 807.625366
7.000000 5.080000 -3.200000 7.143542 26.433292 749.749146
7.000000 5.080000 -3.160000 17.186340 -2.916407 303.875732
7.000000 5.080000 -3.120000 61.249443 -7.056330 3801.286133
7.000000 5.080000 -3.080000 100.257874 40.220818 11669.355469
7.000000 5.080000 -3.040000 85.536880 116.687973 20932.640625
7.000000 5.080000 -3.000000 8.078182 163.805695 26897.562500
7.000000 5.080000 -2.960000 -85.899628 138.080536 26444.980469
7.000000 5.080000 -2.920000 -132.100327 52.563515 20213.419922
7.000000 5.080000 -2.880000 -103.835327 -33.165146 11881.702148
7.000000 5.080000 -2.840000 -32.672863 -65.212181 5320.144531
7.000000 5.080000 -2.800000 24.201168 -38.996407 2106.416260
7.000000 5.120000 -3.200000 -5.532879 23.944336 603.943970
7.000000 5.120000 -3.160000 7.350615 7.588531 111.617332
7.000000 5.120000 -3.120000 34.497414 16.320904 1456.443359
7.000000 5.120000 -3.080000 43.539589 55.479164 4973.633789
7.000000 5.120000 -3.040000 10.033913 96.315857 9377.423828
7.000000 5.120000 -3.000000 -53.800518 98.219849 12541.634766
7.000000 5.120000 -2.960000 -103.841583 47.230106 13013.756836
7.000000 5.120000 -2.920000 -101.185585 -27.240211 10980.551758
7.000000 5.120000 -2.880000 -46.750816 -75.661438 7910.291992
7.000000 5.120000 -2.840000 19.972538 -70.141327 5318.708008
7.000000 5.120000 -2.800000 56.130886 -25.041107 3777.733398
7.000000 5.160000 -3.200000 -13.400258 19.419567 556.686523
7.000000 5.160000 -3.160000 -6.448959 9.258497 127.308853
7.000000 5.160000 -3.120000 5.960539 14.041389 232.688629
7.000000 5.160000 -3.080000 5.020233 32.359322 1072.328491
7.000000 5.160000 -3.040000 -18.318031 44.317833 2299.620605
7.000000 5.160000 -3.000000 -49.763134 29.247204 3331.768311
7.000000 5.160000 -2.960000 -60.977791 -11.980606 3861.825928
7.000000 5.160000 -2.920000 -35.095207 -53.236675 4065.817139
7.000000 5.160000 -2.880000 15.935783 -63.785549 4322.545410
7.000000 5.160000 -2.840000 59.711632 -34.574203 4760.854492
7.000000 5.160000 -2.800000 69.927902 14.662671 5104.905762
7.000000 5.200000 -3.200000 -19.187208 13.789751 558.306152
7.000000 5.200000 -3.160000 -16.016565 1.541756 258.907379
7.000000 5.200000 -3.120000 -5.733950 -2.613794 39.710098
7.000000 5.200000 -3.080000 0.565540 2.865465 8.530726
7.000000 5.200000 -3.040000 -3.677902 8.038536 78.145027
7.000000 5.200000 -3.000000 -11.655580 1.695312 138.726624
7.000000 5.200000 -2.960000 -8.463043 -15.027946 297.462280
7.000000 5.200000 -2.920000 13.308594 -26.554012 882.234192
7.000000 5.200000 -2.880000 43.274815 -16.211674 2135.527832
7.000000 5.200000 -2.840000 59.776802 17.215694 3869.646240
7.000000 5.200000 -2.800000 47.982002 56.103653 5449.892578
7.040000 4.800000 -3.200000 -77.240509 -15.604996 6209.612305
7.040000 4.800000 -3.160000 -57.858604 -53.450241 6204.546387
7.040000 4.800000 -3.120000 -18.297756 -69.003845 5096.338867
7.040000 4.800000 -3.080000 18.309856 -55.269444 3389.962402
7.040000 4.800000 -3.040000 32.987274 -26.011303 1764.748169
7.040000 4.800000 -3.000000 25.760723 -2.842763 671.696167
7.040000 4.800000 -2.960000 12.441814 3.690615 168.419388
7.040000 4.800000 -2.920000 7.564245 0.636948 57.623505
7.040000 4.800000 -2.880000 11.154226 1.611628 127.014107
7.040000 4.800000 -2.840000 12.068594 11.082731 268.477905
7.040000 4.800000 -2.800000 2.596889 20.557369 429.349274
7.040000 4.840000 -3.200000 -54.251770 -60.124741 6558.239258
7.040000 4.840000 -3.160000 -26.960655 -75.728172 6461.632812
7.040000 4.840000 -3.120000 1.079262 -74.942574 5617.554199
7.040000 4.840000 -3.080000 21.427660 -63.564850 4499.634766
7.040000 4.840000 -3.040000 33.341389 -49.154121 3527.775879
7.040000 4.840000 -3.000000 40.288795 -34.615658 2821.430664
7.040000 4.840000 -2.960000 43.434944 -18.548683 2230.647949
7.040000 4.840000 -2.920000 39.779320 -0.997612 1583.389526
7.040000 4.840000 -2.880000 26.977413 12.854355 893.015259
7.040000 4.840000 -2.840000 9.008779 16.144823 341.813385
7.040000 4.840000 -2.800000 -4.712702 7.703855 81.558937
7.040000 4.880000 -3.200000 -7.323909 -75.847473 5806.479004
7.040000 4.880000 -3.160000 7.862862 -74.124825 5556.314453
7.040000 4.880000 -3.120000 18.961218 -75.740143 6096.097168
7.040000 4.880000 -3.080000 37.396908 -79.985687 7796.238770
7.040000 4.880000 -3.040000 66.389526 -73.489456 9808.269531
7.040000 4.880000 -3.000000 92.568306 -45.211185 10612.943359
7.040000 4.880000 -2.960000 96.095261 -1.813065 9237.585938
7.040000 4.880000 -2.920000 70.302017 33.929867 6093.609375
7.040000 4.880000 -2.880000 30.695538 41.901566 2697.957275
7.040000 4.880000 -2.840000 3.065832 22.783901 528.505493
7.040000 4.880000 -2.800000 1.424651 -2.598733 8.783045
7.040000 4.920000 -3.200000 34.736004 -56.645302 4415.280273
7.040000 4.920000 -3.160000 31.544121 -55.748528 4102.930176
7.040000 4.920000 -3.120000 39.139000 -72.919693 6849.143066
7.040000 4.920000 -3.080000 74.886635 -85.361649 12894.619141
7.040000 4.920000 -3.040000 124.548874 -62.990139 19480.179688
7.040000 4.920000 -3.000000 150.228668 -2.093338 22573.035156
7.040000 4.920000 -2.960000 125.552231 64.600677 19936.609375
7.040000 4.920000 -2.920000 63.201508 94.458839 12916.903320
7.040000 4.920000 -2.880000 5.967144 73.258438 5402.405762
7.040000 4.920000 -2.840000 -11.063454 27.416420 874.060120
7.040000 4.920000 -2.800000 9.742450 -1.798828 98.151108
7.040000 4.960000 -3.200000 51.128025 -19.149063 2980.761475
7.040000 4.960000 -3.160000 40.553570 -32.659271 2711.220215
7.040000 4.960000 -3.120000 62.179634 -59.790997 7441.270508
7.040000 4.960000 -3.080000 118.077820 -58.343124 17346.291016
7.040000 4.960000 -3.040000 167.477295 -2.441648 28054.605469
7.040000 4.960000 -3.000000 161.769882 84.667282 33338.042969
7.040000 4.960000 -2.960000 92.781639 145.492554 29776.515625
7.040000 4.960000 -2.920000 4.819723 139.328018 19435.527344
7.040000 4.960000 -2.880000 -43.665432 79.457703 8220.196289
7.040000 4.960000 -2.840000 -31.762455 19.456005 1387.389648
7.040000 4.960000 -2.800000 9.406868 2.734383 95.966019
7.040000 5.000000 -3.200000 41.289928 13.812446 1895.641846
7.040000 5.000000 -3.160000 38.771896 -11.939044 1645.800659
7.040000 5.000000 -3.120000 77.926956 -31.154387 7043.206055
7.040000 5.000000 -3.080000 135.351669 -0.900174 18320.884766
7.040000 5.000000 -3.040000 155.449127 80.586845 30658.671875
7.040000 5.000000 -3.000000 103.500511 162.442612 37099.957031
7.040000 5.000000 -2.960000 4.003746 183.542191 33703.765625
7.040000 5.000000 -2.920000 -76.922707 129.002029 22558.626953
7.040000 5.000000 -2.880000 -90.007446 44.338768 10067.266602
7.040000 5.000000 -2.840000 -44.878124 -7.214437 2066.094238
7.040000 5.000000 -2.800000 4.716985 -1.401868 24.215178
7.040000 5.040000 -3.200000 18.806583 29.873486 1246.112671
7.040000 5.040000 -3.160000 29.476067 4.487514 888.976318
7.040000 5.040000 -3.120000 72.736542 4.980887 5315.413574
7.040000 5.040000 -3.080000 108.161179 56.556618 14897.492188
7.040000 5.040000 -3.040000 87.567223 134.260162 25693.808594
7.040000 5.040000 -3.000000 5.461540 178.246643 31801.693359
7.040000 5.040000 -2.960000 -88.315445 147.899231 29673.798828
7.040000 5.040000 -2.920000 -130.175598 61.697739 20752.296875
7.040000 5.040000 -2.880000 -99.264099 -18.178902 10183.833984
7.040000 5.040000 -2.840000 -33.319977 -41.909111 2866.594238
7.040000 5.040000 -2.800000 10.373062 -13.362110 286.146423
7.040000 5.080000 -3.200000 -2.780005 30.313038 926.608704
7.040000 5.080000 -3.160000 13.835790 14.288956 395.603333
7.040000 5.080000 -3.120000 44.988777 29.405811 2888.691895
7.040000 5.080000 -3.080000 51.178268 79.112007 8877.924805
7.040000 5.080000 -3.040000 6.116928 126.416718 16018.603516
7.040000 5.080000 -3.000000 -71.111740 124.473648 20550.568359
7.040000 5.080000 -2.960000 -127.093918 62.234032 20025.939453
7.040000 5.080000 -2.920000 -120.822594 -21.232655 15048.924805
7.040000 5.080000 -2.880000 -60.740013 -70.006958 8590.323242
7.040000 5.080000 -2.840000 4.523520 -60.108166 3633.453857
7.040000 5.080000 -2.800000 31.603329 -16.240833 1262.535034
7.040000 5.120000 -3.200000 -17.707163 21.992531 797.215027
7.040000 5.120000 -3.160000 -4.372601 13.372863 197.953094
7.040000 5.120000 -3.120000 10.946224 28.139935 911.675720
7.040000 5.120000 -3.080000 1.665001 58.060444 3373.787354
7.040000 5.120000 -3.040000 -38.946533 71.851662 6679.493652
7.040000 5.120000 -3.000000 -84.775497 44.549908 9171.579102
7.040000 5.120000 -2.960000 -97.209206 -14.963566 9673.538086
7.040000 5.120000 -2.920000 -60.799652 -67.682838 8277.564453
7.040000 5.120000 -2.880000 1.142956 -77.808868 6055.526367
7.040000 5.120000 -2.840000 46.939156 -43.508377 4096.263184
7.040000 5.120000 -2.800000 52.669594 4.497587 2794.314453
7.040000 5.160000 -3.200000 -25.504257 9.862180 747.729736
7.040000 5.160000 -3.160000 -16.837053 1.329260 285.253296
7.040000 5.160000 -3.120000 -7.749578 6.488913 102.161957
7.040000 5.160000 -3.080000 -12.741558 17.792398 478.916748
7.040000 5.160000 -3.040000 -31.516258 16.804203 1275.655762
7.040000 5.160000 -3.000000 -45.508560 -6.306656 2110.802979
7.040000 5.160000 -2.960000 -34.383072 -39.373985 2732.506348
7.040000 5.160000 -2.920000 2.988041 -56.350845 3184.346191
7.040000 5.160000 -2.880000 44.625423 -40.361244 3620.458496
7.040000 5.160000 -2.840000 63.389214 0.674100 4018.646729
7.040000 5.160000 -2.800000 49.577911 41.007370 4139.573730
7.040000 5.200000 -3.200000 -26.027550 -3.143974 687.317932
7.040000 5.200000 -3.160000 -16.660021 -14.257123 480.821838
7.040000 5.200000 -3.120000 -3.374981 -15.049685 237.883514
7.040000 5.200000 -3.080000 3.731036 -7.942871 77.009834
7.040000 5.200000 -3.040000 2.323014 -3.036171 14.614729
7.040000 5.200000 -3.000000 0.888916 -6.792114 46.922989
7.040000 5.200000 -2.960000 9.677544 -13.669033 280.497314
7.040000 5.200000 -2.920000 28.392441 -10.387081 914.022156
7.040000 5.200000 -2.880000 43.812729 10.588379 2031.668945
7.040000 5.200000 -2.840000 40.699989 41.804333 3404.091309
7.040000 5.200000 -2.800000 15.694921 65.454620 4530.637695
7.080000 4.800000 -3.200000 -50.793968 -37.968376 4021.624512
7.080000 4.800000 -3.160000 -22.977655 -61.056606 4255.881836
7.080000 4.800000 -3.120000 15.542337 -60.605633 3914.606934
7.080000 4.800000 -3.080000 43.817696 -35.163448 3156.458496
7.080000 4.800000 -3.040000 47.381020 -0.546310 2245.259277
7.080000 4.800000 -3.000000 29.717468 22.813923 1403.603027
7.080000 4.800000 -2.960000 7.785606 26.277044 751.098694
7.080000 4.800000 -2.920000 -3.796391 17.748329 329.415771
7.080000 4.800000 -2.880000 -4.311699 11.113468 142.099930
7.080000 4.800000 -2.840000 -3.709177 11.997798 157.705154
7.080000 4.800000 -2.800000 -9.525430 14.202445 292.443237
7.080000 4.840000 -3.200000 -19.440344 -64.643845 4556.753418
7.080000 4.840000 -3.160000 9.315219 -69.954765 4980.442871
7.080000 4.840000 -3.120000 37.152893 -58.584404 4812.469727
7.080000 4.840000 -3.080000 53.785225 -34.646721 4093.245605
7.080000 4.840000 -3.040000 54.690800 -8.013838 3055.305176
7.080000 4.840000 -3.000000 43.107994 11.876240 1999.344238
7.080000 4.840000 -2.960000 26.586052 21.032070 1149.166138
7.080000 4.840000 -2.920000 11.596823 21.101894 579.776245
7.080000 4.840000 -2.880000 0.935143 15.827422 251.381790
7.080000 4.840000 -2.840000 -5.041397 8.004534 89.488251
7.080000 4.840000 -2.800000 -6.196553 -0.527670 38.675701
7.080000 4.880000 -3.200000 21.569344 -62.266552 4342.360352
7.080000 4.880000 -3.160000 38.850143 -57.304054 4793.088379
7.080000 4.880000 -3.120000 55.210823 -48.270340 5378.260742
7.080000 4.880000 -3.080000 70.555954 -32.321651 6022.832031
7.080000 4.880000 -3.040000 79.089302 -7.184134 6306.729492
7.080000 4.880000 -3.000000 72.669350 22.130119 5770.576660
7.080000 4.880000 -2.960000 49.554619 43.325813 4332.786133
7.080000 4.880000 -2.920000 19.419872 45.554047 2452.302490
7.080000 4.880000 -2.880000 -1.938374 29.282209 861.205078
7.080000 4.880000 -2.840000 -4.616322 7.371592 75.650787
7.080000 4.880000 -2.800000 7.477978 -4.760792 78.585289
7.080000 4.920000 -3.200000 48.972626 -34.578259 3593.974121
7.080000 4.920000 -3.160000 54.289619 -32.135948 3980.082031
7.080000 4.920000 -3.120000 69.350418 -31.339699 5791.657227
7.080000 4.920000 -3.080000 92.892502 -16.081089 8887.618164
7.080000 4.920000 -3.040000 106.181442 21.066399 11718.291992
7.080000 4.920000 -3.000000 89.876541 65.404366 12355.523438
7.080000 4.920000 -2.960000 45.593887 89.194183 10034.405273
7.080000 4.920000 -2.920000 -1.063898 76.523346 5856.954102
7.080000 4.920000 -2.880000 -21.330767 39.401844 2007.506958
7.080000 4.920000 -2.840000 -8.573141 8.036990 138.091949
7.080000 4.920000 -2.800000 16.778421 3.903536 296.752991
7.080000 4.960000 -3.200000 51.746269 0.633199 2678.077148
7.080000 4.960000 -3.160000 54.077087 -5.434859 2953.868896
7.080000 4.960000 -3.120000 76.374298 -6.527879 5875.646484
7.080000 4.960000 -3.080000 104.514091 20.361862 11337.800781
7.080000 4.960000 -3.040000 106.560013 73.461502 16751.628906
7.080000 4.960000 -3.000000 65.046768 120.411278 18729.957031
7.080000 4.960000 -2.960000 -0.851292 125.477631 15745.360352
7.080000 4.960000 -2.920000 -48.541916 84.107063 9430.315430
7.080000 4.960000 -2.880000 -49.854977 29.318668 3345.103027
7.080000 4.960000 -2.840000 -16.258608 1.891236 267.919098
7.080000 4.960000 -2.800000 13.855510 13.548482 375.536499
7.080000 5.000000 -3.200000 34.602749 26.363266 1892.372070
7.080000 5.000000 -3.160000 41.651817 15.845704 1985.960205
7.080000 5.000000 -3.120000 68.579330 22.715088 5219.099609
7.080000 5.000000 -3.080000 87.141022 63.581604 11636.177734
7.080000 5.000000 -3.040000 64.360092 119.002144 18303.730469
7.080000 5.000000 -3.000000 -0.626148 145.576187 21192.818359
7.080000 5.000000 -2.960000 -68.766235 116.562973 18315.722656
7.080000 5.000000 -2.920000 -94.021378 50.188480 11358.903320
7.080000 5.000000 -2.880000 -65.678421 -4.954268 4338.199707
7.080000 5.000000 -2.840000 -17.340155 -14.269294 504.293701
7.080000 5.000000 -2.800000 6.635743 12.828862 208.612793
7.080000 5.040000 -3.200000 9.660336 35.586697 1359.735107
7.080000 5.040000 -3.160000 21.027157 27.471563 1196.828125
7.080000 5.040000 -3.120000 42.434898 43.818684 3720.797607
7.080000 5.040000 -3.080000 41.392517 86.447906 9186.581055
7.080000 5.040000 -3.040000 -2.239342 123.212700 15186.383789
7.080000 5.040000 -3.000000 -69.312515 115.692360 18188.945312
7.080000 5.040000 -2.960000 -113.345886 58.537132 16273.885742
7.080000 5.040000 -2.920000 -102.600769 -10.979284 10647.462891
7.080000 5.040000 -2.880000 -50.342823 -45.490341 4603.770996
7.080000 5.040000 -2.840000 -1.883723 -30.489851 933.179443
7.080000 5.040000 -2.800000 8.693625 5.380497 104.528870
7.080000 5.080000 -3.200000 -12.667236 30.035240 1062.574585
7.080000 5.080000 -3.160000 -2.238015 25.781879 669.714050
7.080000 5.080000 -3.120000 7.774233 43.046844 1913.469482
7.080000 5.080000 -3.080000 -7.744432 71.679138 5197.875000
7.080000 5.080000 -3.040000 -52.057625 80.261703 9151.937500
7.080000 5.080000 -3.000000 -96.307693 47.313656 11513.753906
7.080000 5.080000 -2.960000 -103.529419 -13.157146 10891.451172
7.080000 5.080000 -2.920000 -64.392380 -60.489723 7805.384766
7.080000 5.080000 -2.880000 -7.743217 -63.816536 4132.507812
7.080000 5.080000 -2.840000 25.924952 -29.808205 1560.632080
7.080000 5.080000 -2.800000 21.393629 6.342242 497.911407
7.080000 5.120000 -3.200000 -26.376419 14.879936 917.127930
7.080000 5.120000 -3.160000 -19.125664 10.473560 475.486481
7.080000 5.120000 -3.120000 -15.733604 19.610521 632.118835
7.080000 5.120000 -3.080000 -29.918673 29.850128 1786.157104
7.080000 5.120000 -3.040000 -55.549133 20.619419 3510.866699
7.080000 5.120000 -3.000000 -68.451248 -13.342075 4863.583984
7.080000 5.120000 -2.960000 -49.463402 -51.993004 5149.900391
7.080000 5.120000 -2.920000 -5.365498 -66.202637 4411.577637
7.080000 5.120000 -2.880000 34.995232 -44.882408 3239.096680
7.080000 5.120000 -2.840000 46.510880 -5.340718 2191.785156
7.080000 5.120000 -2.800000 29.504110 23.738211 1433.995117
7.080000 5.160000 -3.200000 -28.479618 -3.627726 824.249023
7.080000 5.160000 -3.160000 -21.087435 -10.996661 565.606445
7.080000 5.160000 -3.120000 -14.635174 -9.977266 313.734161
7.080000 5.160000 -3.080000 -15.928536 -8.023983 318.102570
7.080000 5.160000 -3.040000 -20.038502 -14.827339 621.391541
7.080000 5.160000 -3.000000 -14.540304 -29.574905 1086.095459
7.080000 5.160000 -2.960000 6.390656 -39.011391 1562.729004
7.080000 5.160000 -2.920000 33.289108 -29.659466 1987.848633
7.080000 5.160000 -2.880000 48.229256 -1.911505 2329.714844
7.080000 5.160000 -2.840000 40.817375 28.910927 2501.899902
7.080000 5.160000 -2.800000 17.103725 45.859268 2395.609863
7.080000 5.200000 -3.200000 -19.285883 -17.972797 694.966736
7.080000 5.200000 -3.160000 -8.084065 -25.559942 718.662781
7.080000 5.200000 -3.120000 5.351503 -24.714600 639.450073
7.080000 5.200000 -3.080000 14.754004 -17.577738 526.657471
7.080000 5.200000 -3.040000 18.983067 -9.649323 453.466248
7.080000 5.200000 -3.000000 21.761997 -3.468994 485.618469
7.080000 5.200000 -2.960000 25.959866 3.797911 688.338745
7.080000 5.200000 -2.920000 28.993320 16.201950 1103.115723
7.080000 5.200000 -2.880000 24.640686 32.911362 1690.321045
7.080000 5.200000 -2.840000 9.464449 46.990650 2297.696777
7.080000 5.200000 -2.800000 -12.842715 50.513412 2716.540039
7.120000 4.800000 -3.200000 -24.378613 -34.159122 1761.162476
7.120000 4.800000 -3.160000 0.082697 -44.103745 1945.147095
7.120000 4.800000 -3.120000 29.722036 -33.749023 2022.395996
7.120000 4.800000 -3.080000 45.640404 -3.489838 2095.225342
7.120000 4.800000 -3.040000 35.844425 29.686626 2166.118652
7.120000 4.800000 -3.000000 7.083018 45.193134 2092.588623
7.120000 4.800000 -2.960000 -20.251141 36.366623 1732.639893
7.120000 4.800000 -2.920000 -29.914314 15.321680 1129.620117
7.120000 4.800000 -2.880000 -22.968105 0.349751 527.656189
7.120000 4.800000 -2.840000 -13.646978 -1.220783 187.730331
7.120000 4.800000 -2.800000 -13.138935 2.484519 178.804459
7.120000 4.840000 -3.200000 1.181705 -47.166328 2226.059082
7.120000 4.840000 -3.160000 25.383486 -45.099495 2678.285889
7.120000 4.840000 -3.120000 46.371975 -25.823818 2817.229736
7.120000 4.840000 -3.080000 50.602459 4.484812 2580.722412
7.120000 4.840000 -3.040000 34.105911 30.041985 2065.733887
7.120000 4.840000 -3.000000 6.973784 37.453712 1451.414185
7.120000 4.840000 -2.960000 -14.475848 26.260803 899.179932
7.120000 4.840000 -2.920000 -20.695072 8.039977 492.927246
7.120000 4.840000 -2.880000 -14.819155 -4.585361 240.632874
7.120000 4.840000 -2.840000 -6.754872 -7.974568 109.222031
7.120000 4.840000 -2.800000 -2.643119 -7.293290 60.178158
7.120000 4.880000 -3.200000 29.618370 -39.110184 2406.854248
7.120000 4.880000 -3.160000 46.177727 -29.549515 3005.556396
7.120000 4.880000 -3.120000 57.153702 -10.177299 3370.123047
7.120000 4.880000 -3.080000 55.776928 14.179634 3312.127686
7.120000 4.880000 -3.040000 40.356052 34.039238 2787.280762
7.120000 4.880000 -3.000000 16.877262 40.749371 1945.353271
7.120000 4.880000 -2.960000 -3.889278 32.371635 1063.049194
7.120000 4.880000 -2.920000 -13.055729 15.192453 401.262695
7.120000 4.880000 -2.880000 -9.020784 -0.497057 81.621613
7.120000 4.880000 -2.840000 2.359846 -7.085511 55.773342
7.120000 4.880000 -2.800000 12.571622 -3.747013 172.085770
7.120000 4.920000 -3.200000 45.916344 -14.608325 2321.713623
7.120000 4.920000 -3.160000 53.864265 -4.555396 2922.110840
7.120000 4.920000 -3.120000 59.868660 10.380571 3692.012695
7.120000 4.920000 -3.080000 58.738087 31.119587 4418.591797
7.120000 4.920000 -3.040000 44.367874 51.778229 4649.493164
7.120000 4.920000 -3.000000 17.895531 60.945068 4034.551270
7.120000 4.920000 -2.960000 -8.959431 50.974449 2678.666016
7.120000 4.920000 -2.920000 -21.100536 26.852407 1166.284424
7.120000 4.920000 -2.880000 -12.780306 4.661767 185.068283
7.120000 4.920000 -2.840000 6.355972 -0.917646 41.240452
7.120000 4.920000 -2.800000 18.852983 10.905646 474.368103
7.120000 4.960000 -3.200000 43.381409 13.844879 2073.627441
7.120000 4.960000 -3.160000 46.080765 20.572878 2546.680176
7.120000 4.960000 -3.120000 51.205574 32.654175 3688.305908
7.120000 4.960000 -3.080000 49.201870 54.395473 5379.691406
7.120000 4.960000 -3.040000 29.186476 76.531296 6708.889648
7.120000 4.960000 -3.000000 -5.885225 81.164383 6622.292969
7.120000 4.960000 -2.960000 -36.460293 59.520073 4871.992188
7.120000 4.960000 -2.920000 -42.157341 24.042130 2355.265381
7.120000 4.960000 -2.880000 -21.666166 0.045580 469.424835
7.120000 4.960000 -2.840000 4.251284 2.991969 27.025295
7.120000 4.960000 -2.800000 11.525909 23.813229 699.916504
7.120000 5.000000 -3.200000 24.886395 33.973553 1773.534912
7.120000 5.000000 -3.160000 25.243841 37.246300 2024.538330
7.120000 5.000000 -3.120000 28.716202 48.827080 3208.704102
7.120000 5.000000 -3.080000 20.787525 70.382965 5385.882812
7.120000 5.000000 -3.040000 -8.052861 85.880814 7440.362793
7.120000 5.000000 -3.000000 -46.397556 75.614319 7870.258789
7.120000 5.000000 -2.960000 -67.929207 38.741707 6115.296875
7.120000 5.000000 -2.920000 -56.141846 -0.986190 3152.879395
7.120000 5.000000 -2.880000 -22.500591 -15.442747 744.755066
7.120000 5.000000 -2.840000 2.721523 0.844271 8.119483
7.120000 5.000000 -2.800000 -0.628487 25.154697 633.153809
7.120000 5.040000 -3.200000 -0.735515 38.627827 1492.650024
7.120000 5.040000 -3.160000 -1.897539 38.710476 1502.101685
7.120000 5.040000 -3.120000 -2.242325 48.016235 2310.586914
7.120000 5.040000 -3.080000 -16.450783 62.341320 4157.068359
7.120000 5.040000 -3.040000 -46.664173 62.858505 6128.736816
7.120000 5.040000 -3.000000 -73.923721 36.658344 6808.550781
7.120000 5.040000 -2.960000 -74.250458 -5.075781 5538.894043
7.120000 5.040000 -2.920000 -44.045013 -33.508980 3062.814941
7.120000 5.040000 -2.880000 -6.846631 -29.231934 901.382263
7.120000 5.040000 -2.840000 8.103088 -2.086290 70.012650
7.120000 5.040000 -2.800000 -5.596558 18.266693 364.993561
7.120000 5.080000 -3.200000 -22.700394 27.165707 1253.283447
7.120000 5.080000 -3.160000 -24.314198 23.008230 1120.558838
7.120000 5.080000 -3.120000 -26.541382 25.971973 1378.988281
7.120000 5.080000 -3.080000 -39.289616 28.488211 2355.251953
7.120000 5.080000 -3.040000 -57.736507 16.179829 3595.291260
7.120000 5.080000 -3.000000 -63.483143 -13.081097 4201.224609
7.120000 5.080000 -2.960000 -43.807186 -41.667858 3655.280029
7.120000 5.080000 -2.920000 -8.147139 -47.226467 2296.715088
7.120000 5.080000 -2.880000 18.024715 -25.649235 982.773621
7.120000 5.080000 -2.840000 17.479656 3.226134 315.946320
7.120000 5.080000 -2.800000 -1.714934 14.845302 223.323975
7.120000 5.120000 -3.200000 -31.782063 5.553313 1040.938721
7.120000 5.120000 -3.160000 -30.770988 -3.039987 956.095276
7.120000 5.120000 -3.120000 -28.879236 -6.733195 879.346252
7.120000 5.120000 -3.080000 -30.890778 -11.303732 1082.014404
7.120000 5.120000 -3.040000 -31.238979 -23.188633 1513.586548
7.120000 5.120000 -3.000000 -19.930197 -38.217430 1857.784790
7.120000 5.120000 -2.960000 3.833162 -42.889790 1854.227173
7.120000 5.120000 -2.920000 26.789940 -28.394468 1523.946777
7.120000 5.120000 -2.880000 32.920441 -1.978631 1087.670410
7.120000 5.120000 -2.840000 19.639900 18.213079 717.441956
7.120000 5.120000 -2.800000 0.896900 20.559710 423.506104
7.120000 5.160000 -3.200000 -24.484627 -15.065079 826.453552
7.120000 5.160000 -3.160000 -17.978481 -24.938192 945.139282
7.120000 5.160000 -3.120000 -7.977924 -29.581562 938.716064
7.120000 5.160000 -3.080000 2.091792 -30.226891 918.040527
7.120000 5.160000 -3.040000 12.561739 -28.389286 963.748840
7.120000 5.160000 -3.000000 24.160660 -22.175295 1075.481201
7.120000 5.160000 -2.960000 33.483410 -8.762136 1197.913818
7.120000 5.160000 -2.920000 34.179104 9.914865 1266.515747
7.120000 5.160000 -2.880000 23.516905 26.019600 1230.064453
7.120000 5.160000 -2.840000 6.699574 31.956747 1066.118042
7.120000 5.160000 -2.800000 -6.996690 27.593979 810.381348
7.120000 5.200000 -3.200000 -6.368941 -23.512514 593.401733
7.120000 5.200000 -3.160000 4.503012 -29.773016 906.709595
7.120000 5.200000 -3.120000 19.759838 -28.625681 1209.880859
7.120000 5.200000 -3.080000 33.589035 -18.120255 1456.566895
7.120000 5.200000 -3.040000 40.237030 -0.728471 1619.549194
7.120000 5.200000 -3.000000 36.923523 17.946148 1685.410767
7.120000 5.200000 -2.960000 25.044296 31.962822 1648.838867
7.120000 5.200000 -2.920000 9.252966 37.855667 1518.668945
7.120000 5.200000 -2.880000 -5.163309 36.060143 1326.993652
7.120000 5.200000 -2.840000 -15.198462 30.008377 1131.495972
7.120000 5.200000 -2.800000 -21.316597 23.264994 995.657227
7.160000 4.800000 -3.200000 -15.829626 -17.817924 568.055481
7.160000 4.800000 -3.160000 -0.091329 -23.199778 538.238037
7.160000 4.800000 -3.120000 19.583813 -11.313904 511.530151
7.160000 4.800000 -3.080000 24.214943 16.265514 850.930420
7.160000 4.800000 -3.040000 4.234372 40.309460 1642.782471
7.160000 4.800000 -3.000000 -28.420746 40.871986 2478.258057
7.160000 4.800000 -2.960000 -49.641102 16.982685 2752.650635
7.160000 4.800000 -2.920000 -45.537132 -11.778251 2212.357666
7.160000 4.800000 -2.880000 -24.905201 -24.158897 1203.921387
7.160000 4.800000 -2.840000 -8.874660 -17.189795 374.248657
7.160000 4.800000 -2.800000 -8.893596 -6.586138 122.473259
7.160000 4.840000 -3.200000 0.065994 -28.747932 826.447937
7.160000 4.840000 -3.160000 17.901350 -25.072433 949.085205
7.160000 4.840000 -3.120000 29.660492 -4.825102 903.026428
7.160000 4.840000 -3.080000 21.425716 20.890148 895.459595
7.160000 4.840000 -3.040000 -4.868815 32.634796 1088.735229
7.160000 4.840000 -3.000000 -31.106190 20.668030 1394.762451
7.160000 4.840000 -2.960000 -38.848122 -5.453850 1538.921021
7.160000 4.840000 -2.920000 -25.754318 -25.771566 1327.458496
7.160000 4.840000 -2.880000 -6.143878 -28.340050 840.905701
7.160000 4.840000 -2.840000 4.245719 -18.508657 360.596527
7.160000 4.840000 -2.800000 2.977510 -10.455008 118.172745
7.160000 4.880000 -3.200000 21.398663 -25.099609 1087.893188
7.160000 4.880000 -3.160000 34.216587 -12.832249 1335.441406
7.160000 4.880000 -3.120000 34.807419 8.068926 1276.663940
7.160000 4.880000 -3.080000 19.380825 24.526171 977.149475
7.160000 4.880000 -3.040000 -3.300555 25.104788 641.144043
7.160000 4.880000 -3.000000 -18.600079 9.909687 444.164825
7.160000 4.880000 -2.960000 -17.937798 -9.644309 414.777283
7.160000 4.880000 -2.920000 -4.930492 -20.725315 453.848450
7.160000 4.880000 -2.880000 9.336418 -19.013754 448.691528
7.160000 4.880000 -2.840000 16.363705 -9.925441 366.285217
7.160000 4.880000 -2.800000 15.844193 -1.472727 253.207397
7.160000 4.920000 -3.200000 35.929291 -6.150168 1328.738525
7.160000 4.920000 -3.160000 38.942135 9.607205 1608.788208
7.160000 4.920000 -3.120000 31.080574 24.456991 1564.146484
7.160000 4.920000 -3.080000 15.853299 31.244307 1227.533691
7.160000 4.920000 -3.040000 0.502275 27.371426 749.447205
7.160000 4.920000 -3.000000 -8.200906 15.684816 313.268311
7.160000 4.920000 -2.960000 -7.159724 2.521280 57.618500
7.160000 4.920000 -2.920000 1.901448 -5.437939 33.186684
7.160000 4.920000 -2.880000 13.268220 -4.276886 194.337402
7.160000 4.920000 -2.840000 19.923279 4.989196 421.829102
7.160000 4.920000 -2.800000 17.462330 16.525726 578.032593
7.160000 4.960000 -3.200000 33.839493 19.555603 1527.532959
7.160000 4.960000 -3.160000 26.706438 31.973881 1735.562866
7.160000 4.960000 -3.120000 15.574575 37.992603 1686.005249
7.160000 4.960000 -3.080000 4.192754 38.508106 1500.453491
7.160000 4.960000 -3.040000 -6.252666 34.381729 1221.199097
7.160000 4.960000 -3.000000 -13.756346 25.135420 821.026367
7.160000 4.960000 -2.960000 -14.070077 12.567130 355.899841
7.160000 4.960000 -2.920000 -5.112240 3.431862 37.912674
7.160000 4.960000 -2.880000 7.672674 5.222311 86.142471
7.160000 4.960000 -2.840000 13.134353 17.762424 488.014954
7.160000 4.960000 -2.800000 4.319084 30.416218 943.800781
7.160000 5.000000 -3.200000 14.067865 38.152611 1653.526489
7.160000 5.000000 -3.160000 0.697836 41.747200 1743.315674
7.160000 5.000000 -3.120000 -9.071442 39.168995 1616.501221
7.160000 5.000000 -3.080000 -16.098419 35.684868 1532.568848
7.160000 5.000000 -3.040000 -23.568905 30.378225 1478.329834
7.160000 5.000000 -3.000000 -28.969164 19.532887 1220.746094
7.160000 5.000000 -2.960000 -25.415371 5.577250 677.046814
7.160000 5.000000 -2.920000 -11.714025 -1.394336 139.162537
7.160000 5.000000 -2.880000 1.853866 6.113518 40.811928
7.160000 5.000000 -2.840000 1.632388 22.104298 491.264679
7.160000 5.000000 -2.800000 -14.308324 29.907518 1099.187744
7.160000 5.040000 -3.200000 -13.667587 38.427940 1663.509521
7.160000 5.040000 -3.160000 -26.830467 31.240616 1695.850098
7.160000 5.040000 -3.120000 -31.486006 21.747562 1464.324951
7.160000 5.040000 -3.080000 -32.899063 14.913474 1304.760132
7.160000 5.040000 -3.040000 -34.660324 7.450103 1256.842041
7.160000 5.040000 -3.000000 -32.592426 -3.627688 1075.426392
7.160000 5.040000 -2.960000 -21.392612 -12.798354 621.441711
7.160000 5.040000 -2.920000 -5.303528 -10.338409 135.010117
7.160000 5.040000 -2.880000 2.367187 4.664341 27.359650
7.160000 5.040000 -2.840000 -6.930579 19.053492 411.068481
7.160000 5.040000 -2.800000 -25.021799 17.123562 919.306824
7.160000 5.080000 -3.200000 -33.663181 19.637470 1518.839966
7.160000 5.080000 -3.160000 -40.282280 4.202714 1640.324951
7.160000 5.080000 -3.120000 -36.687794 -8.899431 1425.194092
7.160000 5.080000 -3.080000 -29.661596 -16.527004 1152.952148
7.160000 5.080000 -3.040000 -22.034210 -21.670864 955.132751
7.160000 5.080000 -3.000000 -11.398506 -24.828751 746.392822
7.160000 5.080000 -2.960000 2.093920 -21.037073 446.942932
7.160000 5.080000 -2.920000 10.766653 -7.350932 169.957016
7.160000 5.080000 -2.880000 6.009846 9.077208 118.513947
7.160000 5.080000 -2.840000 -10.041591 14.727746 317.740051
7.160000 5.080000 -2.800000 -22.793240 3.749300 533.589050
7.160000 5.120000 -3.200000 -34.285191 -6.601431 1219.053101
7.160000 5.120000 -3.160000 -31.214815 -24.159630 1558.052368
7.160000 5.120000 -3.120000 -18.337173 -35.488800 1595.706909
7.160000 5.120000 -3.080000 -2.375257 -37.832684 1436.953735
7.160000 5.120000 -3.040000 12.261606 -32.552872 1210.036377
7.160000 5.120000 -3.000000 23.158302 -20.845879 970.857605
7.160000 5.120000 -2.960000 26.751604 -4.150865 732.877991
7.160000 5.120000 -2.920000 19.470016 12.177175 527.365112
7.160000 5.120000 -2.880000 3.369321 19.436344 389.123810
7.160000 5.120000 -2.840000 -11.558122 12.964754 301.675049
7.160000 5.120000 -2.800000 -14.331197 -1.024199 206.432175
7.160000 5.160000 -3.200000 -16.699739 -23.418396 827.302551
7.160000 5.160000 -3.160000 -5.945564 -36.585487 1373.847656
7.160000 5.160000 -3.120000 13.076202 -40.693115 1826.916748
7.160000 5.160000 -3.080000 32.663258 -32.059093 2094.673828
7.160000 5.160000 -3.040000 44.581520 -12.629566 2147.017822
7.160000 5.160000 -3.000000 43.320114 10.864936 1994.679199
7.160000 5.160000 -2.960000 28.729361 29.136795 1674.328979
7.160000 5.160000 -2.920000 7.300938 34.508854 1244.164673
7.160000 5.160000 -2.880000 -10.249719 25.970665 779.532227
7.160000 5.160000 -2.840000 -15.587942 11.094074 366.062408
7.160000 5.160000 -2.800000 -9.313715 1.346628 88.558693
7.160000 5.200000 -3.200000 5.179739 -20.857861 461.880066
7.160000 5.200000 -3.160000 17.681131 -26.881279 1035.225586
7.160000 5.200000 -3.120000 36.359589 -22.173363 1813.677734
7.160000 5.200000 -3.080000 50.877949 -2.953253 2597.287354
7.160000 5.200000 -3.040000 50.175037 24.740551 3129.629395
7.160000 5.200000 -3.000000 31.112787 47.309280 3206.173584
7.160000 5.200000 -2.960000 2.378180 52.640423 2776.669922
7.160000 5.200000 -2.920000 -20.764717 39.368401 1981.044434
7.160000 5.200000 -2.880000 -27.596331 18.293858 1096.222656
7.160000 5.200000 -2.840000 -19.932961 3.899346 412.527802
7.160000 5.200000 -2.800000 -9.722272 2.789978 102.306541
7.200000 4.800000 -3.200000 -23.773985 -8.241190 633.119568
7.200000 4.800000 -3.160000 -13.929919 -17.061396 485.133850
7.200000 4.800000 -3.120000 0.192911 -9.146858 83.702232
7.200000 4.800000 -3.080000 -1.053112 11.110733 124.557434
7.200000 4.800000 -3.040000 -22.972332 22.549191 1036.194092
7.200000 4.800000 -3.000000 -48.252678 9.341796 2415.590088
7.200000 4.800000 -2.960000 -53.433441 -20.927647 3293.098877
7.200000 4.800000 -2.920000 -33.117439 -43.627598 3000.132080
7.200000 4.800000 -2.880000 -5.735791 -41.854851 1784.727783
7.200000 4.800000 -2.840000 5.755861 -23.133656 568.295959
7.200000 4.800000 -2.800000 -2.504733 -10.064883 107.575562
7.200000 4.840000 -3.200000 -11.240292 -24.769247 739.859802
7.200000 4.840000 -3.160000 3.142112 -24.253834 598.121338
7.200000 4.840000 -3.120000 9.694398 -9.058783 176.042892
7.200000 4.840000 -3.080000 -2.156132 5.992388 40.557613
7.200000 4.840000 -3.040000 -23.956079 3.477617 585.987549
7.200000 4.840000 -3.000000 -35.438965 -17.990921 1579.593506
7.200000 4.840000 -2.960000 -24.770237 -41.262424 2316.152344
7.200000 4.840000 -2.920000 -0.520397 -47.409760 2247.956055
7.200000 4.840000 -2.880000 17.346087 -34.191231 1469.927002
7.200000 4.840000 -2.840000 17.714182 -16.843405 597.492554
7.200000 4.840000 -2.800000 8.201500 -10.947853 187.120087
7.200000 4.880000 -3.200000 12.225603 -25.681566 809.008240
7.200000 4.880000 -3.160000 21.487362 -14.591942 674.631470
7.200000 4.880000 -3.120000 16.646942 -0.186838 277.155609
7.200000 4.880000 -3.080000 1.098961 3.369926 12.564119
7.200000 4.880000 -3.040000 -10.918444 -8.526501 191.913635
7.200000 4.880000 -3.000000 -7.820931 -26.149979 744.988403
7.200000 4.880000 -2.960000 8.463743 -34.709259 1276.367676
7.200000 4.880000 -2.920000 25.027353 -28.067026 1414.126343
7.200000 4.880000 -2.880000 30.643023 -13.211901 1113.549072
7.200000 4.880000 -2.840000 25.381214 -1.927448 647.921082
7.200000 4.880000 -2.800000 18.053062 0.891614 326.708038
7.200000 4.920000 -3.200000 29.779114 -6.342418 927.021851
7.200000 4.920000 -3.160000 26.231833 8.168139 754.827515
7.200000 4.920000 -3.120000 13.329441 13.351771 355.943787
7.200000 4.920000 -3.080000 2.723535 6.090915 44.516884
7.200000 4.920000 -3.040000 3.006515 -6.105027 46.310493
7.200000 4.920000 -3.000000 12.936218 -12.777250 330.603882
7.200000 4.920000 -2.960000 24.235178 -9.461753 676.868652
7.200000 4.920000 -2.920000 29.651293 0.376775 879.341125
7.200000 4.920000 -2.880000 27.867615 10.424020 885.264160
7.200000 4.920000 -2.840000 21.849552 17.046795 767.996155
7.200000 4.920000 -2.800000 14.443985 20.070126 611.438660
7.200000 4.960000 -3.200000 26.267887 21.828957 1166.505249
7.200000 4.960000 -3.160000 10.295776 28.667765 927.843750
7.200000 4.960000 -3.120000 -2.437349 20.992935 446.644012
7.200000 4.960000 -3.080000 -2.995011 8.540998 81.918732
7.200000 4.960000 -3.040000 5.639442 2.405839 37.591370
7.200000 4.960000 -3.000000 14.381927 5.397686 235.974823
7.200000 4.960000 -2.960000 17.702906 12.742482 475.763733
7.200000 4.960000 -2.920000 16.420750 19.626415 654.837158
7.200000 4.960000 -2.880000 12.750425 25.387131 807.079773
7.200000 4.960000 -2.840000 6.015493 30.354586 957.587036
7.200000 4.960000 -2.800000 -4.922454 31.499733 1016.463684
7.200000 5.000000 -3.200000 1.450027 38.628155 1494.236938
7.200000 5.000000 -3.160000 -18.194267 30.421253 1256.484009
7.200000 5.000000 -3.120000 -22.438292 12.691048 664.539612
7.200000 5.000000 -3.080000 -12.488319 1.335411 157.741440
7.200000 5.000000 -3.040000 -0.332517 2.528979 6.506304
7.200000 5.000000 -3.000000 4.950684 10.595291 136.769455
7.200000 5.000000 -2.960000 3.804780 17.855614 333.299286
7.200000 5.000000 -2.920000 0.544366 22.821354 521.110535
7.200000 5.000000 -2.880000 -4.628545 27.587246 782.479614
7.200000 5.000000 -2.840000 -14.702362 30.190952 1127.653076
7.200000 5.000000 -2.800000 -27.780163 24.168732 1355.864990
7.200000 5.040000 -3.200000 -28.131260 30.962097 1750.019287
7.200000 5.040000 -3.160000 -40.068054 9.120800 1688.637939
7.200000 5.040000 -3.120000 -31.478300 -11.403733 1120.928467
7.200000 5.040000 -3.080000 -13.251197 -17.017242 465.180786
7.200000 5.040000 -3.040000 0.167381 -9.002456 81.072227
7.200000 5.040000 -3.000000 3.478855 2.851632 20.234238
7.200000 5.040000 -2.960000 0.223554 12.017168 144.462296
7.200000 5.040000 -2.920000 -6.123730 18.335480 373.689880
7.200000 5.040000 -2.880000 -16.193180 21.603870 728.946289
7.200000 5.040000 -2.840000 -29.225723 17.289583 1153.072510
7.200000 5.040000 -2.800000 -37.455967 2.168162 1407.650391
7.200000 5.080000 -3.200000 -41.529160 4.122539 1741.666504
7.200000 5.080000 -3.160000 -39.202141 -22.374676 2037.433960
7.200000 5.080000 -3.120000 -18.950138 -37.674751 1778.494629
7.200000 5.080000 -3.080000 4.083192 -34.336147 1195.643555
7.200000 5.080000 -3.040000 17.185276 -18.458660 636.055847
7.200000 5.080000 -3.000000 17.494862 -0.552809 306.375793
7.200000 5.080000 -2.960000 8.567816 12.718812 235.175644
7.200000 5.080000 -2.920000 -5.672841 18.594820 377.948456
7.200000 5.080000 -2.880000 -21.291283 14.738759 670.549744
7.200000 5.080000 -2.840000 -31.334572 0.397573 982.013489
7.200000 5.080000 -2.800000 -27.795715 -18.419981 1111.897461
7.200000 5.120000 -3.200000 -30.282051 -21.902428 1396.718994
7.200000 5.120000 -3.160000 -15.641077 -42.836353 2079.596436
7.200000 5.120000 -3.120000 10.588600 -47.635914 2381.298584
7.200000 5.120000 -3.080000 33.494255 -33.602997 2251.026367
7.200000 5.120000 -3.040000 42.002304 -8.726009 1840.336792
7.200000 5.120000 -3.000000 33.663170 15.137855 1362.363647
7.200000 5.120000 -2.960000 13.403882 28.281155 979.487793
7.200000 5.120000 -2.920000 -9.537203 25.930943 763.372009
7.200000 5.120000 -2.880000 -24.510799 9.788971 696.603271
7.200000 5.120000 -2.840000 -23.771709 -11.200428 690.543762
7.200000 5.120000 -2.800000 -8.139893 -23.912975 638.088257
7.200000 5.160000 -3.200000 -5.220177 -28.639847 847.491089
7.200000 5.160000 -3.160000 13.712383 -39.099361 1716.789429
7.200000 5.160000 -3.120000 38.550850 -33.019913 2576.482422
7.200000 5.160000 -3.080000 55.312237 -9.643307 3152.437012
7.200000 5.160000 -3.040000 53.138924 21.201960 3273.268311
7.200000 5.160000 -3.000000 31.155611 44.244034 2928.206543
7.200000 5.160000 -2.960000 -0.093481 47.518646 2258.030518
7.200000 5.160000 -2.920000 -24.137245 30.106522 1489.009277
7.200000 5.160000 -2.880000 -28.664970 3.621088 834.792847
7.200000 5.160000 -2.840000 -14.088165 -14.792594 417.297241
7.200000 5.160000 -2.800000 6.244165 -14.341122 244.657379
7.200000 5.200000 -3.200000 12.944271 -14.015503 363.988464
7.200000 5.200000 -3.160000 28.357914 -16.541218 1077.783203
7.200000 5.200000 -3.120000 46.448040 -3.936744 2172.918457
7.200000 5.200000 -3.080000 52.804230 23.319378 3332.080078
7.200000 5.200000 -3.040000 37.338890 52.045948 4102.973633
7.200000 5.200000 -3.000000 4.186125 64.145164 4132.125488
7.200000 5.200000 -2.960000 -28.710709 50.559090 3380.526367
7.200000 5.200000 -2.920000 -42.088623 19.835361 2164.893799
7.200000 5.200000 -2.880000 -30.520666 -7.302424 984.836426
7.200000 5.200000 -2.840000 -6.969808 -14.092190 247.168030
7.200000 5.200000 -2.800000 8.085094 -0.981977 66.333031
