#kx 	ky 	kz 	real 	imag 	intensity
2.800000 8.800000 0.800000 12.721761 -34.393356 1344.746094
2.800000 8.800000 0.840000 17.548250 -17.827991 625.778320
2.800000 8.800000 0.880000 8.220253 -8.214885 135.056885
2.800000 8.800000 0.920000 -1.747133 -13.300067 179.944260
2.800000 8.800000 0.960000 0.743400 -25.497187 650.659180
2.800000 8.800000 1.000000 15.696967 -30.013668 1147.215088
2.800000 8.800000 1.040000 30.681406 -19.436863 1319.140381
2.800000 8.800000 1.080000 33.272018 -0.185747 1107.061768
2.800000 8.800000 1.120000 22.227135 14.677649 709.478882
2.800000 8.800000 1.160000 6.721925 17.804447 362.182617
2.800000 8.800000 1.200000 -3.881085 12.351325 167.618057
2.800000 8.840000 0.800000 19.645634 -22.722679 902.271057
2.800000 8.840000 0.840000 16.776571 -9.973833 380.930695
2.800000 8.840000 0.880000 6.799924 -9.102256 129.090027
2.800000 8.840000 0.920000 4.516650 -19.346218 394.676270
2.800000 8.840000 0.960000 16.174185 -27.261116 1004.772705
2.800000 8.840000 1.000000 32.840351 -20.770395 1509.897949
2.800000 8.840000 1.040000 39.445465 -1.621684 1558.574585
2.800000 8.840000 1.080000 29.738150 16.511328 1156.981445
2.800000 8.840000 1.120000 11.669381 21.606194 603.002075
2.800000 8.840000 1.160000 -1.554158 14.000824 198.438477
2.800000 8.840000 1.200000 -4.275388 3.687585 31.877222
2.800000 8.880000 0.800000 19.661190 -14.769357 604.696289
2.800000 8.880000 0.840000 15.257202 -8.399731 303.337677
2.800000 8.880000 0.880000 11.022671 -12.313143 273.112732
2.800000 8.880000 0.920000 16.881273 -19.644571 670.886597
2.800000 8.880000 0.960000 30.929684 -18.169064 1286.760254
2.800000 8.880000 1.000000 40.974060 -3.744145 1692.892334
2.800000 8.880000 1.040000 37.117077 14.800467 1596.731201
2.800000 8.880000 1.080000 21.843321 24.425770 1073.748901
2.800000 8.880000 1.120000 7.098690 20.629057 475.949371
2.800000 8.880000 1.160000 2.077049 10.693451 118.664024
2.800000 8.880000 1.200000 5.144733 4.767696 49.199203
2.800000 8.920000 0.800000 20.876167 -10.912746 554.902405
2.800000 8.920000 0.840000 19.060097 -7.330236 417.019653
2.800000 8.920000 0.880000 20.038105 -9.295659 487.934937
2.800000 8.920000 0.920000 27.637102 -9.599461 855.959045
2.800000 8.920000 0.960000 36.621208 -1.633543 1343.781372
2.800000 8.920000 1.000000 38.316048 12.811301 1632.248901
2.800000 8.920000 1.040000 29.935694 25.044857 1523.390625
2.800000 8.920000 1.080000 17.432587 28.334114 1106.717041
2.800000 8.920000 1.120000 9.045681 24.229637 668.899658
2.800000 8.920000 1.160000 7.115982 19.777485 441.786102
2.800000 8.920000 1.200000 7.086124 19.327183 423.753174
2.800000 8.960000 0.800000 25.388145 -3.967268 660.297119
2.800000 8.960000 0.840000 24.267281 1.001992 589.904846
2.800000 8.960000 0.880000 24.603947 2.866460 613.570801
2.800000 8.960000 0.920000 27.863342 5.953364 811.808411
2.800000 8.960000 0.960000 30.829182 13.160217 1123.629761
2.800000 8.960000 1.000000 29.513329 22.954248 1397.934082
2.800000 8.960000 1.040000 23.165722 31.314871 1517.271851
2.800000 8.960000 1.080000 14.322682 35.701370 1479.727173
2.800000 8.960000 1.120000 5.677229 36.526882 1366.444092
2.800000 8.960000 1.160000 -2.090546 35.184456 1242.316284
2.800000 8.960000 1.200000 -9.237787 31.774881 1094.979736
2.800000 9.000000 0.800000 25.946041 10.325539 779.813782
2.800000 9.000000 0.840000 20.942047 15.562757 680.768738
2.800000 9.000000 0.880000 16.973930 16.359570 555.749878
2.800000 9.000000 0.920000 16.811420 16.079311 541.168091
2.800000 9.000000 0.960000 19.465462 18.911476 736.548096
2.800000 9.000000 1.000000 20.812490 26.764856 1149.517334
2.800000 9.000000 1.040000 16.348623 37.529621 1675.749878
2.800000 9.000000 1.080000 4.467821 45.931076 2129.625244
2.800000 9.000000 1.120000 -11.845936 46.742630 2325.199707
2.800000 9.000000 1.160000 -26.387329 38.351822 2167.153320
2.800000 9.000000 1.200000 -33.494431 24.156830 1705.429199
2.800000 9.040000 0.800000 14.369316 25.724842 868.244751
2.800000 9.040000 0.840000 5.004771 25.439373 672.209412
2.800000 9.040000 0.880000 0.327525 19.430439 377.649231
2.800000 9.040000 0.920000 3.570650 13.958558 207.590881
2.800000 9.040000 0.960000 11.356407 16.287529 394.251587
2.800000 9.040000 1.000000 14.732241 28.329941 1019.624512
2.800000 9.040000 1.040000 5.840963 43.322861 1910.987061
2.800000 9.040000 1.080000 -14.718607 49.759758 2692.670898
2.800000 9.040000 1.120000 -36.809746 40.457012 2991.727051
2.800000 9.040000 1.160000 -47.994545 18.964642 2663.134033
2.800000 9.040000 1.200000 -43.246666 -2.807467 1878.156006
2.800000 9.080000 0.800000 -7.544043 30.106483 963.312927
2.800000 9.080000 0.840000 -15.235298 20.427210 649.385193
2.800000 9.080000 0.880000 -12.878856 8.365085 235.839569
2.800000 9.080000 0.920000 -1.207131 3.584885 14.308565
2.800000 9.080000 0.960000 10.290060 12.420188 260.146393
2.800000 9.080000 1.000000 9.199430 30.565422 1018.874512
2.800000 9.080000 1.040000 -9.004032 43.956074 2013.209106
2.800000 9.080000 1.080000 -35.009678 39.357334 2774.677246
2.800000 9.080000 1.120000 -51.644508 16.147041 2927.882324
2.800000 9.080000 1.160000 -47.715179 -12.022887 2421.288086
2.800000 9.080000 1.200000 -27.287565 -28.161280 1537.668945
2.800000 9.120000 0.800000 -27.183159 17.931505 1060.463013
2.800000 9.120000 0.840000 -25.684759 2.208304 664.583435
2.800000 9.120000 0.880000 -12.533721 -8.078331 222.353592
2.800000 9.120000 0.920000 4.658342 -4.173898 39.121574
2.800000 9.120000 0.960000 12.305917 13.451156 332.369202
2.800000 9.120000 1.000000 1.334938 32.253162 1042.048584
2.800000 9.120000 1.040000 -23.283154 35.804176 1824.044312
2.800000 9.120000 1.080000 -44.162426 17.737625 2264.943115
2.800000 9.120000 1.120000 -45.056965 -11.346138 2158.864990
2.800000 9.120000 1.160000 -24.735529 -31.747896 1619.775269
2.800000 9.120000 1.200000 1.901985 -30.948488 961.426453
2.800000 9.160000 0.800000 -32.327797 -2.892892 1053.455200
2.800000 9.160000 0.840000 -19.895832 -16.124493 655.843384
2.800000 9.160000 0.880000 -0.619689 -16.724257 280.084747
2.800000 9.160000 0.920000 13.275709 -2.161109 180.914856
2.800000 9.160000 0.960000 10.641971 18.663486 461.577271
2.800000 9.160000 1.000000 -8.472853 29.877968 964.482178
2.800000 9.160000 1.040000 -30.376877 21.037374 1365.325806
2.800000 9.160000 1.080000 -37.522461 -2.912494 1416.417725
2.800000 9.160000 1.120000 -23.223145 -24.354925 1132.476807
2.800000 9.160000 1.160000 2.196499 -27.334141 751.979858
2.800000 9.160000 1.200000 20.088125 -10.800848 520.191101
2.800000 9.200000 0.800000 -22.921898 -17.787148 841.796021
2.800000 9.200000 0.840000 -5.304992 -22.252743 523.327515
2.800000 9.200000 0.880000 10.999833 -12.478608 276.712006
2.800000 9.200000 0.920000 14.932184 6.493333 265.133514
2.800000 9.200000 0.960000 2.988957 21.788124 483.656219
2.800000 9.200000 1.000000 -16.308285 21.840357 742.961304
2.800000 9.200000 1.040000 -27.830059 6.403242 815.513733
2.800000 9.200000 1.080000 -22.040424 -12.117325 632.609863
2.800000 9.200000 1.120000 -3.405550 -18.464413 352.532318
2.800000 9.200000 1.160000 13.121646 -7.297240 225.427307
2.800000 9.200000 1.200000 14.709363 12.615736 375.522156
2.840000 8.800000 0.800000 34.286419 -10.680862 1289.639282
2.840000 8.800000 0.840000 24.336269 2.180743 597.009644
2.840000 8.800000 0.880000 11.312624 0.545018 128.272507
2.840000 8.800000 0.920000 8.749847 -10.408552 184.897797
2.840000 8.800000 0.960000 18.966806 -16.835958 643.189209
2.840000 8.800000 1.000000 31.614138 -10.068293 1100.824219
2.840000 8.800000 1.040000 34.560684 5.673872 1226.633789
2.840000 8.800000 1.080000 25.311077 18.744785 992.017578
2.840000 8.800000 1.120000 11.536820 21.849995 610.520508
2.840000 8.800000 1.160000 1.737513 17.413498 306.248871
2.840000 8.800000 1.200000 -2.774468 12.067451 153.321045
2.840000 8.840000 0.800000 26.250706 5.215727 716.303345
2.840000 8.840000 0.840000 16.872425 7.932785 347.607819
2.840000 8.840000 0.880000 12.886766 2.275973 171.248810
2.840000 8.840000 0.920000 18.302391 -1.909351 338.623138
2.840000 8.840000 0.960000 26.288162 3.292080 701.905212
2.840000 8.840000 1.000000 26.736601 15.491610 954.835815
2.840000 8.840000 1.040000 16.984737 24.796303 903.337891
2.840000 8.840000 1.080000 4.109041 24.314354 608.072021
2.840000 8.840000 1.120000 -3.117826 16.694918 288.441132
2.840000 8.840000 1.160000 -3.219232 9.921900 108.807549
2.840000 8.840000 1.200000 -1.984376 7.832059 65.278900
2.840000 8.880000 0.800000 14.241837 7.834819 264.214294
2.840000 8.880000 0.840000 12.960382 6.881691 215.329178
2.840000 8.880000 0.880000 16.175991 7.327434 315.353973
2.840000 8.880000 0.920000 19.153969 13.524324 549.781860
2.840000 8.880000 0.960000 15.485013 22.500782 746.070801
2.840000 8.880000 1.000000 5.048124 26.485977 726.990540
2.840000 8.880000 1.040000 -4.838102 21.441879 483.161407
2.840000 8.880000 1.080000 -6.846973 12.010900 191.142776
2.840000 8.880000 1.120000 -1.579441 6.881902 49.855206
2.840000 8.880000 1.160000 3.091130 9.406950 98.045792
2.840000 8.880000 1.200000 0.895382 13.973500 196.060425
2.840000 8.920000 0.800000 10.468937 3.139305 119.453873
2.840000 8.920000 0.840000 14.833313 7.969031 283.532623
2.840000 8.920000 0.880000 15.037966 17.530924 533.473694
2.840000 8.920000 0.920000 6.923079 26.148386 731.667114
2.840000 8.920000 0.960000 -6.052425 25.998022 712.528992
2.840000 8.920000 1.000000 -14.134928 15.807067 449.659546
2.840000 8.920000 1.040000 -10.478010 3.969637 125.546715
2.840000 8.920000 1.080000 1.123123 1.397501 3.214415
2.840000 8.920000 1.120000 8.909456 10.602507 191.791565
2.840000 8.920000 1.160000 4.511428 22.538626 528.342651
2.840000 8.920000 1.200000 -8.417389 25.271845 709.518555
2.840000 8.960000 0.800000 14.415631 3.630136 220.988312
2.840000 8.960000 0.840000 14.662842 16.055399 472.774780
2.840000 8.960000 0.880000 4.097074 26.544514 721.397217
2.840000 8.960000 0.920000 -12.151684 25.312519 788.387085
2.840000 8.960000 0.960000 -21.270638 11.258285 579.189026
2.840000 8.960000 1.000000 -14.467943 -4.196112 226.928741
2.840000 8.960000 1.040000 2.953828 -6.298237 48.392883
2.840000 8.960000 1.080000 14.742352 8.675213 292.596252
2.840000 8.960000 1.120000 8.503162 28.545517 887.150330
2.840000 8.960000 1.160000 -12.102604 35.947598 1438.702759
2.840000 8.960000 1.200000 -30.431408 24.622425 1532.334473
2.840000 9.000000 0.800000 14.563219 13.246870 387.566925
2.840000 9.000000 0.840000 4.458639 24.832258 636.520508
2.840000 9.000000 0.880000 -13.131092 24.736845 784.337097
2.840000 9.000000 0.920000 -24.583706 9.714509 698.730286
2.840000 9.000000 0.960000 -18.239248 -8.991492 413.517090
2.840000 9.000000 1.000000 2.353625 -13.576370 189.857376
2.840000 9.000000 1.040000 18.731579 3.256226 361.475037
2.840000 9.000000 1.080000 13.580678 29.221838 1038.350586
2.840000 9.000000 1.120000 -12.312429 42.137821 1927.191895
2.840000 9.000000 1.160000 -39.609394 30.184895 2480.031982
2.840000 9.000000 1.200000 -47.889847 2.927617 2302.008545
2.840000 9.040000 0.800000 2.628047 22.402935 508.798126
2.840000 9.040000 0.840000 -13.012600 22.976227 697.234741
2.840000 9.040000 0.880000 -25.029259 9.497358 716.663635
2.840000 9.040000 0.920000 -20.918072 -9.974294 537.052246
2.840000 9.040000 0.960000 -0.651292 -17.962482 323.074982
2.840000 9.040000 1.000000 19.111065 -3.582136 378.064484
2.840000 9.040000 1.040000 18.153877 24.389553 924.413574
2.840000 9.040000 1.080000 -7.762231 42.523426 1868.494019
2.840000 9.040000 1.120000 -40.696247 33.339268 2767.691406
2.840000 9.040000 1.160000 -55.543423 1.974470 3088.970215
2.840000 9.040000 1.200000 -42.524765 -28.044722 2594.862061
2.840000 9.080000 0.800000 -15.754898 18.662062 596.489380
2.840000 9.080000 0.840000 -25.076099 7.136586 679.741638
2.840000 9.080000 0.880000 -22.040949 -10.187637 589.591370
2.840000 9.080000 0.920000 -4.298337 -19.626387 403.670746
2.840000 9.080000 0.960000 16.109278 -9.526811 350.268951
2.840000 9.080000 1.000000 20.110092 16.180021 666.208862
2.840000 9.080000 1.040000 -0.785583 37.334816 1394.505615
2.840000 9.080000 1.080000 -33.787086 33.807945 2284.544434
2.840000 9.080000 1.120000 -53.682091 4.524568 2902.238525
2.840000 9.080000 1.160000 -44.754314 -29.921341 2898.235352
2.840000 9.080000 1.200000 -14.913698 -44.990440 2246.558105
2.840000 9.120000 0.800000 -25.985603 1.207445 676.709534
2.840000 9.120000 0.840000 -21.583138 -12.751776 628.439575
2.840000 9.120000 0.880000 -6.289695 -20.708960 468.421265
2.840000 9.120000 0.920000 12.165732 -13.679962 335.146423
2.840000 9.120000 0.960000 19.196484 7.501359 424.775360
2.840000 9.120000 1.000000 5.326710 28.460091 838.350586
2.840000 9.120000 1.040000 -22.655094 30.894808 1467.742432
2.840000 9.120000 1.080000 -44.173813 9.005949 2032.432861
2.840000 9.120000 1.120000 -41.418377 -23.152508 2251.520508
2.840000 9.120000 1.160000 -15.398152 -42.262051 2023.184082
2.840000 9.120000 1.200000 14.372904 -35.599876 1473.931519
2.840000 9.160000 0.800000 -19.888126 -17.129879 688.970337
2.840000 9.160000 0.840000 -5.805112 -22.305037 531.213989
2.840000 9.160000 0.880000 9.661343 -16.133575 353.633789
2.840000 9.160000 0.920000 16.919363 0.633294 286.665894
2.840000 9.160000 0.960000 8.818355 18.762842 429.807617
2.840000 9.160000 1.000000 -11.774037 24.910799 759.175903
2.840000 9.160000 1.040000 -31.075447 12.164183 1113.650757
2.840000 9.160000 1.080000 -33.876774 -12.239020 1297.429443
2.840000 9.160000 1.120000 -16.493599 -30.828386 1222.428223
2.840000 9.160000 1.160000 8.966528 -29.758200 965.949097
2.840000 9.160000 1.200000 24.154797 -10.487247 693.436584
2.840000 9.200000 0.800000 -4.623735 -22.805908 541.488342
2.840000 9.200000 0.840000 8.257847 -16.825903 351.303040
2.840000 9.200000 0.880000 14.203152 -3.539804 214.259735
2.840000 9.200000 0.920000 9.453362 10.551369 200.697449
2.840000 9.200000 0.960000 -4.110353 17.296612 316.067810
2.840000 9.200000 1.000000 -18.528730 11.858519 483.938293
2.840000 9.200000 1.040000 -24.013416 -2.846503 584.746765
2.840000 9.200000 1.080000 -16.108856 -16.759672 540.381836
2.840000 9.200000 1.120000 -0.039087 -19.548590 382.148895
2.840000 9.200000 1.160000 12.517681 -8.753939 233.323776
2.840000 9.200000 1.200000 12.308749 7.909307 214.062454
2.880000 8.800000 0.800000 28.718098 25.599237 1480.050049
2.880000 8.800000 0.840000 11.382996 22.953327 656.427795
2.880000 8.800000 0.880000 5.296112 9.885647 125.774811
2.880000 8.800000 0.920000 12.979633 0.720281 168.989685
2.880000 8.800000 0.960000 23.860035 4.428908 588.916504
2.880000 8.800000 1.000000 25.753036 16.531065 936.494995
2.880000 8.800000 1.040000 16.963589 25.223345 923.980469
2.880000 8.800000 1.080000 6.250385 24.336908 631.352417
2.880000 8.800000 1.120000 1.759295 18.630095 350.175537
2.880000 8.800000 1.160000 2.078217 16.266491 268.917694
2.880000 8.800000 1.200000 -0.433497 18.028797 325.225464
2.880000 8.840000 0.800000 4.752028 29.832436 912.556030
2.880000 8.840000 0.840000 0.761377 20.673315 427.965637
2.880000 8.840000 0.880000 6.059423 16.941820 323.741882
2.880000 8.840000 0.920000 9.709538 23.444729 643.930420
2.880000 8.840000 0.960000 2.667164 32.248024 1047.048828
2.880000 8.840000 1.000000 -11.660333 31.444782 1124.737671
2.880000 8.840000 1.040000 -20.585457 18.771500 776.130249
2.880000 8.840000 1.080000 -16.078650 4.862537 282.167236
2.880000 8.840000 1.120000 -4.045486 1.999515 20.364019
2.880000 8.840000 1.160000 1.698488 10.484935 112.818726
2.880000 8.840000 1.200000 -5.338048 17.882652 348.283997
2.880000 8.880000 0.800000 -10.434248 15.581917 351.669647
2.880000 8.880000 0.840000 -2.047929 15.103603 232.312851
2.880000 8.880000 0.880000 0.014606 26.947596 726.173096
2.880000 8.880000 0.920000 -14.176546 37.953194 1641.419434
2.880000 8.880000 0.960000 -36.731083 31.667599 2352.009277
2.880000 8.880000 1.000000 -47.622265 6.849211 2314.791748
2.880000 8.880000 1.040000 -34.730892 -18.584913 1551.633789
2.880000 8.880000 1.080000 -7.516544 -23.979321 631.506226
2.880000 8.880000 1.120000 10.946129 -6.553370 162.764389
2.880000 8.880000 1.160000 6.359721 15.396501 277.498291
2.880000 8.880000 1.200000 -12.876204 20.637005 591.682617
2.880000 8.920000 0.800000 -7.401694 -0.528605 55.064495
2.880000 8.920000 0.840000 -0.876322 14.687479 216.489990
2.880000 8.920000 0.880000 -15.805338 31.829382 1262.918213
2.880000 8.920000 0.920000 -45.209641 27.907341 2822.731445
2.880000 8.920000 0.960000 -62.875217 -3.140099 3963.153076
2.880000 8.920000 1.000000 -48.193130 -40.204231 3938.958008
2.880000 8.920000 1.040000 -8.493015 -52.622894 2841.300293
2.880000 8.920000 1.080000 25.302502 -29.580650 1515.231445
2.880000 8.920000 1.120000 27.092356 8.549482 807.089355
2.880000 8.920000 1.160000 0.054281 29.321218 859.736755
2.880000 8.920000 1.200000 -27.596855 18.911640 1119.236572
2.880000 8.960000 0.800000 4.518137 -3.298555 31.294033
2.880000 8.960000 0.840000 -4.540482 18.505188 363.057953
2.880000 8.960000 0.880000 -34.688702 22.633980 1715.603027
2.880000 8.960000 0.920000 -60.002052 -5.202847 3627.315918
2.880000 8.960000 0.960000 -51.759102 -48.384895 5020.102539
2.880000 8.960000 1.000000 -8.640963 -70.647415 5065.723145
2.880000 8.960000 1.040000 37.660011 -49.863178 3904.612793
2.880000 8.960000 1.080000 50.009315 -0.937679 2501.810791
2.880000 8.960000 1.120000 20.474577 36.622917 1760.446289
2.880000 8.960000 1.160000 -22.659893 35.262772 1756.933838
2.880000 8.960000 1.200000 -42.648003 3.784062 1833.171265
2.880000 9.000000 0.800000 8.801807 5.977164 113.198311
2.880000 9.000000 0.840000 -15.040937 17.426445 529.910767
2.880000 9.000000 0.880000 -43.149513 -0.216206 1861.927246
2.880000 9.000000 0.920000 -45.097218 -40.355446 3662.321045
2.880000 9.000000 0.960000 -9.182911 -69.916306 4972.615234
2.880000 9.000000 1.000000 40.924187 -58.523926 5099.838867
2.880000 9.000000 1.040000 64.226547 -9.581487 4216.854004
2.880000 9.000000 1.080000 40.169865 39.450703 3169.976074
2.880000 9.000000 1.120000 -11.187437 50.378387 2663.140625
2.880000 9.000000 1.160000 -47.661385 19.086840 2635.915039
2.880000 9.000000 1.200000 -44.139744 -22.564745 2457.484863
2.880000 9.040000 0.800000 -0.136983 12.740984 162.351440
2.880000 9.040000 0.840000 -23.727005 5.543934 593.705994
2.880000 9.040000 0.880000 -32.584969 -24.066628 1640.982666
2.880000 9.040000 0.920000 -9.640738 -53.600716 2965.980469
2.880000 9.040000 0.960000 33.808159 -52.860012 3937.172363
2.880000 9.040000 1.000000 62.819969 -14.086046 4144.765137
2.880000 9.040000 1.040000 49.593769 35.939331 3751.177490
2.880000 9.040000 1.080000 1.185949 57.390709 3295.099854
2.880000 9.040000 1.120000 -44.754242 33.594765 3131.550293
2.880000 9.040000 1.160000 -53.829559 -13.628139 3083.347412
2.880000 9.040000 1.200000 -25.483685 -45.081360 2681.747070
2.880000 9.080000 0.800000 -11.831933 6.282455 179.463882
2.880000 9.080000 0.840000 -20.328844 -11.315268 541.297180
2.880000 9.080000 0.880000 -8.492861 -33.374733 1186.001465
2.880000 9.080000 0.920000 21.888985 -38.142025 1933.941772
2.880000 9.080000 0.960000 48.316746 -13.390414 2513.811035
2.880000 9.080000 1.000000 45.078320 27.403631 2783.013916
2.880000 9.080000 1.040000 8.483743 52.585869 2837.247559
2.880000 9.080000 1.080000 -35.938469 39.811256 2876.509766
2.880000 9.080000 1.120000 -54.265083 -2.331783 2950.136475
2.880000 9.080000 1.160000 -34.392262 -40.982784 2862.416260
2.880000 9.080000 1.200000 3.781347 -48.547031 2371.112793
2.880000 9.120000 0.800000 -12.472981 -8.487089 227.605957
2.880000 9.120000 0.840000 -5.032101 -20.227041 434.455261
2.880000 9.120000 0.880000 12.842337 -23.300762 707.851135
2.880000 9.120000 0.920000 30.425446 -9.109950 1008.698975
2.880000 9.120000 0.960000 31.352459 17.817656 1300.445557
2.880000 9.120000 1.000000 8.648138 38.732273 1574.979248
2.880000 9.120000 1.040000 -25.139833 34.790649 1842.400513
2.880000 9.120000 1.080000 -45.347038 4.999737 2081.351074
2.880000 9.120000 1.120000 -35.898407 -30.219381 2201.906738
2.880000 9.120000 1.160000 -4.153142 -45.428127 2080.963379
2.880000 9.120000 1.200000 25.208050 -32.081139 1664.645264
2.880000 9.160000 0.800000 -0.632014 -17.183451 295.670410
2.880000 9.160000 0.840000 10.254825 -14.546034 316.748535
2.880000 9.160000 0.880000 18.151691 -4.234459 347.414551
2.880000 9.160000 0.920000 17.183456 10.961060 415.416016
2.880000 9.160000 0.960000 4.242156 23.047750 549.194702
2.880000 9.160000 1.000000 -15.950219 22.360769 754.413452
2.880000 9.160000 1.040000 -30.972408 5.677330 991.522156
2.880000 9.160000 1.080000 -29.013987 -18.397299 1180.271973
2.880000 9.160000 1.120000 -9.361347 -33.905697 1237.231079
2.880000 9.160000 1.160000 15.204138 -29.917728 1126.236328
2.880000 9.160000 1.200000 27.969126 -10.006792 882.407837
2.880000 9.200000 0.800000 11.514083 -12.450300 287.584106
2.880000 9.200000 0.840000 13.575020 -1.403705 186.251541
2.880000 9.200000 0.880000 8.501159 7.630431 130.493179
2.880000 9.200000 0.920000 -0.456981 11.513022 132.758514
2.880000 9.200000 0.960000 -9.939419 9.435168 187.814453
2.880000 9.200000 1.000000 -16.701855 1.705170 281.859558
2.880000 9.200000 1.040000 -17.207760 -9.586512 388.008209
2.880000 9.200000 1.080000 -9.402844 -19.386183 464.237579
2.880000 9.200000 1.120000 4.127050 -21.352398 472.957428
2.880000 9.200000 1.160000 15.781859 -12.708941 410.584259
2.880000 9.200000 1.200000 17.666300 2.093763 316.481995
2.920000 8.800000 0.800000 -5.836777 47.349907 2276.081543
2.920000 8.800000 0.840000 -16.324781 27.419516 1018.328308
2.920000 8.800000 0.880000 -8.504148 11.005430 193.440033
2.920000 8.800000 0.920000 5.405666 10.256399 134.414948
2.920000 8.800000 0.960000 9.779839 20.844131 530.123047
2.920000 8.800000 1.000000 1.497787 28.050732 789.086914
2.920000 8.800000 1.040000 -8.273825 23.439201 617.852356
2.920000 8.800000 1.080000 -8.021973 13.627977 250.073822
2.920000 8.800000 1.120000 0.413094 11.540787 133.360397
2.920000 8.800000 1.160000 4.048810 20.305239 428.695587
2.920000 8.800000 1.200000 -5.458712 28.499704 842.030701
2.920000 8.840000 0.800000 -32.157501 28.278168 1833.759644
2.920000 8.840000 0.840000 -22.683523 15.914015 767.798096
2.920000 8.840000 0.880000 -13.531576 20.876457 618.930054
2.920000 8.840000 0.920000 -20.381258 31.562044 1411.558350
2.920000 8.840000 0.960000 -39.340919 28.320564 2349.762207
2.920000 8.840000 1.000000 -49.980812 5.813251 2531.875488
2.920000 8.840000 1.040000 -37.247635 -19.198502 1755.968750
2.920000 8.840000 1.080000 -9.098270 -24.183876 667.638367
2.920000 8.840000 1.120000 9.919123 -4.749151 120.943428
2.920000 8.840000 1.160000 3.353507 19.524166 392.439056
2.920000 8.840000 1.200000 -19.881145 24.410213 991.118469
2.920000 8.880000 0.800000 -34.135464 -2.374310 1170.867188
2.920000 8.880000 0.840000 -20.268574 7.354733 464.907196
2.920000 8.880000 0.880000 -30.748199 25.446484 1592.975342
2.920000 8.880000 0.920000 -61.257469 22.157265 4243.421875
2.920000 8.880000 0.960000 -80.919991 -13.432915 6728.488281
2.920000 8.880000 1.000000 -62.906422 -57.914154 7311.267090
2.920000 8.880000 1.040000 -13.986256 -73.781219 5639.283691
2.920000 8.880000 1.080000 28.816334 -46.400337 2983.372314
2.920000 8.880000 1.120000 32.872959 0.297274 1080.719849
2.920000 8.880000 1.160000 1.170836 26.350908 695.741211
2.920000 8.880000 1.200000 -31.742771 14.076546 1205.752686
2.920000 8.920000 0.800000 -14.125113 -20.684723 627.376587
2.920000 8.920000 0.840000 -17.407993 5.400625 332.204987
2.920000 8.920000 0.880000 -51.908749 12.762127 2857.389893
2.920000 8.920000 0.920000 -84.250023 -22.257984 7593.484375
2.920000 8.920000 0.960000 -73.556259 -80.581673 11903.929688
2.920000 8.920000 1.000000 -14.607182 -113.492966 13094.023438
2.920000 8.920000 1.040000 51.861984 -88.736404 10563.814453
2.920000 8.920000 1.080000 75.107216 -23.509863 6193.807617
2.920000 8.920000 1.120000 41.884842 30.208607 2666.899902
2.920000 8.920000 1.160000 -12.204483 34.282452 1324.235840
2.920000 8.920000 1.200000 -38.570641 -1.740154 1490.722412
2.920000 8.960000 0.800000 7.728383 -16.617382 335.865295
2.920000 8.960000 0.840000 -19.581070 3.989399 399.333618
2.920000 8.960000 0.880000 -59.414505 -16.930571 3816.727783
2.920000 8.960000 0.920000 -64.667786 -74.859924 9785.930664
2.920000 8.960000 0.960000 -12.946527 -122.451889 15162.077148
2.920000 8.960000 1.000000 65.144394 -111.867905 16758.218750
2.920000 8.960000 1.040000 109.631798 -42.739689 13845.811523
2.920000 8.960000 1.080000 86.318604 33.837151 8595.854492
2.920000 8.960000 1.120000 18.829159 61.483150 4134.714844
2.920000 8.960000 1.160000 -34.782642 29.617079 2087.003418
2.920000 8.960000 1.200000 -37.007145 -20.896130 1806.177002
2.920000 9.000000 0.800000 14.227677 -1.189676 203.842133
2.920000 9.000000 0.840000 -22.357185 -3.714770 513.643250
2.920000 9.000000 0.880000 -41.805553 -46.884434 3945.854492
2.920000 9.000000 0.920000 -10.276875 -97.801605 9670.768555
2.920000 9.000000 0.960000 60.792717 -105.224014 14767.847656
2.920000 9.000000 1.000000 117.857071 -49.529892 16343.499023
2.920000 9.000000 1.040000 112.430885 33.525444 13764.659180
2.920000 9.000000 1.080000 47.261600 82.259659 9000.310547
2.920000 9.000000 1.120000 -25.239216 64.798950 4835.921875
2.920000 9.000000 1.160000 -51.606575 6.375532 2703.885986
2.920000 9.000000 1.200000 -24.778183 -38.070747 2063.340332
2.920000 9.040000 0.800000 6.532569 7.565033 99.904182
2.920000 9.040000 0.840000 -16.960148 -15.277701 521.054749
2.920000 9.040000 0.880000 -6.628762 -56.084332 3189.392578
2.920000 9.040000 0.920000 42.934418 -74.709503 7424.874023
2.920000 9.040000 0.960000 96.895935 -41.897530 11144.225586
2.920000 9.040000 1.000000 107.562363 28.067719 12357.458984
2.920000 9.040000 1.040000 59.191513 84.681572 10674.603516
2.920000 9.040000 1.080000 -14.396100 85.179001 7462.709961
2.920000 9.040000 1.120000 -58.903046 33.361889 4582.584473
2.920000 9.040000 1.160000 -48.047028 -25.147686 2940.922852
2.920000 9.040000 1.200000 -4.188918 -46.272774 2158.716797
2.920000 9.080000 0.800000 -0.822542 3.518346 13.055333
2.920000 9.080000 0.840000 -2.055387 -20.219353 413.046844
2.920000 9.080000 0.880000 23.514217 -37.917080 1990.623291
2.920000 9.080000 0.920000 60.970669 -24.827581 4333.831055
2.920000 9.080000 0.960000 77.189224 20.348326 6372.230469
2.920000 9.080000 1.000000 50.247749 67.886787 7133.452148
2.920000 9.080000 1.040000 -6.992483 80.042236 6455.654785
2.920000 9.080000 1.080000 -54.529415 45.098946 5007.372070
2.920000 9.080000 1.120000 -59.399010 -10.687092 3642.456299
2.920000 9.080000 1.160000 -24.245804 -46.195618 2721.894043
2.920000 9.080000 1.200000 17.313967 -41.656120 2035.005737
2.920000 9.120000 0.800000 2.239326 -3.830230 19.685244
2.920000 9.120000 0.840000 12.409375 -11.799986 293.232269
2.920000 9.120000 0.880000 29.798466 -7.069305 937.923645
2.920000 9.120000 0.920000 39.868210 14.751091 1807.068848
2.920000 9.120000 0.960000 27.968281 42.431564 2582.662354
2.920000 9.120000 1.000000 -5.424366 54.417358 2990.672607
2.920000 9.120000 1.040000 -40.533173 36.699955 2989.824707
2.920000 9.120000 1.080000 -52.405437 -2.668135 2753.448730
2.920000 9.120000 1.120000 -32.164360 -37.846146 2466.876709
2.920000 9.120000 1.160000 4.660677 -46.199566 2156.121826
2.920000 9.120000 1.200000 31.515526 -27.007702 1722.644287
2.920000 9.160000 0.800000 11.058178 -2.897697 130.679947
2.920000 9.160000 0.840000 14.722029 3.999790 232.736450
2.920000 9.160000 0.880000 13.428734 13.108561 352.165253
2.920000 9.160000 0.920000 5.688196 21.458420 492.819336
2.920000 9.160000 0.960000 -8.375435 24.183378 654.983643
2.920000 9.160000 1.000000 -24.071774 16.045275 836.901123
2.920000 9.160000 1.040000 -32.067024 -3.330818 1039.388428
2.920000 9.160000 1.080000 -24.314566 -25.683617 1250.846313
2.920000 9.160000 1.120000 -2.021206 -37.673485 1423.376831
2.920000 9.160000 1.160000 22.708416 -30.943459 1473.169800
2.920000 9.160000 1.200000 35.106667 -9.813526 1328.783325
2.920000 9.200000 0.800000 13.923678 5.924114 228.963943
2.920000 9.200000 0.840000 4.305752 13.320990 195.988266
2.920000 9.200000 0.880000 -6.489820 11.184040 167.200516
2.920000 9.200000 0.920000 -11.741633 3.594661 150.787537
2.920000 9.200000 0.960000 -11.700638 -3.430537 148.673508
2.920000 9.200000 1.000000 -10.173523 -8.629517 177.969131
2.920000 9.200000 1.040000 -7.777827 -14.621298 274.276947
2.920000 9.200000 1.080000 -0.841378 -21.430052 459.955048
2.920000 9.200000 1.120000 12.436531 -23.407883 702.596252
2.920000 9.200000 1.160000 26.432377 -14.494802 908.769836
2.920000 9.200000 1.200000 31.013123 3.627278 974.970947
2.960000 8.800000 0.800000 -47.898380 35.998299 3590.132324
2.960000 8.800000 0.840000 -40.950619 8.320349 1746.181274
2.960000 8.800000 0.880000 -20.497314 -1.277147 421.770996
2.960000 8.800000 0.920000 -7.088371 7.543037 107.142426
2.960000 8.800000 0.960000 -10.301475 18.200584 437.381653
2.960000 8.800000 1.000000 -20.212479 15.941910 662.688782
2.960000 8.800000 1.040000 -20.179070 3.850307 422.019714
2.960000 8.800000 1.080000 -6.749252 -1.538328 47.918861
2.960000 8.800000 1.120000 5.595221 9.818825 127.715813
2.960000 8.800000 1.160000 0.658072 28.365570 805.038635
2.960000 8.800000 1.200000 -20.140572 34.020355 1563.027100
2.960000 8.840000 0.800000 -57.693520 -2.834876 3336.578857
2.960000 8.840000 0.840000 -36.969963 -7.374941 1421.167969
2.960000 8.840000 0.880000 -31.866257 5.109217 1041.562378
2.960000 8.840000 0.920000 -47.559837 8.997890 2342.900391
2.960000 8.840000 0.960000 -62.479279 -11.741905 4041.532471
2.960000 8.840000 1.000000 -51.317577 -43.956310 4565.650879
2.960000 8.840000 1.040000 -13.988533 -56.980179 3442.419678
2.960000 8.840000 1.080000 20.986235 -34.699184 1644.455566
2.960000 8.840000 1.120000 23.887875 5.697117 603.087708
2.960000 8.840000 1.160000 -5.870240 29.054596 878.629272
2.960000 8.840000 1.200000 -38.403820 16.732323 1754.823975
2.960000 8.880000 0.800000 -35.967606 -35.539928 2556.755371
2.960000 8.880000 0.840000 -27.515358 -14.536182 968.395508
2.960000 8.880000 0.880000 -51.774971 -3.946190 2696.220215
2.960000 8.880000 0.920000 -79.980553 -31.837727 7410.529297
2.960000 8.880000 0.960000 -70.744072 -84.689110 12176.968750
2.960000 8.880000 1.000000 -14.849312 -116.170471 13716.080078
2.960000 8.880000 1.040000 50.256336 -92.391716 11061.928711
2.960000 8.880000 1.080000 73.881134 -27.786190 6230.494141
2.960000 8.880000 1.120000 40.807442 26.396698 2362.032959
2.960000 8.880000 1.160000 -14.281452 30.433279 1130.144287
2.960000 8.880000 1.200000 -41.307465 -7.409030 1761.200317
2.960000 8.920000 0.800000 -0.482322 -41.066532 1686.692749
2.960000 8.920000 0.840000 -21.141405 -15.839594 697.851746
2.960000 8.920000 0.880000 -61.189056 -33.465324 4864.028320
2.960000 8.920000 0.920000 -67.398933 -93.880539 13356.171875
2.960000 8.920000 0.960000 -11.145763 -146.267685 21518.464844
2.960000 8.920000 1.000000 76.428497 -135.730194 24264.000000
2.960000 8.920000 1.040000 128.667633 -59.132694 20052.035156
2.960000 8.920000 1.080000 105.587563 27.833708 11923.448242
2.960000 8.920000 1.120000 31.863029 61.478523 4794.861328
2.960000 8.920000 1.160000 -27.823601 28.496412 1586.198242
2.960000 8.920000 1.200000 -30.579765 -26.074623 1615.008057
2.960000 8.960000 0.800000 23.219517 -22.054100 1025.529297
2.960000 8.960000 0.840000 -17.782837 -18.715263 666.490356
2.960000 8.960000 0.880000 -42.832233 -67.680756 6415.284668
2.960000 8.960000 0.920000 -5.748209 -130.565796 17080.468750
2.960000 8.960000 0.960000 83.066940 -142.166260 27111.363281
2.960000 8.960000 1.000000 158.045471 -74.675308 30554.773438
2.960000 8.960000 1.040000 157.148087 30.118217 25602.628906
2.960000 8.960000 1.080000 80.887703 96.010193 15760.777344
2.960000 8.960000 1.120000 -7.859359 81.814407 6755.366699
2.960000 8.960000 1.160000 -43.242416 16.320892 2136.278076
2.960000 8.960000 1.200000 -15.298145 -34.387218 1416.514038
2.960000 9.000000 0.800000 24.587532 1.201089 605.989380
2.960000 9.000000 0.840000 -10.422591 -24.168280 692.736145
2.960000 9.000000 0.880000 -0.459648 -80.164047 6426.485840
2.960000 9.000000 0.920000 67.090660 -109.697296 16534.654297
2.960000 9.000000 0.960000 145.899139 -67.955566 25904.517578
2.960000 9.000000 1.000000 168.297348 29.272453 29180.875000
2.960000 9.000000 1.040000 108.736496 113.800171 24774.105469
2.960000 9.000000 1.080000 9.976673 125.325798 15806.089844
2.960000 9.000000 1.120000 -55.391296 65.430367 7349.328613
2.960000 9.000000 1.160000 -50.441170 -7.576116 2601.708984
2.960000 9.000000 1.200000 -2.147495 -36.025452 1302.444824
2.960000 9.040000 0.800000 13.556618 12.022770 328.328888
2.960000 9.040000 0.840000 3.777246 -24.340197 606.712769
2.960000 9.040000 0.880000 39.875999 -57.606468 4908.600586
2.960000 9.040000 0.920000 101.491959 -43.571346 12199.079102
2.960000 9.040000 0.960000 135.131195 25.020840 18886.482422
2.960000 9.040000 1.000000 102.235489 104.273628 21325.083984
2.960000 9.040000 1.040000 18.009750 134.699188 18468.222656
2.960000 9.040000 1.080000 -59.019096 94.466988 12407.265625
2.960000 9.040000 1.120000 -78.392380 18.601990 6491.399414
2.960000 9.040000 1.160000 -40.566551 -34.561802 2840.163086
2.960000 9.040000 1.200000 9.457127 -35.915394 1379.352783
2.960000 9.080000 0.800000 5.864438 10.922315 153.688599
2.960000 9.080000 0.840000 16.870975 -12.382901 437.966064
2.960000 9.080000 0.880000 50.854794 -14.246912 2789.184570
2.960000 9.080000 0.920000 78.599312 20.642361 6603.958984
2.960000 9.080000 0.960000 67.530869 74.413040 10097.718750
2.960000 9.080000 1.000000 13.453449 106.509842 11525.341797
2.960000 9.080000 1.040000 -51.047527 88.247971 10393.554688
2.960000 9.080000 1.080000 -82.385384 29.473152 7656.018066
2.960000 9.080000 1.120000 -63.011341 -29.042850 4813.916504
2.960000 9.080000 1.160000 -14.815241 -50.891190 2809.404541
2.960000 9.080000 1.200000 23.141695 -33.417866 1652.291748
2.960000 9.120000 0.800000 6.232857 9.322005 125.748283
2.960000 9.120000 0.840000 17.172667 6.886901 342.329895
2.960000 9.120000 0.880000 28.305882 18.939098 1159.912354
2.960000 9.120000 0.920000 24.939518 41.969910 2383.452881
2.960000 9.120000 0.960000 0.021919 59.493828 3539.516113
2.960000 9.120000 1.000000 -36.284657 53.493347 4178.114258
2.960000 9.120000 1.040000 -61.182915 20.507196 4163.894043
2.960000 9.120000 1.080000 -56.495327 -22.629360 3703.809814
2.960000 9.120000 1.120000 -24.048359 -50.352875 3113.735596
2.960000 9.120000 1.160000 15.197414 -48.253983 2559.408203
2.960000 9.120000 1.200000 38.151421 -23.509869 2008.244873
2.960000 9.160000 0.800000 7.194988 13.557906 235.584671
2.960000 9.160000 0.840000 2.900309 19.197687 376.962982
2.960000 9.160000 0.880000 -5.032164 21.368383 481.930481
2.960000 9.160000 0.920000 -14.061811 19.209721 566.747925
2.960000 9.160000 0.960000 -22.824003 12.430571 675.454224
2.960000 9.160000 1.000000 -29.088627 -0.227612 846.200012
2.960000 9.160000 1.040000 -27.751072 -18.268490 1103.859741
2.960000 9.160000 1.080000 -13.818882 -35.559853 1455.464722
2.960000 9.160000 1.120000 11.079953 -41.645988 1857.153687
2.960000 9.160000 1.160000 36.096317 -29.699406 2184.998779
2.960000 9.160000 1.200000 47.478561 -4.007282 2270.272217
2.960000 9.200000 0.800000 2.021510 18.424362 343.543640
2.960000 9.200000 0.840000 -13.547436 15.086092 411.123169
2.960000 9.200000 0.880000 -20.798382 0.379969 432.717072
2.960000 9.200000 0.920000 -14.981779 -13.773506 414.163177
2.960000 9.200000 0.960000 -3.582184 -18.449959 353.233002
2.960000 9.200000 1.000000 3.642071 -16.294781 278.784546
2.960000 9.200000 1.040000 6.171416 -16.054737 295.840942
2.960000 9.200000 1.080000 12.169794 -20.037312 549.597778
2.960000 9.200000 1.120000 26.518324 -19.790775 1094.896240
2.960000 9.200000 1.160000 41.805717 -5.812964 1781.508545
2.960000 9.200000 1.200000 43.730103 19.497488 2292.473877
3.000000 8.800000 0.800000 -69.315399 -2.571718 4811.238281
3.000000 8.800000 0.840000 -44.830746 -24.457085 2607.944824
3.000000 8.800000 0.880000 -19.158218 -21.571388 832.362122
3.000000 8.800000 0.920000 -10.586303 -6.397423 152.996826
3.000000 8.800000 0.960000 -17.158058 0.840240 295.104950
3.000000 8.800000 1.000000 -21.268745 -6.137386 490.027039
3.000000 8.800000 1.040000 -10.958977 -13.965099 315.123169
3.000000 8.800000 1.080000 5.581360 -6.212936 69.752151
3.000000 8.800000 1.120000 8.660035 16.121038 334.884094
3.000000 8.800000 1.160000 -10.210667 33.375351 1218.171753
3.000000 8.800000 1.200000 -36.785732 27.535820 2111.411377
3.000000 8.840000 0.800000 -53.000099 -44.021168 4746.873535
3.000000 8.840000 0.840000 -30.159809 -36.393890 2234.129395
3.000000 8.840000 0.880000 -31.570477 -22.922621 1522.141602
3.000000 8.840000 0.920000 -45.647758 -29.584141 2958.939209
3.000000 8.840000 0.960000 -43.221619 -56.628109 5074.851074
3.000000 8.840000 1.000000 -10.710770 -76.070946 5901.509277
3.000000 8.840000 1.040000 31.737091 -60.833370 4707.941895
3.000000 8.840000 1.080000 48.034252 -15.441689 2545.735107
3.000000 8.840000 1.120000 22.722845 25.022459 1142.451172
3.000000 8.840000 1.160000 -21.865213 28.189699 1272.746704
3.000000 8.840000 1.200000 -46.507290 -3.933620 2178.401367
3.000000 8.880000 0.800000 -12.242054 -61.006363 3871.644287
3.000000 8.880000 0.840000 -15.645615 -37.618721 1659.953491
3.000000 8.880000 0.880000 -41.823940 -43.280903 3622.478516
3.000000 8.880000 0.920000 -47.566116 -85.133369 9510.225586
3.000000 8.880000 0.960000 -4.572357 -125.116653 15675.083008
3.000000 8.880000 1.000000 65.979568 -116.224197 17861.367188
3.000000 8.880000 1.040000 109.183716 -52.099735 14635.466797
3.000000 8.880000 1.080000 88.942589 22.116581 8399.927734
3.000000 8.880000 1.120000 24.119570 50.872292 3169.743652
3.000000 8.880000 1.160000 -29.156017 20.391380 1265.881714
3.000000 8.880000 1.200000 -31.153124 -30.658207 1910.442871
3.000000 8.920000 0.800000 25.372301 -45.302227 2696.045410
3.000000 8.920000 0.840000 -6.318559 -35.041908 1267.859497
3.000000 8.920000 0.880000 -29.387037 -74.521912 6417.113281
3.000000 8.920000 0.920000 3.690308 -131.017548 17179.216797
3.000000 8.920000 0.960000 87.076515 -141.674530 27653.992188
3.000000 8.920000 1.000000 159.230957 -76.959686 31277.291016
3.000000 8.920000 1.040000 159.045334 24.802368 25910.576172
3.000000 8.920000 1.080000 85.299454 89.633911 15310.234375
3.000000 8.920000 1.120000 -1.186398 76.235489 5813.257324
3.000000 8.920000 1.160000 -35.218643 12.220158 1389.685059
3.000000 8.920000 1.200000 -6.367517 -36.890182 1401.430908
3.000000 8.960000 0.800000 38.821674 -13.206738 1681.540405
3.000000 8.960000 0.840000 1.955500 -33.589912 1132.106201
3.000000 8.960000 0.880000 10.449738 -90.791344 8352.265625
3.000000 8.960000 0.920000 82.200096 -122.761261 21827.183594
3.000000 8.960000 0.960000 168.635132 -78.064209 34531.828125
3.000000 8.960000 1.000000 195.161591 28.378250 38893.371094
3.000000 8.960000 1.040000 132.205139 122.648872 32520.945312
3.000000 8.960000 1.080000 25.481920 138.222534 19754.796875
3.000000 8.960000 1.120000 -45.860107 76.200439 7909.656250
3.000000 8.960000 1.160000 -41.573643 -0.002664 1728.367798
3.000000 8.960000 1.200000 8.572879 -27.860912 849.724670
3.000000 9.000000 0.800000 29.218985 12.040740 998.728516
3.000000 9.000000 0.840000 13.782074 -29.293129 1048.032959
3.000000 9.000000 0.880000 55.959095 -71.154343 8194.361328
3.000000 9.000000 0.920000 132.976303 -55.737675 20789.386719
3.000000 9.000000 0.960000 177.817139 28.846716 32451.068359
3.000000 9.000000 1.000000 140.760620 129.225937 36512.894531
3.000000 9.000000 1.040000 39.117344 171.462860 30929.677734
3.000000 9.000000 1.080000 -55.791828 127.965317 19487.849609
3.000000 9.000000 1.120000 -82.708061 40.917244 8514.844727
3.000000 9.000000 1.160000 -42.649551 -19.828888 2212.168945
3.000000 9.000000 1.200000 10.345712 -20.832771 541.038086
3.000000 9.040000 0.800000 12.949638 20.601181 592.101807
3.000000 9.040000 0.840000 24.687105 -15.340960 844.798218
3.000000 9.040000 0.880000 74.483780 -22.219229 6041.527832
3.000000 9.040000 0.920000 119.032372 26.381952 14864.712891
3.000000 9.040000 0.960000 108.315948 105.970245 22962.039062
3.000000 9.040000 1.000000 34.328926 157.384674 25948.410156
3.000000 9.040000 1.040000 -57.090942 138.730347 22505.484375
3.000000 9.040000 1.080000 -104.952751 63.369305 15030.749023
3.000000 9.040000 1.120000 -85.743790 -12.941763 7519.486816
3.000000 9.040000 1.160000 -29.718163 -42.529137 2691.896484
3.000000 9.040000 1.200000 12.387921 -24.284023 743.174438
3.000000 9.080000 0.800000 2.916805 19.330387 382.171631
3.000000 9.080000 0.840000 23.740108 6.110077 600.925781
3.000000 9.080000 0.880000 51.886864 23.602566 3249.327637
3.000000 9.080000 0.920000 54.507210 67.970421 7591.013672
3.000000 9.080000 0.960000 14.866688 106.658920 11597.143555
3.000000 9.080000 1.000000 -48.685490 104.603439 13312.156250
3.000000 9.080000 1.040000 -95.103188 55.610676 12137.164062
3.000000 9.080000 1.080000 -94.421539 -10.808826 9032.257812
3.000000 9.080000 1.120000 -51.964703 -54.005890 5616.966797
3.000000 9.080000 1.160000 -1.102844 -55.136192 3041.216064
3.000000 9.080000 1.200000 26.942150 -28.306992 1527.165283
3.000000 9.120000 0.800000 -1.312856 18.497511 343.881500
3.000000 9.120000 0.840000 6.714301 21.726839 517.137390
3.000000 9.120000 0.880000 7.095127 35.492779 1310.078125
3.000000 9.120000 0.920000 -8.529850 49.227974 2496.151611
3.000000 9.120000 0.960000 -36.514061 47.982452 3635.592285
3.000000 9.120000 1.000000 -61.263077 24.231186 4340.314941
3.000000 9.120000 1.040000 -65.378067 -14.429031 4482.488281
3.000000 9.120000 1.080000 -42.637100 -48.790672 4198.452148
3.000000 9.120000 1.120000 -3.407181 -60.905457 3721.083496
3.000000 9.120000 1.160000 32.330452 -46.408550 3199.011719
3.000000 9.120000 1.200000 48.757851 -16.482273 2648.993164
3.000000 9.160000 0.800000 -6.451262 19.511299 422.309570
3.000000 9.160000 0.840000 -15.655672 19.338276 619.068970
3.000000 9.160000 0.880000 -24.156933 11.798491 722.761841
3.000000 9.160000 0.920000 -27.082140 0.177958 733.473999
3.000000 9.160000 0.960000 -24.713554 -11.096298 733.887573
3.000000 9.160000 1.000000 -19.319763 -21.355457 829.308777
3.000000 9.160000 1.040000 -9.855491 -31.859772 1112.175781
3.000000 9.160000 1.080000 7.376266 -39.819668 1640.015259
3.000000 9.160000 1.120000 31.685028 -37.098438 2380.235107
3.000000 9.160000 1.160000 53.281433 -17.533569 3146.337158
3.000000 9.160000 1.200000 58.533054 14.114648 3625.341797
3.000000 9.200000 0.800000 -13.442143 17.024742 470.533081
3.000000 9.200000 0.840000 -25.872185 2.052572 673.583008
3.000000 9.200000 0.880000 -21.755461 -19.522308 854.420593
3.000000 9.200000 0.920000 -2.772991 -31.096317 974.670410
3.000000 9.200000 0.960000 16.260841 -26.170441 949.306885
3.000000 9.200000 1.000000 23.670193 -14.132057 759.993042
3.000000 9.200000 1.040000 22.988943 -8.064899 593.534119
3.000000 9.200000 1.080000 26.917313 -8.767783 801.415771
3.000000 9.200000 1.120000 40.092690 -3.744795 1621.447144
3.000000 9.200000 1.160000 50.875885 17.096214 2880.636230
3.000000 9.200000 1.200000 42.546745 46.726173 3993.560791
3.040000 8.800000 0.800000 -57.837650 -43.007782 5194.863281
3.040000 8.800000 0.840000 -24.584589 -50.520821 3156.755371
3.040000 8.800000 0.880000 -1.683388 -35.896370 1291.383057
3.040000 8.800000 0.920000 1.279613 -17.898304 321.986694
3.040000 8.800000 0.960000 -5.174385 -12.188457 175.332764
3.040000 8.800000 1.000000 -4.377357 -16.042759 276.531372
3.040000 8.800000 1.040000 6.805847 -13.796257 236.656250
3.040000 8.800000 1.080000 14.276236 3.171093 213.866730
3.040000 8.800000 1.120000 3.229316 24.352585 603.476868
3.040000 8.800000 1.160000 -23.366158 29.889042 1439.332031
3.040000 8.800000 1.200000 -45.271973 12.047335 2194.689697
3.040000 8.840000 0.800000 -22.092346 -69.188538 5275.125488
3.040000 8.840000 0.840000 -4.623732 -53.262680 2858.291992
3.040000 8.840000 0.880000 -8.538448 -43.002487 1922.119019
3.040000 8.840000 0.920000 -12.867775 -52.844837 2958.156494
3.040000 8.840000 0.960000 4.295418 -68.958328 4773.701660
3.040000 8.840000 1.000000 39.031506 -63.777336 5591.006836
3.040000 8.840000 1.040000 62.296402 -27.449360 4634.309082
3.040000 8.840000 1.080000 49.089882 17.669441 2722.025635
3.040000 8.840000 1.120000 5.966228 36.458443 1364.813843
3.040000 8.840000 1.160000 -32.804874 15.384120 1312.830933
3.040000 8.840000 1.200000 -37.526115 -23.820267 1975.614502
3.040000 8.880000 0.800000 21.352192 -62.837280 4404.439941
3.040000 8.880000 0.840000 10.348810 -46.774189 2294.922607
3.040000 8.880000 0.880000 -3.656208 -63.141453 4000.210938
3.040000 8.880000 0.920000 15.613029 -95.664719 9395.504883
3.040000 8.880000 0.960000 69.990746 -101.165558 15133.173828
3.040000 8.880000 1.000000 118.969498 -55.116066 17191.521484
3.040000 8.880000 1.040000 117.415260 18.441795 14126.443359
3.040000 8.880000 1.080000 61.504658 65.884132 8123.541992
3.040000 8.880000 1.120000 -4.969088 54.387775 2982.721924
3.040000 8.880000 1.160000 -31.430159 2.745047 995.390137
3.040000 8.880000 1.200000 -7.312422 -38.458748 1532.546875
3.040000 8.920000 0.800000 46.252869 -31.001745 3100.436035
3.040000 8.920000 0.840000 19.587763 -38.427719 1860.369995
3.040000 8.920000 0.880000 24.537994 -78.673119 6791.572754
3.040000 8.920000 0.920000 80.442879 -102.396088 16956.015625
3.040000 8.920000 0.960000 150.202179 -64.823799 26762.820312
3.040000 8.920000 1.000000 171.479156 24.384159 29999.689453
3.040000 8.920000 1.040000 117.653976 103.975784 24653.421875
3.040000 8.920000 1.080000 26.437511 116.719833 14322.461914
3.040000 8.920000 1.120000 -34.152683 62.677910 5094.925781
3.040000 8.920000 1.160000 -28.646576 -3.289597 831.447815
3.040000 8.920000 1.200000 17.066753 -25.946119 964.475220
3.040000 8.960000 0.800000 43.556664 3.268492 1907.865967
3.040000 8.960000 0.840000 27.743958 -29.507078 1640.394775
3.040000 8.960000 0.880000 65.058632 -66.609222 8669.414062
3.040000 8.960000 0.920000 136.952698 -51.498558 21408.142578
3.040000 8.960000 0.960000 179.728622 29.672350 33182.824219
3.040000 8.960000 1.000000 144.436676 126.781021 36935.382812
3.040000 8.960000 1.040000 46.858818 168.350861 30537.759766
3.040000 8.960000 1.080000 -44.118980 127.451378 18190.337891
3.040000 8.960000 1.120000 -69.269791 45.300179 6850.410156
3.040000 8.960000 1.160000 -30.513870 -10.094191 1032.988892
3.040000 8.960000 1.200000 18.486954 -7.187990 393.434662
3.040000 9.000000 0.800000 24.658018 22.083912 1095.717041
3.040000 9.000000 0.840000 34.781780 -15.195122 1440.663940
3.040000 9.000000 0.880000 88.456909 -23.003288 8353.776367
3.040000 9.000000 0.920000 138.400604 30.532043 20086.931641
3.040000 9.000000 0.960000 127.953140 119.590462 30673.884766
3.040000 9.000000 1.000000 47.279083 178.437500 34075.253906
3.040000 9.000000 1.040000 -52.924835 160.541611 28574.648438
3.040000 9.000000 1.080000 -105.598358 81.270088 17755.839844
3.040000 9.000000 1.120000 -86.369125 2.250093 7464.688965
3.040000 9.000000 1.160000 -30.136162 -25.868916 1577.389038
3.040000 9.000000 1.200000 7.960558 -5.007178 88.442322
3.040000 9.040000 0.800000 6.387930 24.703245 651.055969
3.040000 9.040000 0.840000 32.917526 5.436266 1113.116455
3.040000 9.040000 0.880000 72.492828 27.419199 6007.022461
3.040000 9.040000 0.920000 79.238831 87.604279 13953.302734
3.040000 9.040000 0.960000 29.080090 142.099152 21037.820312
3.040000 9.040000 1.000000 -53.625793 143.587051 23492.968750
3.040000 9.040000 1.040000 -114.585175 84.597855 20286.558594
3.040000 9.040000 1.080000 -116.342934 4.614229 13556.968750
3.040000 9.040000 1.120000 -68.619186 -45.365643 6766.634277
3.040000 9.040000 1.160000 -14.646548 -45.686081 2301.739502
3.040000 9.040000 1.200000 10.081848 -18.093327 429.012146
3.040000 9.080000 0.800000 -4.292532 21.059364 461.922668
3.040000 9.080000 0.840000 16.000580 22.732681 772.793335
3.040000 9.080000 0.880000 25.316328 49.849716 3125.910645
3.040000 9.080000 0.920000 2.701569 82.245987 6771.700684
3.040000 9.080000 0.960000 -46.402679 88.763107 10032.097656
3.040000 9.080000 1.000000 -91.724121 54.788338 11415.076172
3.040000 9.080000 1.040000 -102.470108 -3.850746 10514.951172
3.040000 9.080000 1.080000 -72.205933 -53.426880 8068.127930
3.040000 9.080000 1.120000 -22.193050 -69.179581 5278.345703
3.040000 9.080000 1.160000 18.011583 -52.082821 3037.037354
3.040000 9.080000 1.200000 33.289776 -22.533892 1615.985474
3.040000 9.120000 0.800000 -10.984197 17.794989 437.314209
3.040000 9.120000 0.840000 -9.473632 23.557610 644.710693
3.040000 9.120000 0.880000 -18.681776 30.693283 1291.086426
3.040000 9.120000 0.920000 -36.683311 28.212681 2141.620605
3.040000 9.120000 0.960000 -52.994949 10.431965 2917.290527
3.040000 9.120000 1.000000 -55.783112 -18.401039 3450.353760
3.040000 9.120000 1.040000 -39.543442 -46.473824 3723.500000
3.040000 9.120000 1.080000 -8.350187 -61.148239 3808.832764
3.040000 9.120000 1.120000 26.363434 -55.526154 3778.184570
3.040000 9.120000 1.160000 51.410416 -31.634855 3643.794922
3.040000 9.120000 1.200000 57.979988 0.663033 3362.118652
3.040000 9.160000 0.800000 -17.381912 13.475965 483.732483
3.040000 9.160000 0.840000 -26.491350 6.057398 738.483704
3.040000 9.160000 0.880000 -28.971798 -9.233837 924.628784
3.040000 9.160000 0.920000 -20.567579 -24.069393 1002.361023
3.040000 9.160000 0.960000 -6.076226 -31.125679 1005.728455
3.040000 9.160000 1.000000 7.242913 -31.192474 1025.430298
3.040000 9.160000 1.040000 18.413525 -29.620831 1216.451538
3.040000 9.160000 1.080000 32.299973 -26.916382 1767.779785
3.040000 9.160000 1.120000 50.023972 -15.945006 2756.640869
3.040000 9.160000 1.160000 62.357399 9.192614 3972.949463
3.040000 9.160000 1.200000 55.928596 42.241634 4912.363281
3.040000 9.200000 0.800000 -20.877462 5.872147 470.350555
3.040000 9.200000 0.840000 -23.393187 -15.083877 774.764465
3.040000 9.200000 0.880000 -6.332746 -34.023705 1197.716064
3.040000 9.200000 0.920000 20.960386 -34.740032 1646.207642
3.040000 9.200000 0.960000 39.651825 -17.088943 1864.299194
3.040000 9.200000 1.000000 40.816895 3.285679 1676.814575
3.040000 9.200000 1.040000 33.695450 12.641537 1295.191772
3.040000 9.200000 1.080000 33.215477 14.196507 1304.808716
3.040000 9.200000 1.120000 40.928108 23.035892 2205.762207
3.040000 9.200000 1.160000 41.612144 46.283882 3873.768311
3.040000 9.200000 1.200000 20.388775 71.181641 5482.528320
3.080000 8.800000 0.800000 -25.400063 -61.502907 4427.770996
3.080000 8.800000 0.840000 6.060874 -54.639389 3022.197021
3.080000 8.800000 0.880000 21.481453 -32.830708 1539.308105
3.080000 8.800000 0.920000 19.154163 -13.862686 559.056030
3.080000 8.800000 0.960000 11.592117 -6.876773 181.667191
3.080000 8.800000 1.000000 10.355152 -5.601257 138.603271
3.080000 8.800000 1.040000 13.514308 1.525578 184.963913
3.080000 8.800000 1.080000 9.265342 16.027020 342.711914
3.080000 8.800000 1.120000 -8.744870 26.126997 759.092773
3.080000 8.800000 1.160000 -31.759630 19.366371 1383.730469
3.080000 8.800000 1.200000 -43.140285 -2.813149 1868.998047
3.080000 8.840000 0.800000 13.209020 -66.444435 4589.340820
3.080000 8.840000 0.840000 24.240370 -48.465530 2936.503174
3.080000 8.840000 0.880000 22.175713 -39.438377 2047.147827
3.080000 8.840000 0.920000 24.904305 -42.097935 2392.460449
3.080000 8.840000 0.960000 41.179379 -40.705608 3352.687744
3.080000 8.840000 1.000000 58.530804 -20.155712 3832.107666
3.080000 8.840000 1.040000 55.395020 14.102409 3267.486084
3.080000 8.840000 1.080000 25.294685 37.888924 2075.391602
3.080000 8.840000 1.120000 -13.055857 31.430727 1158.346069
3.080000 8.840000 1.160000 -31.743340 -0.024279 1007.640198
3.080000 8.840000 1.200000 -19.952095 -30.145744 1306.852051
3.080000 8.880000 0.800000 44.191132 -43.962162 3885.527832
3.080000 8.880000 0.840000 35.408829 -36.207127 2564.741211
3.080000 8.880000 0.880000 36.354759 -48.538643 3677.668213
3.080000 8.880000 0.920000 63.110958 -56.793118 7208.451172
3.080000 8.880000 0.960000 99.151764 -33.550941 10956.738281
3.080000 8.880000 1.000000 108.809540 19.357437 12214.225586
3.080000 8.880000 1.040000 73.843918 67.249527 9975.423828
3.080000 8.880000 1.080000 15.044443 74.012268 5704.151367
3.080000 8.880000 1.120000 -24.928955 37.296684 2012.495361
3.080000 8.880000 1.160000 -21.102173 -8.824001 523.164673
3.080000 8.880000 1.200000 11.837564 -26.681496 852.030151
3.080000 8.920000 0.800000 51.441212 -9.892008 2744.050049
3.080000 8.920000 0.840000 41.056728 -23.080276 2218.354004
3.080000 8.920000 0.880000 63.324909 -42.858006 5846.852539
3.080000 8.920000 0.920000 109.556847 -30.064522 12906.578125
3.080000 8.920000 0.960000 136.961395 27.560480 19518.003906
3.080000 8.920000 1.000000 109.988785 96.584579 21426.113281
3.080000 8.920000 1.040000 38.404972 125.904510 17326.886719
3.080000 8.920000 1.080000 -28.287994 94.998573 9824.939453
3.080000 8.920000 1.120000 -45.948093 33.592777 3239.702148
3.080000 8.920000 1.160000 -15.365730 -7.281052 289.119385
3.080000 8.920000 1.200000 22.798031 -3.055033 529.083435
3.080000 8.960000 0.800000 37.589134 15.833110 1663.630371
3.080000 8.960000 0.840000 43.623535 -8.502241 1975.300903
3.080000 8.960000 0.880000 84.195259 -12.152514 7236.525391
3.080000 8.960000 0.920000 122.839386 32.554916 16149.336914
3.080000 8.960000 0.960000 112.912880 106.269318 24042.486328
3.080000 8.960000 1.000000 45.301796 155.237305 26150.873047
3.080000 8.960000 1.040000 -38.306412 140.514221 21211.626953
3.080000 8.960000 1.080000 -81.829468 74.972351 12316.916016
3.080000 8.960000 1.120000 -65.176582 10.772617 4364.036133
3.080000 8.960000 1.160000 -18.866522 -9.517162 446.522034
3.080000 8.960000 1.200000 9.635324 11.060440 215.172791
3.080000 9.000000 0.800000 17.169983 25.074343 923.531006
3.080000 9.000000 0.840000 40.056488 9.294205 1690.904419
3.080000 9.000000 0.880000 76.446243 31.332912 6825.779785
3.080000 9.000000 0.920000 82.328461 90.043579 14885.822266
3.080000 9.000000 0.960000 33.629650 143.699646 21780.541016
3.080000 9.000000 1.000000 -46.450600 146.426788 23598.462891
3.080000 9.000000 1.040000 -105.331696 91.308716 19432.046875
3.080000 9.000000 1.080000 -107.546494 17.263084 11864.261719
3.080000 9.000000 1.120000 -64.291267 -26.773567 4850.190918
3.080000 9.000000 1.160000 -18.458687 -24.211807 926.934692
3.080000 9.000000 1.200000 -2.744478 0.926111 8.389843
3.080000 9.040000 0.800000 1.568457 23.122654 537.117188
3.080000 9.040000 0.840000 25.000259 25.384380 1269.379761
3.080000 9.040000 0.880000 37.113754 58.508766 4800.706543
3.080000 9.040000 0.920000 11.305162 99.410034 10010.161133
3.080000 9.040000 0.960000 -46.826744 110.310501 14361.150391
3.080000 9.040000 1.000000 -100.988747 73.615318 15617.941406
3.080000 9.040000 1.040000 -115.083191 9.015804 13325.425781
3.080000 9.040000 1.080000 -83.788033 -43.611237 8922.375000
3.080000 9.040000 1.120000 -34.173435 -58.135559 4547.566895
3.080000 9.040000 1.160000 0.753102 -40.434517 1635.517334
3.080000 9.040000 1.200000 9.185869 -16.288357 349.690765
3.080000 9.080000 0.800000 -8.019224 18.100424 391.933289
3.080000 9.080000 0.840000 0.559845 29.000130 841.320923
3.080000 9.080000 0.880000 -9.600058 48.528393 2447.166016
3.080000 9.080000 0.920000 -40.161568 54.868801 4623.537109
3.080000 9.080000 0.960000 -72.731331 33.565125 6416.464355
3.080000 9.080000 1.000000 -83.877853 -8.786652 7112.699219
3.080000 9.080000 1.040000 -64.365051 -49.603104 6603.327637
3.080000 9.080000 1.080000 -25.267216 -68.323463 5306.527832
3.080000 9.080000 1.120000 12.688927 -60.384338 3807.277100
3.080000 9.080000 1.160000 34.746754 -36.393055 2531.791504
3.080000 9.080000 1.200000 39.013260 -10.710917 1636.758179
3.080000 9.120000 0.800000 -14.995044 12.257445 375.096313
3.080000 9.120000 0.840000 -20.283955 14.638547 625.725891
3.080000 9.120000 0.880000 -31.252491 9.743138 1071.646973
3.080000 9.120000 0.920000 -38.821030 -5.788206 1540.575684
3.080000 9.120000 0.960000 -35.024033 -26.421902 1924.799805
3.080000 9.120000 1.000000 -19.082317 -43.060272 2218.321777
3.080000 9.120000 1.040000 3.942062 -49.675755 2483.220459
3.080000 9.120000 1.080000 28.052235 -44.746002 2789.132568
3.080000 9.120000 1.120000 48.268524 -28.754461 3156.669434
3.080000 9.120000 1.160000 59.131981 -3.429953 3508.355713
3.080000 9.120000 1.200000 54.860863 25.578648 3663.981445
3.080000 9.160000 0.800000 -19.324966 4.077023 390.076416
3.080000 9.160000 0.840000 -23.758751 -8.783235 641.623474
3.080000 9.160000 0.880000 -16.359337 -25.970396 942.089355
3.080000 9.160000 0.920000 3.027917 -35.310402 1255.992798
3.080000 9.160000 0.960000 23.775557 -30.431454 1491.350464
3.080000 9.160000 1.000000 35.769432 -17.036360 1569.689819
3.080000 9.160000 1.040000 39.680336 -5.105360 1600.593750
3.080000 9.160000 1.080000 43.708626 3.561321 1923.126953
3.080000 9.160000 1.120000 50.596668 16.927023 2846.547119
3.080000 9.160000 1.160000 51.035549 40.684753 4259.876465
3.080000 9.160000 1.200000 32.946503 66.569389 5516.955566
3.080000 9.200000 0.800000 -17.956089 -4.596049 343.544800
3.080000 9.200000 0.840000 -9.773854 -23.379269 642.118408
3.080000 9.200000 0.880000 15.016963 -32.041836 1252.188354
3.080000 9.200000 0.920000 41.537277 -19.113537 2090.672852
3.080000 9.200000 0.960000 51.613842 8.301142 2732.897705
3.080000 9.200000 1.000000 42.184166 31.340490 2761.730225
3.080000 9.200000 1.040000 27.341619 39.155457 2280.713867
3.080000 9.200000 1.080000 21.326845 39.403435 2007.464966
3.080000 9.200000 1.120000 21.726006 47.219650 2701.714600
3.080000 9.200000 1.160000 12.505931 65.063896 4389.708984
3.080000 9.200000 1.200000 -15.841896 76.812256 6151.088379
3.120000 8.800000 0.800000 4.114667 -53.530716 2882.468018
3.120000 8.800000 0.840000 27.355991 -38.100449 2199.994385
3.120000 8.800000 0.880000 34.124207 -14.241270 1367.275146
3.120000 8.800000 0.920000 26.133728 3.988561 698.880371
3.120000 8.800000 0.960000 14.198593 10.902454 320.463562
3.120000 8.800000 1.000000 6.725129 11.721104 182.611633
3.120000 8.800000 1.040000 2.473407 14.183037 207.276276
3.120000 8.800000 1.080000 -5.436398 18.876425 385.873840
3.120000 8.800000 1.120000 -19.499138 18.725193 730.849243
3.120000 8.800000 1.160000 -33.186226 7.705704 1160.703369
3.120000 8.800000 1.200000 -36.796093 -11.177408 1478.886963
3.120000 8.840000 0.800000 32.283871 -45.062172 3072.847656
3.120000 8.840000 0.840000 39.746300 -27.878529 2356.980713
3.120000 8.840000 0.880000 38.665909 -15.877192 1747.137695
3.120000 8.840000 0.920000 38.351368 -9.097946 1553.599976
3.120000 8.840000 0.960000 40.879223 0.315754 1671.210571
3.120000 8.840000 1.000000 38.402649 16.294159 1740.263062
3.120000 8.840000 1.040000 23.030308 31.389626 1515.703613
3.120000 8.840000 1.080000 -1.749525 32.837044 1081.332275
3.120000 8.840000 1.120000 -21.410683 16.193676 720.652466
3.120000 8.840000 1.160000 -23.237179 -8.281267 608.545898
3.120000 8.840000 1.200000 -8.482086 -24.085253 652.045227
3.120000 8.880000 0.800000 47.400749 -20.849159 2681.518555
3.120000 8.880000 0.840000 45.764267 -13.891407 2287.339355
3.120000 8.880000 0.880000 51.075363 -12.563293 2766.529053
3.120000 8.880000 0.920000 64.476311 -2.456001 4163.226562
3.120000 8.880000 0.960000 70.979759 23.792347 5604.201660
3.120000 8.880000 1.000000 54.849464 54.337402 5961.017090
3.120000 8.880000 1.040000 18.525652 66.733032 4796.497070
3.120000 8.880000 1.080000 -15.933531 49.850876 2738.987305
3.120000 8.880000 1.120000 -26.058414 16.311245 945.097656
3.120000 8.880000 1.160000 -9.802671 -8.283536 164.709335
3.120000 8.880000 1.200000 13.388868 -8.896786 258.414581
3.120000 8.920000 0.800000 44.189838 4.491404 1972.914551
3.120000 8.920000 0.840000 46.328587 0.963650 2147.266602
3.120000 8.920000 0.880000 63.438591 4.939528 4048.853760
3.120000 8.920000 0.920000 79.357101 31.562941 7293.768555
3.120000 8.920000 0.960000 69.913376 72.415970 10131.953125
3.120000 8.920000 1.000000 29.230616 99.145798 10684.318359
3.120000 8.920000 1.040000 -20.285355 89.589233 8437.726562
3.120000 8.920000 1.080000 -46.427895 50.208122 4676.404785
3.120000 8.920000 1.120000 -36.506809 11.243551 1459.164551
3.120000 8.920000 1.160000 -8.010040 -1.151024 65.485603
3.120000 8.920000 1.200000 9.897159 12.248957 247.990692
3.120000 8.960000 0.800000 29.675243 19.846777 1274.514648
3.120000 8.960000 0.840000 41.262562 16.371803 1970.635010
3.120000 8.960000 0.880000 60.212654 34.036724 4784.062500
3.120000 8.960000 0.920000 60.002022 73.292030 8971.964844
3.120000 8.960000 0.960000 25.062279 108.394173 12377.415039
3.120000 8.960000 1.000000 -29.990803 109.653854 12923.416016
3.120000 8.960000 1.040000 -70.526337 72.300949 10201.391602
3.120000 8.960000 1.080000 -72.660156 22.404675 5781.467773
3.120000 8.960000 1.120000 -44.121490 -6.664162 1991.116943
3.120000 8.960000 1.160000 -14.758303 -3.712020 231.586594
3.120000 8.960000 1.200000 -7.338624 13.808405 244.527451
3.120000 9.000000 0.800000 13.884583 24.215370 779.165833
3.120000 9.000000 0.840000 27.999929 29.870115 1676.219849
3.120000 9.000000 0.880000 33.511497 57.019066 4374.194336
3.120000 9.000000 0.920000 10.481639 89.075806 8044.363770
3.120000 9.000000 0.960000 -36.997139 97.423721 10860.169922
3.120000 9.000000 1.000000 -80.850067 68.594803 11241.980469
3.120000 9.000000 1.040000 -93.048035 18.346222 8994.520508
3.120000 9.000000 1.080000 -70.148117 -21.787794 5395.466309
3.120000 9.000000 1.120000 -34.486870 -31.964157 2211.051514
3.120000 9.000000 1.160000 -12.138052 -18.640509 494.800873
3.120000 9.000000 1.200000 -10.553522 -3.726296 125.262115
3.120000 9.040000 0.800000 1.363934 22.384979 502.947632
3.120000 9.040000 0.840000 6.893870 34.483421 1236.631714
3.120000 9.040000 0.880000 -4.923589 54.536766 2998.500488
3.120000 9.040000 0.920000 -36.511570 61.930824 5168.521484
3.120000 9.040000 0.960000 -70.302010 42.283348 6730.253906
3.120000 9.040000 1.000000 -83.264648 2.106092 6937.437012
3.120000 9.040000 1.040000 -66.913574 -36.034500 5775.911621
3.120000 9.040000 1.080000 -33.516579 -52.608192 3890.982910
3.120000 9.040000 1.120000 -3.838942 -45.643375 2098.055176
3.120000 9.040000 1.160000 10.119206 -28.164165 895.618530
3.120000 9.040000 1.200000 11.071675 -13.860157 314.685944
3.120000 9.080000 0.800000 -8.396513 17.374268 372.366608
3.120000 9.080000 0.840000 -13.856332 24.324272 783.668152
3.120000 9.080000 0.880000 -29.970671 24.821932 1514.369385
3.120000 9.080000 0.920000 -46.707676 10.008135 2281.769775
3.120000 9.080000 0.960000 -50.363644 -16.324881 2802.998291
3.120000 9.080000 1.000000 -35.856171 -40.724392 2944.141113
3.120000 9.080000 1.040000 -10.165608 -51.456245 2751.084717
3.120000 9.080000 1.080000 14.891315 -46.432457 2377.724365
3.120000 9.080000 1.120000 31.618731 -31.331074 1981.380371
3.120000 9.080000 1.160000 38.568031 -12.664832 1647.890991
3.120000 9.080000 1.200000 36.660831 5.646936 1375.904541
3.120000 9.120000 0.800000 -15.205889 9.028779 312.737915
3.120000 9.120000 0.840000 -22.171719 3.069812 501.008850
3.120000 9.120000 0.880000 -24.683950 -11.330129 737.669250
3.120000 9.120000 0.920000 -15.572482 -27.386946 992.546997
3.120000 9.120000 0.960000 2.965229 -35.064049 1238.280151
3.120000 9.120000 1.000000 21.812162 -30.917849 1431.683838
3.120000 9.120000 1.040000 34.393383 -19.805599 1575.166504
3.120000 9.120000 1.080000 41.524841 -7.342279 1778.221558
3.120000 9.120000 1.120000 46.243988 6.680963 2183.141602
3.120000 9.120000 1.160000 46.214039 25.264725 2774.043701
3.120000 9.120000 1.200000 34.615494 45.512047 3269.578857
3.120000 9.160000 0.800000 -16.320436 -1.339669 268.151367
3.120000 9.160000 0.840000 -13.342255 -15.638725 422.585510
3.120000 9.160000 0.880000 3.208195 -27.511070 767.151550
3.120000 9.160000 0.920000 27.093487 -24.765270 1347.375610
3.120000 9.160000 0.960000 43.714310 -6.450825 1952.554077
3.120000 9.160000 1.000000 44.798828 15.528482 2248.068848
3.120000 9.160000 1.040000 36.246597 29.198723 2166.381348
3.120000 9.160000 1.080000 29.714687 35.029495 2110.028320
3.120000 9.160000 1.120000 27.684998 43.237312 2635.924316
3.120000 9.160000 1.160000 20.049768 58.680672 3845.414307
3.120000 9.160000 1.200000 -2.736262 71.362450 5100.086426
3.120000 9.200000 0.800000 -11.049002 -8.522858 194.719543
3.120000 9.200000 0.840000 3.374526 -19.335808 385.260895
3.120000 9.200000 0.880000 27.551683 -15.685973 1005.145020
3.120000 9.200000 0.920000 44.918545 7.132930 2068.554443
3.120000 9.200000 0.960000 41.951286 36.618919 3100.855713
3.120000 9.200000 1.000000 22.244888 54.649139 3481.363281
3.120000 9.200000 1.040000 2.315366 55.613224 3098.191406
3.120000 9.200000 1.080000 -6.642031 50.620506 2606.552002
3.120000 9.200000 1.120000 -10.417020 52.832123 2899.747559
3.120000 9.200000 1.160000 -23.258041 60.555344 4207.886230
3.120000 9.200000 1.200000 -48.571972 58.050056 5729.045898
3.160000 8.800000 0.800000 14.882977 -33.528423 1345.658203
3.160000 8.800000 0.840000 28.825672 -16.339905 1097.911865
3.160000 8.800000 0.880000 28.090004 5.146801 815.537903
3.160000 8.800000 0.920000 14.928275 19.426025 600.223877
3.160000 8.800000 0.960000 -0.929983 21.529629 464.389771
3.160000 8.800000 1.000000 -10.907559 15.826311 369.446960
3.160000 8.800000 1.040000 -14.284622 10.362891 311.439941
3.160000 8.800000 1.080000 -16.788364 8.581817 355.496765
3.160000 8.800000 1.120000 -23.045160 6.639501 575.162354
3.160000 8.800000 1.160000 -30.806480 -1.410677 951.029236
3.160000 8.800000 1.200000 -32.765949 -16.218943 1336.661499
3.160000 8.840000 0.800000 30.802839 -24.426411 1545.464355
3.160000 8.840000 0.840000 36.416656 -7.527874 1382.841675
3.160000 8.840000 0.880000 31.850849 7.508785 1070.858398
3.160000 8.840000 0.920000 22.290131 16.008389 753.118408
3.160000 8.840000 0.960000 12.885753 18.954140 525.302002
3.160000 8.840000 1.000000 4.768721 19.457998 401.354401
3.160000 8.840000 1.040000 -3.643492 18.227064 345.500885
3.160000 8.840000 1.080000 -12.369356 13.154054 326.030090
3.160000 8.840000 1.120000 -18.057070 3.010843 335.122955
3.160000 8.840000 1.160000 -16.785671 -9.408028 370.269745
3.160000 8.840000 1.200000 -8.248140 -18.545183 411.955658
3.160000 8.880000 0.800000 38.004341 -8.072378 1509.493286
3.160000 8.880000 0.840000 39.289673 4.986326 1568.541748
3.160000 8.880000 0.880000 36.374794 16.044006 1580.535767
3.160000 8.880000 0.920000 30.917141 25.818144 1622.446167
3.160000 8.880000 0.960000 21.579065 34.439503 1651.735352
3.160000 8.880000 1.000000 7.384422 38.562828 1541.621338
3.160000 8.880000 1.040000 -8.131577 33.892097 1214.796875
3.160000 8.880000 1.080000 -17.757338 20.672478 742.674377
3.160000 8.880000 1.120000 -16.637772 5.572556 307.868805
3.160000 8.880000 1.160000 -7.188291 -3.117159 61.388210
3.160000 8.880000 1.200000 2.738535 -2.507157 13.785409
3.160000 8.920000 0.800000 35.465023 8.239479 1325.656860
3.160000 8.920000 0.840000 35.967037 18.982456 1653.961426
3.160000 8.920000 0.880000 33.983185 31.300817 2134.597900
3.160000 8.920000 0.920000 25.890942 45.101665 2704.501221
3.160000 8.920000 0.960000 8.981206 54.872715 3091.677002
3.160000 8.920000 1.000000 -12.702547 53.172375 2988.656250
3.160000 8.920000 1.040000 -29.021503 38.447071 2320.424805
3.160000 8.920000 1.080000 -31.763378 18.543446 1352.771484
3.160000 8.920000 1.120000 -22.296024 5.082116 522.940613
3.160000 8.920000 1.160000 -10.546973 3.578422 124.043755
3.160000 8.920000 1.200000 -5.836569 9.237849 119.403397
3.160000 8.960000 0.800000 26.364086 20.184425 1102.476074
3.160000 8.960000 0.840000 25.075588 31.270527 1606.630859
3.160000 8.960000 0.880000 18.340582 45.085892 2369.114746
3.160000 8.960000 0.920000 2.005291 56.555771 3202.576416
3.160000 8.960000 0.960000 -21.407999 57.083809 3716.863770
3.160000 8.960000 1.000000 -41.730309 42.794258 3572.767090
3.160000 8.960000 1.040000 -48.599998 19.936390 2759.419678
3.160000 8.960000 1.080000 -40.518242 0.960200 1642.649902
3.160000 8.960000 1.120000 -26.281916 -5.660003 722.774719
3.160000 8.960000 1.160000 -16.974108 -2.006867 292.147858
3.160000 8.960000 1.200000 -16.365471 2.725540 275.257202
3.160000 9.000000 0.800000 13.779231 26.585133 896.636475
3.160000 9.000000 0.840000 7.334703 36.512974 1386.995117
3.160000 9.000000 0.880000 -6.712239 44.938076 2064.484863
3.160000 9.000000 0.920000 -27.107084 44.476189 2712.925293
3.160000 9.000000 0.960000 -45.547554 30.924755 3030.919922
3.160000 9.000000 1.000000 -52.477814 8.667035 2829.038330
3.160000 9.000000 1.040000 -45.141373 -11.649715 2173.459473
3.160000 9.000000 1.080000 -29.901228 -21.394783 1351.820190
3.160000 9.000000 1.120000 -16.539394 -20.209650 681.981567
3.160000 9.000000 1.160000 -10.330284 -14.594055 319.701233
3.160000 9.000000 1.200000 -9.354740 -10.947249 207.353424
3.160000 9.040000 0.800000 -0.190939 26.663143 710.959656
3.160000 9.040000 0.840000 -11.476952 29.870863 1023.988831
3.160000 9.040000 0.880000 -26.480333 25.864712 1370.191406
3.160000 9.040000 0.920000 -38.362385 11.982199 1615.245728
3.160000 9.040000 0.960000 -39.987587 -7.345303 1652.960571
3.160000 9.040000 1.000000 -30.326408 -23.419064 1468.143555
3.160000 9.040000 1.040000 -15.177318 -30.200233 1142.405029
3.160000 9.040000 1.080000 -1.813594 -28.208229 798.993286
3.160000 9.040000 1.120000 6.480848 -22.041002 527.807190
3.160000 9.040000 1.160000 10.660034 -15.240968 345.923431
3.160000 9.040000 1.200000 12.172383 -8.400675 218.738251
3.160000 9.080000 0.800000 -12.281069 19.578804 534.154175
3.160000 9.080000 0.840000 -21.925663 12.556940 638.411438
3.160000 9.080000 0.880000 -26.619919 -2.016752 712.687317
3.160000 9.080000 0.920000 -20.593815 -18.218960 756.035767
3.160000 9.080000 0.960000 -5.641272 -27.214195 772.436401
3.160000 9.080000 1.000000 10.042593 -25.444166 748.259277
3.160000 9.080000 1.040000 19.689104 -17.202637 683.591553
3.160000 9.080000 1.080000 23.479229 -8.885350 630.223633
3.160000 9.080000 1.120000 25.611511 -1.998828 659.944824
3.160000 9.080000 1.160000 27.104477 6.600151 778.214661
3.160000 9.080000 1.200000 23.729319 17.866671 882.298462
3.160000 9.120000 0.800000 -17.780327 7.259783 368.844452
3.160000 9.120000 0.840000 -18.034168 -6.104487 362.496002
3.160000 9.120000 0.880000 -6.952454 -19.729542 437.591431
3.160000 9.120000 0.920000 12.942683 -22.993549 696.216370
3.160000 9.120000 0.960000 30.347893 -11.991768 1064.797119
3.160000 9.120000 1.000000 35.766121 5.780209 1312.626221
3.160000 9.120000 1.040000 30.614071 19.098022 1301.955811
3.160000 9.120000 1.080000 24.165089 24.602360 1189.227661
3.160000 9.120000 1.120000 21.790577 28.765602 1302.289062
3.160000 9.120000 1.160000 18.470089 37.837524 1772.822388
3.160000 9.120000 1.200000 5.861083 47.754948 2314.887207
3.160000 9.160000 0.800000 -14.398200 -4.180641 224.785919
3.160000 9.160000 0.840000 -3.865910 -14.717185 231.540802
3.160000 9.160000 0.880000 16.458420 -15.800274 520.528198
3.160000 9.160000 0.920000 35.038239 -0.465490 1227.894775
3.160000 9.160000 0.960000 38.611942 24.539728 2093.080322
3.160000 9.160000 1.000000 25.749844 44.025803 2601.325684
3.160000 9.160000 1.040000 8.199732 49.308281 2498.542236
3.160000 9.160000 1.080000 -2.137025 46.113319 2131.005127
3.160000 9.160000 1.120000 -5.977946 46.141247 2164.750488
3.160000 9.160000 1.160000 -14.236757 51.856506 2891.782471
3.160000 9.160000 1.200000 -32.801090 52.482777 3830.353516
3.160000 9.200000 0.800000 -6.091609 -8.343538 106.722336
3.160000 9.200000 0.840000 8.439102 -9.811277 167.479614
3.160000 9.200000 0.880000 24.983025 2.775268 631.853577
3.160000 9.200000 0.920000 29.288591 27.652239 1622.467896
3.160000 9.200000 0.960000 14.790491 50.415527 2760.483887
3.160000 9.200000 1.000000 -9.586497 57.450974 3392.515137
3.160000 9.200000 1.040000 -28.178169 49.289429 3223.457031
3.160000 9.200000 1.080000 -34.608261 38.695305 2695.058350
3.160000 9.200000 1.120000 -37.042282 35.393967 2624.863525
3.160000 9.200000 1.160000 -46.534828 34.870476 3381.440430
3.160000 9.200000 1.200000 -61.858177 24.460793 4424.764648
3.200000 8.800000 0.800000 8.838625 -19.636686 463.720764
3.200000 8.800000 0.840000 15.912537 -5.737554 286.128326
3.200000 8.800000 0.880000 10.865459 9.963296 217.325470
3.200000 8.800000 0.920000 -3.706703 17.365902 315.314209
3.200000 8.800000 0.960000 -17.871895 12.563524 477.246765
3.200000 8.800000 1.000000 -23.000568 1.472191 531.193481
3.200000 8.800000 1.040000 -19.592142 -5.986492 419.690125
3.200000 8.800000 1.080000 -16.123661 -5.807804 293.703033
3.200000 8.800000 1.120000 -19.651031 -3.850899 400.992432
3.200000 8.800000 1.160000 -27.587559 -9.365766 848.791016
3.200000 8.800000 1.200000 -29.474297 -24.362682 1462.274414
3.200000 8.840000 0.800000 19.875586 -17.271589 693.346680
3.200000 8.840000 0.840000 23.105797 -0.700883 534.369080
3.200000 8.840000 0.880000 13.540722 12.574029 341.457336
3.200000 8.840000 0.920000 -1.030454 14.359575 207.259232
3.200000 8.840000 0.960000 -10.036767 6.468166 142.573868
3.200000 8.840000 1.000000 -9.766306 -1.992234 99.349724
3.200000 8.840000 1.040000 -5.766006 -4.137678 50.367207
3.200000 8.840000 1.080000 -5.853863 -1.858595 37.722080
3.200000 8.840000 1.120000 -11.252895 -2.823518 134.599915
3.200000 8.840000 1.160000 -15.114336 -11.375481 357.844727
3.200000 8.840000 1.200000 -9.780291 -22.949371 622.327759
3.200000 8.880000 0.800000 29.283947 -7.884124 919.708984
3.200000 8.880000 0.840000 26.266882 10.184109 793.665161
3.200000 8.880000 0.880000 12.934116 19.384876 543.064819
3.200000 8.880000 0.920000 0.330894 16.709522 279.317627
3.200000 8.880000 0.960000 -3.964062 9.014597 96.976738
3.200000 8.880000 1.000000 -1.812217 4.955152 27.837660
3.200000 8.880000 1.040000 -0.592636 6.412108 41.466347
3.200000 8.880000 1.080000 -4.388514 7.949882 82.459671
3.200000 8.880000 1.120000 -9.751058 3.999836 111.081810
3.200000 8.880000 1.160000 -9.979529 -4.464848 119.525864
3.200000 8.880000 1.200000 -2.695063 -10.658745 120.872208
3.200000 8.920000 0.800000 32.445904 7.193798 1104.487427
3.200000 8.920000 0.840000 21.216450 23.090378 983.303223
3.200000 8.920000 0.880000 5.230377 26.192848 713.422180
3.200000 8.920000 0.920000 -4.727593 19.718163 411.156067
3.200000 8.920000 0.960000 -6.039822 12.993447 205.309113
3.200000 8.920000 1.000000 -4.455772 11.740259 157.687592
3.200000 8.920000 1.040000 -6.379058 13.619620 226.186447
3.200000 8.920000 1.080000 -11.985693 12.601087 302.444214
3.200000 8.920000 1.120000 -15.970401 6.421650 296.291290
3.200000 8.920000 1.160000 -14.070704 -1.008563 199.001923
3.200000 8.920000 1.200000 -7.771403 -4.055609 76.842674
3.200000 8.960000 0.800000 25.725361 23.189610 1199.552246
3.200000 8.960000 0.840000 7.452128 31.272144 1033.481201
3.200000 8.960000 0.880000 -8.247182 25.976524 742.795837
3.200000 8.960000 0.920000 -13.947536 15.515814 435.274231
3.200000 8.960000 0.960000 -12.071896 9.124646 228.989838
3.200000 8.960000 1.000000 -10.349617 8.948280 187.186295
3.200000 8.960000 1.040000 -13.296491 9.961914 276.036377
3.200000 8.960000 1.080000 -18.449018 6.779668 386.330170
3.200000 8.960000 1.120000 -20.284580 -0.459232 411.675110
3.200000 8.960000 1.160000 -16.650743 -6.868042 324.417236
3.200000 8.960000 1.200000 -10.759854 -8.418340 186.642914
3.200000 9.000000 0.800000 9.627213 32.788494 1167.768555
3.200000 9.000000 0.840000 -9.803258 28.780727 924.434143
3.200000 9.000000 0.880000 -19.729931 14.897629 611.209534
3.200000 9.000000 0.920000 -17.784775 2.011618 320.344818
3.200000 9.000000 0.960000 -10.779636 -2.545337 122.679298
3.200000 9.000000 1.000000 -7.343818 -0.346342 54.051613
3.200000 9.000000 1.040000 -9.989759 1.412160 101.789490
3.200000 9.000000 1.080000 -14.060188 -2.115040 202.162277
3.200000 9.000000 1.120000 -13.725525 -8.979155 269.015259
3.200000 9.000000 1.160000 -8.266797 -13.400735 247.919632
3.200000 9.000000 1.200000 -2.325466 -12.290455 156.463074
3.200000 9.040000 0.800000 -9.419887 30.310566 1007.464661
3.200000 9.040000 0.840000 -21.589405 15.377438 702.567993
3.200000 9.040000 0.880000 -20.191025 -2.498813 413.921570
3.200000 9.040000 0.920000 -8.393304 -12.344023 222.822449
3.200000 9.040000 0.960000 3.453427 -10.373196 119.529350
3.200000 9.040000 1.000000 6.991819 -2.561628 55.447479
3.200000 9.040000 1.040000 2.784908 1.760080 10.853594
3.200000 9.040000 1.080000 -1.588372 -1.084880 3.699889
3.200000 9.040000 1.120000 -0.045623 -6.447671 41.574551
3.200000 9.040000 1.160000 5.853661 -7.338175 88.114159
3.200000 9.040000 1.200000 9.312067 -2.365544 92.310387
3.200000 9.080000 0.800000 -21.916874 16.670147 758.243164
3.200000 9.080000 0.840000 -21.277815 -1.731539 455.743622
3.200000 9.080000 0.880000 -7.646682 -15.036723 284.574768
3.200000 9.080000 0.920000 10.789198 -14.698272 332.445984
3.200000 9.080000 0.960000 21.913782 -2.271529 485.373688
3.200000 9.080000 1.000000 20.113125 11.596909 539.026062
3.200000 9.080000 1.040000 10.909489 16.955393 406.502289
3.200000 9.080000 1.080000 4.718213 13.544449 205.713623
3.200000 9.080000 1.120000 6.034104 9.651237 129.556793
3.200000 9.080000 1.160000 9.481667 12.133416 237.121796
3.200000 9.080000 1.200000 6.923855 18.541107 391.712402
3.200000 9.120000 0.800000 -21.986286 0.097939 483.406372
3.200000 9.120000 0.840000 -10.251313 -12.355749 257.753967
3.200000 9.120000 0.880000 9.418527 -13.811998 279.479950
3.200000 9.120000 0.920000 25.645046 -0.406131 657.833313
3.200000 9.120000 0.960000 27.785599 20.253567 1182.246460
3.200000 9.120000 1.000000 15.974789 34.787224 1465.344849
3.200000 9.120000 1.040000 1.090791 36.176331 1309.916748
3.200000 9.120000 1.080000 -6.171823 29.725456 921.694092
3.200000 9.120000 1.120000 -5.728803 26.161871 717.262634
3.200000 9.120000 1.160000 -6.623882 29.226681 898.074646
3.200000 9.120000 1.200000 -15.211079 31.714006 1237.155151
3.200000 9.160000 0.800000 -12.342935 -9.501863 242.633453
3.200000 9.160000 0.840000 2.444776 -11.236974 132.246506
3.200000 9.160000 0.880000 18.238163 -0.619399 333.014252
3.200000 9.160000 0.920000 23.521069 20.605129 977.812012
3.200000 9.160000 0.960000 12.633603 40.614471 1809.143188
3.200000 9.160000 1.000000 -7.544110 47.562092 2319.066162
3.200000 9.160000 1.040000 -23.629738 40.742081 2218.281738
3.200000 9.160000 1.080000 -28.745804 30.456839 1753.940186
3.200000 9.160000 1.120000 -28.394386 26.275759 1496.656738
3.200000 9.160000 1.160000 -32.437756 26.632502 1761.498169
3.200000 9.160000 1.200000 -42.267277 21.731386 2258.775879
3.200000 9.200000 0.800000 -2.359471 -8.416304 76.401276
3.200000 9.200000 0.840000 7.351461 -2.541026 60.500797
3.200000 9.200000 0.880000 12.909564 12.792653 330.308838
3.200000 9.200000 0.920000 5.724282 31.509445 1025.612549
3.200000 9.200000 0.960000 -13.536486 41.645531 1917.586670
3.200000 9.200000 1.000000 -33.903038 36.893986 2510.582031
3.200000 9.200000 1.040000 -44.345772 23.022005 2496.560059
3.200000 9.200000 1.080000 -44.347672 11.523686 2099.511230
3.200000 9.200000 1.120000 -42.894691 7.256577 1892.612549
3.200000 9.200000 1.160000 -46.874840 4.086556 2213.950439
3.200000 9.200000 1.200000 -52.327942 -6.323479 2778.199951
