#kx 	ky 	kz 	real 	imag 	intensity
5.800000 3.800000 -6.200000 -17.844013 -19.635134 703.947266
5.800000 3.800000 -6.160000 -1.236662 -30.979109 961.234558
5.800000 3.800000 -6.120000 17.270512 -23.897264 869.349792
5.800000 3.800000 -6.080000 20.882662 -6.057473 472.778564
5.800000 3.800000 -6.040000 8.323075 4.125612 86.294258
5.800000 3.800000 -6.000000 -4.902967 -3.048424 33.331978
5.800000 3.800000 -5.960000 -3.239839 -18.484787 352.183899
5.800000 3.800000 -5.920000 12.422156 -24.507317 754.918579
5.800000 3.800000 -5.880000 26.304085 -13.961387 886.825195
5.800000 3.800000 -5.840000 25.229548 2.669142 643.654419
5.800000 3.800000 -5.800000 12.514298 9.512307 247.091644
5.800000 3.840000 -6.200000 -0.869596 -30.781229 948.240295
5.800000 3.840000 -6.160000 18.294533 -34.187878 1503.500977
5.800000 3.840000 -6.120000 33.441456 -22.781826 1637.342529
5.800000 3.840000 -6.080000 35.142857 -6.427742 1276.336304
5.800000 3.840000 -6.040000 26.647850 2.585413 716.792297
5.800000 3.840000 -6.000000 19.013735 1.207935 362.981232
5.800000 3.840000 -5.960000 19.202633 -3.223614 379.132812
5.800000 3.840000 -5.920000 24.052612 -2.454618 584.553284
5.800000 3.840000 -5.880000 25.733223 3.772571 676.431091
5.800000 3.840000 -5.840000 21.481874 8.871009 540.165710
5.800000 3.840000 -5.800000 16.273079 8.258156 333.010254
5.800000 3.880000 -6.200000 15.156545 -24.734894 841.535767
5.800000 3.880000 -6.160000 32.637909 -23.018379 1595.078857
5.800000 3.880000 -6.120000 45.300808 -9.839317 2148.975342
5.800000 3.880000 -6.080000 46.853729 7.618542 2253.314209
5.800000 3.880000 -6.040000 38.518204 20.717405 1912.862793
5.800000 3.880000 -6.000000 26.639782 25.194736 1344.452637
5.800000 3.880000 -5.960000 17.483280 22.496662 811.764893
5.800000 3.880000 -5.920000 13.778746 17.035320 480.055969
5.800000 3.880000 -5.880000 14.770618 12.811892 382.315735
5.800000 3.880000 -5.840000 18.032459 11.924444 467.361938
5.800000 3.880000 -5.800000 20.864651 14.692492 651.203003
5.800000 3.920000 -6.200000 18.152241 -11.816715 469.138611
5.800000 3.920000 -6.160000 34.530304 -7.705649 1251.718994
5.800000 3.920000 -6.120000 45.690300 8.223452 2155.228760
5.800000 3.920000 -6.080000 43.817146 29.118372 2767.821777
5.800000 3.920000 -6.040000 28.690804 43.958321 2755.496094
5.800000 3.920000 -6.000000 8.684729 44.929089 2094.047607
5.800000 3.920000 -5.960000 -4.615643 33.207851 1124.065552
5.800000 3.920000 -5.920000 -4.682629 18.334183 358.069244
5.800000 3.920000 -5.880000 5.336433 11.085655 151.369263
5.800000 3.920000 -5.840000 15.531727 15.463215 480.345551
5.800000 3.920000 -5.800000 17.328568 26.380695 996.220337
5.800000 3.960000 -6.200000 11.254900 -5.581872 157.830078
5.800000 3.960000 -6.160000 27.730190 2.265341 774.095215
5.800000 3.960000 -6.120000 34.464481 22.408978 1689.962646
5.800000 3.960000 -6.080000 24.045015 43.218010 2445.959229
5.800000 3.960000 -6.040000 1.341954 50.697426 2572.029785
5.800000 3.960000 -6.000000 -18.958437 39.849350 1947.393066
5.800000 3.960000 -5.960000 -23.705229 19.495855 942.026245
5.800000 3.960000 -5.920000 -12.111412 5.357613 175.390320
5.800000 3.960000 -5.880000 3.930588 7.049149 65.140022
5.800000 3.960000 -5.840000 10.438436 20.629942 534.555420
5.800000 3.960000 -5.800000 3.062038 33.337620 1120.772949
5.800000 4.000000 -6.200000 6.170724 -8.372154 108.170807
5.800000 4.000000 -6.160000 19.524902 5.707397 413.796204
5.800000 4.000000 -6.120000 16.882654 26.589376 992.018921
5.800000 4.000000 -6.080000 -1.581385 38.507965 1485.364136
5.800000 4.000000 -6.040000 -22.484396 32.055939 1533.131348
5.800000 4.000000 -6.000000 -30.173868 12.793288 1074.130615
5.800000 4.000000 -5.960000 -20.246025 -3.347225 421.105438
5.800000 4.000000 -5.920000 -3.082769 -4.000555 25.507904
5.800000 4.000000 -5.880000 5.930666 9.251035 120.754440
5.800000 4.000000 -5.840000 0.016582 23.561985 555.167419
5.800000 4.000000 -5.800000 -14.357235 27.300499 951.447449
5.800000 4.040000 -6.200000 8.304950 -11.350485 197.805695
5.800000 4.040000 -6.160000 12.222382 6.314280 189.256744
5.800000 4.040000 -6.120000 0.060639 19.130287 365.971558
5.800000 4.040000 -6.080000 -16.843060 15.999042 539.657959
5.800000 4.040000 -6.040000 -23.035492 0.517285 530.901489
5.800000 4.040000 -6.000000 -13.400980 -12.471601 335.127106
5.800000 4.040000 -5.960000 2.361343 -11.009267 126.779892
5.800000 4.040000 -5.920000 9.424446 3.027761 97.987518
5.800000 4.040000 -5.880000 1.812552 16.681229 281.548737
5.800000 4.040000 -5.840000 -13.140879 18.790451 525.763733
5.800000 4.040000 -5.800000 -23.295662 9.752875 637.806458
5.800000 4.080000 -6.200000 11.167031 -7.409651 179.605530
5.800000 4.080000 -6.160000 3.564509 4.672452 34.537537
5.800000 4.080000 -6.120000 -9.349929 2.311695 92.765106
5.800000 4.080000 -6.080000 -11.773289 -11.317753 266.701843
5.800000 4.080000 -6.040000 1.119457 -20.575336 424.597656
5.800000 4.080000 -6.000000 17.743397 -13.451260 495.764526
5.800000 4.080000 -5.960000 21.648829 5.860550 503.017822
5.800000 4.080000 -5.920000 8.072073 20.999950 506.156281
5.800000 4.080000 -5.880000 -11.659284 19.663425 522.589172
5.800000 4.080000 -5.840000 -21.939781 4.997389 506.327911
5.800000 4.080000 -5.800000 -17.955273 -9.150306 406.119904
5.800000 4.120000 -6.200000 5.854601 -0.957582 35.193321
5.800000 4.120000 -6.160000 -5.923971 -3.316702 46.093941
5.800000 4.120000 -6.120000 -6.571468 -18.102322 370.878265
5.800000 4.120000 -6.080000 10.690049 -27.636620 878.059875
5.800000 4.120000 -6.040000 32.513798 -16.528025 1330.322754
5.800000 4.120000 -6.000000 37.547764 10.908061 1528.820435
5.800000 4.120000 -5.960000 18.181870 33.114799 1427.170410
5.800000 4.120000 -5.920000 -10.935416 31.900133 1137.201782
5.800000 4.120000 -5.880000 -26.869839 9.973930 821.467529
5.800000 4.120000 -5.840000 -20.252497 -12.688829 571.170044
5.800000 4.120000 -5.800000 -2.455739 -19.172361 373.610107
5.800000 4.160000 -6.200000 -6.423299 -2.985975 50.174812
5.800000 4.160000 -6.160000 -9.346300 -19.486298 467.069122
5.800000 4.160000 -6.120000 9.068868 -33.650436 1214.596313
5.800000 4.160000 -6.080000 37.535564 -24.781055 2023.019287
5.800000 4.160000 -6.040000 50.076408 7.851189 2569.287842
5.800000 4.160000 -6.000000 31.375389 40.791245 2648.340820
5.800000 4.160000 -5.960000 -6.453293 47.315121 2280.365723
5.800000 4.160000 -5.920000 -33.972343 23.006435 1683.416260
5.800000 4.160000 -5.880000 -31.866676 -10.276630 1121.094238
5.800000 4.160000 -5.840000 -7.772370 -25.981995 735.473755
5.800000 4.160000 -5.800000 13.915844 -17.370903 495.398987
5.800000 4.200000 -6.200000 -13.866507 -17.420559 495.755859
5.800000 4.200000 -6.160000 0.507565 -37.060631 1373.747925
5.800000 4.200000 -6.120000 32.034084 -36.405907 2351.572754
5.800000 4.200000 -6.080000 54.911987 -6.341887 3055.545898
5.800000 4.200000 -6.040000 45.546646 34.573349 3269.813477
5.800000 4.200000 -6.000000 6.717761 54.470112 3012.121582
5.800000 4.200000 -5.960000 -32.577431 37.469231 2465.232178
5.800000 4.200000 -5.920000 -43.004669 -1.169435 1850.769165
5.800000 4.200000 -5.880000 -21.123478 -29.645554 1325.060181
5.800000 4.200000 -5.840000 9.899207 -29.008615 939.494080
5.800000 4.200000 -5.800000 24.407867 -7.877747 657.802917
5.840000 3.800000 -6.200000 16.967678 -17.998463 611.846802
5.840000 3.800000 -6.160000 29.636852 -9.071901 960.642395
5.840000 3.800000 -6.120000 29.868540 7.558884 949.266418
5.840000 3.800000 -6.080000 16.492235 16.994637 560.811523
5.840000 3.800000 -6.040000 2.574990 10.820267 123.708748
5.840000 3.800000 -6.000000 1.987488 -3.248558 14.503237
5.840000 3.800000 -5.960000 14.355282 -9.205147 290.808838
5.840000 3.800000 -5.920000 25.222605 -0.024714 636.180420
5.840000 3.800000 -5.880000 21.731419 14.555867 684.127808
5.840000 3.800000 -5.840000 6.772921 18.578049 391.016357
5.840000 3.800000 -5.800000 -4.037523 7.334282 70.093285
5.840000 3.840000 -6.200000 26.469448 -8.503269 772.937256
5.840000 3.840000 -6.160000 36.385803 0.366928 1324.061279
5.840000 3.840000 -6.120000 38.171585 14.554573 1668.905518
5.840000 3.840000 -6.080000 31.021193 26.039917 1640.391602
5.840000 3.840000 -6.040000 20.536537 30.250610 1336.848755
5.840000 3.840000 -6.000000 12.300446 29.028477 993.953430
5.840000 3.840000 -5.960000 7.047184 26.493015 751.542664
5.840000 3.840000 -5.920000 2.459348 23.665461 566.102417
5.840000 3.840000 -5.880000 -1.661811 18.450459 343.181061
5.840000 3.840000 -5.840000 -1.937263 10.467542 113.322418
5.840000 3.840000 -5.800000 4.148315 4.039835 33.528786
5.840000 3.880000 -6.200000 22.880455 4.718390 545.778381
5.840000 3.880000 -6.160000 34.253960 12.398480 1327.056030
5.840000 3.880000 -6.120000 39.300278 30.130554 2452.362061
5.840000 3.880000 -6.080000 30.607307 50.585678 3495.718262
5.840000 3.880000 -6.040000 8.838745 62.309448 3960.590820
5.840000 3.880000 -6.000000 -16.468260 57.533966 3581.360840
5.840000 3.880000 -5.960000 -32.581268 38.004688 2505.895508
5.840000 3.880000 -5.920000 -31.963066 14.382862 1228.504272
5.840000 3.880000 -5.880000 -17.245079 -0.713987 297.902527
5.840000 3.880000 -5.840000 0.908136 -0.965534 1.756968
5.840000 3.880000 -5.800000 11.455843 10.133840 233.931046
5.840000 3.920000 -6.200000 9.952372 8.010727 163.221436
5.840000 3.920000 -6.160000 25.347637 19.288788 1014.560059
5.840000 3.920000 -6.120000 27.507360 45.555122 2831.924316
5.840000 3.920000 -6.080000 5.816810 70.490356 5002.725586
5.840000 3.920000 -6.040000 -32.192120 73.517471 6441.150879
5.840000 3.920000 -6.000000 -63.695320 47.438519 6307.506836
5.840000 3.920000 -5.960000 -67.839508 6.539753 4644.967285
5.840000 3.920000 -5.920000 -42.916088 -23.400471 2389.372559
5.840000 3.920000 -5.880000 -7.932698 -25.361958 706.156555
5.840000 3.920000 -5.840000 13.150611 -3.797485 187.359467
5.840000 3.920000 -5.800000 10.336005 21.142536 553.839844
5.840000 3.960000 -6.200000 1.512132 -1.255716 3.863366
5.840000 3.960000 -6.160000 16.288811 19.414358 642.242676
5.840000 3.960000 -6.120000 5.984124 50.547169 2590.826172
5.840000 3.960000 -6.080000 -31.309036 65.402100 5257.690430
5.840000 3.960000 -6.040000 -72.666046 45.116005 7315.808594
5.840000 3.960000 -6.000000 -87.101852 -2.294398 7591.997070
5.840000 3.960000 -5.960000 -62.075058 -45.765423 5947.786621
5.840000 3.960000 -5.920000 -15.270185 -56.273293 3399.861816
5.840000 3.960000 -5.880000 20.065357 -30.763285 1348.998291
5.840000 3.960000 -5.840000 22.879808 6.984857 572.273865
5.840000 3.960000 -5.800000 -0.311365 28.501022 812.405212
5.840000 4.000000 -6.200000 5.837831 -11.926465 176.320847
5.840000 4.000000 -6.160000 10.322956 16.856316 390.698792
5.840000 4.000000 -6.120000 -15.502000 40.487270 1879.531128
5.840000 4.000000 -6.080000 -56.246273 32.923389 4247.592773
5.840000 4.000000 -6.040000 -79.104477 -8.174526 6324.340820
5.840000 4.000000 -6.000000 -61.950527 -55.769745 6948.132324
5.840000 4.000000 -5.960000 -14.171370 -74.955368 5819.134766
5.840000 4.000000 -5.920000 30.257343 -52.784447 3701.704590
5.840000 4.000000 -5.880000 41.635414 -8.703823 1809.264282
5.840000 4.000000 -5.840000 18.525457 23.768497 908.134033
5.840000 4.000000 -5.800000 -14.808807 25.940910 892.231628
5.840000 4.040000 -6.200000 16.456264 -11.903280 412.496735
5.840000 4.040000 -6.160000 5.058692 14.405467 233.107849
5.840000 4.040000 -6.120000 -26.988283 18.830044 1082.937988
5.840000 4.040000 -6.080000 -51.900818 -8.847934 2771.980713
5.840000 4.040000 -6.040000 -44.059467 -50.150421 4456.301270
5.840000 4.040000 -6.000000 -4.216485 -72.019409 5204.574219
5.840000 4.040000 -5.960000 39.471985 -55.690826 4659.505859
5.840000 4.040000 -5.920000 55.508148 -13.247964 3256.663086
5.840000 4.040000 -5.880000 35.699398 23.702127 1836.237793
5.840000 4.040000 -5.840000 -0.284038 31.742844 1007.688782
5.840000 4.040000 -5.800000 -24.972820 13.274267 799.847900
5.840000 4.080000 -6.200000 19.712498 -1.993912 392.558258
5.840000 4.080000 -6.160000 -1.828823 9.354399 90.849365
5.840000 4.080000 -6.120000 -23.520042 -5.622527 584.805176
5.840000 4.080000 -6.080000 -21.474970 -35.884052 1748.839478
5.840000 4.080000 -6.040000 8.222118 -54.020115 2985.776123
5.840000 4.080000 -6.000000 44.155663 -40.960445 3627.480469
5.840000 4.080000 -5.960000 58.075745 -3.798169 3387.218018
5.840000 4.080000 -5.920000 39.814156 30.487486 2514.653809
5.840000 4.080000 -5.880000 4.909639 39.030876 1547.513916
5.840000 4.080000 -5.840000 -21.089909 21.372608 901.572632
5.840000 4.080000 -5.800000 -24.930149 -4.204122 639.186951
5.840000 4.120000 -6.200000 10.541321 4.915750 135.284042
5.840000 4.120000 -6.160000 -6.712784 -2.253321 50.138931
5.840000 4.120000 -6.120000 -6.694981 -23.383320 591.602417
5.840000 4.120000 -6.080000 15.894176 -36.028194 1550.655640
5.840000 4.120000 -6.040000 43.832813 -22.975962 2449.210449
5.840000 4.120000 -6.000000 52.358059 10.330990 2848.095703
5.840000 4.120000 -5.960000 32.159451 39.807415 2618.860352
5.840000 4.120000 -5.920000 -2.279600 44.419811 1978.316162
5.840000 4.120000 -5.880000 -26.619707 24.092546 1289.059570
5.840000 4.120000 -5.840000 -28.133343 -2.984225 800.390564
5.840000 4.120000 -5.800000 -13.661282 -18.851562 542.012024
5.840000 4.160000 -6.200000 -1.370932 -1.579075 4.372931
5.840000 4.160000 -6.160000 -2.206341 -18.051451 330.722809
5.840000 4.160000 -6.120000 16.713551 -28.083193 1068.008545
5.840000 4.160000 -6.080000 40.811661 -15.139535 1894.797241
5.840000 4.160000 -6.040000 46.652138 16.735977 2456.514893
5.840000 4.160000 -6.000000 24.427406 44.415730 2569.455322
5.840000 4.160000 -5.960000 -11.733509 46.316048 2282.851562
5.840000 4.160000 -5.920000 -36.255646 21.896828 1793.942871
5.840000 4.160000 -5.880000 -34.864017 -9.130063 1298.857788
5.840000 4.160000 -5.840000 -14.994173 -25.953526 898.410767
5.840000 4.160000 -5.800000 4.907298 -24.038979 601.954102
5.840000 4.200000 -6.200000 -1.957444 -17.408098 306.873444
5.840000 4.200000 -6.160000 14.078770 -28.344595 1001.627808
5.840000 4.200000 -6.120000 37.575352 -18.717716 1762.260010
5.840000 4.200000 -6.080000 46.060555 11.117243 2245.167725
5.840000 4.200000 -6.040000 26.534382 40.375736 2334.273438
5.840000 4.200000 -6.000000 -10.414755 45.314529 2161.873535
5.840000 4.200000 -5.960000 -38.575985 21.016613 1929.804565
5.840000 4.200000 -5.920000 -39.078903 -14.107964 1726.195312
5.840000 4.200000 -5.880000 -15.916409 -35.369274 1504.317627
5.840000 4.200000 -5.840000 10.484369 -32.975540 1197.308228
5.840000 4.200000 -5.800000 23.359951 -16.816107 828.468750
5.880000 3.800000 -6.200000 37.390984 16.136459 1658.470947
5.880000 3.800000 -6.160000 29.819876 34.757500 2097.308594
5.880000 3.800000 -6.120000 9.112095 42.360703 1877.459351
5.880000 3.800000 -6.080000 -9.976679 31.557673 1095.420898
5.880000 3.800000 -6.040000 -12.595558 11.732594 296.301819
5.880000 3.800000 -6.000000 0.702774 0.976567 1.447575
5.880000 3.800000 -5.960000 13.750011 7.821754 250.242661
5.880000 3.800000 -5.920000 11.293184 22.110415 616.406433
5.880000 3.800000 -5.880000 -4.818723 25.502625 673.603943
5.880000 3.800000 -5.840000 -17.275414 10.964852 418.667908
5.880000 3.800000 -5.800000 -11.423050 -9.427288 219.359833
5.880000 3.840000 -6.200000 23.012972 31.095634 1496.535400
5.880000 3.840000 -6.160000 17.095810 40.057026 1896.832031
5.880000 3.840000 -6.120000 7.158094 45.548248 2125.881104
5.880000 3.840000 -6.080000 -3.768478 46.126583 2141.863037
5.880000 3.840000 -6.040000 -13.385208 43.071152 2034.287964
5.880000 3.840000 -6.000000 -21.777744 37.692932 1895.027222
5.880000 3.840000 -5.960000 -29.170086 29.064480 1695.637939
5.880000 3.840000 -5.920000 -32.873390 15.880592 1332.853027
5.880000 3.840000 -5.880000 -28.354883 0.659320 804.434082
5.880000 3.840000 -5.840000 -14.507833 -9.501201 300.750061
5.880000 3.840000 -5.800000 2.703247 -8.154890 73.809784
5.880000 3.880000 -6.200000 0.420502 29.943951 896.817017
5.880000 3.880000 -6.160000 4.175313 37.389824 1415.432129
5.880000 3.880000 -6.120000 -0.757666 53.367683 2848.683594
5.880000 3.880000 -6.080000 -21.746033 66.574249 4905.020996
5.880000 3.880000 -6.040000 -53.082840 62.286926 6697.449219
5.880000 3.880000 -6.000000 -77.583786 35.315948 7266.459961
5.880000 3.880000 -5.960000 -78.923660 -3.395882 6240.476562
5.880000 3.880000 -5.920000 -54.831619 -33.273930 4113.661133
5.880000 3.880000 -5.880000 -19.691689 -39.080711 1915.064575
5.880000 3.880000 -5.840000 6.118829 -21.947586 519.136597
5.880000 3.880000 -5.800000 11.248891 2.751210 134.106705
5.880000 3.920000 -6.200000 -13.225194 11.484862 306.807831
5.880000 3.920000 -6.160000 -3.438461 29.276510 868.937073
5.880000 3.920000 -6.120000 -18.495842 56.717640 3558.986816
5.880000 3.920000 -6.080000 -60.473003 65.620476 7963.031250
5.880000 3.920000 -6.040000 -104.336830 36.063122 12186.722656
5.880000 3.920000 -6.000000 -116.167297 -22.426346 13997.782227
5.880000 3.920000 -5.960000 -82.430641 -74.848541 12397.115234
5.880000 3.920000 -5.920000 -23.262268 -88.293243 8336.830078
5.880000 3.920000 -5.880000 23.330814 -58.726555 3993.135254
5.880000 3.920000 -5.840000 32.311615 -12.674175 1204.675171
5.880000 3.920000 -5.800000 9.525583 16.845943 374.522522
5.880000 3.960000 -6.200000 -7.152984 -9.676337 144.796677
5.880000 3.960000 -6.160000 -4.792154 21.635515 491.060272
5.880000 3.960000 -6.120000 -39.699104 46.558563 3743.718750
5.880000 3.960000 -6.080000 -93.102676 30.701073 9610.664062
5.880000 3.960000 -6.040000 -121.495361 -30.058573 15664.640625
5.880000 3.960000 -6.000000 -93.975616 -99.671829 18765.890625
5.880000 3.960000 -5.960000 -22.113308 -129.473953 17252.501953
5.880000 3.960000 -5.920000 47.219196 -99.457901 12121.526367
5.880000 3.960000 -5.880000 70.723663 -34.915421 6220.922852
5.880000 3.960000 -5.840000 43.377785 16.812874 2164.304932
5.880000 3.960000 -5.800000 -2.311823 26.710365 718.788147
5.880000 4.000000 -6.200000 11.919744 -16.317055 408.326599
5.880000 4.000000 -6.160000 -4.279924 17.916208 339.308258
5.880000 4.000000 -6.120000 -52.312065 22.609844 3247.757324
5.880000 4.000000 -6.080000 -92.696106 -22.417191 9095.098633
5.880000 4.000000 -6.040000 -82.605789 -93.452057 15557.003906
5.880000 4.000000 -6.000000 -16.564325 -138.066345 19336.693359
5.880000 4.000000 -5.960000 64.203033 -119.640938 18435.984375
5.880000 4.000000 -5.920000 105.094765 -50.082073 13553.123047
5.880000 4.000000 -5.880000 83.906097 20.554749 7462.730957
5.880000 4.000000 -5.840000 26.582947 47.430176 2956.274658
5.880000 4.000000 -5.800000 -19.849140 26.089928 1074.672729
5.880000 4.040000 -6.200000 25.994858 -5.137756 702.129150
5.880000 4.040000 -6.160000 -6.472081 15.538667 283.338013
5.880000 4.040000 -6.120000 -48.055111 -5.690035 2341.670166
5.880000 4.040000 -6.080000 -55.926292 -62.225288 6999.736816
5.880000 4.040000 -6.040000 -9.880911 -111.116226 12444.448242
5.880000 4.040000 -6.000000 64.673340 -108.430710 15939.859375
5.880000 4.040000 -5.960000 115.151276 -49.175087 15678.005859
5.880000 4.040000 -5.920000 106.323029 26.609856 12012.669922
5.880000 4.040000 -5.880000 49.493950 68.065895 7082.617188
5.880000 4.040000 -5.840000 -10.297931 55.591541 3196.466797
5.880000 4.040000 -5.800000 -34.789841 12.032341 1355.110229
5.880000 4.080000 -6.200000 23.387760 10.502948 657.299194
5.880000 4.080000 -6.160000 -10.285278 9.105003 188.688034
5.880000 4.080000 -6.120000 -28.289217 -25.981754 1475.331299
5.880000 4.080000 -6.080000 -5.057329 -67.483902 4579.653809
5.880000 4.080000 -6.040000 50.271980 -75.781761 8270.147461
5.880000 4.080000 -6.000000 97.505356 -34.905685 10725.701172
5.880000 4.080000 -5.960000 99.001892 30.734213 10745.966797
5.880000 4.080000 -5.920000 52.435844 76.025894 8529.454102
5.880000 4.080000 -5.880000 -8.098133 73.129395 5413.487793
5.880000 4.080000 -5.840000 -42.557877 32.310104 2855.115723
5.880000 4.080000 -5.800000 -37.108173 -11.849277 1517.421875
5.880000 4.120000 -6.200000 9.649952 14.542416 304.603424
5.880000 4.120000 -6.160000 -9.339909 -2.472006 93.344704
5.880000 4.120000 -6.120000 -2.168402 -31.005062 966.015869
5.880000 4.120000 -6.080000 31.749882 -42.166893 2786.101807
5.880000 4.120000 -6.040000 66.732574 -18.069613 4779.747070
5.880000 4.120000 -6.000000 71.674149 29.592972 6012.927734
5.880000 4.120000 -5.960000 37.792950 67.537270 5989.589844
5.880000 4.120000 -5.920000 -13.082609 68.885872 4916.417969
5.880000 4.120000 -5.880000 -47.327530 35.039680 3467.674316
5.880000 4.120000 -5.840000 -47.063423 -8.169906 2281.713135
5.880000 4.120000 -5.800000 -20.980293 -34.140148 1605.722412
5.880000 4.160000 -6.200000 0.743718 4.233058 18.471895
5.880000 4.160000 -6.160000 1.067207 -12.909256 167.787827
5.880000 4.160000 -6.120000 19.843128 -21.613653 860.899719
5.880000 4.160000 -6.080000 41.834225 -7.646162 1808.566162
5.880000 4.160000 -6.040000 44.981102 23.728500 2586.341309
5.880000 4.160000 -6.000000 20.555651 49.955963 2918.132812
5.880000 4.160000 -5.960000 -17.710766 50.016727 2815.344238
5.880000 4.160000 -5.920000 -44.620361 22.357708 2490.843750
5.880000 4.160000 -5.880000 -44.146965 -14.594932 2161.966553
5.880000 4.160000 -5.840000 -20.526497 -38.672535 1916.901978
5.880000 4.160000 -5.800000 8.807690 -40.645405 1729.624390
5.880000 4.200000 -6.200000 6.162738 -8.230635 105.722687
5.880000 4.200000 -6.160000 17.534027 -13.655066 493.902924
5.880000 4.200000 -6.120000 31.351089 -4.272269 1001.143066
5.880000 4.200000 -6.080000 32.389107 17.047745 1339.679810
5.880000 4.200000 -6.040000 13.855840 34.587852 1388.303833
5.880000 4.200000 -6.000000 -14.677368 32.607014 1278.642456
5.880000 4.200000 -5.960000 -34.103992 9.346096 1250.431763
5.880000 4.200000 -5.920000 -31.318405 -21.098270 1425.979492
5.880000 4.200000 -5.880000 -9.063109 -40.453804 1718.650146
5.880000 4.200000 -5.840000 18.218737 -40.064323 1937.072388
5.880000 4.200000 -5.800000 36.865074 -24.536304 1961.063965
5.920000 3.800000 -6.200000 20.917015 56.985786 3684.901367
5.920000 3.800000 -6.160000 -8.409559 65.148018 4314.984863
5.920000 3.800000 -6.120000 -36.646881 49.170876 3760.768799
5.920000 3.800000 -6.080000 -44.120865 18.661461 2294.900879
5.920000 3.800000 -6.040000 -27.964886 -3.694344 795.683044
5.920000 3.800000 -6.000000 -6.003048 -3.251568 46.609276
5.920000 3.800000 -5.960000 0.378660 12.265926 150.596329
5.920000 3.800000 -5.920000 -12.473083 20.896862 592.256653
5.920000 3.800000 -5.880000 -27.188457 9.213370 824.098389
5.920000 3.800000 -5.840000 -23.765667 -13.789903 754.968384
5.920000 3.800000 -5.800000 -0.490942 -26.136066 683.335022
5.920000 3.840000 -6.200000 -13.845169 54.329338 3143.365723
5.920000 3.840000 -6.160000 -30.047766 50.519798 3455.118164
5.920000 3.840000 -6.120000 -41.535370 40.502850 3365.667725
5.920000 3.840000 -6.080000 -47.026619 29.067450 3056.419434
5.920000 3.840000 -6.040000 -49.411987 19.143311 2808.010742
5.920000 3.840000 -6.000000 -51.575813 9.027130 2741.553467
5.920000 3.840000 -5.960000 -51.705212 -4.712921 2695.640625
5.920000 3.840000 -5.920000 -44.116024 -21.091942 2391.093750
5.920000 3.840000 -5.880000 -25.974636 -32.567699 1735.336670
5.920000 3.840000 -5.840000 -2.965019 -30.747316 954.188782
5.920000 3.840000 -5.800000 13.267978 -15.033320 402.039948
5.920000 3.880000 -6.200000 -36.270218 26.594822 2022.813232
5.920000 3.880000 -6.160000 -36.903835 28.840420 2193.662842
5.920000 3.880000 -6.120000 -48.363434 35.803940 3620.943848
5.920000 3.880000 -6.080000 -72.805084 32.229877 6339.345215
5.920000 3.880000 -6.040000 -96.253952 6.456085 9306.503906
5.920000 3.880000 -6.000000 -98.355576 -36.075401 10975.253906
5.920000 3.880000 -5.960000 -70.129440 -73.662949 10344.368164
5.920000 3.880000 -5.920000 -23.666344 -84.308151 7667.959961
5.920000 3.880000 -5.880000 15.801537 -63.331085 4260.515137
5.920000 3.880000 -5.840000 29.061893 -26.951529 1570.978516
5.920000 3.880000 -5.800000 16.693182 1.214264 280.136749
5.920000 3.920000 -6.200000 -30.872072 -7.485470 1009.117065
5.920000 3.920000 -6.160000 -30.440334 12.280380 1077.421631
5.920000 3.920000 -6.120000 -60.236015 26.591808 4335.501953
5.920000 3.920000 -6.080000 -103.909264 5.432907 10826.651367
5.920000 3.920000 -6.040000 -122.867180 -54.071281 18020.046875
5.920000 3.920000 -6.000000 -90.184502 -118.688934 22220.308594
5.920000 3.920000 -5.960000 -17.620472 -144.220062 21109.906250
5.920000 3.920000 -5.920000 51.109631 -113.029770 15387.922852
5.920000 3.920000 -5.880000 75.876923 -49.099510 8168.069336
5.920000 3.920000 -5.840000 51.947578 3.228683 2708.975342
5.920000 3.920000 -5.800000 9.552031 16.350882 358.592590
5.920000 3.960000 -6.200000 -3.762386 -24.117397 595.804443
5.920000 3.960000 -6.160000 -20.141493 6.555323 448.652008
5.920000 3.960000 -6.120000 -69.444824 6.235653 4861.466797
5.920000 3.960000 -6.080000 -108.914398 -47.302818 14099.902344
5.920000 3.960000 -6.040000 -91.573021 -127.667839 24684.695312
5.920000 3.960000 -6.000000 -11.981544 -176.381912 31254.134766
5.920000 3.960000 -5.960000 83.028587 -152.787445 30237.750000
5.920000 3.960000 -5.920000 131.767014 -70.875137 22385.830078
5.920000 3.960000 -5.880000 109.274361 12.359038 12093.631836
5.920000 3.960000 -5.840000 45.178699 45.926376 4150.346680
5.920000 3.960000 -5.800000 -6.896624 24.805870 662.894592
5.920000 4.000000 -6.200000 22.709520 -14.637375 729.975037
5.920000 4.000000 -6.160000 -14.835088 7.765272 280.379272
5.920000 4.000000 -6.120000 -64.928131 -21.051334 4658.820801
5.920000 4.000000 -6.080000 -72.867371 -95.343185 14399.976562
5.920000 4.000000 -6.040000 -10.452848 -160.846664 25980.912109
5.920000 4.000000 -6.000000 91.315422 -159.042969 33633.171875
5.920000 4.000000 -5.960000 163.485840 -80.739273 33246.449219
5.920000 4.000000 -5.920000 157.314758 22.901920 25272.431641
5.920000 4.000000 -5.880000 85.094887 83.674767 14242.606445
5.920000 4.000000 -5.840000 5.828232 73.116104 5379.933105
5.920000 4.000000 -5.800000 -28.238689 20.049191 1199.393555
5.920000 4.040000 -6.200000 29.756887 8.259295 953.688293
5.920000 4.040000 -6.160000 -15.597372 7.654148 301.864014
5.920000 4.040000 -6.120000 -43.635071 -42.442539 3705.388672
5.920000 4.040000 -6.080000 -12.625328 -107.777443 11775.375977
5.920000 4.040000 -6.040000 71.458832 -128.790619 21693.388672
5.920000 4.040000 -6.000000 152.027344 -74.186882 28616.005859
5.920000 4.040000 -5.960000 167.932434 26.748005 28916.757812
5.920000 4.040000 -5.920000 106.768044 106.314133 22702.109375
5.920000 4.040000 -5.880000 14.928599 115.516006 13566.810547
5.920000 4.040000 -5.840000 -44.331589 62.525829 5874.769043
5.920000 4.040000 -5.800000 -43.574810 -1.549590 1901.165283
5.920000 4.080000 -6.200000 17.520523 23.740160 870.563965
5.920000 4.080000 -6.160000 -16.336246 2.011155 270.917694
5.920000 4.080000 -6.120000 -14.200140 -47.267342 2435.845703
5.920000 4.080000 -6.080000 37.549751 -79.804825 7778.793945
5.920000 4.080000 -6.040000 106.500122 -55.742020 14449.449219
5.920000 4.080000 -6.000000 137.293274 20.674881 19276.894531
5.920000 4.080000 -5.960000 99.794159 99.534538 19865.998047
5.920000 4.080000 -5.920000 17.000725 126.141190 16200.624023
5.920000 4.080000 -5.880000 -54.378990 86.801910 10491.646484
5.920000 4.080000 -5.840000 -71.973083 17.011911 5469.529785
5.920000 4.080000 -5.800000 -39.072460 -33.027870 2617.497314
5.920000 4.120000 -6.200000 1.912137 21.940273 485.031860
5.920000 4.120000 -6.160000 -10.919141 -5.632456 150.952194
5.920000 4.120000 -6.120000 10.064708 -35.369411 1352.293579
5.920000 4.120000 -6.080000 54.835060 -34.135292 4172.102051
5.920000 4.120000 -6.040000 86.549133 9.348869 7578.153809
5.920000 4.120000 -6.000000 72.336212 69.198250 10020.925781
5.920000 4.120000 -5.960000 14.205284 101.247314 10452.808594
5.920000 4.120000 -5.920000 -50.145332 80.346130 8970.054688
5.920000 4.120000 -5.880000 -78.368881 21.453899 6601.951660
5.920000 4.120000 -5.840000 -57.408413 -34.596783 4492.663086
5.920000 4.120000 -5.800000 -9.745208 -55.660061 3193.011475
5.920000 4.160000 -6.200000 -2.419696 10.584579 117.888229
5.920000 4.160000 -6.160000 0.270684 -8.056139 64.974648
5.920000 4.160000 -6.120000 21.182430 -15.721352 695.856262
5.920000 4.160000 -6.080000 43.061245 1.278927 1855.906494
5.920000 4.160000 -6.040000 42.319191 35.339153 3039.769531
5.920000 4.160000 -6.000000 11.034893 60.353790 3764.348877
5.920000 4.160000 -5.960000 -33.037865 53.049156 3905.713379
5.920000 4.160000 -5.920000 -59.387695 13.725208 3715.279785
5.920000 4.160000 -5.880000 -49.467403 -33.065697 3540.364258
5.920000 4.160000 -5.840000 -10.787962 -58.400558 3527.005371
5.920000 4.160000 -5.800000 31.351168 -50.758522 3559.323242
5.920000 4.200000 -6.200000 4.667450 4.261425 39.944832
5.920000 4.200000 -6.160000 10.496258 -1.823198 113.495476
5.920000 4.200000 -6.120000 20.249868 1.748238 413.113495
5.920000 4.200000 -6.080000 22.548790 15.428126 746.475037
5.920000 4.200000 -6.040000 9.747433 28.398773 901.502747
5.920000 4.200000 -6.000000 -12.926620 26.479118 868.241272
5.920000 4.200000 -5.960000 -29.296585 5.058441 883.877747
5.920000 4.200000 -5.920000 -24.733784 -25.046185 1239.071411
5.920000 4.200000 -5.880000 1.588341 -44.834106 2012.619873
5.920000 4.200000 -5.840000 35.585190 -41.309296 2972.763672
5.920000 4.200000 -5.800000 58.814056 -16.381193 3727.436768
5.960000 3.800000 -6.200000 -23.090822 71.121704 5591.482910
5.960000 3.800000 -6.160000 -59.060654 55.038486 6517.395996
5.960000 3.800000 -6.120000 -74.640930 16.419079 5840.854492
5.960000 3.800000 -6.080000 -58.857929 -20.356760 3878.653564
5.960000 3.800000 -6.040000 -26.076851 -31.855452 1694.771973
5.960000 3.800000 -6.000000 -3.487120 -17.297295 311.356415
5.960000 3.800000 -5.960000 -5.439281 1.369995 31.462669
5.960000 3.800000 -5.920000 -20.522152 1.876453 424.679810
5.960000 3.800000 -5.880000 -24.696678 -16.212309 872.764893
5.960000 3.800000 -5.840000 -6.705277 -32.269722 1086.295654
5.960000 3.800000 -5.800000 20.641964 -26.837217 1146.326904
5.960000 3.840000 -6.200000 -57.047729 40.170815 4868.137695
5.960000 3.840000 -6.160000 -70.196175 19.893099 5323.238281
5.960000 3.840000 -6.120000 -70.993973 -2.601904 5046.914062
5.960000 3.840000 -6.080000 -62.671680 -19.599009 4311.860840
5.960000 3.840000 -6.040000 -52.267448 -29.448654 3599.109375
5.960000 3.840000 -6.000000 -43.479671 -36.528934 3224.844727
5.960000 3.840000 -5.960000 -33.358093 -44.638195 3105.330811
5.960000 3.840000 -5.920000 -17.043228 -50.972435 2888.660889
5.960000 3.840000 -5.880000 4.314732 -47.958385 2318.623779
5.960000 3.840000 -5.840000 21.609520 -31.873152 1482.869141
5.960000 3.840000 -5.800000 25.149319 -9.007029 713.614807
5.960000 3.880000 -6.200000 -57.741318 -5.406410 3363.289062
5.960000 3.880000 -6.160000 -57.433052 -9.338158 3385.756592
5.960000 3.880000 -6.120000 -66.737541 -14.051147 4651.333984
5.960000 3.880000 -6.080000 -79.631584 -32.893867 7423.195312
5.960000 3.880000 -6.040000 -78.720421 -67.257919 10720.533203
5.960000 3.880000 -6.000000 -51.346466 -100.917213 12820.744141
5.960000 3.880000 -5.960000 -3.801010 -111.401779 12424.803711
5.960000 3.880000 -5.920000 40.593884 -89.044418 9576.771484
5.960000 3.880000 -5.880000 58.947601 -46.302002 5618.695312
5.960000 3.880000 -5.840000 46.598724 -8.440223 2242.678467
5.960000 3.880000 -5.800000 19.475180 6.261149 418.484619
5.960000 3.920000 -6.200000 -26.582535 -34.881996 1923.384766
5.960000 3.920000 -6.160000 -34.845341 -19.941519 1611.861938
5.960000 3.920000 -6.120000 -65.326553 -26.574348 4973.754395
5.960000 3.920000 -6.080000 -86.098312 -70.759644 12419.846680
5.960000 3.920000 -6.040000 -62.667843 -131.281494 21162.087891
5.960000 3.920000 -6.000000 6.849735 -163.271027 26704.345703
5.960000 3.920000 -5.960000 84.464737 -137.082275 25925.843750
5.960000 3.920000 -5.920000 122.194679 -66.061317 19295.636719
5.960000 3.920000 -5.880000 102.082153 3.701279 10434.464844
5.960000 3.920000 -5.840000 49.201015 32.163353 3455.221191
5.960000 3.920000 -5.800000 6.873683 16.386297 315.758270
5.960000 3.960000 -6.200000 11.743286 -31.552242 1133.448730
5.960000 3.960000 -6.160000 -18.536095 -15.046198 569.974854
5.960000 3.960000 -6.120000 -59.132805 -44.982216 5520.088379
5.960000 3.960000 -6.080000 -58.726990 -115.032562 16681.349609
5.960000 3.960000 -6.040000 7.680452 -172.943497 29968.443359
5.960000 3.960000 -6.000000 108.228210 -164.050369 38625.867188
5.960000 3.960000 -5.960000 176.248657 -82.418259 37856.359375
5.960000 3.960000 -5.920000 166.842590 20.438974 28254.201172
5.960000 3.960000 -5.880000 94.847343 78.946465 15228.562500
5.960000 3.960000 -5.840000 18.846275 68.044258 4985.203125
5.960000 3.960000 -5.800000 -11.621597 18.295601 469.790527
5.960000 4.000000 -6.200000 30.969406 -4.733673 981.511780
5.960000 4.000000 -6.160000 -14.038857 -7.022066 246.398911
5.960000 4.000000 -6.120000 -40.055805 -62.381248 5495.887695
5.960000 4.000000 -6.080000 -0.893686 -132.976532 17683.556641
5.960000 4.000000 -6.040000 96.123016 -152.554871 32512.621094
5.960000 4.000000 -6.000000 187.049927 -87.073074 42569.394531
5.960000 4.000000 -5.960000 203.736267 29.215134 42361.988281
5.960000 4.000000 -5.920000 133.845978 119.700081 32242.855469
5.960000 4.000000 -5.880000 31.087275 130.424576 17976.988281
5.960000 4.000000 -5.840000 -33.467911 72.810608 6421.485840
5.960000 4.000000 -5.800000 -31.145489 5.864447 1004.433167
5.960000 4.040000 -6.200000 24.072905 21.429892 1038.744995
5.960000 4.040000 -6.160000 -15.367632 -4.827498 259.468842
5.960000 4.040000 -6.120000 -10.977079 -66.448929 4535.956055
5.960000 4.040000 -6.080000 56.706802 -107.862053 14849.883789
5.960000 4.040000 -6.040000 147.701233 -76.813873 27716.025391
5.960000 4.040000 -6.000000 190.593079 22.991993 36854.355469
5.960000 4.040000 -5.960000 145.081894 127.915024 37411.007812
5.960000 4.040000 -5.920000 39.671917 166.747620 29378.630859
5.960000 4.040000 -5.880000 -52.578278 120.966293 17397.318359
5.960000 4.040000 -5.840000 -76.926949 36.357365 7239.613281
5.960000 4.040000 -5.800000 -38.591728 -22.261698 1984.904785
5.960000 4.080000 -6.200000 4.870399 29.953495 920.932617
5.960000 4.080000 -6.160000 -14.131685 -7.603353 257.515503
5.960000 4.080000 -6.120000 14.878201 -52.420319 2969.250732
5.960000 4.080000 -6.080000 82.343262 -54.864716 9790.549805
5.960000 4.080000 -6.040000 135.830353 6.764034 18495.636719
5.960000 4.080000 -6.000000 123.398857 98.707565 24970.460938
5.960000 4.080000 -5.960000 42.394016 155.439499 25958.689453
5.960000 4.080000 -5.920000 -54.438438 135.381104 21291.585938
5.960000 4.080000 -5.880000 -103.116516 56.299683 13802.669922
5.960000 4.080000 -5.840000 -81.260658 -22.658289 7116.692383
5.960000 4.080000 -5.800000 -20.699356 -53.153831 3253.793213
5.960000 4.120000 -6.200000 -8.341693 22.805119 589.657288
5.960000 4.120000 -6.160000 -8.282051 -8.863254 147.149628
5.960000 4.120000 -6.120000 25.662786 -28.492378 1470.394287
5.960000 4.120000 -6.080000 69.778610 -6.830456 4915.709961
5.960000 4.120000 -6.040000 81.616135 51.793739 9343.785156
5.960000 4.120000 -6.000000 38.721760 106.034348 12742.658203
5.960000 4.120000 -5.960000 -36.633236 110.706345 13597.888672
5.960000 4.120000 -5.920000 -92.948235 56.966621 11884.570312
5.960000 4.120000 -5.880000 -92.403610 -18.955761 8897.748047
5.960000 4.120000 -5.840000 -41.153561 -66.876999 6166.148926
5.960000 4.120000 -5.800000 20.164896 -63.479309 4436.245605
5.960000 4.160000 -6.200000 -9.384071 13.652777 274.459106
5.960000 4.160000 -6.160000 -2.455084 -4.882338 29.864662
5.960000 4.160000 -6.120000 20.955725 -8.298193 508.002411
5.960000 4.160000 -6.080000 39.525887 14.453491 1771.199097
5.960000 4.160000 -6.040000 29.432903 49.411488 3307.791016
5.960000 4.160000 -6.000000 -11.010788 65.628578 4428.347656
5.960000 4.160000 -5.960000 -55.014854 42.336857 4819.043945
5.960000 4.160000 -5.920000 -68.041702 -10.226555 4734.255859
5.960000 4.160000 -5.880000 -37.376034 -57.241661 4673.575684
5.960000 4.160000 -5.840000 17.133139 -67.718674 4879.363281
5.960000 4.160000 -5.800000 60.543850 -38.481758 5146.403320
5.960000 4.200000 -6.200000 -5.806936 11.866389 174.531693
5.960000 4.200000 -6.160000 -1.588247 1.681231 5.349066
5.960000 4.200000 -6.120000 10.171026 0.828763 104.136627
5.960000 4.200000 -6.080000 16.433882 12.715446 431.755035
5.960000 4.200000 -6.040000 6.493694 26.131901 725.044312
5.960000 4.200000 -6.000000 -14.853176 24.029373 798.027588
5.960000 4.200000 -5.960000 -28.455448 0.675121 810.168335
5.960000 4.200000 -5.920000 -17.166718 -29.930733 1190.544922
5.960000 4.200000 -5.880000 17.549294 -43.977814 2242.025879
5.960000 4.200000 -5.840000 54.970009 -27.697052 3788.828613
5.960000 4.200000 -5.800000 71.363564 11.147054 5217.015137
6.000000 3.800000 -6.200000 -62.044418 47.860992 6140.184570
6.000000 3.800000 -6.160000 -84.873878 10.646517 7316.923340
6.000000 3.800000 -6.120000 -75.545151 -34.953461 6928.814453
6.000000 3.800000 -6.080000 -38.240570 -60.493141 5121.761230
6.000000 3.800000 -6.040000 0.772933 -52.728195 2780.859863
6.000000 3.800000 -6.000000 16.276123 -25.687210 924.744934
6.000000 3.800000 -5.960000 6.624474 -6.706844 88.865417
6.000000 3.800000 -5.920000 -7.017719 -10.029083 149.830902
6.000000 3.800000 -5.880000 -3.588682 -24.601952 618.134705
6.000000 3.800000 -5.840000 16.621643 -27.846069 1051.682617
6.000000 3.800000 -5.800000 33.897545 -10.106688 1251.188721
6.000000 3.840000 -6.200000 -74.470085 -0.807526 5546.445312
6.000000 3.840000 -6.160000 -73.686378 -29.892178 6323.225098
6.000000 3.840000 -6.120000 -57.719265 -53.789391 6224.812500
6.000000 3.840000 -6.080000 -34.162182 -64.782600 5363.839844
6.000000 3.840000 -6.040000 -12.913273 -63.589417 4210.366211
6.000000 3.840000 -6.000000 1.582230 -57.118614 3265.039551
6.000000 3.840000 -5.960000 12.158325 -50.729446 2721.301758
6.000000 3.840000 -5.920000 23.013130 -43.276054 2402.421143
6.000000 3.840000 -5.880000 32.901962 -30.369904 2004.870117
6.000000 3.840000 -5.840000 35.484421 -12.003584 1403.230225
6.000000 3.840000 -5.800000 26.773479 4.570177 737.705750
6.000000 3.880000 -6.200000 -47.785851 -42.007530 4048.120117
6.000000 3.880000 -6.160000 -42.568703 -49.248177 4237.477539
6.000000 3.880000 -6.120000 -41.364117 -60.507233 5372.115234
6.000000 3.880000 -6.080000 -34.026230 -80.583725 7651.520996
6.000000 3.880000 -6.040000 -9.707535 -100.838959 10262.731445
6.000000 3.880000 -6.000000 29.815880 -104.446480 11798.053711
6.000000 3.880000 -5.960000 67.611099 -81.465286 11207.853516
6.000000 3.880000 -5.920000 83.560493 -39.698208 8558.303711
6.000000 3.880000 -5.880000 70.693222 -0.513142 4997.794922
6.000000 3.880000 -5.840000 41.035419 17.295282 1983.032471
6.000000 3.880000 -5.800000 15.668024 11.459954 376.817535
6.000000 3.920000 -6.200000 -2.989178 -49.667053 2475.751465
6.000000 3.920000 -6.160000 -14.050640 -44.078964 2140.375488
6.000000 3.920000 -6.120000 -29.591713 -65.330658 5143.764160
6.000000 3.920000 -6.080000 -17.653595 -107.697922 11910.492188
6.000000 3.920000 -6.040000 34.924671 -136.597214 19878.531250
6.000000 3.920000 -6.000000 104.039993 -118.520615 24871.457031
6.000000 3.920000 -5.960000 145.172913 -53.883255 23978.578125
6.000000 3.920000 -5.920000 131.380615 19.768383 17651.654297
6.000000 3.920000 -5.880000 76.728134 58.563618 9316.904297
6.000000 3.920000 -5.840000 23.065353 48.414497 2875.974121
6.000000 3.920000 -5.800000 3.500708 13.169975 185.703201
6.000000 3.960000 -6.200000 28.533772 -25.079342 1443.149414
6.000000 3.960000 -6.160000 -1.538488 -28.147449 794.645874
6.000000 3.960000 -6.120000 -14.844833 -71.995377 5403.703613
6.000000 3.960000 -6.080000 24.820255 -123.993271 15990.375977
6.000000 3.960000 -6.040000 108.014908 -130.182114 28614.603516
6.000000 3.960000 -6.000000 179.846222 -66.251160 36733.878906
6.000000 3.960000 -5.960000 185.781586 34.903587 35733.058594
6.000000 3.960000 -5.920000 120.584747 108.308479 26271.408203
6.000000 3.960000 -5.880000 33.158997 112.236511 13696.552734
6.000000 3.960000 -5.840000 -17.213879 61.427040 4069.598877
6.000000 3.960000 -5.800000 -10.637506 8.287378 181.837158
6.000000 4.000000 -6.200000 30.949329 8.247482 1025.881958
6.000000 4.000000 -6.160000 -1.957346 -16.393181 272.567596
6.000000 4.000000 -6.120000 7.696350 -72.800491 5359.145508
6.000000 4.000000 -6.080000 76.816330 -106.506058 17244.289062
6.000000 4.000000 -6.040000 164.160706 -68.605072 31655.392578
6.000000 4.000000 -6.000000 200.326843 33.475201 41251.433594
6.000000 4.000000 -5.960000 149.655457 135.210037 40678.507812
6.000000 4.000000 -5.920000 44.502251 168.717072 30445.902344
6.000000 4.000000 -5.880000 -42.355087 120.892059 16408.843750
6.000000 4.000000 -5.840000 -60.838322 40.776764 5364.045898
6.000000 4.000000 -5.800000 -21.860588 -8.426790 548.896118
6.000000 4.040000 -6.200000 12.737961 27.341656 909.821777
6.000000 4.040000 -6.160000 -4.636461 -12.558996 179.225159
6.000000 4.040000 -6.120000 30.764709 -58.908440 4416.671875
6.000000 4.040000 -6.080000 106.965996 -56.535172 14637.950195
6.000000 4.040000 -6.040000 164.477402 16.935284 27339.621094
6.000000 4.040000 -6.000000 146.532196 121.405487 36210.976562
6.000000 4.040000 -5.960000 53.338036 183.317856 36450.382812
6.000000 4.040000 -5.920000 -53.847942 159.057556 28198.908203
6.000000 4.040000 -5.880000 -104.843895 72.497108 16248.072266
6.000000 4.040000 -5.840000 -79.371628 -8.935540 6379.699219
6.000000 4.040000 -5.800000 -17.438042 -34.762268 1512.500610
6.000000 4.080000 -6.200000 -6.581255 27.187958 782.497986
6.000000 4.080000 -6.160000 -4.099846 -10.978086 137.327118
6.000000 4.080000 -6.120000 40.921036 -33.000874 2763.588867
6.000000 4.080000 -6.080000 97.548477 -1.661963 9518.466797
6.000000 4.080000 -6.040000 111.248802 76.412094 18215.103516
6.000000 4.080000 -6.000000 54.392029 147.362244 24674.123047
6.000000 4.080000 -5.960000 -42.897949 154.074158 25579.080078
6.000000 4.080000 -5.920000 -114.683891 87.481071 20805.332031
6.000000 4.080000 -5.880000 -115.219902 -4.632509 13297.085938
6.000000 4.080000 -5.840000 -55.900551 -59.992165 6723.931641
6.000000 4.080000 -5.800000 10.526230 -53.923279 3018.521484
6.000000 4.120000 -6.200000 -15.535295 18.485611 583.063232
6.000000 4.120000 -6.160000 -3.311820 -6.960430 59.415737
6.000000 4.120000 -6.120000 32.773865 -9.132971 1157.537354
6.000000 4.120000 -6.080000 60.454987 28.129364 4446.066406
6.000000 4.120000 -6.040000 44.276352 83.335976 8905.280273
6.000000 4.120000 -6.000000 -17.661583 110.225357 12461.560547
6.000000 4.120000 -5.960000 -85.318947 78.630669 13462.105469
6.000000 4.120000 -5.920000 -108.642731 4.373505 11822.371094
6.000000 4.120000 -5.880000 -70.832581 -62.205853 8886.822266
6.000000 4.120000 -5.840000 -1.719306 -78.959038 6237.485840
6.000000 4.120000 -5.800000 50.489273 -45.099461 4583.127930
6.000000 4.160000 -6.200000 -16.971121 12.347888 440.489288
6.000000 4.160000 -6.160000 -6.545544 -2.723317 50.260597
6.000000 4.160000 -6.120000 15.196716 0.255597 231.005508
6.000000 4.160000 -6.080000 24.786201 25.766891 1278.288452
6.000000 4.160000 -6.040000 4.095036 52.964157 2821.971191
6.000000 4.160000 -6.000000 -37.664169 51.957779 4118.200195
6.000000 4.160000 -5.960000 -67.287231 13.131416 4700.005371
6.000000 4.160000 -5.920000 -56.066032 -39.982807 4742.024902
6.000000 4.160000 -5.880000 -6.571056 -68.856133 4784.345703
6.000000 4.160000 -5.840000 48.514641 -52.710339 5132.050293
6.000000 4.160000 -5.800000 74.320679 -4.744440 5546.073242
6.000000 4.200000 -6.200000 -18.906773 9.711025 451.770081
6.000000 4.200000 -6.160000 -12.339960 -3.327121 163.344345
6.000000 4.200000 -6.120000 2.627964 -4.246637 24.940123
6.000000 4.200000 -6.080000 9.946754 8.922607 178.550842
6.000000 4.200000 -6.040000 -0.414562 21.427362 459.303741
6.000000 4.200000 -6.000000 -19.341164 15.738422 621.778564
6.000000 4.200000 -5.960000 -24.947056 -9.032406 703.939941
6.000000 4.200000 -5.920000 -3.792229 -32.918026 1097.977417
6.000000 4.200000 -5.880000 34.137005 -31.957577 2186.621826
6.000000 4.200000 -5.840000 62.287834 -0.301083 3879.864746
6.000000 4.200000 -5.800000 60.003128 43.994247 5535.869141
6.040000 3.800000 -6.200000 -69.964279 7.359032 4949.155762
6.040000 3.800000 -6.160000 -70.205925 -34.653709 6129.751465
6.040000 3.800000 -6.120000 -39.485188 -68.794334 6291.740723
6.040000 3.800000 -6.080000 6.257797 -72.702133 5324.760254
6.040000 3.800000 -6.040000 38.637688 -46.093761 3617.505615
6.040000 3.800000 -6.000000 41.201332 -11.627671 1832.752563
6.040000 3.800000 -5.960000 23.001312 5.753406 562.162048
6.040000 3.800000 -5.920000 7.861132 0.907776 62.621449
6.040000 3.800000 -5.880000 10.499766 -9.722279 204.767792
6.040000 3.800000 -5.840000 23.716312 -7.347326 616.446716
6.040000 3.800000 -5.800000 28.696243 9.573584 915.127869
6.040000 3.840000 -6.200000 -57.234055 -37.453423 4678.496094
6.040000 3.840000 -6.160000 -41.548729 -63.016174 5697.334961
6.040000 3.840000 -6.120000 -12.691182 -76.665039 6038.594238
6.040000 3.840000 -6.080000 18.318165 -72.049789 5526.727539
6.040000 3.840000 -6.040000 39.275684 -53.183601 4371.074707
6.040000 3.840000 -6.000000 45.586723 -31.124432 3046.879639
6.040000 3.840000 -5.960000 42.126556 -14.853876 1995.284424
6.040000 3.840000 -5.920000 36.700813 -5.328278 1375.340210
6.040000 3.840000 -5.880000 32.357857 1.848255 1050.446899
6.040000 3.840000 -5.840000 26.524511 9.097416 786.312683
6.040000 3.840000 -5.800000 16.989014 13.496806 470.790344
6.040000 3.880000 -6.200000 -16.822803 -57.528030 3592.480957
6.040000 3.880000 -6.160000 -6.062645 -63.735817 4099.010254
6.040000 3.880000 -6.120000 7.213352 -71.508881 5165.552246
6.040000 3.880000 -6.080000 28.676472 -76.737305 6710.953613
6.040000 3.880000 -6.040000 56.791481 -69.868500 8106.879883
6.040000 3.880000 -6.000000 80.413353 -45.481430 8534.867188
6.040000 3.880000 -5.960000 86.309128 -9.849449 7546.277344
6.040000 3.880000 -5.920000 70.316170 21.421890 5403.261230
6.040000 3.880000 -5.880000 41.903702 34.434235 2941.636719
6.040000 3.880000 -5.840000 17.625877 27.318590 1056.976929
6.040000 3.880000 -5.800000 8.995565 10.970151 201.264404
6.040000 3.920000 -6.200000 21.806198 -42.885372 2314.665527
6.040000 3.920000 -6.160000 15.449501 -45.150230 2277.230469
6.040000 3.920000 -6.120000 19.602106 -64.868645 4592.183594
6.040000 3.920000 -6.080000 50.534946 -82.662552 9386.878906
6.040000 3.920000 -6.040000 98.442680 -71.039368 14737.552734
6.040000 3.920000 -6.000000 131.320236 -22.300091 17742.298828
6.040000 3.920000 -5.960000 122.290321 39.837067 16541.914062
6.040000 3.920000 -5.920000 74.842926 78.049545 11693.195312
6.040000 3.920000 -5.880000 21.206305 72.877243 5760.800293
6.040000 3.920000 -5.840000 -5.034204 38.325760 1494.207153
6.040000 3.920000 -5.800000 3.703626 7.533812 70.475159
6.040000 3.960000 -6.200000 35.522755 -9.869972 1359.282471
6.040000 3.960000 -6.160000 18.871752 -25.131495 987.735046
6.040000 3.960000 -6.120000 32.232220 -58.907688 4509.031738
6.040000 3.960000 -6.080000 84.031975 -72.382629 12300.617188
6.040000 3.960000 -6.040000 141.883301 -34.357841 21311.332031
6.040000 3.960000 -6.000000 157.340454 44.354263 26723.318359
6.040000 3.960000 -5.960000 110.405472 114.687683 25342.632812
6.040000 3.960000 -5.920000 30.313257 130.571579 17967.832031
6.040000 3.960000 -5.880000 -28.864780 88.996246 8753.507812
6.040000 3.960000 -5.840000 -34.916824 30.639374 2157.955811
6.040000 3.960000 -5.800000 -2.120512 1.458261 6.623095
6.040000 4.000000 -6.200000 23.995012 16.890743 861.057861
6.040000 4.000000 -6.160000 13.813139 -13.598208 375.714081
6.040000 4.000000 -6.120000 46.757103 -46.298569 4329.784180
6.040000 4.000000 -6.080000 109.709427 -35.919819 13326.391602
6.040000 4.000000 -6.040000 151.399948 32.289810 23964.574219
6.040000 4.000000 -6.000000 127.041039 120.450302 30647.701172
6.040000 4.000000 -5.960000 42.585831 166.470032 29525.824219
6.040000 4.000000 -5.920000 -46.430222 138.530396 21346.435547
6.040000 4.000000 -5.880000 -82.525208 63.235725 10809.166992
6.040000 4.000000 -5.840000 -55.076340 0.149157 3033.425293
6.040000 4.000000 -5.800000 -4.165216 -11.769327 155.866089
6.040000 4.040000 -6.200000 3.550829 25.449286 660.274536
6.040000 4.040000 -6.160000 9.204191 -8.009485 148.868988
6.040000 4.040000 -6.120000 53.925293 -23.318651 3451.696777
6.040000 4.040000 -6.080000 105.523003 13.383204 11314.214844
6.040000 4.040000 -6.040000 111.790253 91.741257 20913.519531
6.040000 4.040000 -6.000000 50.193916 157.459229 27312.837891
6.040000 4.040000 -5.960000 -45.345818 157.736938 26937.183594
6.040000 4.040000 -5.920000 -110.254395 89.695816 20201.371094
6.040000 4.040000 -5.880000 -105.096649 3.951895 11060.922852
6.040000 4.040000 -5.840000 -47.844109 -40.784840 3952.461914
6.040000 4.040000 -5.800000 7.351202 -27.720644 822.474243
6.040000 4.080000 -6.200000 -11.280372 20.980249 567.417664
6.040000 4.080000 -6.160000 4.931735 -2.875570 32.590916
6.040000 4.080000 -6.120000 44.361366 0.989271 1968.909424
6.040000 4.080000 -6.080000 70.062286 47.202274 7136.778809
6.040000 4.080000 -6.040000 45.190178 108.533325 13821.634766
6.040000 4.080000 -6.000000 -27.568546 133.869324 18681.021484
6.040000 4.080000 -5.960000 -101.124542 94.332489 19124.791016
6.040000 4.080000 -5.920000 -122.665146 12.668104 15207.218750
6.040000 4.080000 -5.880000 -80.046051 -54.771561 9407.293945
6.040000 4.080000 -5.840000 -10.855110 -66.970016 4602.816406
6.040000 4.080000 -5.800000 33.771065 -30.890667 2094.718262
6.040000 4.120000 -6.200000 -18.390381 13.905789 531.577087
6.040000 4.120000 -6.160000 -3.035214 0.784952 9.828676
6.040000 4.120000 -6.120000 21.729307 11.645012 607.769104
6.040000 4.120000 -6.080000 26.515678 47.591496 2968.031738
6.040000 4.120000 -6.040000 -7.192089 79.709457 6405.323730
6.040000 4.120000 -6.000000 -62.921196 72.683556 9241.976562
6.040000 4.120000 -5.960000 -98.341339 20.025822 10072.051758
6.040000 4.120000 -5.920000 -82.222847 -45.261566 8809.206055
6.040000 4.120000 -5.880000 -23.641111 -77.625038 6584.548828
6.040000 4.120000 -5.840000 35.812515 -58.286156 4679.812012
6.040000 4.120000 -5.800000 59.038643 -8.897088 3564.719482
6.040000 4.160000 -6.200000 -23.073326 7.697095 591.623657
6.040000 4.160000 -6.160000 -13.165757 -2.620309 180.203171
6.040000 4.160000 -6.120000 1.925900 3.341345 14.873674
6.040000 4.160000 -6.080000 2.177692 23.161701 541.206787
6.040000 4.160000 -6.040000 -20.524700 35.096855 1653.052490
6.040000 4.160000 -6.000000 -49.171619 18.908466 2775.378174
6.040000 4.160000 -5.960000 -54.547077 -20.963200 3414.839355
6.040000 4.160000 -5.920000 -23.387482 -55.230209 3597.350342
6.040000 4.160000 -5.880000 26.724966 -54.972630 3736.213867
6.040000 4.160000 -5.840000 61.557045 -17.829365 4107.156250
6.040000 4.160000 -5.800000 59.814560 30.628241 4515.870605
6.040000 4.200000 -6.200000 -27.091648 -0.994108 734.945679
6.040000 4.200000 -6.160000 -17.583012 -13.882402 501.883392
6.040000 4.200000 -6.120000 -1.837673 -13.171223 176.858154
6.040000 4.200000 -6.080000 4.472609 -0.639252 20.412868
6.040000 4.200000 -6.040000 -4.139482 8.096031 82.681030
6.040000 4.200000 -6.000000 -15.285007 0.485233 233.866913
6.040000 4.200000 -5.960000 -10.735504 -17.698147 428.475464
6.040000 4.200000 -5.920000 13.642414 -25.980034 861.077637
6.040000 4.200000 -5.880000 41.234894 -9.034223 1781.933594
6.040000 4.200000 -5.840000 48.902824 27.406910 3142.625000
6.040000 4.200000 -5.800000 27.893074 60.792034 4473.694824
6.080000 3.800000 -6.200000 -48.889816 -19.905296 2786.435059
6.080000 3.800000 -6.160000 -32.708557 -50.813515 3651.862793
6.080000 3.800000 -6.120000 4.819652 -64.918793 4237.678711
6.080000 3.800000 -6.080000 43.915253 -49.012306 4330.755371
6.080000 3.800000 -6.040000 60.645905 -11.617592 3812.894287
6.080000 3.800000 -6.000000 47.509796 22.553764 2765.853027
6.080000 3.800000 -5.960000 19.753199 33.586151 1518.218384
6.080000 3.800000 -5.920000 0.721842 22.765373 518.783264
6.080000 3.800000 -5.880000 0.670342 8.528996 73.193123
6.080000 3.800000 -5.840000 9.829617 6.830507 143.277191
6.080000 3.800000 -5.800000 11.584572 16.195251 396.488464
6.080000 3.840000 -6.200000 -24.714603 -46.779541 2799.137207
6.080000 3.840000 -6.160000 -2.098799 -61.117622 3739.768799
6.080000 3.840000 -6.120000 29.155882 -59.762363 4421.605469
6.080000 3.840000 -6.080000 55.043545 -38.602818 4519.969238
6.080000 3.840000 -6.040000 62.289040 -6.635273 3923.951416
6.080000 3.840000 -6.000000 49.366776 19.782238 2828.415527
6.080000 3.840000 -5.960000 27.595078 29.646008 1640.374023
6.080000 3.840000 -5.920000 11.048377 24.955626 744.849915
6.080000 3.840000 -5.880000 5.287462 16.318169 294.239868
6.080000 3.840000 -5.840000 5.607803 11.835732 171.531998
6.080000 3.840000 -5.800000 5.192296 10.992155 147.787415
6.080000 3.880000 -6.200000 10.045630 -46.794334 2290.624512
6.080000 3.880000 -6.160000 23.972469 -48.871395 2963.092529
6.080000 3.880000 -6.120000 42.595238 -45.617397 3895.301270
6.080000 3.880000 -6.080000 61.706169 -31.209980 4781.714355
6.080000 3.880000 -6.040000 71.788612 -5.451067 5183.319336
6.080000 3.880000 -6.000000 65.330994 23.098009 4801.656738
6.080000 3.880000 -5.960000 43.937088 41.954979 3690.687988
6.080000 3.880000 -5.920000 18.340960 43.680496 2244.376465
6.080000 3.880000 -5.880000 1.066732 31.164181 972.344116
6.080000 3.880000 -5.840000 -1.950578 14.940676 227.028534
6.080000 3.880000 -5.800000 5.861284 5.425763 63.793556
6.080000 3.920000 -6.200000 31.801859 -23.957794 1585.334106
6.080000 3.920000 -6.160000 33.693207 -27.442736 1888.335938
6.080000 3.920000 -6.120000 48.064762 -32.628075 3374.812744
6.080000 3.920000 -6.080000 72.868187 -23.380157 5856.404297
6.080000 3.920000 -6.040000 90.369308 7.926331 8229.438477
6.080000 3.920000 -6.000000 81.957886 49.152313 9133.044922
6.080000 3.920000 -5.960000 46.574600 75.758339 7908.519043
6.080000 3.920000 -5.920000 4.438026 71.362442 5112.294434
6.080000 3.920000 -5.880000 -18.792973 42.426876 2153.215576
6.080000 3.920000 -5.840000 -13.161470 12.941505 340.706848
6.080000 3.920000 -5.800000 8.445992 4.011080 87.423531
6.080000 3.960000 -6.200000 31.352373 2.966613 991.772095
6.080000 3.960000 -6.160000 30.489016 -10.148337 1032.568848
6.080000 3.960000 -6.120000 52.299927 -20.436338 3152.926270
6.080000 3.960000 -6.080000 85.563789 -3.948839 7336.755371
6.080000 3.960000 -6.040000 99.931824 42.647850 11805.208008
6.080000 3.960000 -6.000000 73.541183 92.968872 14051.516602
6.080000 3.960000 -5.960000 16.435171 111.261894 12649.324219
6.080000 3.960000 -5.920000 -34.834644 84.497299 8353.246094
6.080000 3.960000 -5.880000 -48.220581 35.117241 3558.444824
6.080000 3.960000 -5.840000 -23.737604 1.280323 565.113098
6.080000 3.960000 -5.800000 8.641737 3.321623 85.712799
6.080000 4.000000 -6.200000 16.718424 18.833504 634.206543
6.080000 4.000000 -6.160000 23.152842 0.280310 536.132629
6.080000 4.000000 -6.120000 53.729607 -3.491839 2899.063477
6.080000 4.000000 -6.080000 84.340256 28.311710 7914.831543
6.080000 4.000000 -6.040000 79.877838 84.608833 13539.124023
6.080000 4.000000 -6.000000 29.076412 125.735962 16654.970703
6.080000 4.000000 -5.960000 -39.606216 117.396729 15350.644531
6.080000 4.000000 -5.920000 -79.889038 63.426712 10405.206055
6.080000 4.000000 -5.880000 -68.279907 4.174601 4679.572754
6.080000 4.000000 -5.840000 -24.210730 -19.338150 960.123474
6.080000 4.000000 -5.800000 9.881536 -1.005054 98.654877
6.080000 4.040000 -6.200000 0.639489 21.900328 480.033295
6.080000 4.040000 -6.160000 14.618793 7.529343 270.400085
6.080000 4.040000 -6.120000 43.956470 16.188818 2194.249023
6.080000 4.040000 -6.080000 58.562492 56.801903 6656.021484
6.080000 4.040000 -6.040000 31.203442 104.748688 11945.941406
6.080000 4.040000 -6.000000 -31.636959 119.044899 15172.584961
6.080000 4.040000 -5.960000 -89.091553 80.443367 14408.439453
6.080000 4.040000 -5.920000 -100.170891 12.637197 10193.906250
6.080000 4.040000 -5.880000 -60.891979 -36.745628 5058.074219
6.080000 4.040000 -5.840000 -7.359781 -38.317955 1522.432007
6.080000 4.040000 -5.800000 18.556923 -5.210104 371.504547
6.080000 4.080000 -6.200000 -11.320667 18.333309 464.267731
6.080000 4.080000 -6.160000 2.384688 11.608236 140.437881
6.080000 4.080000 -6.120000 20.876163 26.396549 1132.592041
6.080000 4.080000 -6.080000 18.151062 60.533714 3993.791504
6.080000 4.080000 -6.040000 -19.068352 85.930969 7747.733398
6.080000 4.080000 -6.000000 -71.592590 72.468475 10377.178711
6.080000 4.080000 -5.960000 -99.910004 19.400427 10358.385742
6.080000 4.080000 -5.920000 -79.650360 -39.056694 7869.604980
6.080000 4.080000 -5.880000 -25.401981 -62.521538 4554.203125
6.080000 4.080000 -5.840000 22.020197 -40.358788 2113.720947
6.080000 4.080000 -5.800000 32.831635 0.925413 1078.772705
6.080000 4.120000 -6.200000 -20.490171 11.702103 556.786377
6.080000 4.120000 -6.160000 -12.421132 7.102606 204.731522
6.080000 4.120000 -6.120000 -3.524227 17.076839 304.038605
6.080000 4.120000 -6.080000 -11.646366 35.770084 1415.136719
6.080000 4.120000 -6.040000 -40.119316 40.917885 3283.833008
6.080000 4.120000 -6.000000 -68.211670 16.215569 4915.776855
6.080000 4.120000 -5.960000 -67.864197 -28.138813 5397.342285
6.080000 4.120000 -5.920000 -31.568558 -60.489357 4655.536133
6.080000 4.120000 -5.880000 17.695856 -55.756119 3421.888184
6.080000 4.120000 -5.840000 46.195042 -18.685232 2483.119873
6.080000 4.120000 -5.800000 39.524422 21.473509 2023.291504
6.080000 4.160000 -6.200000 -26.960630 0.668023 727.321838
6.080000 4.160000 -6.160000 -21.116951 -8.171385 512.697144
6.080000 4.160000 -6.120000 -12.139267 -6.358744 187.795425
6.080000 4.160000 -6.080000 -12.960087 2.009270 172.001022
6.080000 4.160000 -6.040000 -24.684237 1.966625 613.179138
6.080000 4.160000 -6.000000 -32.309124 -14.642979 1258.296387
6.080000 4.160000 -5.960000 -19.680073 -36.888931 1748.098511
6.080000 4.160000 -5.920000 11.707924 -42.977913 1984.176392
6.080000 4.160000 -5.880000 41.055031 -21.656052 2154.500000
6.080000 4.160000 -5.840000 46.689125 15.645340 2424.651123
6.080000 4.160000 -5.800000 25.778368 44.968803 2686.717529
6.080000 4.200000 -6.200000 -26.125597 -14.436158 890.949463
6.080000 4.200000 -6.160000 -15.319174 -26.079401 914.812256
6.080000 4.200000 -6.120000 0.110815 -25.414585 645.913391
6.080000 4.200000 -6.080000 7.989788 -15.463604 302.959747
6.080000 4.200000 -6.040000 5.993192 -7.942942 99.008675
6.080000 4.200000 -6.000000 3.708202 -9.271879 99.718506
6.080000 4.200000 -5.960000 10.780529 -12.725058 278.146912
6.080000 4.200000 -5.920000 24.598110 -5.839787 639.170105
6.080000 4.200000 -5.880000 31.528555 15.060322 1220.863037
6.080000 4.200000 -5.840000 20.571096 39.287365 1966.667114
6.080000 4.200000 -5.800000 -5.381189 51.221680 2652.617676
6.120000 3.800000 -6.200000 -22.708401 -20.314667 928.357178
6.120000 3.800000 -6.160000 -4.271678 -35.869743 1304.885620
6.120000 3.800000 -6.120000 26.320278 -34.591301 1889.315186
6.120000 3.800000 -6.080000 50.640450 -9.230463 2649.656494
6.120000 3.800000 -6.040000 49.992538 27.975100 3281.860107
6.120000 3.800000 -6.000000 23.249985 53.095585 3359.702881
6.120000 3.800000 -5.960000 -10.428673 50.890190 2698.568848
6.120000 3.800000 -5.920000 -28.082890 28.083328 1577.322021
6.120000 3.800000 -5.880000 -22.940018 6.062215 562.994812
6.120000 3.800000 -5.840000 -8.169994 0.271754 66.822662
6.120000 3.800000 -5.800000 -1.379288 7.182588 53.492008
6.120000 3.840000 -6.200000 -3.749356 -31.923061 1033.139526
6.120000 3.840000 -6.160000 16.287441 -36.245502 1579.017212
6.120000 3.840000 -6.120000 40.374287 -24.041218 2208.063232
6.120000 3.840000 -6.080000 52.175751 5.189921 2749.244385
6.120000 3.840000 -6.040000 40.417297 36.570778 2970.979736
6.120000 3.840000 -6.000000 10.814823 50.818954 2699.526611
6.120000 3.840000 -5.960000 -17.384649 40.897259 1974.811890
6.120000 3.840000 -5.920000 -27.650229 17.809599 1081.717041
6.120000 3.840000 -5.880000 -19.458269 -0.197977 378.663422
6.120000 3.840000 -5.840000 -5.808917 -3.906170 49.001686
6.120000 3.840000 -5.800000 1.219621 1.346197 3.299720
6.120000 3.880000 -6.200000 16.664074 -26.078316 957.769897
6.120000 3.880000 -6.160000 30.325550 -23.687620 1480.742310
6.120000 3.880000 -6.120000 44.641380 -10.019767 2093.248535
6.120000 3.880000 -6.080000 48.433167 13.993833 2541.599121
6.120000 3.880000 -6.040000 34.971954 37.126202 2601.392578
6.120000 3.880000 -6.000000 9.540794 46.013508 2208.269775
6.120000 3.880000 -5.960000 -13.593145 36.339844 1505.357788
6.120000 3.880000 -5.920000 -22.330013 16.360777 766.304504
6.120000 3.880000 -5.880000 -15.528997 -0.298216 241.238693
6.120000 3.880000 -5.840000 -1.902405 -5.238188 31.057762
6.120000 3.880000 -5.800000 8.532206 0.370872 72.936073
6.120000 3.920000 -6.200000 26.443687 -9.341620 786.534485
6.120000 3.920000 -6.160000 33.653717 -7.582325 1190.064331
6.120000 3.920000 -6.120000 43.502083 1.777526 1895.590698
6.120000 3.920000 -6.080000 47.095726 20.749434 2648.546387
6.120000 3.920000 -6.040000 36.268044 41.811298 3063.555664
6.120000 3.920000 -6.000000 12.291538 52.132717 2868.902344
6.120000 3.920000 -5.960000 -12.784328 44.012573 2100.545654
6.120000 3.920000 -5.920000 -24.543251 22.292683 1099.334839
6.120000 3.920000 -5.880000 -17.520056 1.616110 309.564178
6.120000 3.920000 -5.840000 0.336796 -4.619036 21.448923
6.120000 3.920000 -5.800000 14.022076 5.712191 229.247726
6.120000 3.960000 -6.200000 23.799620 7.486330 622.466980
6.120000 3.960000 -6.160000 29.410389 6.255843 904.106567
6.120000 3.960000 -6.120000 40.113968 13.422751 1789.300659
6.120000 3.960000 -6.080000 44.882622 33.145985 3113.105957
6.120000 3.960000 -6.040000 32.082199 56.673512 4241.154297
6.120000 3.960000 -6.000000 2.464329 66.792137 4467.262207
6.120000 3.960000 -5.960000 -27.620243 52.866455 3557.739746
6.120000 3.960000 -5.920000 -38.357086 22.489367 1977.037720
6.120000 3.960000 -5.880000 -24.015224 -2.800637 584.574585
6.120000 3.960000 -5.840000 0.900691 -5.504852 31.114639
6.120000 3.960000 -5.800000 13.797101 12.456207 345.517090
6.120000 4.000000 -6.200000 13.701100 18.438030 527.681152
6.120000 4.000000 -6.160000 20.094105 17.123245 696.978577
6.120000 4.000000 -6.120000 30.551022 26.387753 1629.678467
6.120000 4.000000 -6.080000 31.176886 48.603027 3334.252441
6.120000 4.000000 -6.040000 10.573978 70.281830 5051.344727
6.120000 4.000000 -6.000000 -25.124098 71.265533 5709.996582
6.120000 4.000000 -5.960000 -52.996006 44.480865 4787.124023
6.120000 4.000000 -5.920000 -52.512276 6.135372 2795.181885
6.120000 4.000000 -5.880000 -25.520397 -16.353334 918.722168
6.120000 4.000000 -5.840000 3.769423 -8.994073 95.101898
6.120000 4.000000 -5.800000 10.590612 15.615637 356.009186
6.120000 4.040000 -6.200000 0.542571 22.810608 520.618225
6.120000 4.040000 -6.160000 5.092442 23.348606 571.090393
6.120000 4.040000 -6.120000 10.704859 33.727257 1252.121826
6.120000 4.040000 -6.080000 3.817232 52.569427 2778.115967
6.120000 4.040000 -6.040000 -22.055637 63.669228 4540.221680
6.120000 4.040000 -6.000000 -54.077942 50.099102 5434.343750
6.120000 4.040000 -5.960000 -67.755615 13.747669 4779.821777
6.120000 4.040000 -5.920000 -49.905285 -21.739557 2963.145752
6.120000 4.040000 -5.880000 -13.594522 -30.902653 1139.784912
6.120000 4.040000 -5.840000 12.166384 -10.686481 262.221771
6.120000 4.040000 -5.800000 9.489464 16.237118 353.693909
6.120000 4.080000 -6.200000 -13.601939 20.222359 593.956543
6.120000 4.080000 -6.160000 -13.619506 19.456211 564.035095
6.120000 4.080000 -6.120000 -13.112406 24.988335 796.352051
6.120000 4.080000 -6.080000 -22.475368 33.817169 1648.743164
6.120000 4.080000 -6.040000 -43.006187 32.015553 2874.527832
6.120000 4.080000 -6.000000 -59.931099 10.157616 3694.913818
6.120000 4.080000 -5.960000 -54.661049 -22.312420 3485.674316
6.120000 4.080000 -5.920000 -25.019855 -41.929718 2384.094238
6.120000 4.080000 -5.880000 9.048902 -33.008003 1171.410889
6.120000 4.080000 -5.840000 22.825504 -4.069654 537.565735
6.120000 4.080000 -5.800000 10.482483 19.614050 494.593414
6.120000 4.120000 -6.200000 -25.150579 9.220565 717.570435
6.120000 4.120000 -6.160000 -26.992531 2.332312 734.036438
6.120000 4.120000 -6.120000 -25.071041 -0.247052 628.618164
6.120000 4.120000 -6.080000 -27.427197 -0.006247 752.251160
6.120000 4.120000 -6.040000 -34.177761 -6.120531 1205.580322
6.120000 4.120000 -6.000000 -34.508102 -22.246717 1685.725586
6.120000 4.120000 -5.960000 -18.687977 -38.096310 1800.569336
6.120000 4.120000 -5.920000 8.240170 -37.679829 1487.669922
6.120000 4.120000 -5.880000 28.037613 -16.495653 1058.214355
6.120000 4.120000 -5.840000 26.370869 11.655643 831.276733
6.120000 4.120000 -5.800000 7.337275 27.206451 794.026611
6.120000 4.160000 -6.200000 -27.589096 -8.307572 830.173950
6.120000 4.160000 -6.160000 -24.456512 -20.941019 1036.647217
6.120000 4.160000 -6.120000 -14.336299 -26.810938 924.355896
6.120000 4.160000 -6.080000 -5.829140 -25.620937 690.411316
6.120000 4.160000 -6.040000 -1.407526 -23.914457 573.882385
6.120000 4.160000 -6.000000 4.270811 -24.754009 631.000793
6.120000 4.160000 -5.960000 15.366367 -22.700335 751.430420
6.120000 4.160000 -5.920000 26.926321 -10.652469 838.501892
6.120000 4.160000 -5.880000 28.451054 9.785369 905.215942
6.120000 4.160000 -5.840000 15.458084 27.431189 991.422485
6.120000 4.160000 -5.800000 -4.652017 32.091022 1051.474976
6.120000 4.200000 -6.200000 -16.846905 -23.894865 854.782837
6.120000 4.200000 -6.160000 -5.336007 -35.248680 1270.942505
6.120000 4.200000 -6.120000 11.994745 -35.505299 1404.500122
6.120000 4.200000 -6.080000 25.075779 -25.087833 1258.194092
6.120000 4.200000 -6.040000 29.465527 -11.192612 993.491821
6.120000 4.200000 -6.000000 27.884882 0.490127 777.806885
6.120000 4.200000 -5.960000 24.249920 9.917414 686.413696
6.120000 4.200000 -5.920000 18.511543 19.183350 710.678162
6.120000 4.200000 -5.880000 8.221638 27.221970 808.630981
6.120000 4.200000 -5.840000 -6.271973 29.867254 931.390503
6.120000 4.200000 -5.800000 -20.366116 24.761993 1027.934937
6.160000 3.800000 -6.200000 -12.699917 -4.973800 186.026566
6.160000 3.800000 -6.160000 -1.889568 -12.651743 163.637070
6.160000 3.800000 -6.120000 17.517853 -7.039176 356.425140
6.160000 3.800000 -6.080000 28.366901 16.995459 1093.526733
6.160000 3.800000 -6.040000 15.370014 45.368111 2294.502686
6.160000 3.800000 -6.000000 -17.423645 55.258293 3357.062500
6.160000 3.800000 -5.960000 -47.297180 36.786896 3590.298828
6.160000 3.800000 -5.920000 -52.936852 3.654697 2815.667236
6.160000 3.800000 -5.880000 -34.050812 -19.300451 1531.965210
6.160000 3.800000 -5.840000 -10.270486 -19.334759 479.315765
6.160000 3.800000 -5.800000 -0.639995 -6.019908 36.648888
6.160000 3.840000 -6.200000 -4.649987 -14.051258 219.060226
6.160000 3.840000 -6.160000 8.784132 -15.374925 313.549286
6.160000 3.840000 -6.120000 23.014713 -1.031702 530.741394
6.160000 3.840000 -6.080000 21.212791 24.722160 1061.167725
6.160000 3.840000 -6.040000 -2.363182 42.976048 1852.525269
6.160000 3.840000 -6.000000 -33.739639 37.178272 2520.587158
6.160000 3.840000 -5.960000 -50.283398 9.810001 2624.656250
6.160000 3.840000 -5.920000 -41.261803 -18.919161 2060.470947
6.160000 3.840000 -5.880000 -17.021029 -29.582321 1164.829102
6.160000 3.840000 -5.840000 2.296369 -20.430794 422.690643
6.160000 3.840000 -5.800000 6.234530 -5.807892 72.600975
6.160000 3.880000 -6.200000 7.522111 -14.720474 273.274536
6.160000 3.880000 -6.160000 18.744110 -9.979959 450.941254
6.160000 3.880000 -6.120000 23.983381 6.585543 618.571960
6.160000 3.880000 -6.080000 13.263452 25.155031 808.694702
6.160000 3.880000 -6.040000 -10.127304 30.495438 1032.534058
6.160000 3.880000 -6.000000 -30.686434 16.371593 1209.686279
6.160000 3.880000 -5.960000 -33.987144 -7.854779 1216.823486
6.160000 3.880000 -5.920000 -19.237011 -25.246021 1007.424194
6.160000 3.880000 -5.880000 1.084038 -25.885349 671.226440
6.160000 3.880000 -5.840000 13.297176 -13.683439 364.051392
6.160000 3.880000 -5.800000 13.562378 0.073630 183.943512
6.160000 3.920000 -6.200000 17.545528 -6.662512 352.234650
6.160000 3.920000 -6.160000 23.742897 1.553614 566.138855
6.160000 3.920000 -6.120000 21.761538 14.696134 689.540894
6.160000 3.920000 -6.080000 9.526712 24.030230 668.210144
6.160000 3.920000 -6.040000 -6.785006 22.173389 537.695496
6.160000 3.920000 -6.000000 -17.198353 9.425145 384.616699
6.160000 3.920000 -5.960000 -15.569816 -6.291701 282.004669
6.160000 3.920000 -5.920000 -3.855081 -15.420184 252.643723
6.160000 3.920000 -5.880000 9.999189 -13.296450 276.779358
6.160000 3.920000 -5.840000 17.838058 -2.242139 323.223511
6.160000 3.920000 -5.800000 15.848928 11.085131 374.068665
6.160000 3.960000 -6.200000 20.318050 7.178413 464.352783
6.160000 3.960000 -6.160000 20.376968 15.988281 670.846008
6.160000 3.960000 -6.120000 14.633453 23.543304 768.425110
6.160000 3.960000 -6.080000 5.198445 26.584728 733.771606
6.160000 3.960000 -6.040000 -4.627513 23.740658 585.032715
6.160000 3.960000 -6.000000 -11.175652 15.489100 364.807373
6.160000 3.960000 -5.960000 -11.068258 4.682772 144.434692
6.160000 3.960000 -5.920000 -3.303944 -3.181054 21.035152
6.160000 3.960000 -5.880000 8.172748 -2.369138 72.406616
6.160000 3.960000 -5.840000 15.001711 8.162733 291.681549
6.160000 3.960000 -5.800000 10.007086 21.654629 569.064697
6.160000 4.000000 -6.200000 12.827642 21.115543 610.414612
6.160000 4.000000 -6.160000 6.553873 27.286819 787.523743
6.160000 4.000000 -6.120000 -0.520653 28.720554 825.141296
6.160000 4.000000 -6.080000 -6.648569 27.869545 820.915039
6.160000 4.000000 -6.040000 -13.029739 25.164536 803.027954
6.160000 4.000000 -6.000000 -18.747948 18.251728 684.611084
6.160000 4.000000 -5.960000 -18.882343 7.246834 409.059479
6.160000 4.000000 -5.920000 -10.003071 -1.371819 101.943314
6.160000 4.000000 -5.880000 2.982479 0.627203 9.288563
6.160000 4.000000 -5.840000 8.411055 13.433073 251.193298
6.160000 4.000000 -5.800000 -1.027798 25.649126 658.934082
6.160000 4.040000 -6.200000 -3.675626 27.517160 770.704346
6.160000 4.040000 -6.160000 -14.608813 27.125858 949.229614
6.160000 4.040000 -6.120000 -20.480976 21.627047 887.199524
6.160000 4.040000 -6.080000 -22.497795 17.008703 795.446777
6.160000 4.040000 -6.040000 -24.931206 13.012576 790.892151
6.160000 4.040000 -6.000000 -26.872696 5.590178 753.391846
6.160000 4.040000 -5.960000 -22.436008 -4.438466 523.074463
6.160000 4.040000 -5.920000 -9.826871 -8.904755 175.862045
6.160000 4.040000 -5.880000 2.583330 -1.072056 7.822898
6.160000 4.040000 -5.840000 2.886581 14.103314 207.235825
6.160000 4.040000 -5.800000 -10.617732 21.950115 594.543823
6.160000 4.080000 -6.200000 -21.780672 20.598890 898.711914
6.160000 4.080000 -6.160000 -32.487396 10.933369 1174.969482
6.160000 4.080000 -6.120000 -32.833805 -1.070914 1079.205566
6.160000 4.080000 -6.080000 -27.589962 -8.095204 826.738342
6.160000 4.080000 -6.040000 -22.798798 -11.338898 648.355774
6.160000 4.080000 -6.000000 -17.998720 -14.896753 545.867188
6.160000 4.080000 -5.960000 -9.211514 -17.349407 385.853912
6.160000 4.080000 -5.920000 2.135079 -12.538404 161.770126
6.160000 4.080000 -5.880000 7.340527 0.886209 54.668705
6.160000 4.080000 -5.840000 -0.093080 13.970285 195.177536
6.160000 4.080000 -5.800000 -14.577555 15.030282 438.414490
6.160000 4.120000 -6.200000 -30.525723 2.027940 935.932312
6.160000 4.120000 -6.160000 -34.439484 -15.168297 1416.155273
6.160000 4.120000 -6.120000 -25.048306 -29.231792 1481.915283
6.160000 4.120000 -6.080000 -10.536570 -33.156555 1210.376465
6.160000 4.120000 -6.040000 1.271897 -29.184536 853.354858
6.160000 4.120000 -6.000000 8.999685 -22.221348 574.782654
6.160000 4.120000 -5.960000 14.239787 -13.367436 381.459900
6.160000 4.120000 -5.920000 15.567987 -1.594737 244.905411
6.160000 4.120000 -5.880000 9.361562 10.265700 193.023438
6.160000 4.120000 -5.840000 -3.393149 15.212634 242.937698
6.160000 4.120000 -5.800000 -14.416549 9.736982 302.645691
6.160000 4.160000 -6.200000 -23.183821 -17.566198 846.060913
6.160000 4.160000 -6.160000 -16.764977 -35.497955 1541.169312
6.160000 4.160000 -6.120000 1.915820 -44.116150 1949.905151
6.160000 4.160000 -6.080000 21.881378 -38.250484 1941.894287
6.160000 4.160000 -6.040000 33.698273 -22.297485 1632.751465
6.160000 4.160000 -6.000000 34.776611 -4.115371 1226.348999
6.160000 4.160000 -5.960000 27.433243 10.717799 867.454041
6.160000 4.160000 -5.920000 14.973345 19.538521 605.954834
6.160000 4.160000 -5.880000 0.927022 20.874651 436.610413
6.160000 4.160000 -5.840000 -10.056908 15.054187 327.769928
6.160000 4.160000 -5.800000 -14.002972 6.243883 235.069305
6.160000 4.200000 -6.200000 -4.105112 -25.144911 649.118469
6.160000 4.200000 -6.160000 9.500809 -36.357376 1412.124146
6.160000 4.200000 -6.120000 30.776209 -34.565529 2141.950684
6.160000 4.200000 -6.080000 47.507645 -17.510256 2563.585449
6.160000 4.200000 -6.040000 50.154858 7.373772 2569.882324
6.160000 4.200000 -6.000000 37.516823 28.693897 2230.851562
6.160000 4.200000 -5.960000 16.164167 38.076866 1711.128052
6.160000 4.200000 -5.920000 -4.246641 33.971802 1172.117310
6.160000 4.200000 -5.880000 -16.212080 21.327923 717.711792
6.160000 4.200000 -5.840000 -17.884972 8.256567 388.043121
6.160000 4.200000 -5.800000 -13.628698 1.211953 187.210251
6.200000 3.800000 -6.200000 -20.354794 5.785160 447.785706
6.200000 3.800000 -6.160000 -16.593067 -4.225669 293.186157
6.200000 3.800000 -6.120000 -3.558757 -2.171050 17.378210
6.200000 3.800000 -6.080000 0.568739 15.349106 235.918518
6.200000 3.800000 -6.040000 -16.494934 31.864189 1287.409424
6.200000 3.800000 -6.000000 -45.172245 26.776051 2757.488770
6.200000 3.800000 -5.960000 -61.013763 -2.132179 3727.225586
6.200000 3.800000 -5.920000 -48.758362 -34.199768 3547.001953
6.200000 3.800000 -5.880000 -18.063087 -45.375458 2385.207275
6.200000 3.800000 -5.840000 6.248388 -31.545578 1034.165771
6.200000 3.800000 -5.800000 9.179726 -10.910658 203.309814
6.200000 3.840000 -6.200000 -16.725704 -9.986429 379.477936
6.200000 3.840000 -6.160000 -6.958829 -14.495218 258.536652
6.200000 3.840000 -6.120000 1.860168 -4.413570 22.939827
6.200000 3.840000 -6.080000 -5.154286 11.690090 163.224869
6.200000 3.840000 -6.040000 -27.121689 14.985588 960.153870
6.200000 3.840000 -6.000000 -45.705246 -3.704284 2102.691162
6.200000 3.840000 -5.960000 -42.552776 -32.638821 2876.031250
6.200000 3.840000 -5.920000 -17.965916 -49.427925 2765.894043
6.200000 3.840000 -5.880000 9.136782 -42.528259 1892.133667
6.200000 3.840000 -5.840000 19.984484 -21.455433 859.715210
6.200000 3.840000 -5.800000 13.407644 -5.348073 208.366821
6.200000 3.880000 -6.200000 -1.509090 -17.786789 318.647217
6.200000 3.880000 -6.160000 7.727786 -13.408763 239.513596
6.200000 3.880000 -6.120000 7.209129 -1.173987 53.349792
6.200000 3.880000 -6.080000 -6.291664 5.397961 68.723007
6.200000 3.880000 -6.040000 -21.743805 -3.838502 487.527161
6.200000 3.880000 -6.000000 -23.884686 -24.332886 1162.567627
6.200000 3.880000 -5.960000 -8.283478 -40.186440 1683.565918
6.200000 3.880000 -5.920000 14.130859 -38.996452 1720.404419
6.200000 3.880000 -5.880000 27.634037 -22.944515 1290.090820
6.200000 3.880000 -5.840000 26.014612 -5.173740 703.527649
6.200000 3.880000 -5.800000 16.084019 3.755459 272.799103
6.200000 3.920000 -6.200000 15.315578 -10.379841 342.308014
6.200000 3.920000 -6.160000 16.635935 0.164361 276.781342
6.200000 3.920000 -6.120000 7.471178 6.960199 104.262878
6.200000 3.920000 -6.080000 -4.073650 2.233776 21.584383
6.200000 3.920000 -6.040000 -6.887951 -11.154808 171.873611
6.200000 3.920000 -6.000000 2.683681 -22.326370 505.668945
6.200000 3.920000 -5.960000 17.881641 -22.410564 821.986511
6.200000 3.920000 -5.920000 28.305218 -11.787468 940.129761
6.200000 3.920000 -5.880000 28.823135 1.918605 834.454163
6.200000 3.920000 -5.840000 21.910358 11.621982 615.134277
6.200000 3.920000 -5.800000 12.727634 15.642556 406.682251
6.200000 3.960000 -6.200000 20.626835 8.879673 504.314911
6.200000 3.960000 -6.160000 10.725606 17.870846 434.405762
6.200000 3.960000 -6.120000 -1.548554 14.291112 206.633911
6.200000 3.960000 -6.080000 -4.806125 2.352826 28.634630
6.200000 3.960000 -6.040000 3.202267 -6.733887 55.599747
6.200000 3.960000 -6.000000 14.891402 -5.815229 255.570740
6.200000 3.960000 -5.960000 21.475763 2.883279 469.521698
6.200000 3.960000 -5.920000 20.642040 12.419553 580.339111
6.200000 3.960000 -5.880000 15.699501 18.787552 599.446411
6.200000 3.960000 -5.840000 9.349042 22.587616 597.604980
6.200000 3.960000 -5.800000 0.917069 24.288605 590.777344
6.200000 4.000000 -6.200000 8.340355 26.660755 780.357361
6.200000 4.000000 -6.160000 -9.381897 25.892401 758.436401
6.200000 4.000000 -6.120000 -17.555832 11.717731 445.512482
6.200000 4.000000 -6.080000 -10.586142 -1.544649 114.452332
6.200000 4.000000 -6.040000 2.913962 -2.888975 16.837353
6.200000 4.000000 -6.000000 10.844920 6.003062 153.649048
6.200000 4.000000 -5.960000 9.512698 15.706020 337.170502
6.200000 4.000000 -5.920000 4.064623 20.449646 434.709167
6.200000 4.000000 -5.880000 -0.656801 22.159985 491.496307
6.200000 4.000000 -5.840000 -5.999932 23.882563 606.375977
6.200000 4.000000 -5.800000 -14.913240 22.870514 745.465149
6.200000 4.040000 -6.200000 -14.420565 29.080214 1053.611450
6.200000 4.040000 -6.160000 -31.438072 15.039809 1214.548218
6.200000 4.040000 -6.120000 -29.725344 -5.586600 914.806152
6.200000 4.040000 -6.080000 -13.547167 -15.284899 417.153870
6.200000 4.040000 -6.040000 1.762329 -9.127906 86.424469
6.200000 4.040000 -6.000000 5.880211 3.845471 49.364529
6.200000 4.040000 -5.960000 0.945578 12.910460 167.574081
6.200000 4.040000 -5.920000 -5.456151 15.922700 283.301971
6.200000 4.040000 -5.880000 -10.655112 16.886425 398.682739
6.200000 4.040000 -5.840000 -17.404980 16.703796 581.950134
6.200000 4.040000 -5.800000 -25.504799 10.873593 768.729797
6.200000 4.080000 -6.200000 -31.608349 13.130342 1171.493530
6.200000 4.080000 -6.160000 -39.279968 -10.617896 1655.655640
6.200000 4.080000 -6.120000 -25.463402 -30.863804 1600.959229
6.200000 4.080000 -6.080000 -2.484348 -33.160652 1105.800903
6.200000 4.080000 -6.040000 12.885331 -19.398964 542.351562
6.200000 4.080000 -6.000000 13.997774 -2.099017 200.343552
6.200000 4.080000 -5.960000 5.869559 8.977105 115.040138
6.200000 4.080000 -5.920000 -4.142356 12.776430 180.396286
6.200000 4.080000 -5.880000 -13.371649 11.896992 320.339417
6.200000 4.080000 -5.840000 -21.389660 6.438105 498.966736
6.200000 4.080000 -5.800000 -24.608618 -4.174835 623.013306
6.200000 4.120000 -6.200000 -30.770741 -9.938338 1045.609131
6.200000 4.120000 -6.160000 -25.568182 -34.907028 1872.232544
6.200000 4.120000 -6.120000 -2.067534 -47.832718 2292.243652
6.200000 4.120000 -6.080000 23.586569 -39.718697 2133.901123
6.200000 4.120000 -6.040000 35.945347 -17.246344 1589.504395
6.200000 4.120000 -6.000000 31.019226 5.510248 992.555237
6.200000 4.120000 -5.960000 15.263945 18.429029 572.617126
6.200000 4.120000 -5.920000 -2.257799 19.381329 380.733551
6.200000 4.120000 -5.880000 -15.139465 11.174583 354.074738
6.200000 4.120000 -5.840000 -19.689651 -1.658851 390.434174
6.200000 4.120000 -5.800000 -14.599417 -12.959457 381.090515
6.200000 4.160000 -6.200000 -13.469715 -23.265680 722.725098
6.200000 4.160000 -6.160000 1.146369 -41.442368 1718.784058
6.200000 4.160000 -6.120000 27.948389 -43.142876 2642.420166
6.200000 4.160000 -6.080000 50.141388 -24.134644 3096.639648
6.200000 4.160000 -6.040000 54.066200 5.714596 2955.810547
6.200000 4.160000 -6.000000 38.024796 30.490940 2375.582520
6.200000 4.160000 -5.960000 11.637103 38.823975 1642.723145
6.200000 4.160000 -5.920000 -11.441271 29.513226 1001.933105
6.200000 4.160000 -5.880000 -21.336170 10.464435 564.736572
6.200000 4.160000 -5.840000 -16.454330 -6.555296 313.716919
6.200000 4.160000 -5.800000 -3.699846 -12.417250 167.876953
6.200000 4.200000 -6.200000 5.878392 -18.221048 366.562073
6.200000 4.200000 -6.160000 22.381424 -26.983494 1229.037109
6.200000 4.200000 -6.120000 45.200043 -18.854023 2398.518066
6.200000 4.200000 -6.080000 58.167038 7.032743 3432.863770
6.200000 4.200000 -6.040000 49.643288 38.103760 3916.352539
6.200000 4.200000 -6.000000 21.596781 56.661793 3676.979736
6.200000 4.200000 -5.960000 -11.145681 52.258949 2855.224121
6.200000 4.200000 -5.920000 -30.954657 29.041544 1801.602051
6.200000 4.200000 -5.880000 -29.521751 2.691953 878.780396
6.200000 4.200000 -5.840000 -13.238020 -10.914295 294.367004
6.200000 4.200000 -5.800000 2.272223 -7.058087 54.979591
