#kx 	ky 	kz 	real 	imag 	intensity
1.800000 1.800000 1.983333 -50.169170 -18.965511 2876.636230
1.800000 1.800000 1.991667 10.579796 2.348603 117.448013
1.800000 1.800000 2.000000 -31.857658 11.772638 1153.505371
1.800000 1.800000 2.008333 -25.825579 -13.945925 861.449341
1.800000 1.800000 2.016667 -7.569994 -16.464272 328.377045
1.800000 1.900000 1.983333 -0.112049 -45.807076 2098.300537
1.800000 1.900000 1.991667 11.772257 24.727264 750.023682
1.800000 1.900000 2.000000 -59.972553 -14.574820 3809.132324
1.800000 1.900000 2.008333 6.097279 -49.556839 2493.057129
1.800000 1.900000 2.016667 -1.874395 -17.897890 323.847839
1.800000 2.000000 1.983333 30.979187 -15.738636 1207.414673
1.800000 2.000000 1.991667 6.080086 -10.847546 154.636688
1.800000 2.000000 2.000000 35.467270 -17.021259 1547.650513
1.800000 2.000000 2.008333 21.212824 0.861561 450.726166
1.800000 2.000000 2.016667 56.922432 14.091034 3438.720459
1.800000 2.100000 1.983333 20.963970 12.408606 593.461548
1.800000 2.100000 1.991667 70.828720 41.551315 6743.219238
1.800000 2.100000 2.000000 -72.705284 105.703812 16459.353516
1.800000 2.100000 2.008333 -25.408728 -48.216309 2970.416016
1.800000 2.100000 2.016667 -38.327747 83.483879 8438.574219
1.800000 2.200000 1.983333 7.896446 18.422737 401.751099
1.800000 2.200000 1.991667 -25.101284 94.410103 9543.341797
1.800000 2.200000 2.000000 -127.552696 -95.688934 25426.062500
1.800000 2.200000 2.008333 95.540474 -51.291660 11758.816406
1.800000 2.200000 2.016667 -47.493607 -25.564804 2909.201660
1.900000 1.800000 1.983333 -53.633415 1.682425 2879.373779
1.900000 1.800000 1.991667 -59.447563 -67.574654 8100.346680
1.900000 1.800000 2.000000 25.539898 -7.627220 710.460876
1.900000 1.800000 2.008333 -75.383324 -42.905403 7523.519043
1.900000 1.800000 2.016667 67.914101 -57.652802 7936.170898
1.900000 1.900000 1.983333 263.187561 -633.262817 470289.468750
1.900000 1.900000 1.991667 -303.713318 1245.824951 1644321.500000
1.900000 1.900000 2.000000 -1779.989990 -811.357483 3826665.250000
1.900000 1.900000 2.008333 226.419678 -1240.352783 1589740.875000
1.900000 1.900000 2.016667 255.351440 -623.280518 453682.937500
1.900000 2.000000 1.983333 1043.895386 250.985016 1152711.125000
1.900000 2.000000 1.991667 -2014.128174 -148.186707 4078671.500000
1.900000 2.000000 2.000000 783.786743 -2889.398926 8962948.000000
1.900000 2.000000 2.008333 1863.660156 -12.589722 3473387.750000
1.900000 2.000000 2.016667 1095.910889 209.890930 1245074.875000
1.900000 2.100000 1.983333 1.224319 725.497742 526348.500000
1.900000 2.100000 1.991667 -170.596802 -1188.714722 1442146.000000
1.900000 2.100000 2.000000 1801.235107 134.722351 3262598.000000
1.900000 2.100000 2.008333 257.678894 1136.060303 1357031.375000
1.900000 2.100000 2.016667 -64.346573 753.264160 571547.375000
1.900000 2.200000 1.983333 -33.581730 114.312195 14195.010742
1.900000 2.200000 1.991667 -168.406799 -52.609879 31128.648438
1.900000 2.200000 2.000000 88.781372 -122.160095 22805.220703
1.900000 2.200000 2.008333 3.246021 97.466980 9510.349609
1.900000 2.200000 2.016667 -52.028938 -78.049728 8798.770508
2.000000 1.800000 1.983333 -86.524467 -106.453712 18818.875000
2.000000 1.800000 1.991667 108.690918 -103.509262 22527.882812
2.000000 1.800000 2.000000 -7.987984 43.118950 1923.051758
2.000000 1.800000 2.008333 17.027863 -135.783432 18727.087891
2.000000 1.800000 2.016667 128.039551 30.097820 17300.005859
2.000000 1.900000 1.983333 1058.312622 183.379242 1153653.625000
2.000000 1.900000 1.991667 -1958.084473 -136.660217 3852770.750000
2.000000 1.900000 2.000000 760.725708 -2936.710449 9202972.000000
2.000000 1.900000 2.008333 1981.736084 -18.200989 3927609.250000
2.000000 1.900000 2.016667 1056.062988 260.353027 1183052.750000
2.000000 2.000000 1.983333 -107.114441 1666.342773 2788171.750000
2.000000 2.000000 1.991667 -252.303345 -3120.203125 9799325.000000
2.000000 2.000000 2.000000 4648.061523 478.777893 21833704.000000
2.000000 2.000000 2.008333 508.768799 2875.996094 8530199.000000
2.000000 2.000000 2.016667 -25.524063 1741.795166 3034502.000000
2.000000 2.100000 1.983333 -1104.197754 161.370041 1245292.875000
2.000000 2.100000 1.991667 1854.131836 -520.684631 3708917.250000
2.000000 2.100000 2.000000 176.545074 2896.803467 8422638.000000
2.000000 2.100000 2.008333 -1717.188965 622.456909 3336190.500000
2.000000 2.100000 2.016667 -1170.299316 153.285278 1393096.875000
2.000000 2.200000 1.983333 -156.134125 -12.980980 24546.371094
2.000000 2.200000 1.991667 45.851147 -168.084534 30354.738281
2.000000 2.200000 2.000000 74.865097 29.453442 6472.288086
2.000000 2.200000 2.008333 -38.677517 -34.169033 2663.473145
2.000000 2.200000 2.016667 68.931992 -97.385887 14235.630859
2.100000 1.800000 1.983333 96.191963 -96.199547 18507.246094
2.100000 1.800000 1.991667 45.158791 90.619087 10251.135742
2.100000 1.800000 2.000000 -38.410328 -19.487318 1855.108887
2.100000 1.800000 2.008333 81.388527 -37.424950 8024.719238
2.100000 1.800000 2.016667 78.259506 107.132431 17601.908203
2.100000 1.900000 1.983333 16.102364 719.537964 517994.156250
2.100000 1.900000 1.991667 -123.630005 -1260.324585 1603702.375000
2.100000 1.900000 2.000000 1943.890747 177.512344 3810222.000000
2.100000 1.900000 2.008333 243.000641 1255.224976 1634639.000000
2.100000 1.900000 2.016667 -77.074783 743.307129 558446.000000
2.100000 2.000000 1.983333 -1088.531738 78.392197 1191046.750000
2.100000 2.000000 1.991667 1934.635010 -456.374329 3951090.000000
2.100000 2.000000 2.000000 144.506287 2968.126465 8830657.000000
2.100000 2.000000 2.008333 -1772.010376 604.354309 3505265.000000
2.100000 2.000000 2.016667 -1091.799316 143.636108 1212657.125000
2.100000 2.100000 1.983333 -171.848282 -716.132141 542377.062500
2.100000 2.100000 1.991667 492.971985 1114.362061 1484824.125000
2.100000 2.100000 2.000000 -1799.424194 344.466614 3356584.750000
2.100000 2.100000 2.008333 -515.839722 -1034.593994 1336475.375000
2.100000 2.100000 2.016667 -200.961197 -700.268555 530761.437500
2.100000 2.200000 1.983333 28.439491 -87.867111 8529.433594
2.100000 2.200000 1.991667 96.578804 16.003801 9583.587891
2.100000 2.200000 2.000000 48.622440 31.663206 3366.700195
2.100000 2.200000 2.008333 33.731499 34.175148 2305.754883
2.100000 2.200000 2.016667 71.460602 38.277096 6571.753906
2.200000 1.800000 1.983333 30.291500 52.195770 3641.973389
2.200000 1.800000 1.991667 -53.998386 -65.724304 7235.509766
2.200000 1.800000 2.000000 42.848053 -34.993477 3060.499023
2.200000 1.800000 2.008333 61.901749 -12.270722 3982.396973
2.200000 1.800000 2.016667 -8.405825 113.422829 12935.396484
2.200000 1.900000 1.983333 -44.824486 -0.930774 2010.100830
2.200000 1.900000 1.991667 81.474846 -21.741882 7110.859863
2.200000 1.900000 2.000000 9.673605 66.366516 4498.093262
2.200000 1.900000 2.008333 -5.785183 33.832191 1178.085571
2.200000 1.900000 2.016667 -54.087952 -0.112011 2925.519043
2.200000 2.000000 1.983333 60.110207 -61.126495 7349.685547
2.200000 2.000000 1.991667 -0.839685 37.527744 1409.036621
2.200000 2.000000 2.000000 -21.412037 -37.276806 1848.035645
2.200000 2.000000 2.008333 33.948387 -24.091366 1732.886963
2.200000 2.000000 2.016667 25.038902 29.952236 1524.083130
2.200000 2.100000 1.983333 90.307159 50.197590 10675.180664
2.200000 2.100000 1.991667 21.430626 -12.654972 619.420044
2.200000 2.100000 2.000000 90.774857 21.510811 8702.789062
2.200000 2.100000 2.008333 35.301422 78.717392 7442.618164
2.200000 2.100000 2.016667 -31.397671 48.984673 3385.311768
2.200000 2.200000 1.983333 14.272133 81.414757 6832.056641
2.200000 2.200000 1.991667 3.478734 27.008438 741.557312
2.200000 2.200000 2.000000 -5.194078 93.540672 8776.835938
2.200000 2.200000 2.008333 -72.658607 25.212366 5914.937012
2.200000 2.200000 2.016667 -29.955729 14.968094 1121.389526
