#kx 	ky 	kz 	real 	imag 	intensity
1.800000 1.800000 1.800000 -7.238897 4.278080 70.703598
1.800000 1.800000 1.840000 -9.072729 1.155579 83.649780
1.800000 1.800000 1.880000 -9.372092 -2.367049 93.439034
1.800000 1.800000 1.920000 -8.219494 -6.028212 103.899414
1.800000 1.800000 1.960000 -5.095112 -9.406731 114.446747
1.800000 1.800000 2.000000 0.273544 -11.020973 121.536682
1.800000 1.800000 2.040000 6.540390 -9.037590 124.454742
1.800000 1.800000 2.080000 10.795837 -3.181265 126.670547
1.800000 1.800000 2.120000 10.641573 4.249464 131.301025
1.800000 1.800000 2.160000 6.271892 9.824459 135.856628
1.800000 1.800000 2.200000 0.291275 11.611065 134.901672
1.800000 1.840000 1.800000 -10.067621 -3.768845 115.561188
1.800000 1.840000 1.840000 -8.802895 -6.885550 124.901749
1.800000 1.840000 1.880000 -6.776947 -9.258183 131.640961
1.800000 1.840000 1.920000 -3.843812 -10.971642 135.151810
1.800000 1.840000 1.960000 0.089271 -11.200974 125.469780
1.800000 1.840000 2.000000 3.854499 -8.997561 95.813278
1.800000 1.840000 2.040000 5.492290 -4.905773 54.231865
1.800000 1.840000 2.080000 4.232924 -1.162657 19.269421
1.800000 1.840000 2.120000 1.631798 0.276245 2.739075
1.800000 1.840000 2.160000 0.144478 -0.170592 0.049975
1.800000 1.840000 2.200000 0.387170 -0.113902 0.162874
1.800000 1.880000 1.800000 -5.183283 -12.720082 188.666916
1.800000 1.880000 1.840000 -1.355051 -13.513058 184.438889
1.800000 1.880000 1.880000 1.829955 -13.012907 172.684494
1.800000 1.880000 1.920000 4.491718 -11.503463 152.505188
1.800000 1.880000 1.960000 6.037604 -8.852839 114.825417
1.800000 1.880000 2.000000 5.434790 -6.063928 66.308159
1.800000 1.880000 2.040000 3.135731 -5.278112 37.691280
1.800000 1.880000 2.080000 1.873013 -7.434453 58.779274
1.800000 1.880000 2.120000 4.382610 -10.176718 122.772858
1.800000 1.880000 2.160000 9.884317 -9.188028 182.119598
1.800000 1.880000 2.200000 13.511446 -2.581800 189.224869
1.800000 1.920000 1.800000 6.100974 -15.319613 271.912415
1.800000 1.920000 1.840000 10.040730 -12.281132 251.642456
1.800000 1.920000 1.880000 11.703207 -8.590560 210.762787
1.800000 1.920000 1.920000 11.301857 -5.051370 153.248306
1.800000 1.920000 1.960000 8.779963 -2.845189 85.182846
1.800000 1.920000 2.000000 5.393499 -3.854663 43.948265
1.800000 1.920000 2.040000 4.596131 -8.444101 92.427277
1.800000 1.920000 2.080000 9.564837 -13.105082 263.229248
1.800000 1.920000 2.120000 19.022621 -11.925797 504.084717
1.800000 1.920000 2.160000 26.190769 -1.982085 689.885071
1.800000 1.920000 2.200000 23.643152 12.331484 711.064148
1.800000 1.960000 1.800000 16.399632 -7.962773 332.353668
1.800000 1.960000 1.840000 17.204626 -1.997330 299.988464
1.800000 1.960000 1.880000 14.968395 2.619524 230.914764
1.800000 1.960000 1.920000 10.736390 4.655443 136.943222
1.800000 1.960000 1.960000 6.291950 2.767001 47.244926
1.800000 1.960000 2.000000 5.175755 -3.015419 35.881187
1.800000 1.960000 2.040000 10.768051 -8.912720 195.387497
1.800000 1.960000 2.080000 22.004240 -8.292359 552.949829
1.800000 1.960000 2.120000 31.518904 2.895981 1001.828003
1.800000 1.960000 2.160000 30.113968 20.666695 1333.963379
1.800000 1.960000 2.200000 14.938889 33.917038 1373.535889
1.800000 2.000000 1.800000 17.862080 5.338470 347.553162
1.800000 2.000000 1.840000 13.846591 10.815411 308.701202
1.800000 2.000000 1.880000 8.003811 12.553167 221.643005
1.800000 2.000000 1.920000 2.690427 9.988130 107.001129
1.800000 2.000000 1.960000 1.066217 3.721276 14.984711
1.800000 2.000000 2.000000 6.111246 -2.687205 44.568398
1.800000 2.000000 2.040000 17.102043 -2.953268 301.201691
1.800000 2.000000 2.080000 27.274632 7.479965 799.855408
1.800000 2.000000 2.120000 27.068760 25.740479 1395.290039
1.800000 2.000000 2.160000 12.058842 41.018784 1827.956299
1.800000 2.000000 2.200000 -11.430899 41.834885 1880.822998
1.800000 2.040000 1.800000 8.902889 15.610280 322.942291
1.800000 2.040000 1.840000 1.628491 16.742897 282.976593
1.800000 2.040000 1.880000 -4.330780 13.164865 192.069321
1.800000 2.040000 1.920000 -6.123554 6.371374 78.092316
1.800000 2.040000 1.960000 -1.669875 -0.173889 2.818720
1.800000 2.040000 2.000000 8.171234 -1.139164 68.066765
1.800000 2.040000 2.040000 17.652130 7.552651 368.640228
1.800000 2.040000 2.080000 18.185907 23.936390 903.677979
1.800000 2.040000 2.120000 4.880653 38.677628 1519.779663
1.800000 2.040000 2.160000 -17.675694 40.582565 1959.374756
1.800000 2.040000 2.200000 -36.742962 25.649445 2007.939209
1.800000 2.080000 1.800000 -4.321677 16.211330 281.484100
1.800000 2.080000 1.840000 -10.744276 11.530951 248.402283
1.800000 2.080000 1.880000 -12.406206 3.844321 168.692764
1.800000 2.080000 1.920000 -7.953762 -3.005515 72.295441
1.800000 2.080000 1.960000 1.113755 -4.392558 20.535015
1.800000 2.080000 2.000000 9.605844 2.718517 99.662567
1.800000 2.080000 2.040000 10.371796 16.449869 378.172363
1.800000 2.080000 2.080000 -0.767891 28.997898 841.467773
1.800000 2.080000 2.120000 -20.277899 30.728872 1355.456787
1.800000 2.080000 2.160000 -37.438351 17.562820 1710.082764
1.800000 2.080000 2.200000 -41.379242 -4.580563 1733.223267
1.800000 2.120000 1.800000 -13.214809 8.067306 239.712616
1.800000 2.120000 1.840000 -14.957685 -0.345474 223.851715
1.800000 2.120000 1.880000 -10.326230 -7.892989 168.930298
1.800000 2.120000 1.920000 -1.238073 -9.872359 98.996300
1.800000 2.120000 1.960000 7.016644 -3.834359 63.935600
1.800000 2.120000 2.000000 8.088806 7.915788 128.088486
1.800000 2.120000 2.040000 -1.159328 18.273628 335.269531
1.800000 2.120000 2.080000 -17.246565 19.198437 666.023987
1.800000 2.120000 2.120000 -31.003819 7.600254 1019.000610
1.800000 2.120000 2.160000 -33.437714 -11.336044 1246.586548
1.800000 2.120000 2.200000 -22.471785 -26.998693 1233.910522
1.800000 2.160000 1.800000 -13.884287 -1.950974 196.579727
1.800000 2.160000 1.840000 -9.980290 -10.125060 202.123032
1.800000 2.160000 1.880000 -0.922951 -13.347848 179.016876
1.800000 2.160000 1.920000 8.001542 -8.571141 137.489136
1.800000 2.160000 1.960000 10.251506 2.050192 109.296654
1.800000 2.160000 2.000000 2.820163 11.482096 139.791840
1.800000 2.160000 2.040000 -10.632931 12.201634 261.939087
1.800000 2.160000 2.080000 -21.442715 1.935544 463.536346
1.800000 2.160000 2.120000 -21.901737 -13.962186 674.628723
1.800000 2.160000 2.160000 -11.097308 -25.927303 795.375305
1.800000 2.160000 2.200000 4.261845 -27.137070 754.583862
1.800000 2.200000 1.800000 -9.409172 -7.673272 147.411621
1.800000 2.200000 1.840000 -1.863748 -12.689592 164.499313
1.800000 2.200000 1.880000 7.624644 -10.359920 165.463135
1.800000 2.200000 1.920000 12.101746 -1.168880 147.818527
1.800000 2.200000 1.960000 7.294893 8.427409 124.236694
1.800000 2.200000 2.000000 -4.058143 10.451899 125.710709
1.800000 2.200000 2.040000 -13.439633 2.065153 184.888611
1.800000 2.200000 2.080000 -13.092831 -11.497560 303.616089
1.800000 2.200000 2.120000 -2.431094 -20.702833 434.517517
1.800000 2.200000 2.160000 11.364738 -19.310072 502.036163
1.800000 2.200000 2.200000 19.226767 -9.160568 453.584564
1.840000 1.800000 1.800000 -11.139578 6.866119 171.233795
1.840000 1.800000 1.840000 -13.272445 0.141539 176.177826
1.840000 1.800000 1.880000 -10.859448 -6.175738 156.067368
1.840000 1.800000 1.920000 -5.715606 -9.582985 124.501755
1.840000 1.800000 1.960000 -0.247063 -9.784136 95.790359
1.840000 1.800000 2.000000 4.272858 -7.755817 78.410019
1.840000 1.800000 2.040000 7.578579 -4.171089 74.832848
1.840000 1.800000 2.080000 9.192961 0.836126 85.209633
1.840000 1.800000 2.120000 8.035313 6.581793 107.886246
1.840000 1.800000 2.160000 3.540928 11.131131 136.440247
1.840000 1.800000 2.200000 -3.048103 12.237501 159.047379
1.840000 1.840000 1.800000 -11.481501 -4.608417 153.062363
1.840000 1.840000 1.840000 -2.559258 -11.394761 136.390381
1.840000 1.840000 1.880000 9.236542 -8.035213 149.878357
1.840000 1.840000 1.920000 14.018959 4.149652 213.750839
1.840000 1.840000 1.960000 7.121391 15.808485 300.622406
1.840000 1.840000 2.000000 -6.234039 17.640093 350.036133
1.840000 1.840000 2.040000 -15.452110 8.753433 315.390320
1.840000 1.840000 2.080000 -14.074721 -2.750885 205.665146
1.840000 1.840000 2.120000 -5.182831 -7.455050 82.439499
1.840000 1.840000 2.160000 2.206030 -3.022193 14.000217
1.840000 1.840000 2.200000 1.784020 4.609692 24.431984
1.840000 1.880000 1.800000 -1.791426 -12.765129 166.157730
1.840000 1.880000 1.840000 16.324635 -8.803660 343.998108
1.840000 1.880000 1.880000 25.773983 11.985763 807.956726
1.840000 1.880000 1.920000 13.673464 36.072929 1488.219849
1.840000 1.880000 1.960000 -15.739433 43.239365 2117.372559
1.840000 1.880000 2.000000 -42.113697 24.714893 2384.389404
1.840000 1.880000 2.040000 -45.711384 -7.589111 2147.125244
1.840000 1.880000 2.080000 -24.675848 -30.454048 1536.346436
1.840000 1.880000 2.120000 3.529747 -29.142555 861.747620
1.840000 1.880000 2.160000 17.795609 -9.148724 400.382812
1.840000 1.880000 2.200000 11.149224 10.486088 234.263245
1.840000 1.920000 1.800000 11.468442 -9.816682 227.892395
1.840000 1.920000 1.840000 27.137606 10.825125 853.632996
1.840000 1.920000 1.880000 18.575321 43.088676 2201.676514
1.840000 1.920000 1.920000 -18.076170 60.425220 3977.955078
1.840000 1.920000 1.960000 -60.715443 42.185814 5466.007812
1.840000 1.920000 2.000000 -77.014816 -5.110369 5957.397461
1.840000 1.920000 2.040000 -52.497051 -49.838951 5239.861328
1.840000 1.920000 2.080000 -4.491806 -60.982830 3739.081787
1.840000 1.920000 2.120000 32.083305 -34.298706 2205.739746
1.840000 1.920000 2.160000 34.285881 5.412231 1204.813843
1.840000 1.920000 2.200000 8.626205 27.293192 819.329773
1.840000 1.960000 1.800000 17.390059 3.306202 313.345093
1.840000 1.960000 1.840000 17.250006 34.307610 1474.574707
1.840000 1.960000 1.880000 -14.662941 59.800327 3791.081055
1.840000 1.960000 1.920000 -64.062744 50.749821 6679.579102
1.840000 1.960000 1.960000 -94.505707 1.561308 8933.766602
1.840000 1.960000 2.000000 -77.588715 -58.812031 9478.863281
1.840000 1.960000 2.040000 -20.314617 -87.832390 8127.212402
1.840000 1.960000 2.080000 37.834671 -65.340584 5700.854492
1.840000 1.960000 2.120000 57.398178 -11.115696 3418.109375
1.840000 1.960000 2.160000 31.395964 32.809174 2062.148438
1.840000 1.960000 2.200000 -11.921898 38.209721 1602.114502
1.840000 2.000000 1.800000 10.156734 16.628138 379.654236
1.840000 2.000000 1.840000 -9.349184 42.450546 1889.456055
1.840000 2.000000 1.880000 -52.590591 44.497623 4745.808594
1.840000 2.000000 1.920000 -90.092743 6.169921 8154.770020
1.840000 2.000000 1.960000 -86.789375 -55.748772 10640.321289
1.840000 2.000000 2.000000 -34.995247 -98.859505 10997.869141
1.840000 2.000000 2.040000 33.607742 -89.684891 9172.859375
1.840000 2.000000 2.080000 71.695625 -33.958664 6293.453613
1.840000 2.000000 2.120000 55.743370 26.797913 3825.451416
1.840000 2.000000 2.160000 4.803532 50.370117 2560.222656
1.840000 2.000000 2.200000 -38.344151 28.142641 2262.282227
1.840000 2.040000 1.800000 -5.337790 19.340679 402.553864
1.840000 2.040000 1.840000 -33.903725 27.175177 1887.952759
1.840000 2.040000 1.880000 -67.276543 4.868135 4549.832031
1.840000 2.040000 1.920000 -74.800476 -44.568966 7581.503906
1.840000 2.040000 1.960000 -38.821281 -90.048462 9615.817383
1.840000 2.040000 2.000000 24.132902 -95.189697 9643.474609
1.840000 2.040000 2.040000 71.951813 -51.042488 7782.399414
1.840000 2.040000 2.080000 71.001801 12.762047 5204.125488
1.840000 2.040000 2.120000 25.087513 51.209667 3251.813232
1.840000 2.040000 2.160000 -28.146965 41.277988 2496.124023
1.840000 2.040000 2.200000 -50.095966 -0.862067 2510.349121
1.840000 2.080000 1.800000 -17.421555 9.176291 387.714874
1.840000 2.080000 1.840000 -38.833519 -0.768542 1508.632935
1.840000 2.080000 1.880000 -48.732292 -31.554184 3370.502686
1.840000 2.080000 1.920000 -29.330170 -67.031853 5353.527832
1.840000 2.080000 1.960000 16.053055 -79.122543 6518.077637
1.840000 2.080000 2.000000 59.599026 -52.081387 6264.514648
1.840000 2.080000 2.040000 69.493195 0.030994 4829.305176
1.840000 2.080000 2.080000 37.535095 41.588337 3138.473145
1.840000 2.080000 2.120000 -12.227508 44.251060 2107.668213
1.840000 2.080000 2.160000 -43.226524 10.477652 1978.313477
1.840000 2.080000 2.200000 -36.778816 -30.038897 2255.016602
1.840000 2.120000 1.800000 -17.761625 -5.843357 349.620148
1.840000 2.120000 1.840000 -22.860592 -21.309574 976.704651
1.840000 2.120000 1.880000 -13.289425 -41.306293 1882.818604
1.840000 2.120000 1.920000 12.621248 -50.675526 2727.304688
1.840000 2.120000 1.960000 41.390930 -36.939411 3077.729248
1.840000 2.120000 2.000000 52.195305 -3.850716 2739.177979
1.840000 2.120000 2.040000 34.413464 27.743725 1954.000732
1.840000 2.120000 2.080000 -1.123707 35.370640 1252.344849
1.840000 2.120000 2.120000 -29.198841 13.938305 1046.848633
1.840000 2.120000 2.160000 -30.612835 -19.432650 1314.773560
1.840000 2.120000 2.200000 -7.642659 -39.877819 1648.650757
1.840000 2.160000 1.800000 -8.132510 -14.943271 289.439056
1.840000 2.160000 1.840000 -0.898258 -22.701820 516.179504
1.840000 2.160000 1.880000 12.071871 -24.468546 744.439819
1.840000 2.160000 1.920000 24.786734 -15.926268 868.028137
1.840000 2.160000 1.960000 28.403286 0.817497 807.414917
1.840000 2.160000 2.000000 18.138649 16.205807 591.638794
1.840000 2.160000 2.040000 -1.124554 19.206181 370.141998
1.840000 2.160000 2.080000 -16.686192 6.381083 319.147217
1.840000 2.160000 2.120000 -17.368086 -14.084595 500.026245
1.840000 2.160000 2.160000 -2.650738 -28.037802 793.144775
1.840000 2.160000 2.200000 16.681030 -26.445578 977.625366
1.840000 2.200000 1.800000 2.314482 -14.031611 202.242950
1.840000 2.200000 1.840000 10.542805 -10.395736 219.222046
1.840000 2.200000 1.880000 13.759081 -1.614333 191.918365
1.840000 2.200000 1.920000 9.343050 6.903950 134.957092
1.840000 2.200000 1.960000 -0.312491 9.327744 87.104446
1.840000 2.200000 2.000000 -9.029217 3.410622 93.159096
1.840000 2.200000 2.040000 -10.810011 -7.698826 176.128265
1.840000 2.200000 2.080000 -3.887937 -17.358025 316.417084
1.840000 2.200000 2.120000 8.040924 -19.752974 454.836426
1.840000 2.200000 2.160000 18.312744 -13.701759 523.094788
1.840000 2.200000 2.200000 21.743174 -3.168283 482.803619
1.880000 1.800000 1.800000 -16.628220 5.313280 304.728638
1.880000 1.800000 1.840000 -15.878492 -4.953066 276.659393
1.880000 1.800000 1.880000 -8.603590 -11.443184 204.968216
1.880000 1.800000 1.920000 -0.161144 -11.265228 126.931335
1.880000 1.800000 1.960000 4.685013 -6.897543 69.525444
1.880000 1.800000 2.000000 5.625534 -2.760693 39.268059
1.880000 1.800000 2.040000 5.644657 -0.546165 32.160450
1.880000 1.800000 2.080000 6.612779 1.660244 46.485249
1.880000 1.800000 2.120000 6.884895 5.866924 81.822586
1.880000 1.800000 2.160000 3.572784 10.703726 127.334534
1.880000 1.800000 2.200000 -3.250493 12.164219 158.533920
1.880000 1.840000 1.800000 -12.004421 -7.104223 194.576111
1.880000 1.840000 1.840000 6.915524 -8.435986 118.990326
1.880000 1.840000 1.880000 19.959047 9.935610 497.079895
1.880000 1.840000 1.920000 10.969337 34.669930 1322.330444
1.880000 1.840000 1.960000 -17.165016 43.447212 2182.298096
1.880000 1.840000 2.000000 -43.115959 26.092941 2539.827637
1.880000 1.840000 2.040000 -46.225403 -4.866013 2160.465820
1.880000 1.840000 2.080000 -25.568592 -25.400127 1298.919434
1.880000 1.840000 2.120000 -0.149422 -22.024597 485.105225
1.880000 1.840000 2.160000 9.636975 -2.996807 101.852142
1.880000 1.840000 2.200000 0.377124 11.661268 136.127411
1.880000 1.880000 1.800000 1.183016 -10.694241 115.766312
1.880000 1.880000 1.840000 25.401596 13.483011 827.032715
1.880000 1.880000 1.880000 16.789307 57.429367 3580.012939
1.880000 1.880000 1.920000 -32.451572 82.544403 7866.683105
1.880000 1.880000 1.960000 -91.337181 58.274128 11738.354492
1.880000 1.880000 2.000000 -114.097687 -6.305344 13058.040039
1.880000 1.880000 2.040000 -81.370552 -66.793434 11082.529297
1.880000 1.880000 2.080000 -18.514774 -81.692398 7016.444824
1.880000 1.880000 2.120000 27.300306 -48.183239 3066.931152
1.880000 1.880000 2.160000 28.882257 -1.422504 836.208313
1.880000 1.880000 2.200000 -0.641321 20.180719 407.672729
1.880000 1.920000 1.800000 11.626400 -1.469226 137.331802
1.880000 1.920000 1.840000 16.545605 47.332935 2514.163818
1.880000 1.920000 1.880000 -33.041412 90.920197 9358.217773
1.880000 1.920000 1.920000 -114.468307 77.895782 19170.746094
1.880000 1.920000 1.960000 -165.974503 -2.487064 27553.720703
1.880000 1.920000 2.000000 -140.049133 -101.990097 30015.738281
1.880000 1.920000 2.040000 -49.071320 -151.069794 25230.076172
1.880000 1.920000 2.080000 42.689919 -119.133957 16015.328125
1.880000 1.920000 2.120000 74.727158 -39.915909 7177.427734
1.880000 1.920000 2.160000 40.513542 21.710043 2112.673096
1.880000 1.920000 2.200000 -14.217415 27.731918 971.194153
1.880000 1.960000 1.800000 9.187725 12.839436 249.265396
1.880000 1.960000 1.840000 -20.969280 63.707870 4498.403809
1.880000 1.960000 1.880000 -101.179497 72.067139 15430.962891
1.880000 1.960000 1.920000 -174.454926 2.210064 30439.406250
1.880000 1.960000 1.960000 -171.834656 -115.180595 42793.718750
1.880000 1.960000 2.000000 -77.672371 -199.739075 45928.695312
1.880000 1.960000 2.040000 49.185791 -189.156479 38199.414062
1.880000 1.960000 2.080000 122.891113 -94.761017 24081.875000
1.880000 1.960000 2.120000 103.572861 8.982285 10808.019531
1.880000 1.960000 2.160000 26.939705 50.897095 3316.261719
1.880000 1.960000 2.200000 -34.923981 21.266479 1671.947632
1.880000 2.000000 1.800000 -5.209351 18.898174 384.278320
1.880000 2.000000 1.840000 -61.702759 43.781837 5724.079590
1.880000 2.000000 1.880000 -136.179688 2.815441 18552.833984
1.880000 2.000000 1.920000 -158.836884 -101.883026 35609.308594
1.880000 2.000000 1.960000 -87.450058 -203.824844 49192.078125
1.880000 2.000000 2.000000 45.342667 -223.682251 52089.707031
1.880000 2.000000 2.040000 151.917938 -140.485474 42815.226562
1.880000 2.000000 2.080000 162.842529 -13.530336 26700.759766
1.880000 2.000000 2.120000 85.279312 68.155823 11917.777344
1.880000 2.000000 2.160000 -8.227020 61.312988 3826.966309
1.880000 2.000000 2.200000 -47.350555 -1.832031 2245.431641
1.880000 2.040000 1.800000 -19.575882 9.857748 480.390350
1.880000 2.040000 1.840000 -74.389664 -1.775997 5536.976562
1.880000 2.040000 1.880000 -108.878021 -71.705902 16996.160156
1.880000 2.040000 1.920000 -71.694412 -163.162994 31762.250000
1.880000 2.040000 1.960000 35.595577 -204.507019 43090.167969
1.880000 2.040000 2.000000 148.095062 -151.697937 44944.414062
1.880000 2.040000 2.040000 187.958160 -32.803635 36404.347656
1.880000 2.040000 2.080000 131.411438 71.397537 22366.574219
1.880000 2.040000 2.120000 28.809200 95.288506 9909.869141
1.880000 2.040000 2.160000 -41.329956 41.446724 3425.996094
1.880000 2.040000 2.200000 -39.692131 -29.492907 2445.296875
1.880000 2.080000 1.800000 -21.360783 -8.045256 521.009155
1.880000 2.080000 1.840000 -49.716583 -40.858093 4141.122559
1.880000 2.080000 1.880000 -39.348083 -101.234863 11796.768555
1.880000 2.080000 1.920000 26.375546 -143.436951 21269.828125
1.880000 2.080000 1.960000 115.155365 -122.038094 28154.054688
1.880000 2.080000 2.000000 165.511658 -36.780025 28746.878906
1.880000 2.080000 2.040000 138.591064 59.829735 22787.080078
1.880000 2.080000 2.080000 54.003788 103.804306 13691.743164
1.880000 2.080000 2.120000 -25.797077 73.280334 6035.496582
1.880000 2.080000 2.160000 -48.854847 4.366890 2405.865967
1.880000 2.080000 2.200000 -14.786566 -44.322540 2183.130127
1.880000 2.120000 1.800000 -8.722892 -20.993359 516.809937
1.880000 2.120000 1.840000 -8.199909 -47.959763 2367.377441
1.880000 2.120000 1.880000 21.249989 -73.515160 5856.040527
1.880000 2.120000 1.920000 71.293610 -69.187981 9869.755859
1.880000 2.120000 1.960000 109.142975 -23.804844 12478.859375
1.880000 2.120000 2.000000 103.027817 40.338619 12241.935547
1.880000 2.120000 2.040000 51.750301 81.450798 9312.326172
1.880000 2.120000 2.080000 -10.753353 72.515106 5374.075195
1.880000 2.120000 2.120000 -42.480713 24.553001 2407.460938
1.880000 2.120000 2.160000 -27.900711 -23.366203 1324.429199
1.880000 2.120000 2.200000 11.737330 -37.997318 1581.561035
1.880000 2.160000 1.800000 8.182173 -20.025661 467.975098
1.880000 2.160000 1.840000 19.197735 -25.365393 1011.956177
1.880000 2.160000 1.880000 36.107876 -21.499159 1765.992554
1.880000 2.160000 1.920000 49.320099 -3.704525 2446.195557
1.880000 2.160000 1.960000 46.870258 22.247517 2691.772949
1.880000 2.160000 2.000000 25.340801 41.120838 2333.079590
1.880000 2.160000 2.040000 -4.281738 39.272022 1560.625000
1.880000 2.160000 2.080000 -23.170837 16.839043 820.441040
1.880000 2.160000 2.120000 -19.374207 -10.775528 491.471893
1.880000 2.160000 2.160000 2.250542 -24.681641 614.248352
1.880000 2.160000 2.200000 24.281467 -17.547810 897.515259
1.880000 2.200000 1.800000 16.975895 -8.520480 360.779572
1.880000 2.200000 1.840000 18.433361 2.069605 344.072052
1.880000 2.200000 1.880000 11.618688 10.358990 242.302567
1.880000 2.200000 1.920000 1.240393 11.006058 122.671883
1.880000 2.200000 1.960000 -6.011509 4.301277 54.639229
1.880000 2.200000 2.000000 -6.432762 -4.968199 66.063431
1.880000 2.200000 2.040000 -0.969501 -11.674417 137.231949
1.880000 2.200000 2.080000 6.840202 -13.467514 228.162292
1.880000 2.200000 2.120000 13.797895 -10.807281 307.179260
1.880000 2.200000 2.160000 18.177004 -5.260885 358.080383
1.880000 2.200000 2.200000 19.160086 1.549670 369.510376
1.920000 1.800000 1.800000 -19.486477 0.263343 379.792114
1.920000 1.800000 1.840000 -13.827919 -10.593142 303.425995
1.920000 1.800000 1.880000 -2.769855 -13.552498 191.342300
1.920000 1.800000 1.920000 5.376175 -8.335114 98.377380
1.920000 1.800000 1.960000 6.429169 -1.363510 43.193371
1.920000 1.800000 2.000000 3.674473 1.363739 15.361534
1.920000 1.800000 2.040000 3.166677 0.312935 10.125769
1.920000 1.800000 2.080000 6.455490 0.903202 42.489124
1.920000 1.800000 2.120000 8.894600 6.410666 120.210556
1.920000 1.800000 2.160000 5.348160 13.487707 210.521057
1.920000 1.800000 2.200000 -3.277412 15.454648 249.587585
1.920000 1.840000 1.800000 -10.663147 -8.924372 193.347107
1.920000 1.840000 1.840000 10.594536 3.321802 123.278557
1.920000 1.840000 1.880000 10.080299 34.183258 1270.107544
1.920000 1.840000 1.920000 -21.565948 55.015541 3491.799805
1.920000 1.840000 1.960000 -63.109432 40.823532 5649.361328
1.920000 1.840000 2.000000 -79.974640 -3.669052 6409.404785
1.920000 1.840000 2.040000 -56.633663 -45.828995 5307.668945
1.920000 1.840000 2.080000 -11.824593 -54.520599 3112.316895
1.920000 1.840000 2.120000 19.023155 -28.286013 1161.979004
1.920000 1.840000 2.160000 16.520620 5.412066 302.221375
1.920000 1.840000 2.200000 -7.272604 17.965237 375.640503
1.920000 1.880000 1.800000 1.244265 -6.522083 44.085766
1.920000 1.880000 1.840000 10.602386 39.678272 1686.775879
1.920000 1.880000 1.880000 -35.006321 84.315361 8334.522461
1.920000 1.880000 1.920000 -114.812546 73.871208 18638.876953
1.920000 1.880000 1.960000 -166.531723 -4.385605 27752.048828
1.920000 1.880000 2.000000 -141.458923 -102.549301 30526.986328
1.920000 1.880000 2.040000 -51.814949 -150.667725 25385.552734
1.920000 1.880000 2.080000 37.751221 -118.638626 15500.278320
1.920000 1.880000 2.120000 67.539017 -41.400940 6275.556641
1.920000 1.880000 2.160000 33.285515 16.296032 1373.486206
1.920000 1.880000 2.200000 -17.757719 19.089809 679.757446
1.920000 1.920000 1.800000 4.473801 4.781874 42.881210
1.920000 1.920000 1.840000 -26.890488 66.062088 5087.297852
1.920000 1.920000 1.880000 -120.808029 78.720184 20791.447266
1.920000 1.920000 1.920000 -208.887238 -2.703949 43641.191406
1.920000 1.920000 1.960000 -206.999451 -142.353745 63113.359375
1.920000 1.920000 2.000000 -95.696404 -243.598785 68498.171875
1.920000 1.920000 2.040000 54.443428 -232.004089 56789.984375
1.920000 1.920000 2.080000 141.482330 -122.084724 34921.929688
1.920000 1.920000 2.120000 120.016830 -2.616909 14410.888672
1.920000 1.920000 2.160000 34.331409 44.310741 3142.087402
1.920000 1.920000 2.200000 -31.433043 11.088292 1110.986328
1.920000 1.960000 1.800000 -4.993511 12.907646 191.542480
1.920000 1.960000 1.840000 -79.406212 50.952614 8901.515625
1.920000 1.960000 1.880000 -182.569107 -1.882793 33335.023438
1.920000 1.960000 1.920000 -216.137573 -144.931122 67720.476562
1.920000 1.960000 1.960000 -119.876450 -286.288818 96331.656250
1.920000 1.960000 2.000000 61.776146 -315.911469 103616.343750
1.920000 1.960000 2.040000 208.585693 -205.040268 85549.500000
1.920000 1.960000 2.080000 226.681641 -34.941364 52605.464844
1.920000 1.960000 2.120000 127.414398 74.680969 21811.675781
1.920000 1.960000 2.160000 8.697929 68.573547 4777.985352
1.920000 1.960000 2.200000 -38.633961 -7.465766 1548.320557
1.920000 2.000000 1.800000 -18.518326 7.590092 400.537903
1.920000 2.000000 1.840000 -105.151505 -4.359829 11075.846680
1.920000 2.000000 1.880000 -163.665100 -111.472382 39212.359375
1.920000 2.000000 1.920000 -109.366791 -256.722748 77867.664062
1.920000 2.000000 1.960000 57.566757 -325.694855 109391.070312
1.920000 2.000000 2.000000 235.581512 -247.499878 116754.843750
1.920000 2.000000 2.040000 302.798462 -65.118607 95927.335938
1.920000 2.000000 2.080000 222.400024 96.812286 58834.390625
1.920000 2.000000 2.120000 71.708939 138.812897 24411.191406
1.920000 2.000000 2.160000 -31.503895 66.565063 5423.403320
1.920000 2.000000 2.200000 -31.762051 -28.709736 1833.076904
1.920000 2.040000 1.800000 -22.155859 -9.190388 575.345337
1.920000 2.040000 1.840000 -80.383575 -63.035458 10434.988281
1.920000 2.040000 1.880000 -69.421761 -174.123962 35138.535156
1.920000 2.040000 1.920000 46.187092 -257.264282 68318.164062
1.920000 2.040000 1.960000 209.405609 -225.707672 94794.664062
1.920000 2.040000 2.000000 307.560181 -75.726898 100327.828125
1.920000 2.040000 2.040000 268.402649 99.420616 81924.445312
1.920000 2.040000 2.080000 124.985489 185.498688 50031.132812
1.920000 2.040000 2.120000 -13.943996 143.394775 20756.498047
1.920000 2.040000 2.160000 -59.454430 35.084114 4765.724121
1.920000 2.040000 2.200000 -12.417519 -41.086830 1842.322266
1.920000 2.080000 1.800000 -9.814231 -24.150066 679.544861
1.920000 2.080000 1.840000 -21.900013 -83.874100 7514.475098
1.920000 2.080000 1.880000 34.777687 -149.945908 23693.263672
1.920000 2.080000 1.920000 146.645523 -152.683777 44817.246094
1.920000 2.080000 1.960000 239.873886 -60.279549 61173.105469
1.920000 2.080000 2.000000 239.381134 81.771423 63989.894531
1.920000 2.080000 2.040000 137.235611 181.496475 51774.582031
1.920000 2.080000 2.080000 3.677147 177.173508 31403.972656
1.920000 2.080000 2.120000 -72.193756 88.518066 13047.386719
1.920000 2.080000 2.160000 -56.481693 -5.474415 3220.150879
1.920000 2.080000 2.200000 9.319490 -38.391533 1560.762695
1.920000 2.120000 1.800000 10.606661 -24.655937 720.416504
1.920000 2.120000 1.840000 27.727335 -57.146107 4034.482666
1.920000 2.120000 1.880000 80.682724 -68.369759 11184.125977
1.920000 2.120000 1.920000 138.850464 -28.188843 20074.062500
1.920000 2.120000 1.960000 153.714020 54.244385 26570.453125
1.920000 2.120000 2.000000 101.982208 129.563614 27187.101562
1.920000 2.120000 2.040000 11.011841 146.595428 21611.478516
1.920000 2.120000 2.080000 -60.544331 96.303177 12939.917969
1.920000 2.120000 2.120000 -70.959015 19.657516 5421.599609
1.920000 2.120000 2.160000 -28.133083 -28.323236 1593.676147
1.920000 2.120000 2.200000 22.563953 -24.185713 1094.080688
1.920000 2.160000 1.800000 24.280914 -10.273981 695.117493
1.920000 2.160000 1.840000 37.897636 -10.833902 1553.604248
1.920000 2.160000 1.880000 54.550655 2.342133 2981.259521
1.920000 2.160000 1.920000 59.870079 30.390572 4508.013184
1.920000 2.160000 1.960000 42.245369 60.125580 5399.756836
1.920000 2.160000 2.000000 5.493469 71.543472 5148.646484
1.920000 2.160000 2.040000 -30.421043 54.216305 3864.847656
1.920000 2.160000 2.080000 -43.686245 17.802200 2225.406250
1.920000 2.160000 2.120000 -28.185593 -14.215485 996.507629
1.920000 2.160000 2.160000 1.649986 -22.916664 527.895996
1.920000 2.160000 2.200000 23.306400 -8.250742 611.263062
1.920000 2.200000 1.800000 22.909184 7.268784 577.665894
1.920000 2.200000 1.840000 14.323851 17.347351 506.103302
1.920000 2.200000 1.880000 0.979136 17.514984 307.733368
1.920000 2.200000 1.920000 -7.429405 8.190437 122.279327
1.920000 2.200000 1.960000 -6.142349 -2.790645 45.516151
1.920000 2.200000 2.000000 1.268219 -7.938007 64.620338
1.920000 2.200000 2.040000 7.701092 -6.482246 101.326340
1.920000 2.200000 2.080000 9.820032 -3.222855 106.819824
1.920000 2.200000 2.120000 10.111105 -2.077766 106.551559
1.920000 2.200000 2.160000 12.261896 -1.891098 153.930344
1.920000 2.200000 2.200000 15.855478 1.157724 252.736526
1.960000 1.800000 1.800000 -18.297287 -4.423069 354.354248
1.960000 1.800000 1.840000 -9.001669 -12.379833 234.290314
1.960000 1.800000 1.880000 2.014328 -10.544018 115.233826
1.960000 1.800000 1.920000 6.497353 -2.590504 48.926300
1.960000 1.800000 1.960000 3.729786 3.064590 23.303017
1.960000 1.800000 2.000000 0.429226 2.405930 5.972732
1.960000 1.800000 2.040000 2.596458 -0.215134 6.787879
1.960000 1.800000 2.080000 8.425011 2.389612 76.691048
1.960000 1.800000 2.120000 10.215763 11.407520 234.493332
1.960000 1.800000 2.160000 3.273763 19.916603 407.388611
1.960000 1.800000 2.200000 -8.198372 20.063843 469.771118
1.960000 1.840000 1.800000 -9.733426 -8.463345 166.367798
1.960000 1.840000 1.840000 1.432625 15.358425 237.933640
1.960000 1.840000 1.880000 -19.848831 43.255623 2265.025146
1.960000 1.840000 1.920000 -64.660110 41.149261 5874.191406
1.960000 1.840000 1.960000 -95.827003 -2.004898 9186.833984
1.960000 1.840000 2.000000 -81.866669 -58.842606 10164.603516
1.960000 1.840000 2.040000 -28.604279 -86.138969 8238.126953
1.960000 1.840000 2.080000 24.237457 -64.474930 4744.470703
1.960000 1.840000 2.120000 39.167229 -15.735489 1781.677368
1.960000 1.840000 2.160000 14.084187 18.819000 552.519104
1.960000 1.840000 2.200000 -19.768312 17.176229 685.809021
1.960000 1.880000 1.800000 -3.698055 -3.712299 27.456779
1.960000 1.880000 1.840000 -24.628483 46.102253 2731.979980
1.960000 1.880000 1.880000 -98.921036 58.942032 13259.534180
1.960000 1.880000 1.920000 -171.107605 -5.415245 29307.136719
1.960000 1.880000 1.960000 -170.330963 -119.086594 43194.253906
1.960000 1.880000 2.000000 -79.045975 -201.870575 46999.996094
1.960000 1.880000 2.040000 44.343704 -191.271133 38551.007812
1.960000 1.880000 2.080000 114.674118 -99.520882 23054.558594
1.960000 1.880000 2.120000 94.640358 -1.330200 8958.566406
1.960000 1.880000 2.160000 22.662113 35.063457 1743.017334
1.960000 1.880000 2.200000 -30.232019 5.197379 940.987732
1.960000 1.920000 1.800000 -6.795307 2.520247 52.527843
1.960000 1.920000 1.840000 -76.851494 42.060490 7675.237305
1.960000 1.920000 1.880000 -178.269257 -7.593590 31837.589844
1.960000 1.920000 1.920000 -212.353577 -147.963104 66987.125000
1.960000 1.920000 1.960000 -117.606819 -287.884125 96708.632812
1.960000 1.920000 2.000000 62.253014 -317.161560 104466.890625
1.960000 1.920000 2.040000 207.267044 -207.119904 85858.281250
1.960000 1.920000 2.080000 224.423767 -39.293728 51910.023438
1.960000 1.920000 2.120000 126.471481 67.440407 20543.244141
1.960000 1.920000 2.160000 11.617664 60.143372 3752.195312
1.960000 1.920000 2.200000 -31.479485 -13.293661 1167.679321
1.960000 1.960000 1.800000 -15.513361 0.371803 240.802612
1.960000 1.960000 1.840000 -113.453354 -9.588219 12963.596680
1.960000 1.960000 1.880000 -181.896896 -130.024414 49992.828125
1.960000 1.960000 1.920000 -121.342728 -296.351990 102548.554688
1.960000 1.960000 1.960000 69.281471 -376.235657 146353.187500
1.960000 1.960000 2.000000 273.236816 -287.553162 157345.187500
1.960000 1.960000 2.040000 350.637360 -79.883606 129327.945312
1.960000 1.960000 2.080000 260.334900 103.905533 78570.617188
1.960000 1.960000 2.120000 91.790909 151.627899 31416.589844
1.960000 1.960000 2.160000 -21.685520 72.330215 5701.921875
1.960000 1.960000 2.200000 -20.546650 -29.388273 1285.835449
1.960000 2.000000 1.800000 -18.669003 -12.002449 492.590424
1.960000 2.000000 1.840000 -97.636261 -78.809372 15743.756836
1.960000 2.000000 1.880000 -86.883316 -224.442810 57923.285156
1.960000 2.000000 1.920000 63.030891 -335.825958 116751.968750
1.960000 2.000000 1.960000 277.608002 -296.882874 165205.640625
1.960000 2.000000 2.000000 408.076904 -101.919434 176914.343750
1.960000 2.000000 2.040000 359.586700 126.638824 145339.984375
1.960000 2.000000 2.080000 176.037354 239.979614 88579.367188
1.960000 2.000000 2.120000 -1.134476 189.030289 35733.734375
1.960000 2.000000 2.160000 -59.157440 55.590885 6589.949219
1.960000 2.000000 2.200000 -2.812473 -35.067833 1237.662964
1.960000 2.040000 1.800000 -8.359688 -25.147404 702.276306
1.960000 2.040000 1.840000 -33.394440 -115.734093 14509.568359
1.960000 2.040000 1.880000 48.961727 -220.870270 51180.925781
1.960000 2.040000 1.920000 220.069427 -230.360870 101496.687500
1.960000 2.040000 1.960000 365.840027 -92.678833 142428.281250
1.960000 2.040000 2.000000 369.717957 123.280945 151889.562500
1.960000 2.040000 2.040000 218.917404 277.039734 124675.843750
1.960000 2.040000 2.080000 19.855198 275.386536 76231.968750
1.960000 2.040000 2.120000 -94.348831 148.977539 31096.007812
1.960000 2.040000 2.160000 -75.613930 15.583466 5960.310547
1.960000 2.040000 2.200000 12.495921 -29.599010 1032.249512
1.960000 2.080000 1.800000 11.341972 -26.430077 827.189270
1.960000 2.080000 1.840000 35.425278 -94.471817 10179.874023
1.960000 2.080000 1.880000 134.545166 -125.791443 33925.890625
1.960000 2.080000 1.920000 250.157684 -57.235321 65854.750000
1.960000 2.080000 1.960000 286.459167 96.590355 91388.546875
1.960000 2.080000 2.000000 196.169113 241.693863 96898.242188
1.960000 2.080000 2.040000 29.591507 280.277985 79431.406250
1.960000 2.080000 2.080000 -104.065285 194.843750 48793.667969
1.960000 2.080000 2.120000 -128.736023 60.750580 20263.595703
1.960000 2.080000 2.160000 -60.354446 -23.385513 4189.541504
1.960000 2.080000 2.200000 19.755058 -19.042885 752.893799
1.960000 2.120000 1.800000 26.989635 -12.095350 874.737915
1.960000 2.120000 1.840000 63.174828 -35.556759 5255.341797
1.960000 2.120000 1.880000 123.903336 -14.886093 15573.631836
1.960000 2.120000 1.920000 158.449554 62.141045 28967.771484
1.960000 2.120000 1.960000 122.594742 155.925781 39342.320312
1.960000 2.120000 2.000000 23.121719 201.784958 41251.781250
1.960000 2.120000 2.040000 -81.011108 164.808289 33724.570312
1.960000 2.120000 2.080000 -125.657585 71.506645 20903.029297
1.960000 2.120000 2.120000 -94.052383 -12.622772 9005.184570
1.960000 2.120000 2.160000 -26.382980 -38.532375 2180.805664
1.960000 2.120000 2.200000 20.133450 -10.144482 508.266296
1.960000 2.160000 1.800000 27.721958 8.691456 844.048340
1.960000 2.160000 1.840000 41.123230 14.304043 1895.725586
1.960000 2.160000 1.880000 50.684231 36.170223 3877.176270
1.960000 2.160000 1.920000 40.458862 67.489296 6191.724609
1.960000 2.160000 1.960000 5.669357 88.148483 7802.296875
1.960000 2.160000 2.000000 -38.915497 79.802216 7882.809570
1.960000 2.160000 2.040000 -67.633499 42.568222 6386.343750
1.960000 2.160000 2.080000 -63.748436 -2.656609 4070.920654
1.960000 2.160000 2.120000 -32.978455 -29.685707 1968.819702
1.960000 2.160000 2.160000 1.566921 -27.067524 735.106140
1.960000 2.160000 2.200000 18.351501 -5.093304 362.719360
1.960000 2.200000 1.800000 14.963253 22.042227 709.758728
1.960000 2.200000 1.840000 0.374266 24.516106 601.179504
1.960000 2.200000 1.880000 -11.279713 14.753731 344.904480
1.960000 2.200000 1.920000 -11.276596 0.476408 127.388588
1.960000 2.200000 1.960000 -1.654366 -7.090183 53.007626
1.960000 2.200000 2.000000 7.402603 -4.243416 72.805115
1.960000 2.200000 2.040000 8.349905 2.339722 75.195213
1.960000 2.200000 2.080000 3.677933 3.646759 26.826040
1.960000 2.200000 2.120000 2.173283 -1.626511 7.368694
1.960000 2.200000 2.160000 8.446516 -5.943645 106.670563
1.960000 2.200000 2.200000 17.334526 -1.767868 303.611145
2.000000 1.800000 1.800000 -15.712730 -5.832413 280.906921
2.000000 1.800000 1.840000 -6.256073 -10.020477 139.548416
2.000000 1.800000 1.880000 1.639534 -5.871723 37.165207
2.000000 1.800000 1.920000 2.658855 0.773300 7.667505
2.000000 1.800000 1.960000 -0.531286 3.107498 9.938809
2.000000 1.800000 2.000000 -1.032120 0.952484 1.972497
2.000000 1.800000 2.040000 3.765373 0.686928 14.649905
2.000000 1.800000 2.080000 8.553452 7.424955 128.291489
2.000000 1.800000 2.120000 5.757370 18.197540 364.297791
2.000000 1.800000 2.160000 -5.627625 24.132252 614.035767
2.000000 1.800000 2.200000 -17.900045 19.596432 704.431763
2.000000 1.840000 1.800000 -11.883829 -7.756763 201.392761
2.000000 1.840000 1.840000 -16.694984 15.454113 517.552124
2.000000 1.840000 1.880000 -49.685455 24.294312 3058.858154
2.000000 1.840000 1.920000 -84.905701 -4.618698 7230.310547
2.000000 1.840000 1.960000 -85.127716 -59.867317 10830.824219
2.000000 1.840000 2.000000 -39.090790 -100.581261 11644.679688
2.000000 1.840000 2.040000 23.765610 -93.019440 9217.419922
2.000000 1.840000 2.080000 58.022240 -42.854996 5203.130859
2.000000 1.840000 2.120000 43.232761 9.597183 1961.177612
2.000000 1.840000 2.160000 0.694782 26.729294 714.937866
2.000000 1.840000 2.200000 -29.561707 6.376768 914.557617
2.000000 1.880000 1.800000 -11.228798 -7.338377 179.937683
2.000000 1.880000 1.840000 -56.202175 20.836037 3592.824951
2.000000 1.880000 1.880000 -125.552002 -11.926201 15905.540039
2.000000 1.880000 1.920000 -149.326706 -109.176666 34218.007812
2.000000 1.880000 1.960000 -82.292290 -207.084045 49655.820312
2.000000 1.880000 2.000000 45.363998 -226.484604 53353.167969
2.000000 1.880000 2.040000 147.579086 -146.292572 43181.101562
2.000000 1.880000 2.080000 157.208450 -25.459671 25362.691406
2.000000 1.880000 2.120000 84.059845 49.699486 9536.096680
2.000000 1.880000 2.160000 0.360216 41.315601 1707.108643
2.000000 1.880000 2.200000 -29.237259 -14.307297 1059.516113
2.000000 1.920000 1.800000 -13.418764 -10.198420 284.070984
2.000000 1.920000 1.840000 -94.010574 -16.675121 9116.047852
2.000000 1.920000 1.880000 -151.741760 -117.384880 36804.773438
2.000000 1.920000 1.920000 -100.052406 -258.399353 76780.710938
2.000000 1.920000 1.960000 63.164925 -325.870148 110181.156250
2.000000 1.920000 2.000000 237.609863 -248.626068 118273.367188
2.000000 1.920000 2.040000 302.578278 -69.596893 96397.343750
2.000000 1.920000 2.080000 223.207214 87.505150 57478.613281
2.000000 1.920000 2.120000 77.938080 126.354614 22039.832031
2.000000 1.920000 2.160000 -17.785294 56.554401 3514.717041
2.000000 1.920000 2.200000 -14.187590 -29.981361 1100.169678
2.000000 1.960000 1.800000 -12.314885 -18.433048 491.433685
2.000000 1.960000 1.840000 -89.824478 -81.533264 14716.110352
2.000000 1.960000 1.880000 -80.048386 -224.244385 56693.289062
2.000000 1.960000 1.920000 67.918991 -334.288330 116361.679688
2.000000 1.960000 1.960000 280.545715 -295.353882 165939.812500
2.000000 1.960000 2.000000 409.487488 -101.543434 177991.062500
2.000000 1.960000 2.040000 360.603760 124.833862 145618.562500
2.000000 1.960000 2.080000 178.738190 235.943573 87616.710938
2.000000 1.960000 2.120000 5.137695 184.721893 34148.574219
2.000000 1.960000 2.160000 -49.685875 54.411758 5429.325684
2.000000 1.960000 2.200000 6.392159 -30.875952 994.184082
2.000000 2.000000 1.800000 -2.337994 -26.571133 711.491272
2.000000 2.000000 1.840000 -33.163261 -127.602783 17382.273438
2.000000 2.000000 1.880000 58.538914 -247.809509 64836.359375
2.000000 2.000000 1.920000 252.970337 -259.911194 131547.812500
2.000000 2.000000 1.960000 419.452209 -103.825623 186719.921875
2.000000 2.000000 2.000000 424.352905 141.684494 200149.890625
2.000000 2.000000 2.040000 253.659470 316.069763 164243.218750
2.000000 2.000000 2.080000 29.488235 314.221252 99604.546875
2.000000 2.000000 2.120000 -97.576622 173.102219 39485.578125
2.000000 2.000000 2.160000 -76.032822 26.997013 6509.828613
2.000000 2.000000 2.200000 19.286776 -19.090942 736.443787
2.000000 2.040000 1.800000 14.358440 -25.587603 860.890198
2.000000 2.040000 1.840000 42.251274 -117.857628 15675.590820
2.000000 2.040000 1.880000 173.083572 -163.393311 56655.296875
2.000000 2.040000 1.920000 328.679474 -75.037971 113660.890625
2.000000 2.040000 1.960000 379.483582 128.668503 160563.359375
2.000000 2.040000 2.000000 261.695740 321.717224 171986.625000
2.000000 2.040000 2.040000 42.938423 373.842865 141602.187500
2.000000 2.040000 2.080000 -131.686584 263.314819 86676.054688
2.000000 2.040000 2.120000 -163.717728 91.244339 35129.023438
2.000000 2.040000 2.160000 -77.519821 -13.901482 6202.573730
2.000000 2.040000 2.200000 19.275747 -6.252316 410.645905
2.000000 2.080000 1.800000 27.858742 -11.775024 914.760681
2.000000 2.080000 1.840000 85.686874 -58.451321 10758.796875
2.000000 2.080000 1.880000 190.123413 -30.945202 37104.519531
2.000000 2.080000 1.920000 253.677612 94.318428 73248.296875
2.000000 2.080000 1.960000 199.607452 250.828918 102758.281250
2.000000 2.080000 2.000000 38.717087 329.289307 109930.460938
2.000000 2.080000 2.040000 -130.354828 271.916931 90931.203125
2.000000 2.080000 2.080000 -202.583374 124.074783 56434.574219
2.000000 2.080000 2.120000 -153.720871 -6.850559 23677.035156
2.000000 2.080000 2.160000 -51.769554 -44.896629 4695.793945
2.000000 2.080000 2.200000 12.991661 -2.018649 172.858215
2.000000 2.120000 1.800000 28.633762 8.432536 891.000000
2.000000 2.120000 1.840000 73.158951 6.468616 5394.074707
2.000000 2.120000 1.880000 115.706497 57.863445 16736.171875
2.000000 2.120000 1.920000 103.798759 145.327454 31894.250000
2.000000 2.120000 1.960000 19.998520 208.991516 44077.394531
2.000000 2.120000 2.000000 -93.961884 195.370941 46998.640625
2.000000 2.120000 2.040000 -167.142853 106.151520 39204.878906
2.000000 2.120000 2.080000 -158.060303 -0.691154 24983.537109
2.000000 2.120000 2.120000 -87.472015 -59.574310 11200.452148
2.000000 2.120000 2.160000 -15.774120 -49.997375 2748.560547
2.000000 2.120000 2.200000 10.985294 -5.338921 149.180756
2.000000 2.160000 1.800000 16.255890 23.183025 801.706604
2.000000 2.160000 1.840000 25.883152 34.306572 1846.878418
2.000000 2.160000 1.880000 23.339684 58.780151 3999.847168
2.000000 2.160000 1.920000 -2.362732 81.488167 6645.903809
2.000000 2.160000 1.960000 -44.670944 81.672211 8665.843750
2.000000 2.160000 2.000000 -80.764992 50.837494 9107.434570
2.000000 2.160000 2.040000 -88.220970 2.281754 7788.145996
2.000000 2.160000 2.080000 -62.942570 -37.551567 5371.887207
2.000000 2.160000 2.120000 -22.378189 -48.967251 2898.575195
2.000000 2.160000 2.160000 8.666607 -32.847073 1154.040283
2.000000 2.160000 2.200000 16.682175 -7.107716 328.814575
2.000000 2.200000 1.800000 -0.069223 25.323799 641.299622
2.000000 2.200000 1.840000 -13.011280 19.335527 543.156006
2.000000 2.200000 1.880000 -16.966698 4.842453 311.318176
2.000000 2.200000 1.920000 -8.691376 -6.722179 120.727707
2.000000 2.200000 1.960000 3.415726 -6.787918 57.743015
2.000000 2.200000 2.000000 7.917143 1.452271 64.790245
2.000000 2.200000 2.040000 2.439903 6.570419 49.123539
2.000000 2.200000 2.080000 -3.864349 1.474243 17.106588
2.000000 2.200000 2.120000 -0.469166 -8.551414 73.346802
2.000000 2.200000 2.160000 12.520939 -11.236118 283.024261
2.000000 2.200000 2.200000 23.617908 -0.692201 558.284729
2.040000 1.800000 1.800000 -15.357485 -5.036327 261.216919
2.040000 1.800000 1.840000 -8.069843 -7.778053 125.620483
2.040000 1.800000 1.880000 -2.702810 -5.006462 32.369846
2.040000 1.800000 1.920000 -1.623859 -1.381569 4.545652
2.040000 1.800000 1.960000 -1.884743 -0.298309 3.641244
2.040000 1.800000 2.000000 0.261475 0.056381 0.071548
2.040000 1.800000 2.040000 3.875229 4.114317 31.945004
2.040000 1.800000 2.080000 3.540558 12.646675 172.473938
2.040000 1.800000 2.120000 -4.479862 20.223808 429.071564
2.040000 1.800000 2.160000 -16.989025 19.972845 687.541504
2.040000 1.800000 2.200000 -25.769131 10.843641 781.632629
2.040000 1.840000 1.800000 -16.072533 -10.822121 375.444580
2.040000 1.840000 1.840000 -30.070335 -0.358742 904.353821
2.040000 1.840000 1.880000 -55.789131 -12.749641 3274.980713
2.040000 1.840000 1.920000 -64.186188 -51.927925 6816.375977
2.040000 1.840000 1.960000 -34.605072 -91.802116 9625.139648
2.040000 1.840000 2.000000 20.908371 -97.574181 9957.880859
2.040000 1.840000 2.040000 64.241867 -59.262917 7639.110840
2.040000 1.840000 2.080000 64.669815 -3.515846 4194.546387
2.040000 1.840000 2.120000 26.755390 29.440697 1582.605469
2.040000 1.840000 2.160000 -14.998684 21.594830 691.297180
2.040000 1.840000 2.200000 -29.000679 -9.316483 927.836182
2.040000 1.880000 1.800000 -14.275545 -18.518183 546.714294
2.040000 1.880000 1.840000 -58.551956 -22.243061 3923.085205
2.040000 1.880000 1.880000 -90.704102 -81.540596 14876.103516
2.040000 1.880000 1.920000 -57.655640 -165.200165 30615.265625
2.040000 1.880000 1.960000 42.788124 -203.921509 43414.804688
2.040000 1.880000 2.000000 149.168930 -153.658920 45862.433594
2.040000 1.880000 2.040000 186.604919 -41.145691 36514.363281
2.040000 1.880000 2.080000 133.656708 56.013382 21001.613281
2.040000 1.880000 2.120000 40.412006 77.322128 7611.841797
2.040000 1.880000 2.160000 -19.548365 29.668001 1262.328857
2.040000 1.880000 2.200000 -14.853472 -27.398479 971.302307
2.040000 1.920000 1.800000 -7.122593 -26.581455 757.305115
2.040000 1.920000 1.840000 -60.868191 -71.020462 8748.842773
2.040000 1.920000 1.880000 -51.976601 -174.016144 32983.187500
2.040000 1.920000 1.920000 58.342091 -253.137604 67482.445312
2.040000 1.920000 1.960000 215.981171 -221.696350 95797.140625
2.040000 1.920000 2.000000 310.221100 -75.288979 101905.562500
2.040000 1.920000 2.040000 270.849335 94.047043 82204.203125
2.040000 1.920000 2.080000 132.506531 175.209595 48256.382812
2.040000 1.920000 2.120000 2.431957 133.754837 17896.269531
2.040000 1.920000 2.160000 -36.315361 34.109894 2482.290283
2.040000 1.920000 2.200000 8.557369 -29.131695 921.884216
2.040000 1.960000 1.800000 6.254307 -30.127525 946.784119
2.040000 1.960000 1.840000 -19.128613 -113.730705 13300.576172
2.040000 1.960000 1.880000 59.598335 -214.861710 49717.515625
2.040000 1.960000 1.920000 226.599579 -223.548798 101321.437500
2.040000 1.960000 1.960000 369.120728 -87.353981 143880.828125
2.040000 1.960000 2.000000 371.393677 125.344376 153644.484375
2.040000 1.960000 2.040000 221.971710 275.025330 124910.375000
2.040000 1.960000 2.080000 27.949516 271.187012 74323.570312
2.040000 1.960000 2.120000 -79.864601 147.768707 28213.945312
2.040000 1.960000 2.160000 -58.630089 22.768198 3955.878174
2.040000 1.960000 2.200000 24.038799 -13.569580 761.997375
2.040000 2.000000 1.800000 21.633842 -24.079536 1047.847168
2.040000 2.000000 1.840000 47.736118 -113.466286 15153.334961
2.040000 2.000000 1.880000 176.195160 -158.195389 56070.515625
2.040000 2.000000 1.920000 329.992279 -70.374435 113847.468750
2.040000 2.000000 1.960000 379.730194 132.092041 161643.328125
2.040000 2.000000 2.000000 261.845093 323.336304 173109.218750
2.040000 2.000000 2.040000 44.627449 373.717834 141656.625000
2.040000 2.000000 2.080000 -126.881363 263.151672 85347.687500
2.040000 2.000000 2.120000 -156.173706 94.090530 33243.253906
2.040000 2.000000 2.160000 -70.510239 -6.023491 5007.976074
2.040000 2.000000 2.200000 21.443089 5.081970 485.632477
2.040000 2.040000 1.800000 31.018394 -8.301396 1031.053955
2.040000 2.040000 1.840000 96.055466 -63.925964 13313.181641
2.040000 2.040000 1.880000 217.519424 -33.971367 48468.753906
2.040000 2.040000 1.920000 292.611816 110.796005 97897.429688
2.040000 2.040000 1.960000 230.641479 292.700714 138869.203125
2.040000 2.040000 2.000000 44.436607 383.588806 149114.984375
2.040000 2.040000 2.040000 -150.099533 316.816772 122902.734375
2.040000 2.040000 2.080000 -231.330231 147.152527 75167.539062
2.040000 2.040000 2.120000 -174.007294 0.053596 30278.541016
2.040000 2.040000 2.160000 -59.857845 -39.141960 5115.054688
2.040000 2.040000 2.200000 7.480377 10.923830 175.286102
2.040000 2.080000 1.800000 28.436928 10.469358 918.266357
2.040000 2.080000 1.840000 94.477974 2.482845 8932.251953
2.040000 2.080000 1.880000 160.808792 74.600433 31424.691406
2.040000 2.080000 1.920000 147.798615 202.384766 62804.023438
2.040000 2.080000 1.960000 28.624191 296.659363 88826.125000
2.040000 2.080000 2.000000 -134.688583 278.404053 95649.835938
2.040000 2.080000 2.040000 -237.971146 151.646881 79627.046875
2.040000 2.080000 2.080000 -223.136475 2.573189 49796.507812
2.040000 2.080000 2.120000 -124.277016 -75.319290 21117.771484
2.040000 2.080000 2.160000 -29.768297 -57.932304 4242.303223
2.040000 2.080000 2.200000 -1.170456 1.747723 4.424501
2.040000 2.120000 1.800000 15.287031 22.844666 755.572021
2.040000 2.120000 1.840000 50.813576 42.213093 4363.964844
2.040000 2.120000 1.880000 58.777359 102.728363 14007.894531
2.040000 2.120000 1.920000 6.442863 164.800369 27200.671875
2.040000 2.120000 1.960000 -90.203407 173.098114 38099.613281
2.040000 2.120000 2.000000 -172.507263 106.756798 41155.769531
2.040000 2.120000 2.040000 -186.746552 1.803864 34877.527344
2.040000 2.120000 2.080000 -129.453476 -77.370171 22744.345703
2.040000 2.120000 2.120000 -47.886791 -91.187378 10608.282227
2.040000 2.120000 2.160000 3.080597 -53.109692 2830.129395
2.040000 2.120000 2.200000 5.320771 -9.376333 116.226234
2.040000 2.160000 1.800000 -0.321032 24.032837 577.680359
2.040000 2.160000 1.840000 2.831642 37.598095 1421.634888
2.040000 2.160000 1.880000 -10.940598 56.144676 3271.921387
2.040000 2.160000 1.920000 -42.594421 61.646400 5614.563477
2.040000 2.160000 1.960000 -76.292809 41.048233 7505.550293
2.040000 2.160000 2.000000 -90.118919 -0.844360 8122.132324
2.040000 2.160000 2.040000 -73.411728 -43.057274 7243.210449
2.040000 2.160000 2.080000 -35.407654 -63.825676 5327.418945
2.040000 2.160000 2.120000 2.217602 -56.326637 3177.607910
2.040000 2.160000 2.160000 21.727531 -31.617647 1471.761230
2.040000 2.160000 2.200000 20.414665 -7.848562 478.358459
2.040000 2.200000 1.800000 -10.197678 17.362762 405.458130
2.040000 2.200000 1.840000 -17.001654 8.020611 353.386414
2.040000 2.200000 1.880000 -13.894554 -4.197769 210.679901
2.040000 2.200000 1.920000 -2.868855 -9.174843 92.408066
2.040000 2.200000 1.960000 5.852457 -3.802299 48.708736
2.040000 2.200000 2.000000 4.643417 4.064468 38.081230
2.040000 2.200000 2.040000 -2.724998 3.848255 22.234684
2.040000 2.200000 2.080000 -4.588280 -5.706478 53.616203
2.040000 2.200000 2.120000 5.749664 -14.052887 230.542267
2.040000 2.200000 2.160000 21.566257 -9.517460 555.685486
2.040000 2.200000 2.200000 28.409611 7.713062 866.597290
2.080000 1.800000 1.800000 -17.779327 -5.699314 348.586670
2.080000 1.800000 1.840000 -11.718586 -9.821898 233.794922
2.080000 1.800000 1.880000 -5.520962 -9.469139 120.145615
2.080000 1.800000 1.920000 -1.363255 -6.529415 44.491726
2.080000 1.800000 1.960000 0.946030 -2.719437 8.290308
2.080000 1.800000 2.000000 1.910019 1.968815 7.524405
2.080000 1.800000 2.040000 0.424423 7.808525 61.153198
2.080000 1.800000 2.080000 -5.211019 12.964401 195.230408
2.080000 1.800000 2.120000 -14.292673 13.759369 393.600739
2.080000 1.800000 2.160000 -22.563288 8.063105 574.115601
2.080000 1.800000 2.200000 -25.130737 -1.727345 634.537659
2.080000 1.840000 1.800000 -17.393608 -18.754753 654.278320
2.080000 1.840000 1.840000 -26.909779 -22.302795 1221.550781
2.080000 1.840000 1.880000 -32.656391 -41.899857 2822.038086
2.080000 1.840000 1.920000 -17.299667 -67.938568 4914.927246
2.080000 1.840000 1.960000 19.744263 -77.116295 6336.758789
2.080000 1.840000 2.000000 56.586075 -54.483730 6170.460938
2.080000 1.840000 2.040000 66.261246 -10.552185 4501.901367
2.080000 1.840000 2.080000 41.543156 25.233063 2362.541260
2.080000 1.840000 2.120000 2.464977 29.853996 897.337219
2.080000 1.840000 2.160000 -21.573883 6.543518 508.250061
2.080000 1.840000 2.200000 -17.772745 -20.145315 721.704224
2.080000 1.880000 1.800000 -6.880394 -31.057175 1011.887939
2.080000 1.880000 1.840000 -28.031990 -52.966606 3591.253906
2.080000 1.880000 1.880000 -18.984295 -102.240150 10813.452148
2.080000 1.880000 1.920000 39.707108 -138.156021 20663.740234
2.080000 1.880000 1.960000 120.408669 -117.137314 28219.398438
2.080000 1.880000 2.000000 166.159393 -37.710571 29031.031250
2.080000 1.880000 2.040000 141.079285 51.419441 22547.324219
2.080000 1.880000 2.080000 64.573059 91.669739 12573.021484
2.080000 1.880000 2.120000 -5.415848 65.499489 4319.514648
2.080000 1.880000 2.160000 -24.195984 8.672956 660.665771
2.080000 1.880000 2.200000 3.361432 -26.702234 724.308594
2.080000 1.920000 1.800000 11.742374 -34.364128 1318.776611
2.080000 1.920000 1.840000 0.378479 -82.725189 6843.600098
2.080000 1.920000 1.880000 51.598152 -141.255875 22615.591797
2.080000 1.920000 1.920000 156.110687 -142.050171 44548.796875
2.080000 1.920000 1.960000 243.463806 -52.547741 62035.890625
2.080000 1.920000 2.000000 240.955032 83.535187 65037.457031
2.080000 1.920000 2.040000 142.268707 177.248932 51657.570312
2.080000 1.920000 2.080000 16.970402 171.348984 29648.468750
2.080000 1.920000 2.120000 -50.570477 89.052429 10487.708008
2.080000 1.920000 2.160000 -33.643730 7.798672 1192.719971
2.080000 1.920000 2.200000 22.240383 -13.852407 686.523804
2.080000 1.960000 1.800000 29.879751 -23.999561 1468.778564
2.080000 1.960000 1.840000 49.881672 -84.161583 9571.353516
2.080000 1.960000 1.880000 142.715363 -112.772942 33085.410156
2.080000 1.960000 1.920000 253.135529 -45.501671 66148.000000
2.080000 1.960000 1.960000 286.498657 104.704117 93044.437500
2.080000 1.960000 2.000000 196.380173 244.946533 98563.976562
2.080000 1.960000 2.040000 34.175522 279.574768 79330.023438
2.080000 1.960000 2.080000 -91.883286 194.898666 46428.027344
2.080000 1.960000 2.120000 -110.727539 68.719040 16982.894531
2.080000 1.960000 2.160000 -44.722767 -3.515030 2012.481323
2.080000 1.960000 2.200000 23.175467 8.161444 603.711426
2.080000 2.000000 1.800000 37.398582 -3.562085 1411.342407
2.080000 2.000000 1.840000 90.085304 -47.209038 10344.054688
2.080000 2.000000 1.880000 190.267365 -20.418705 36618.593750
2.080000 2.000000 1.920000 251.579483 102.609070 73820.859375
2.080000 2.000000 1.960000 196.888138 256.386322 104498.882812
2.080000 2.000000 2.000000 37.352226 331.868347 111531.789062
2.080000 2.000000 2.040000 -127.588348 272.893005 90749.382812
2.080000 2.000000 2.080000 -194.331116 127.733871 54080.523438
2.080000 2.000000 2.120000 -143.221039 4.558903 20533.048828
2.080000 2.000000 2.160000 -46.535095 -24.962170 2788.625000
2.080000 2.000000 2.200000 6.709141 19.982517 444.313568
2.080000 2.040000 1.800000 30.095457 16.485392 1177.504639
2.080000 2.040000 1.840000 93.162788 8.347755 8748.989258
2.080000 2.040000 1.880000 158.059937 79.034286 31229.361328
2.080000 2.040000 1.920000 144.810806 205.463211 63185.304688
2.080000 2.040000 1.960000 25.983780 298.567383 89817.640625
2.080000 2.040000 2.000000 -136.094772 279.263855 96510.085938
2.080000 2.040000 2.040000 -236.947540 152.637207 79442.250000
2.080000 2.040000 2.080000 -219.842758 6.259480 48370.019531
2.080000 2.040000 2.120000 -121.599800 -66.931664 19266.359375
2.080000 2.040000 2.160000 -31.943768 -46.169899 3152.063965
2.080000 2.040000 2.200000 -10.022076 11.919718 242.521667
2.080000 2.080000 1.800000 13.202227 26.119543 856.529297
2.080000 2.080000 1.840000 58.444214 47.732010 5694.070801
2.080000 2.080000 1.880000 70.925018 122.496407 20035.726562
2.080000 2.080000 1.920000 7.629219 200.862564 40403.972656
2.080000 2.080000 1.960000 -111.772545 212.226059 57533.000000
2.080000 2.080000 2.000000 -212.734253 130.434570 62269.039062
2.080000 2.080000 2.040000 -228.159210 2.337578 52062.089844
2.080000 2.080000 2.080000 -156.455887 -90.734131 32711.128906
2.080000 2.080000 2.120000 -59.611469 -102.171906 13992.625977
2.080000 2.080000 2.160000 -5.125351 -53.921955 2933.846436
2.080000 2.080000 2.200000 -9.847885 -6.175858 135.122070
2.080000 2.120000 1.800000 -2.666728 23.157997 543.404297
2.080000 2.120000 1.840000 12.859404 50.372276 2702.730469
2.080000 2.120000 1.880000 -7.616726 93.814224 8859.123047
2.080000 2.120000 1.920000 -69.259338 112.597809 17475.123047
2.080000 2.120000 1.960000 -137.537369 76.478523 24765.492188
2.080000 2.120000 2.000000 -164.432556 -3.226349 27048.476562
2.080000 2.120000 2.040000 -129.909180 -79.726196 23232.660156
2.080000 2.120000 2.080000 -59.086441 -109.422318 15464.451172
2.080000 2.120000 2.120000 0.787956 -86.654053 7509.545898
2.080000 2.120000 2.160000 20.363529 -42.886208 2253.900146
2.080000 2.120000 2.200000 7.421991 -14.488064 264.989960
2.080000 2.160000 1.800000 -10.055893 14.141107 301.091888
2.080000 2.160000 1.840000 -13.423601 25.610752 836.103699
2.080000 2.160000 1.880000 -31.423683 32.717888 2057.908203
2.080000 2.160000 1.920000 -55.926575 22.375244 3628.433350
2.080000 2.160000 1.960000 -69.972198 -6.764610 4941.868164
2.080000 2.160000 2.000000 -61.275112 -41.440125 5471.923340
2.080000 2.160000 2.040000 -32.251358 -63.372108 5056.174316
2.080000 2.160000 2.080000 2.078171 -62.746181 3941.402100
2.080000 2.160000 2.120000 25.641874 -43.963757 2590.317627
2.080000 2.160000 2.160000 31.793312 -20.151964 1416.916382
2.080000 2.160000 2.200000 24.830826 -2.865014 624.778198
2.080000 2.200000 1.800000 -10.062980 7.777918 161.759567
2.080000 2.200000 1.840000 -12.285774 0.449623 151.142410
2.080000 2.200000 1.880000 -7.189232 -6.719856 96.841522
2.080000 2.200000 1.920000 1.418079 -7.036781 51.527241
2.080000 2.200000 1.960000 5.473404 -1.125412 31.224703
2.080000 2.200000 2.000000 2.048103 3.032890 13.393150
2.080000 2.200000 2.040000 -2.341690 -0.892584 6.280218
2.080000 2.200000 2.080000 1.580891 -9.279190 88.602585
2.080000 2.200000 2.120000 14.736538 -11.028542 338.794281
2.080000 2.200000 2.160000 26.660408 0.611544 711.151306
2.080000 2.200000 2.200000 25.149984 19.366085 1007.567017
2.120000 1.800000 1.800000 -19.860409 -9.884353 492.136292
2.120000 1.800000 1.840000 -12.238619 -15.597431 393.063660
2.120000 1.800000 1.880000 -2.956882 -15.108891 237.021729
2.120000 1.800000 1.920000 3.461239 -9.126743 95.277618
2.120000 1.800000 1.960000 4.516396 -1.079632 21.563435
2.120000 1.800000 2.000000 0.676727 5.337959 28.951769
2.120000 1.800000 2.040000 -5.751427 8.016041 97.335823
2.120000 1.800000 2.080000 -12.239185 6.669918 194.285461
2.120000 1.800000 2.120000 -16.842865 2.142675 288.273163
2.120000 1.800000 2.160000 -18.295118 -4.041437 351.044586
2.120000 1.800000 2.200000 -16.256355 -9.836300 361.021851
2.120000 1.840000 1.800000 -11.882479 -27.234646 882.919250
2.120000 1.840000 1.840000 -8.736502 -34.611122 1274.256226
2.120000 1.840000 1.880000 1.427952 -43.915863 1930.642090
2.120000 1.840000 1.920000 20.869095 -46.312889 2580.402832
2.120000 1.840000 1.960000 41.376602 -33.289646 2820.223633
2.120000 1.840000 2.000000 48.832260 -7.081375 2434.735352
2.120000 1.840000 2.040000 35.773033 17.890507 1599.780151
2.120000 1.840000 2.080000 9.787708 25.894966 766.348511
2.120000 1.840000 2.120000 -11.546482 13.491903 315.352692
2.120000 1.840000 2.160000 -15.290823 -7.381172 288.290955
2.120000 1.840000 2.200000 -3.617891 -20.219696 421.925262
2.120000 1.880000 1.800000 9.104489 -35.332645 1331.287598
2.120000 1.880000 1.840000 12.608191 -50.753288 2734.862793
2.120000 1.880000 1.880000 37.327065 -66.863808 5864.078125
2.120000 1.880000 1.920000 78.772034 -59.444824 9738.720703
2.120000 1.880000 1.960000 109.679962 -17.837463 12347.869141
2.120000 1.880000 2.000000 102.633987 39.097031 12062.313477
2.120000 1.880000 2.040000 57.130035 75.268349 8929.165039
2.120000 1.880000 2.080000 3.220135 68.368904 4684.676270
2.120000 1.880000 2.120000 -23.680370 29.763586 1446.630981
2.120000 1.880000 2.160000 -13.095381 -6.586517 214.871201
2.120000 1.880000 2.200000 14.262791 -15.235273 435.540771
2.120000 1.920000 1.800000 32.193817 -25.633324 1693.509155
2.120000 1.920000 1.840000 45.805710 -47.557774 4359.905273
2.120000 1.920000 1.880000 90.855598 -53.948891 11165.222656
2.120000 1.920000 1.920000 141.439453 -15.040798 20231.345703
2.120000 1.920000 1.960000 152.326996 62.037170 27052.125000
2.120000 1.920000 2.000000 101.883156 131.064545 27558.091797
2.120000 1.920000 2.040000 17.174648 144.775757 21254.988281
2.120000 1.920000 2.080000 -46.390663 97.653015 11688.205078
2.120000 1.920000 2.120000 -53.021801 30.952501 3769.368652
2.120000 1.920000 2.160000 -15.699526 -5.442944 276.100739
2.120000 1.920000 2.200000 20.970167 3.434074 451.540802
2.120000 1.960000 1.800000 42.692215 -1.465358 1824.772461
2.120000 1.960000 1.840000 71.226776 -19.133823 5439.356445
2.120000 1.960000 1.880000 124.584732 1.150808 15522.679688
2.120000 1.960000 1.920000 154.798462 74.374893 29494.189453
2.120000 1.960000 1.960000 118.029755 163.184937 40560.347656
2.120000 1.960000 2.000000 21.355278 204.447418 42254.792969
2.120000 1.960000 2.040000 -76.259155 165.957764 33357.437500
2.120000 1.960000 2.080000 -113.593140 77.566261 18919.925781
2.120000 1.960000 2.120000 -80.166565 4.694027 6448.711914
2.120000 1.960000 2.160000 -21.092850 -10.087364 546.663208
2.120000 1.960000 2.200000 9.119997 19.770851 474.060913
2.120000 2.000000 1.800000 33.634239 23.027775 1661.540527
2.120000 2.000000 1.840000 70.491096 21.218399 5419.214844
2.120000 2.000000 1.880000 108.897514 69.072021 16629.613281
2.120000 2.000000 1.920000 96.122543 152.735092 32567.550781
2.120000 2.000000 1.960000 13.411360 213.128860 45603.773438
2.120000 2.000000 2.000000 -97.142639 197.017944 48252.761719
2.120000 2.000000 2.040000 -164.357117 108.500755 38785.675781
2.120000 2.000000 2.080000 -150.134201 8.451168 22611.701172
2.120000 2.000000 2.120000 -81.494659 -39.228081 8180.221680
2.120000 2.000000 2.160000 -21.671524 -21.977913 952.683594
2.120000 2.000000 2.200000 -10.783529 18.457619 456.968201
2.120000 2.040000 1.800000 11.821239 33.506546 1262.430298
2.120000 2.040000 1.840000 42.874622 49.633392 4301.707031
2.120000 2.040000 1.880000 50.252644 106.478561 13863.011719
2.120000 2.040000 1.920000 -0.909626 166.423889 27697.738281
2.120000 2.040000 1.960000 -95.910446 173.474030 39292.050781
2.120000 2.040000 2.000000 -175.349487 106.659393 42123.671875
2.120000 2.040000 2.040000 -185.637680 4.129084 34478.398438
2.120000 2.040000 2.080000 -126.803070 -68.292206 20742.843750
2.120000 2.040000 2.120000 -50.505535 -74.293167 8070.283691
2.120000 2.040000 2.160000 -11.172655 -34.426880 1310.038330
2.120000 2.040000 2.200000 -19.497782 0.701295 380.655304
2.120000 2.080000 1.800000 -7.688543 26.748646 774.603760
2.120000 2.080000 1.840000 6.959290 51.040634 2653.577881
2.120000 2.080000 1.880000 -12.426260 92.738907 8754.916992
2.120000 2.080000 1.920000 -72.820198 111.176964 17663.097656
2.120000 2.080000 1.960000 -140.118851 75.148880 25280.646484
2.120000 2.080000 2.000000 -165.671326 -3.988739 27462.898438
2.120000 2.080000 2.040000 -129.893936 -78.296265 23002.740234
2.120000 2.080000 2.080000 -60.064117 -104.203545 14466.077148
2.120000 2.080000 2.120000 -4.922516 -78.811882 6235.543945
2.120000 2.080000 2.160000 8.207027 -37.147545 1447.295410
2.120000 2.080000 2.200000 -7.930428 -15.897535 315.623322
2.120000 2.120000 1.800000 -14.179627 12.428895 355.539246
2.120000 2.120000 1.840000 -15.146598 31.127064 1198.313477
2.120000 2.120000 1.880000 -41.045517 46.497963 3846.794922
2.120000 2.120000 1.920000 -80.550537 34.355053 7668.658691
2.120000 2.120000 1.960000 -104.364655 -9.570099 10983.568359
2.120000 2.120000 2.000000 -90.768135 -62.285740 12118.368164
2.120000 2.120000 2.040000 -45.646587 -91.953819 10539.115234
2.120000 2.120000 2.080000 2.581524 -84.617874 7166.848633
2.120000 2.120000 2.120000 27.717789 -53.812920 3664.106201
2.120000 2.120000 2.160000 25.911720 -25.375435 1315.329956
2.120000 2.120000 2.200000 13.321455 -14.206846 379.295654
2.120000 2.160000 1.800000 -9.600118 3.587008 105.028893
2.120000 2.160000 1.840000 -16.111635 9.348352 346.976471
2.120000 2.160000 1.880000 -29.498531 6.408031 911.226196
2.120000 2.160000 1.920000 -39.433838 -9.186836 1639.425537
2.120000 2.160000 1.960000 -36.050339 -30.991455 2260.097168
2.120000 2.160000 2.000000 -18.349403 -47.006729 2546.333252
2.120000 2.160000 2.040000 5.330116 -49.029961 2432.347168
2.120000 2.160000 2.080000 24.261574 -37.842632 2020.688721
2.120000 2.160000 2.120000 32.624348 -20.669806 1491.588867
2.120000 2.160000 2.160000 31.181784 -4.935299 996.660828
2.120000 2.160000 2.200000 23.984657 5.559739 606.174500
2.120000 2.200000 1.800000 -5.008634 4.708832 47.259506
2.120000 2.200000 1.840000 -6.786502 0.230928 46.109936
2.120000 2.200000 1.880000 -3.403951 -4.138191 28.711506
2.120000 2.200000 1.920000 2.017620 -3.818993 18.655495
2.120000 2.200000 1.960000 4.028812 -0.042452 16.233131
2.120000 2.200000 2.000000 1.911636 1.478627 5.840692
2.120000 2.200000 2.040000 1.270287 -2.049194 5.812825
2.120000 2.200000 2.080000 7.394712 -5.752689 87.775208
2.120000 2.200000 2.120000 17.594938 -1.596912 312.131989
2.120000 2.200000 2.160000 22.070648 11.952906 629.985474
2.120000 2.200000 2.200000 13.762566 26.082598 869.710083
2.160000 1.800000 1.800000 -18.335526 -15.653973 581.238342
2.160000 1.800000 1.840000 -7.940032 -20.481148 482.521515
2.160000 1.800000 1.880000 3.014360 -16.760307 289.994263
2.160000 1.800000 1.920000 7.944681 -6.866936 110.272766
2.160000 1.800000 1.960000 4.583590 2.661739 28.094149
2.160000 1.800000 2.000000 -3.568954 6.252186 51.827259
2.160000 1.800000 2.040000 -10.571062 3.266016 122.414215
2.160000 1.800000 2.080000 -12.848269 -2.574599 171.706558
2.160000 1.800000 2.120000 -11.097414 -7.109753 173.701187
2.160000 1.800000 2.160000 -8.226933 -8.975424 148.240662
2.160000 1.800000 2.200000 -6.105685 -9.434114 126.281906
2.160000 1.840000 1.800000 -1.352565 -29.980423 900.655151
2.160000 1.840000 1.840000 10.475764 -29.807798 998.246460
2.160000 1.840000 1.880000 21.147453 -23.149658 983.121460
2.160000 1.840000 1.920000 26.821701 -11.350540 848.238403
2.160000 1.840000 1.960000 24.860420 1.788282 621.238403
2.160000 1.840000 2.000000 15.645813 11.040157 366.676514
2.160000 1.840000 2.040000 3.310251 12.399000 164.692963
2.160000 1.840000 2.080000 -6.030830 5.831614 70.378632
2.160000 1.840000 2.120000 -7.959368 -4.197965 80.974449
2.160000 1.840000 2.160000 -2.792606 -11.486872 139.746872
2.160000 1.840000 2.200000 4.778815 -12.402166 176.650803
2.160000 1.880000 1.800000 23.918196 -26.922928 1296.924072
2.160000 1.880000 1.840000 34.153725 -22.437622 1669.923828
2.160000 1.880000 1.880000 44.460812 -12.602392 2135.583984
2.160000 1.880000 1.920000 49.998398 4.579277 2520.809570
2.160000 1.880000 1.960000 43.993225 25.033989 2562.104492
2.160000 1.880000 2.000000 25.136435 38.578167 2120.115234
2.160000 1.880000 2.040000 1.854088 36.486435 1334.697510
2.160000 1.880000 2.080000 -12.559540 20.047932 559.661621
2.160000 1.880000 2.120000 -10.692658 1.037685 115.409737
2.160000 1.880000 2.160000 2.466856 -7.663843 64.819878
2.160000 1.880000 2.200000 14.134864 -2.856198 207.952240
2.160000 1.920000 1.800000 40.433125 -4.620802 1656.189331
2.160000 1.920000 1.840000 47.610725 2.109877 2271.232910
2.160000 1.920000 1.880000 56.173119 16.241699 3419.211914
2.160000 1.920000 1.920000 56.067024 40.284264 4766.333008
2.160000 1.920000 1.960000 37.722786 64.283066 5555.321289
2.160000 1.920000 2.000000 4.737827 71.665855 5158.441406
2.160000 1.920000 2.040000 -25.097464 54.777992 3630.511230
2.160000 1.920000 2.080000 -33.883087 24.253237 1736.283081
2.160000 1.920000 2.120000 -19.774092 1.260352 392.603210
2.160000 1.920000 2.160000 1.274198 -0.937692 2.502846
2.160000 1.920000 2.200000 10.567026 11.951612 254.503082
2.160000 1.960000 1.800000 35.519394 23.644154 1820.673340
2.160000 1.960000 1.840000 39.826271 30.760763 2532.356445
2.160000 1.960000 1.880000 43.450394 48.839859 4273.268555
2.160000 1.960000 1.920000 31.592543 74.985069 6620.849609
2.160000 1.960000 1.960000 -1.490140 91.242142 8327.349609
2.160000 1.960000 2.000000 -41.586231 80.468307 8204.563477
2.160000 1.960000 2.040000 -63.996685 44.929909 6114.272461
2.160000 1.960000 2.080000 -55.740257 7.337662 3160.817627
2.160000 1.960000 2.120000 -28.121971 -8.605330 864.896973
2.160000 1.960000 2.160000 -6.151340 0.736691 38.381691
2.160000 1.960000 2.200000 -5.084628 17.466518 330.932709
2.160000 2.000000 1.800000 12.215984 39.142677 1681.379395
2.160000 2.000000 1.840000 14.482398 45.829147 2310.050537
2.160000 2.000000 1.880000 10.419551 64.404793 4256.544434
2.160000 2.000000 1.920000 -13.493445 83.238663 7110.748047
2.160000 2.000000 1.960000 -52.818546 81.318924 9402.566406
2.160000 2.000000 2.000000 -84.353104 50.116936 9627.153320
2.160000 2.000000 2.040000 -86.218658 5.471914 7463.599121
2.160000 2.000000 2.080000 -59.112869 -24.596313 4099.310059
2.160000 2.000000 2.120000 -26.329121 -25.070477 1321.751465
2.160000 2.000000 2.160000 -11.883226 -6.652905 185.472229
2.160000 2.000000 2.200000 -18.852503 6.720028 400.575653
2.160000 2.040000 1.800000 -12.618761 33.166176 1259.228394
2.160000 2.040000 1.840000 -11.985434 39.364357 1693.203247
2.160000 2.040000 1.880000 -23.108589 53.207130 3365.005615
2.160000 2.040000 1.920000 -51.378700 57.590931 5956.486328
2.160000 2.040000 1.960000 -82.324936 37.290180 8167.952637
2.160000 2.040000 2.000000 -92.757431 -2.971569 8612.771484
2.160000 2.040000 2.040000 -73.074539 -39.679817 6914.375977
2.160000 2.040000 2.080000 -37.574627 -51.210392 4034.356689
2.160000 2.040000 2.120000 -11.475275 -37.335396 1525.613647
2.160000 2.040000 2.160000 -7.675775 -17.687904 371.779480
2.160000 2.040000 2.200000 -16.912704 -11.281782 413.318176
2.160000 2.080000 1.800000 -22.631145 14.124856 711.680298
2.160000 2.080000 1.840000 -23.878531 19.580976 953.598877
2.160000 2.080000 1.880000 -37.586140 25.161957 2045.842041
2.160000 2.080000 1.920000 -59.367065 16.185766 3786.427490
2.160000 2.080000 1.960000 -72.140747 -11.255878 5330.982422
2.160000 2.080000 2.000000 -62.210327 -43.565441 5768.072266
2.160000 2.080000 2.040000 -33.388977 -60.814850 4813.269531
2.160000 2.080000 2.080000 -4.245831 -54.876884 3029.499512
2.160000 2.080000 2.120000 8.961086 -36.010822 1377.080322
2.160000 2.080000 2.160000 6.073278 -21.591335 503.070465
2.160000 2.080000 2.200000 0.063854 -19.343632 374.180176
2.160000 2.120000 1.800000 -15.798328 -0.729930 250.119965
2.160000 2.120000 1.840000 -19.094316 2.851010 372.721191
2.160000 2.120000 1.880000 -29.710278 0.802294 883.344299
2.160000 2.120000 1.920000 -38.816490 -12.920540 1673.660156
2.160000 2.120000 1.960000 -35.648403 -33.357521 2383.532715
2.160000 2.120000 2.000000 -18.312307 -48.020264 2641.286377
2.160000 2.120000 2.040000 3.922209 -48.101898 2329.176514
2.160000 2.120000 2.080000 19.056402 -35.923820 1653.667358
2.160000 2.120000 2.120000 22.581518 -21.479088 971.276184
2.160000 2.120000 2.160000 19.376286 -12.555291 533.075745
2.160000 2.120000 2.200000 16.600346 -8.908681 354.936066
2.160000 2.160000 1.800000 -4.738465 -1.342308 24.254845
2.160000 2.160000 1.840000 -9.066058 -1.285739 83.846535
2.160000 2.160000 1.880000 -13.169823 -6.864353 220.563568
2.160000 2.160000 1.920000 -11.817549 -15.903978 392.591003
2.160000 2.160000 1.960000 -3.935898 -22.783152 534.563293
2.160000 2.160000 2.000000 6.727047 -23.588959 601.692139
2.160000 2.160000 2.040000 15.500668 -18.852022 595.669434
2.160000 2.160000 2.080000 20.498945 -11.608282 554.958984
2.160000 2.160000 2.120000 22.357735 -3.888224 514.986572
2.160000 2.160000 2.160000 21.502775 3.979930 478.209198
2.160000 2.160000 2.200000 17.147320 11.163709 418.658966
2.160000 2.200000 1.800000 -3.380855 6.686536 56.139946
2.160000 2.200000 1.840000 -6.130544 2.435710 43.516251
2.160000 2.200000 1.880000 -3.938051 -2.001602 19.514656
2.160000 2.200000 1.920000 0.497124 -2.545988 6.729185
2.160000 2.200000 1.960000 2.729294 -0.038712 7.450543
2.160000 2.200000 2.000000 2.184727 1.367088 6.641961
2.160000 2.200000 2.040000 2.732322 0.100689 7.475720
2.160000 2.200000 2.080000 7.158393 -0.053732 51.245476
2.160000 2.200000 2.120000 12.234762 5.613578 181.201660
2.160000 2.200000 2.160000 11.099340 15.920086 376.644501
2.160000 2.200000 2.200000 1.151655 23.084736 534.231323
2.200000 1.800000 1.800000 -13.481086 -19.227676 551.443237
2.200000 1.800000 1.840000 -2.159896 -21.055922 448.016998
2.200000 1.800000 1.880000 7.058349 -14.151020 250.071655
2.200000 1.800000 1.920000 8.118225 -3.355194 77.162910
2.200000 1.800000 1.960000 1.374722 3.585491 14.745606
2.200000 1.800000 2.000000 -6.886209 2.599379 54.176651
2.200000 1.800000 2.040000 -10.183635 -3.630081 116.883904
2.200000 1.800000 2.080000 -7.312002 -8.845708 131.711929
2.200000 1.800000 2.120000 -2.408384 -9.233730 91.062088
2.200000 1.800000 2.160000 -0.125519 -6.264138 39.255184
2.200000 1.800000 2.200000 -1.159532 -4.089712 18.070259
2.200000 1.840000 1.800000 7.456370 -25.114302 686.325623
2.200000 1.840000 1.840000 17.283115 -15.420305 536.491882
2.200000 1.840000 1.880000 17.144623 -1.941403 297.707123
2.200000 1.840000 1.920000 7.932845 6.447847 104.504768
2.200000 1.840000 1.960000 -3.015278 5.224333 36.385555
2.200000 1.840000 2.000000 -8.193607 -2.686201 74.350876
2.200000 1.840000 2.040000 -5.695115 -10.262604 137.755371
2.200000 1.840000 2.080000 0.493655 -12.599926 159.001831
2.200000 1.840000 2.120000 5.116601 -10.116457 128.522308
2.200000 1.840000 2.160000 6.177652 -6.525201 80.741638
2.200000 1.840000 2.200000 5.392992 -4.567556 49.946934
2.200000 1.880000 1.800000 27.883760 -11.598497 912.029236
2.200000 1.880000 1.840000 26.573784 5.284295 734.089783
2.200000 1.880000 1.880000 14.003370 15.576805 438.731232
2.200000 1.880000 1.920000 -0.644691 13.569592 184.549454
2.200000 1.880000 1.960000 -7.826694 2.857952 69.425026
2.200000 1.880000 2.000000 -4.864016 -7.662234 82.368477
2.200000 1.880000 2.040000 3.437560 -11.405403 141.900040
2.200000 1.880000 2.080000 10.215467 -8.298862 173.226868
2.200000 1.880000 2.120000 12.179726 -2.753899 155.929688
2.200000 1.880000 2.160000 10.612152 1.271947 114.235626
2.200000 1.880000 2.200000 8.315984 2.984722 78.064156
2.200000 1.920000 1.800000 31.448565 14.649790 1203.628540
2.200000 1.920000 1.840000 16.197334 27.571087 1022.518494
2.200000 1.920000 1.880000 -2.696350 25.544926 659.813538
2.200000 1.920000 1.920000 -12.938684 11.806530 306.803711
2.200000 1.920000 1.960000 -9.939028 -2.705353 106.103203
2.200000 1.920000 2.000000 0.995381 -8.708681 76.831909
2.200000 1.920000 2.040000 10.667889 -4.956768 138.373398
2.200000 1.920000 2.080000 13.596869 3.097796 194.471207
2.200000 1.920000 2.120000 10.565953 9.362710 199.299713
2.200000 1.920000 2.160000 5.528476 11.493963 162.675232
2.200000 1.920000 2.200000 1.472178 10.572009 113.934685
2.200000 1.960000 1.800000 13.587648 35.364151 1435.247314
2.200000 1.960000 1.840000 -8.282957 34.758587 1276.766724
2.200000 1.960000 1.880000 -22.178228 19.434172 869.560852
2.200000 1.960000 1.920000 -20.609413 0.941876 425.635071
2.200000 1.960000 1.960000 -7.810463 -8.634607 135.559769
2.200000 1.960000 2.000000 5.309649 -5.624949 59.832424
2.200000 1.960000 2.040000 10.397840 4.486504 128.243805
2.200000 1.960000 2.080000 6.697849 13.370373 223.628052
2.200000 1.960000 2.120000 -0.998205 16.311291 267.054596
2.200000 1.960000 2.160000 -7.538217 13.701969 244.568665
2.200000 1.960000 2.200000 -10.460479 8.441130 180.674286
2.200000 2.000000 1.800000 -13.192053 35.660023 1445.667480
2.200000 2.000000 1.840000 -29.573963 21.366634 1331.152344
2.200000 2.000000 1.880000 -30.701853 0.934765 943.477539
2.200000 2.000000 1.920000 -18.118587 -12.340431 480.569458
2.200000 2.000000 1.960000 -2.395473 -11.904095 147.445755
2.200000 2.000000 2.000000 5.900122 -1.500725 37.063618
2.200000 2.000000 2.040000 3.481557 9.633206 104.919907
2.200000 2.000000 2.080000 -5.434348 14.320358 234.604797
2.200000 2.000000 2.120000 -14.068092 11.252572 324.531616
2.200000 2.000000 2.160000 -17.851610 3.684726 332.257202
2.200000 2.000000 2.200000 -15.831436 -3.924901 266.039215
2.200000 2.040000 1.800000 -29.472822 17.154226 1162.914795
2.200000 2.040000 1.840000 -33.148075 -1.672401 1101.591797
2.200000 2.040000 1.880000 -23.136475 -16.605923 811.053101
2.200000 2.040000 1.920000 -7.369079 -19.465168 433.196075
2.200000 2.040000 1.960000 3.578371 -11.099833 136.011017
2.200000 2.040000 2.000000 4.133036 0.628135 17.476538
2.200000 2.040000 2.040000 -3.625679 7.400383 67.911209
2.200000 2.040000 2.080000 -13.017504 5.741774 202.423370
2.200000 2.040000 2.120000 -17.848896 -2.145697 323.187103
2.200000 2.040000 2.160000 -15.656229 -11.033001 366.844604
2.200000 2.040000 2.200000 -8.058026 -15.959477 319.636719
2.200000 2.080000 1.800000 -25.898664 -3.619220 683.839600
2.200000 2.080000 1.840000 -19.785526 -16.651396 668.736023
2.200000 2.080000 1.880000 -7.261487 -21.563320 517.705994
2.200000 2.080000 1.920000 3.760370 -16.835588 297.577423
2.200000 2.080000 1.960000 7.274265 -7.096026 103.268509
2.200000 2.080000 2.000000 2.743297 0.609308 7.896932
2.200000 2.080000 2.040000 -5.318415 1.494588 30.519333
2.200000 2.080000 2.080000 -10.747977 -4.366845 134.588348
2.200000 2.080000 2.120000 -9.601604 -12.649925 252.211426
2.200000 2.080000 2.160000 -2.320765 -17.709385 319.008270
2.200000 2.080000 2.200000 6.753119 -16.063560 303.642578
2.200000 2.120000 1.800000 -10.880332 -10.615503 231.070526
2.200000 2.120000 1.840000 -4.026858 -14.969309 240.295792
2.200000 2.120000 1.880000 3.557968 -13.910435 206.159332
2.200000 2.120000 1.920000 8.009061 -8.551863 137.279419
2.200000 2.120000 1.960000 7.309829 -2.436109 59.368233
2.200000 2.120000 2.000000 2.628403 0.394141 7.063848
2.200000 2.120000 2.040000 -2.072541 -2.011154 8.340168
2.200000 2.120000 2.080000 -2.480825 -7.790044 66.839279
2.200000 2.120000 2.120000 2.744978 -12.123075 154.503830
2.200000 2.120000 2.160000 10.459402 -10.740575 224.759033
2.200000 2.120000 2.200000 15.100055 -3.521120 240.409943
2.200000 2.160000 1.800000 -1.453342 -2.834188 10.144829
2.200000 2.160000 1.840000 0.094523 -4.105902 16.867363
2.200000 2.160000 1.880000 2.584332 -4.265898 24.876657
2.200000 2.160000 1.920000 4.665262 -2.481968 27.924835
2.200000 2.160000 1.960000 4.526456 0.138882 20.508097
2.200000 2.160000 2.000000 2.375555 0.975294 6.594460
2.200000 2.160000 2.040000 1.100647 -1.151979 2.538481
2.200000 2.160000 2.080000 3.489720 -3.867105 27.132648
2.200000 2.160000 2.120000 8.652438 -3.001979 83.876564
2.200000 2.160000 2.160000 11.949940 2.926229 151.363876
2.200000 2.160000 2.200000 9.314619 10.346384 193.809784
2.200000 2.200000 1.800000 -6.266752 6.148136 77.071754
2.200000 2.200000 1.840000 -7.792644 0.965041 61.656605
2.200000 2.200000 1.880000 -4.784115 -3.152378 32.825241
2.200000 2.200000 1.920000 -0.421305 -3.209651 10.479358
2.200000 2.200000 1.960000 1.517046 -0.633574 2.702845
2.200000 2.200000 2.000000 0.934158 0.973291 1.819947
2.200000 2.200000 2.040000 0.939722 0.587999 1.228820
2.200000 2.200000 2.080000 3.248410 1.053878 11.662825
2.200000 2.200000 2.120000 5.205839 5.120105 53.316235
2.200000 2.200000 2.160000 2.575025 10.993334 127.484138
2.200000 2.200000 2.200000 -4.896251 13.249796 199.530365
