#kx 	ky 	kz 	real 	imag 	intensity
1.800000 -4.200000 -6.200000 -50.913918 0.298067 2592.315918
1.800000 -4.200000 -6.160000 -33.192131 -28.873035 1935.369629
1.800000 -4.200000 -6.120000 -0.574150 -27.853691 776.157776
1.800000 -4.200000 -6.080000 13.348416 0.523734 178.454514
1.800000 -4.200000 -6.040000 -5.017315 26.155807 709.299744
1.800000 -4.200000 -6.000000 -36.572163 23.317219 1881.215820
1.800000 -4.200000 -5.960000 -50.887737 -3.912786 2604.871582
1.800000 -4.200000 -5.920000 -37.566696 -28.432823 2219.682129
1.800000 -4.200000 -5.880000 -14.397696 -29.786253 1094.514526
1.800000 -4.200000 -5.840000 -5.750274 -14.015927 229.511871
1.800000 -4.200000 -5.800000 -16.490810 -3.819866 286.538208
1.800000 -4.160000 -6.200000 -33.751553 -32.351639 2185.795898
1.800000 -4.160000 -6.160000 -3.197338 -43.064724 1864.793457
1.800000 -4.160000 -6.120000 20.984085 -23.947289 1013.804443
1.800000 -4.160000 -6.080000 16.952499 4.760867 310.053101
1.800000 -4.160000 -6.040000 -8.819500 14.763620 295.748077
1.800000 -4.160000 -6.000000 -29.640911 -2.015630 882.646362
1.800000 -4.160000 -5.960000 -26.434723 -27.311131 1444.692383
1.800000 -4.160000 -5.920000 -5.526389 -37.262981 1419.070801
1.800000 -4.160000 -5.880000 10.923963 -26.610397 827.446167
1.800000 -4.160000 -5.840000 9.359785 -11.140508 211.716492
1.800000 -4.160000 -5.800000 -2.787470 -8.241623 75.694336
1.800000 -4.120000 -6.200000 0.668602 -38.915806 1514.886963
1.800000 -4.120000 -6.160000 26.106426 -28.477303 1492.502197
1.800000 -4.120000 -6.120000 31.906189 -3.362925 1029.314087
1.800000 -4.120000 -6.080000 15.780034 13.336836 426.880676
1.800000 -4.120000 -6.040000 -4.251230 8.482002 90.017319
1.800000 -4.120000 -6.000000 -8.972981 -9.352088 167.975952
1.800000 -4.120000 -5.960000 3.296267 -20.676708 438.391663
1.800000 -4.120000 -5.920000 17.460049 -15.674432 550.541138
1.800000 -4.120000 -5.880000 19.220770 -2.542795 375.903809
1.800000 -4.120000 -5.840000 9.505514 3.702519 104.063446
1.800000 -4.120000 -5.800000 1.027480 -2.061117 5.303916
1.800000 -4.080000 -6.200000 24.362778 -17.994972 917.363953
1.800000 -4.080000 -6.160000 32.447502 1.720109 1055.799194
1.800000 -4.080000 -6.120000 22.969215 18.524387 870.737793
1.800000 -4.080000 -6.080000 6.906348 20.338329 461.345276
1.800000 -4.080000 -6.040000 -0.756728 10.396888 108.667915
1.800000 -4.080000 -6.000000 3.938606 2.255240 20.598728
1.800000 -4.080000 -5.960000 11.491129 4.726126 154.382309
1.800000 -4.080000 -5.920000 10.760942 13.292130 292.478607
1.800000 -4.080000 -5.880000 1.284794 16.568657 276.171082
1.800000 -4.080000 -5.840000 -7.178472 9.559247 142.909668
1.800000 -4.080000 -5.800000 -6.249420 -1.308856 40.768356
1.800000 -4.040000 -6.200000 22.026217 9.057401 567.190735
1.800000 -4.040000 -6.160000 14.636396 23.074282 746.646606
1.800000 -4.040000 -6.120000 1.345839 26.027969 679.266479
1.800000 -4.040000 -6.080000 -6.455290 19.510212 422.319153
1.800000 -4.040000 -6.040000 -5.125215 13.596750 211.139435
1.800000 -4.040000 -6.000000 -1.762365 15.362169 239.102173
1.800000 -4.040000 -5.960000 -5.391717 21.160078 476.819519
1.800000 -4.040000 -5.920000 -16.245625 21.071377 707.923218
1.800000 -4.040000 -5.880000 -25.055897 10.411020 736.187317
1.800000 -4.040000 -5.840000 -22.999596 -4.574185 549.904541
1.800000 -4.040000 -5.800000 -11.188355 -13.047454 295.415344
1.800000 -4.000000 -6.200000 2.787475 20.159260 414.165771
1.800000 -4.000000 -6.160000 -9.188978 22.529758 592.027344
1.800000 -4.000000 -6.120000 -17.315962 16.254892 564.064087
1.800000 -4.000000 -6.080000 -17.244806 9.228665 382.551605
1.800000 -4.000000 -6.040000 -13.967041 8.619354 269.371490
1.800000 -4.000000 -6.000000 -16.086922 12.777431 422.051788
1.800000 -4.000000 -5.960000 -25.711412 12.698262 822.322571
1.800000 -4.000000 -5.920000 -35.051777 1.948345 1232.423096
1.800000 -4.000000 -5.880000 -33.824821 -15.496465 1384.258911
1.800000 -4.000000 -5.840000 -19.901775 -28.150707 1188.542969
1.800000 -4.000000 -5.800000 -1.881718 -27.860676 779.758179
1.800000 -3.960000 -6.200000 -12.421103 12.369868 307.297424
1.800000 -3.960000 -6.160000 -20.863895 7.537882 492.121796
1.800000 -3.960000 -6.120000 -23.074728 -1.056197 533.558594
1.800000 -3.960000 -6.080000 -19.461771 -6.514230 421.195740
1.800000 -3.960000 -6.040000 -16.421051 -6.061169 306.388672
1.800000 -3.960000 -6.000000 -19.361889 -4.545353 395.542999
1.800000 -3.960000 -5.960000 -25.965363 -9.561220 765.617004
1.800000 -3.960000 -5.920000 -27.435669 -22.718763 1268.858154
1.800000 -3.960000 -5.880000 -17.202641 -36.427742 1622.911133
1.800000 -3.960000 -5.840000 1.683108 -40.186188 1617.762573
1.800000 -3.960000 -5.800000 18.431684 -30.389805 1263.267212
1.800000 -3.920000 -6.200000 -12.796096 0.487710 163.977921
1.800000 -3.920000 -6.160000 -18.175781 -5.493302 360.535370
1.800000 -3.920000 -6.120000 -17.863119 -14.726944 535.973877
1.800000 -3.920000 -6.080000 -11.562136 -20.950441 572.604004
1.800000 -3.920000 -6.040000 -4.864305 -20.962925 463.105682
1.800000 -3.920000 -6.000000 -3.103990 -18.510933 352.289398
1.800000 -3.920000 -5.960000 -4.893553 -20.227512 433.099121
1.800000 -3.920000 -5.920000 -2.971211 -27.594851 770.303894
1.800000 -3.920000 -5.880000 7.769049 -33.966412 1214.075317
1.800000 -3.920000 -5.840000 23.614317 -30.606998 1494.424316
1.800000 -3.920000 -5.800000 34.278915 -15.830370 1425.644653
1.800000 -3.880000 -6.200000 -5.986880 -1.601191 38.406544
1.800000 -3.880000 -6.160000 -12.344061 -9.000310 233.381409
1.800000 -3.880000 -6.120000 -9.423285 -21.512928 551.604370
1.800000 -3.880000 -6.080000 3.408382 -28.263451 810.439697
1.800000 -3.880000 -6.040000 16.659555 -23.390781 824.669434
1.800000 -3.880000 -6.000000 20.702795 -12.450876 583.630005
1.800000 -3.880000 -5.960000 16.061407 -6.291132 297.547150
1.800000 -3.880000 -5.920000 12.483570 -9.034232 237.456879
1.800000 -3.880000 -5.880000 17.740057 -13.545958 498.202576
1.800000 -3.880000 -5.840000 28.503704 -9.458037 901.915588
1.800000 -3.880000 -5.800000 33.414627 5.007564 1141.613037
1.800000 -3.840000 -6.200000 -6.099575 4.356324 56.182373
1.800000 -3.840000 -6.160000 -12.417516 -9.375372 242.092300
1.800000 -3.840000 -6.120000 -1.802633 -24.966061 626.553711
1.800000 -3.840000 -6.080000 19.801958 -25.871323 1061.442871
1.800000 -3.840000 -6.040000 34.646324 -9.011842 1281.581055
1.800000 -3.840000 -6.000000 31.143631 11.779033 1108.671387
1.800000 -3.840000 -5.960000 15.345554 19.953642 633.633850
1.800000 -3.840000 -5.920000 3.869713 12.839140 179.818192
1.800000 -3.840000 -5.880000 6.304890 3.119766 49.484581
1.800000 -3.840000 -5.840000 15.976259 4.321325 273.914703
1.800000 -3.840000 -5.800000 18.305119 16.360142 602.731567
1.800000 -3.800000 -6.200000 -16.297638 5.065076 291.268005
1.800000 -3.800000 -6.160000 -15.056435 -15.978053 481.994415
1.800000 -3.800000 -6.120000 6.897551 -27.548990 806.523071
1.800000 -3.800000 -6.080000 31.744709 -14.987473 1232.350952
1.800000 -3.800000 -6.040000 37.248878 13.704087 1575.281006
1.800000 -3.800000 -6.000000 18.673210 35.325027 1596.546387
1.800000 -3.800000 -5.960000 -7.096477 34.115150 1214.203491
1.800000 -3.800000 -5.920000 -18.936100 16.065355 616.671509
1.800000 -3.800000 -5.880000 -11.782923 0.925068 139.693008
1.800000 -3.800000 -5.840000 0.771335 1.473686 2.766708
1.800000 -3.800000 -5.800000 2.636457 12.039780 151.907211
1.840000 -4.200000 -6.200000 -34.443130 -33.149017 2285.186523
1.840000 -4.200000 -6.160000 -2.361586 -39.127251 1536.518921
1.840000 -4.200000 -6.120000 17.857952 -14.725411 535.744202
1.840000 -4.200000 -6.080000 5.966769 13.854216 227.541626
1.840000 -4.200000 -6.040000 -24.713699 16.657082 888.225281
1.840000 -4.200000 -6.000000 -42.111073 -8.705303 1849.124756
1.840000 -4.200000 -5.960000 -29.492466 -35.789436 2150.689453
1.840000 -4.200000 -5.920000 -1.920479 -38.421124 1479.870972
1.840000 -4.200000 -5.880000 11.650146 -17.912949 456.599609
1.840000 -4.200000 -5.840000 -0.151035 0.464674 0.238734
1.840000 -4.200000 -5.800000 -20.511875 -3.780597 435.029938
1.840000 -4.160000 -6.200000 -2.919543 -45.701538 2097.154297
1.840000 -4.160000 -6.160000 26.446592 -33.289009 1807.580322
1.840000 -4.160000 -6.120000 32.690643 -3.758111 1082.801514
1.840000 -4.160000 -6.080000 13.473066 15.497244 421.688080
1.840000 -4.160000 -6.040000 -9.509612 9.592764 182.453842
1.840000 -4.160000 -6.000000 -14.155689 -10.316195 306.807434
1.840000 -4.160000 -5.960000 -0.117424 -21.212116 449.967682
1.840000 -4.160000 -5.920000 13.641481 -13.301746 363.026489
1.840000 -4.160000 -5.880000 11.297272 1.339317 129.422119
1.840000 -4.160000 -5.840000 -3.000365 4.399604 28.358706
1.840000 -4.160000 -5.800000 -11.697918 -7.731117 196.611450
1.840000 -4.120000 -6.200000 25.945312 -29.607342 1549.753906
1.840000 -4.120000 -6.160000 42.005798 -6.880572 1811.829346
1.840000 -4.120000 -6.120000 36.562843 18.678818 1685.739746
1.840000 -4.120000 -6.080000 17.509663 30.359573 1228.291992
1.840000 -4.120000 -6.040000 1.122231 26.215559 688.514954
1.840000 -4.120000 -6.000000 -4.333752 17.315475 318.607086
1.840000 -4.120000 -5.960000 -3.969994 13.557644 199.570557
1.840000 -4.120000 -5.920000 -6.669266 13.742752 233.342346
1.840000 -4.120000 -5.880000 -13.237081 10.020967 275.640106
1.840000 -4.120000 -5.840000 -16.109896 -0.299704 259.618561
1.840000 -4.120000 -5.800000 -9.820812 -10.358255 203.741806
1.840000 -4.080000 -6.200000 30.747116 0.152241 945.408325
1.840000 -4.080000 -6.160000 33.299683 21.662605 1578.137329
1.840000 -4.080000 -6.120000 22.608202 40.338684 2138.340332
1.840000 -4.080000 -6.080000 4.446156 49.807465 2500.551758
1.840000 -4.080000 -6.040000 -14.835449 49.524475 2672.764160
1.840000 -4.080000 -6.000000 -31.677248 41.280560 2707.532715
1.840000 -4.080000 -5.960000 -43.620609 26.272827 2593.019043
1.840000 -4.080000 -5.920000 -47.068092 6.604603 2259.026123
1.840000 -4.080000 -5.880000 -39.347191 -11.967519 1691.422974
1.840000 -4.080000 -5.840000 -23.241455 -21.773621 1014.255737
1.840000 -4.080000 -5.800000 -7.488881 -19.522196 437.199463
1.840000 -4.040000 -6.200000 12.682236 18.555008 505.127441
1.840000 -4.040000 -6.160000 8.910117 33.391640 1194.391724
1.840000 -4.040000 -6.120000 -3.523749 47.516304 2270.215820
1.840000 -4.040000 -6.080000 -25.373875 55.319603 3704.092041
1.840000 -4.040000 -6.040000 -52.685482 49.690628 5244.918457
1.840000 -4.040000 -6.000000 -75.327942 27.056438 6406.349609
1.840000 -4.040000 -5.960000 -81.370636 -7.116964 6671.831543
1.840000 -4.040000 -5.920000 -65.784218 -38.709351 5825.977539
1.840000 -4.040000 -5.880000 -36.034546 -53.408104 4150.914062
1.840000 -4.040000 -5.840000 -8.100346 -47.290169 2301.975586
1.840000 -4.040000 -5.800000 5.214260 -29.868500 919.315796
1.840000 -4.000000 -6.200000 -7.696097 14.406868 266.787750
1.840000 -4.000000 -6.160000 -12.109055 24.949167 769.090149
1.840000 -4.000000 -6.120000 -27.533741 35.888245 2046.072998
1.840000 -4.000000 -6.080000 -54.577934 35.698978 4253.167969
1.840000 -4.000000 -6.040000 -82.098022 14.608234 6953.485840
1.840000 -4.000000 -6.000000 -92.556213 -24.658203 9174.679688
1.840000 -4.000000 -5.960000 -75.355667 -65.100151 9916.505859
1.840000 -4.000000 -5.920000 -36.804806 -86.247955 8793.303711
1.840000 -4.000000 -5.880000 3.169845 -79.386566 6312.274902
1.840000 -4.000000 -5.840000 25.718147 -53.824780 3558.530029
1.840000 -4.000000 -5.800000 26.619793 -28.451757 1518.115967
1.840000 -3.960000 -6.200000 -12.120411 -1.064259 148.037003
1.840000 -3.960000 -6.160000 -17.960484 8.895826 401.714722
1.840000 -3.960000 -6.120000 -37.480179 13.337123 1582.642578
1.840000 -3.960000 -6.080000 -62.524963 -0.920272 3910.218018
1.840000 -3.960000 -6.040000 -74.928574 -35.440170 6870.296875
1.840000 -3.960000 -6.000000 -60.571243 -75.377777 9350.684570
1.840000 -3.960000 -5.960000 -21.967197 -98.875847 10258.990234
1.840000 -3.960000 -5.920000 22.172731 -93.360428 9207.799805
1.840000 -3.960000 -5.880000 50.619431 -64.711563 6749.913086
1.840000 -3.960000 -5.840000 54.783562 -31.530499 3995.410889
1.840000 -3.960000 -5.800000 42.553429 -10.101432 1912.833252
1.840000 -3.920000 -6.200000 -1.830964 -8.413087 74.132462
1.840000 -3.920000 -6.160000 -12.664865 -0.588119 160.744675
1.840000 -3.920000 -6.120000 -31.878456 -7.275034 1069.162109
1.840000 -3.920000 -6.080000 -43.196571 -32.519852 2923.484375
1.840000 -3.920000 -6.040000 -32.433437 -64.634247 5229.513672
1.840000 -3.920000 -6.000000 0.040117 -84.162918 7083.398438
1.840000 -3.920000 -5.960000 38.774738 -78.752136 7705.379395
1.840000 -3.920000 -5.920000 64.865944 -51.984818 6910.011719
1.840000 -3.920000 -5.880000 69.298645 -19.244854 5172.666504
1.840000 -3.920000 -5.840000 57.029663 4.621412 3273.739990
1.840000 -3.920000 -5.800000 40.001301 14.728914 1817.045044
1.840000 -3.880000 -6.200000 6.626315 -0.858519 44.645100
1.840000 -3.880000 -6.160000 -8.207037 -1.101325 68.568367
1.840000 -3.880000 -6.120000 -18.244234 -17.989695 656.481201
1.840000 -3.880000 -6.080000 -10.200789 -41.258095 1806.286499
1.840000 -3.880000 -6.040000 15.199465 -53.712566 3116.063477
1.840000 -3.880000 -6.000000 43.905373 -45.709446 4017.035156
1.840000 -3.880000 -5.960000 60.505642 -22.080534 4148.482422
1.840000 -3.880000 -5.920000 59.664764 3.671167 3573.361572
1.840000 -3.880000 -5.880000 47.299156 20.851439 2671.992676
1.840000 -3.880000 -5.840000 32.699188 27.745979 1839.076294
1.840000 -3.880000 -5.800000 20.716848 28.596949 1246.973267
1.840000 -3.840000 -6.200000 0.924422 10.041018 101.676590
1.840000 -3.840000 -6.160000 -10.199682 -1.229581 105.545387
1.840000 -3.840000 -6.120000 -5.036136 -19.369120 400.525452
1.840000 -3.840000 -6.080000 15.416374 -27.052620 969.508850
1.840000 -3.840000 -6.040000 36.122028 -15.929813 1558.559814
1.840000 -3.840000 -6.000000 42.442230 6.302765 1841.067749
1.840000 -3.840000 -5.960000 32.822155 24.460670 1675.618164
1.840000 -3.840000 -5.920000 17.692081 30.098930 1218.955322
1.840000 -3.840000 -5.880000 7.544992 26.923710 781.813110
1.840000 -3.840000 -5.840000 3.650810 23.560904 568.444580
1.840000 -3.840000 -5.800000 0.178154 23.251205 540.650269
1.840000 -3.800000 -6.200000 -13.625803 8.586656 259.393158
1.840000 -3.800000 -6.160000 -12.656725 -8.218810 227.741516
1.840000 -3.800000 -6.120000 4.509875 -16.118015 280.129395
1.840000 -3.800000 -6.080000 22.230822 -4.803289 517.281006
1.840000 -3.800000 -6.040000 23.642767 17.424587 862.596680
1.840000 -3.800000 -6.000000 7.198647 32.138317 1084.692017
1.840000 -3.800000 -5.960000 -12.775505 28.889164 997.797363
1.840000 -3.800000 -5.920000 -21.072666 14.093098 642.672668
1.840000 -3.800000 -5.880000 -15.811382 2.533743 256.419678
1.840000 -3.800000 -5.840000 -7.680708 1.869766 62.489300
1.840000 -3.800000 -5.800000 -6.799166 6.612014 89.947388
1.880000 -4.200000 -6.200000 0.418215 -43.181076 1864.780273
1.880000 -4.200000 -6.160000 24.894699 -22.306087 1117.307617
1.880000 -4.200000 -6.120000 18.520718 9.300619 429.518494
1.880000 -4.200000 -6.080000 -12.310953 18.560913 496.067078
1.880000 -4.200000 -6.040000 -35.050995 -4.479145 1248.635010
1.880000 -4.200000 -6.000000 -25.556820 -35.671028 1925.573242
1.880000 -4.200000 -5.960000 6.177856 -42.479866 1842.704956
1.880000 -4.200000 -5.920000 27.026382 -18.573809 1075.411743
1.880000 -4.200000 -5.880000 16.229706 10.064438 364.696259
1.880000 -4.200000 -5.840000 -13.132878 13.556251 356.244415
1.880000 -4.200000 -5.800000 -29.329939 -10.318180 966.710144
1.880000 -4.160000 -6.200000 26.976654 -32.834724 1805.859009
1.880000 -4.160000 -6.160000 39.470585 -4.836054 1581.314575
1.880000 -4.160000 -6.120000 25.484482 20.391163 1065.258301
1.880000 -4.160000 -6.080000 0.740009 23.225775 539.984192
1.880000 -4.160000 -6.040000 -11.340076 7.817627 189.712631
1.880000 -4.160000 -6.000000 -4.263733 -4.625071 39.570694
1.880000 -4.160000 -5.960000 6.642094 -0.198441 44.156788
1.880000 -4.160000 -5.920000 3.384933 13.048092 181.710480
1.880000 -4.160000 -5.880000 -13.744060 15.746355 436.846863
1.880000 -4.160000 -5.840000 -26.815575 0.226213 719.126221
1.880000 -4.160000 -5.800000 -20.997980 -20.405798 857.311768
1.880000 -4.120000 -6.200000 36.563381 -6.442314 1378.384277
1.880000 -4.120000 -6.160000 38.873493 20.464449 1929.942139
1.880000 -4.120000 -6.120000 23.505222 42.044514 2320.236572
1.880000 -4.120000 -6.080000 0.632748 49.507622 2451.405029
1.880000 -4.120000 -6.040000 -19.398411 44.990105 2400.407715
1.880000 -4.120000 -6.000000 -33.618416 34.795021 2340.891357
1.880000 -4.120000 -5.960000 -43.661175 21.420483 2365.135254
1.880000 -4.120000 -5.920000 -48.642563 3.859226 2380.992432
1.880000 -4.120000 -5.880000 -44.079041 -15.785450 2192.142334
1.880000 -4.120000 -5.840000 -28.612080 -29.602745 1694.973633
1.880000 -4.120000 -5.800000 -9.432731 -30.250938 1004.095703
1.880000 -4.080000 -6.200000 23.802055 15.434086 804.748840
1.880000 -4.080000 -6.160000 21.459930 39.443794 2016.341553
1.880000 -4.080000 -6.120000 2.723314 62.836090 3955.790771
1.880000 -4.080000 -6.080000 -31.462444 73.821060 6439.434082
1.880000 -4.080000 -6.040000 -71.081299 62.212406 8922.934570
1.880000 -4.080000 -6.000000 -99.412148 26.875370 10605.060547
1.880000 -4.080000 -5.960000 -101.812653 -20.195381 10773.669922
1.880000 -4.080000 -5.920000 -76.115891 -58.587097 9226.077148
1.880000 -4.080000 -5.880000 -36.025894 -71.957108 6475.690430
1.880000 -4.080000 -5.840000 -2.777270 -59.393166 3535.261230
1.880000 -4.080000 -5.800000 9.722832 -35.743034 1372.097900
1.880000 -4.040000 -6.200000 3.005665 17.621668 319.557220
1.880000 -4.040000 -6.160000 -2.347540 42.017952 1771.019287
1.880000 -4.040000 -6.120000 -32.043022 65.554848 5324.193359
1.880000 -4.040000 -6.080000 -82.899246 64.435036 11024.159180
1.880000 -4.040000 -6.040000 -129.792084 23.679823 17406.718750
1.880000 -4.040000 -6.000000 -140.999054 -45.357998 21938.080078
1.880000 -4.040000 -5.960000 -103.752831 -108.096535 22449.509766
1.880000 -4.040000 -5.920000 -37.100967 -131.176086 18583.648438
1.880000 -4.040000 -5.880000 21.281767 -107.984558 12113.579102
1.880000 -4.040000 -5.840000 43.958061 -62.501152 5838.705078
1.880000 -4.040000 -5.800000 32.973869 -27.967991 1869.484497
1.880000 -4.000000 -6.200000 -6.280275 4.412417 58.911285
1.880000 -4.000000 -6.160000 -18.745682 30.441431 1278.081299
1.880000 -4.000000 -6.120000 -62.105392 43.387672 5739.569824
1.880000 -4.000000 -6.080000 -116.680756 14.511045 13824.968750
1.880000 -4.000000 -6.040000 -141.665421 -57.152351 23335.482422
1.880000 -4.000000 -6.000000 -108.512917 -135.918518 30248.896484
1.880000 -4.000000 -5.960000 -28.381178 -174.185226 31145.984375
1.880000 -4.000000 -5.920000 53.507320 -150.603577 25544.470703
1.880000 -4.000000 -5.880000 93.336014 -86.918457 16266.429688
1.880000 -4.000000 -5.840000 82.128632 -28.057743 7532.349121
1.880000 -4.000000 -5.800000 47.510712 -4.478033 2277.320557
1.880000 -3.960000 -6.200000 1.539454 -6.025560 38.677296
1.880000 -3.960000 -6.160000 -22.139839 16.205713 752.797607
1.880000 -3.960000 -6.120000 -70.047783 7.736565 4966.546387
1.880000 -3.960000 -6.080000 -104.921822 -47.447166 13259.822266
1.880000 -3.960000 -6.040000 -87.560860 -125.021072 23297.171875
1.880000 -3.960000 -6.000000 -13.871913 -174.659760 30698.460938
1.880000 -3.960000 -5.960000 76.750053 -160.848267 31762.734375
1.880000 -3.960000 -5.920000 131.718445 -93.006897 26000.031250
1.880000 -3.960000 -5.880000 127.187653 -16.812222 16459.349609
1.880000 -3.960000 -5.840000 83.463837 24.708603 7576.727051
1.880000 -3.960000 -5.800000 41.891602 23.737656 2318.382568
1.880000 -3.920000 -6.200000 13.704473 -0.861751 188.555176
1.880000 -3.920000 -6.160000 -18.347446 8.775669 413.641144
1.880000 -3.920000 -6.120000 -54.483421 -20.918259 3406.016602
1.880000 -3.920000 -6.080000 -55.176392 -81.675858 9715.379883
1.880000 -3.920000 -6.040000 -3.094833 -132.308563 17515.134766
1.880000 -3.920000 -6.000000 77.030075 -131.878098 23325.464844
1.880000 -3.920000 -5.960000 136.141357 -75.383400 24217.125000
1.880000 -3.920000 -5.920000 140.793427 1.577316 19825.277344
1.880000 -3.920000 -5.880000 98.571533 53.248264 12551.724609
1.880000 -3.920000 -5.840000 46.896946 60.208321 5824.365234
1.880000 -3.920000 -5.800000 18.449900 39.060005 1866.082764
1.880000 -3.880000 -6.200000 13.542162 14.595649 396.423096
1.880000 -3.880000 -6.160000 -16.669960 7.560210 335.044342
1.880000 -3.880000 -6.120000 -29.852474 -30.178116 1801.888916
1.880000 -3.880000 -6.080000 -3.166431 -71.951797 5187.087402
1.880000 -3.880000 -6.040000 53.616615 -81.356148 9493.564453
1.880000 -3.880000 -6.000000 103.726639 -44.554646 12744.332031
1.880000 -3.880000 -5.960000 113.919868 16.966213 13265.588867
1.880000 -3.880000 -5.920000 81.478867 64.915451 10852.821289
1.880000 -3.880000 -5.880000 33.360943 75.857689 6867.341797
1.880000 -3.880000 -5.840000 0.607395 56.722855 3217.851074
1.880000 -3.880000 -5.800000 -6.396503 32.456890 1094.364990
1.880000 -3.840000 -6.200000 -1.768141 23.347231 548.219543
1.880000 -3.840000 -6.160000 -19.583244 5.008294 408.586456
1.880000 -3.840000 -6.120000 -12.216457 -23.952690 722.973206
1.880000 -3.840000 -6.080000 19.909422 -36.776749 1748.914307
1.880000 -3.840000 -6.040000 53.578552 -18.460163 3211.438965
1.880000 -3.840000 -6.000000 63.043800 20.406837 4390.959961
1.880000 -3.840000 -5.960000 42.124645 53.342049 4619.859863
1.880000 -3.840000 -5.920000 7.646809 61.000034 3779.477783
1.880000 -3.840000 -5.880000 -17.282848 45.488659 2367.914795
1.880000 -3.840000 -5.840000 -22.621399 24.195288 1097.139648
1.880000 -3.840000 -5.800000 -15.673924 11.969445 388.939514
1.880000 -3.800000 -6.200000 -18.547211 15.008553 569.255676
1.880000 -3.800000 -6.160000 -20.947964 -3.203860 449.081879
1.880000 -3.800000 -6.120000 -6.094948 -14.779848 255.592300
1.880000 -3.800000 -6.080000 12.230490 -8.036507 214.170319
1.880000 -3.800000 -6.040000 17.050068 11.478561 422.462158
1.880000 -3.800000 -6.000000 4.155537 26.929276 742.454346
1.880000 -3.800000 -5.960000 -15.105526 26.342493 922.103882
1.880000 -3.800000 -5.920000 -25.748837 12.572094 821.060120
1.880000 -3.800000 -5.880000 -22.731091 -1.708609 519.621826
1.880000 -3.800000 -5.840000 -13.045942 -7.070147 220.183578
1.880000 -3.800000 -5.800000 -6.333614 -4.614641 61.409584
1.920000 -4.200000 -6.200000 28.514400 -24.899324 1433.047363
1.920000 -4.200000 -6.160000 28.300522 7.539970 857.770691
1.920000 -4.200000 -6.120000 -1.042164 24.159815 584.782776
1.920000 -4.200000 -6.080000 -30.542456 6.303505 972.575806
1.920000 -4.200000 -6.040000 -29.062881 -28.778549 1672.855957
1.920000 -4.200000 -6.000000 3.024811 -44.626312 2000.657227
1.920000 -4.200000 -5.960000 32.995323 -23.860752 1658.026855
1.920000 -4.200000 -5.920000 29.635418 12.950348 1045.969482
1.920000 -4.200000 -5.880000 -4.032166 28.529207 830.174011
1.920000 -4.200000 -5.840000 -34.182968 7.691090 1227.628174
1.920000 -4.200000 -5.800000 -31.774115 -27.651997 1774.227295
1.920000 -4.160000 -6.200000 36.522614 -4.901175 1357.922729
1.920000 -4.160000 -6.160000 27.738712 21.945805 1251.054443
1.920000 -4.160000 -6.120000 2.872261 31.250528 984.845398
1.920000 -4.160000 -6.080000 -15.879078 19.526564 633.431763
1.920000 -4.160000 -6.040000 -15.915894 3.899033 268.518127
1.920000 -4.160000 -6.000000 -6.725815 1.962643 49.088551
1.920000 -4.160000 -5.960000 -7.409604 11.977097 198.353073
1.920000 -4.160000 -5.920000 -23.619764 15.597836 801.185730
1.920000 -4.160000 -5.880000 -40.157196 -0.159576 1612.625854
1.920000 -4.160000 -5.840000 -37.699791 -26.705965 2134.482910
1.920000 -4.160000 -5.800000 -14.905883 -41.932983 1980.560425
1.920000 -4.120000 -6.200000 28.485106 14.135126 1011.203003
1.920000 -4.120000 -6.160000 19.103523 37.287209 1755.280518
1.920000 -4.120000 -6.120000 -3.593630 51.611454 2676.656250
1.920000 -4.120000 -6.080000 -31.247959 51.747871 3654.277344
1.920000 -4.120000 -6.040000 -55.975941 38.353954 4604.331543
1.920000 -4.120000 -6.000000 -72.429642 14.508011 5456.535645
1.920000 -4.120000 -5.960000 -76.192940 -15.603508 6048.833496
1.920000 -4.120000 -5.920000 -64.032684 -44.747803 6102.550293
1.920000 -4.120000 -5.880000 -38.010586 -62.755135 5383.011719
1.920000 -4.120000 -5.840000 -8.309822 -62.301620 3950.545166
1.920000 -4.120000 -5.800000 11.347323 -46.111271 2255.010986
1.920000 -4.080000 -6.200000 11.895411 20.006222 541.749695
1.920000 -4.080000 -6.160000 1.644602 46.959618 2207.910400
1.920000 -4.080000 -6.120000 -33.113548 67.918472 5709.425781
1.920000 -4.080000 -6.080000 -84.877831 61.444817 10979.711914
1.920000 -4.080000 -6.040000 -128.406494 17.265171 16786.314453
1.920000 -4.080000 -6.000000 -135.768768 -51.005657 21034.734375
1.920000 -4.080000 -5.960000 -97.677109 -110.866623 21832.226562
1.920000 -4.080000 -5.920000 -32.921745 -132.610291 18669.330078
1.920000 -4.080000 -5.880000 23.916571 -110.800842 12848.828125
1.920000 -4.080000 -5.840000 47.488773 -67.225029 6774.388184
1.920000 -4.080000 -5.800000 38.615494 -32.531887 2549.479980
1.920000 -4.040000 -6.200000 1.168234 12.441607 156.158356
1.920000 -4.040000 -6.160000 -18.853436 45.136032 2392.713379
1.920000 -4.040000 -6.120000 -75.092865 57.564545 8952.615234
1.920000 -4.040000 -6.080000 -140.556686 17.825901 20073.945312
1.920000 -4.040000 -6.040000 -166.403259 -71.016014 32733.320312
1.920000 -4.040000 -6.000000 -121.824890 -163.753464 41656.500000
1.920000 -4.040000 -5.960000 -24.107151 -204.570557 42430.269531
1.920000 -4.040000 -5.920000 71.205009 -171.585526 34511.746094
1.920000 -4.040000 -5.880000 113.535278 -94.039040 21733.601562
1.920000 -4.040000 -5.840000 95.508568 -26.221632 9809.460938
1.920000 -4.040000 -5.800000 52.461243 -2.620767 2759.050293
1.920000 -4.000000 -6.200000 3.920065 3.539501 27.894978
1.920000 -4.000000 -6.160000 -33.411781 32.864449 2196.419189
1.920000 -4.000000 -6.120000 -101.889656 17.255547 10679.255859
1.920000 -4.000000 -6.080000 -148.825562 -63.029926 26121.818359
1.920000 -4.000000 -6.040000 -120.887497 -171.598709 44059.906250
1.920000 -4.000000 -6.000000 -15.353788 -237.391968 56590.683594
1.920000 -4.000000 -5.960000 109.805145 -212.654053 57278.914062
1.920000 -4.000000 -5.920000 180.466324 -114.439285 45664.445312
1.920000 -4.000000 -5.880000 166.089462 -9.981899 27685.347656
1.920000 -4.000000 -5.840000 99.849686 40.457039 11606.732422
1.920000 -4.000000 -5.800000 42.942093 29.692535 2725.669922
1.920000 -3.960000 -6.200000 13.493815 5.810074 215.840012
1.920000 -3.960000 -6.160000 -37.483940 17.961935 1727.676880
1.920000 -3.960000 -6.120000 -94.377472 -30.646677 9846.326172
1.920000 -3.960000 -6.080000 -95.301949 -128.248489 25530.136719
1.920000 -3.960000 -6.040000 -11.704336 -209.730713 44123.964844
1.920000 -3.960000 -6.000000 117.139191 -208.478470 57184.863281
1.920000 -3.960000 -5.960000 210.787781 -115.917633 57868.386719
1.920000 -3.960000 -5.920000 213.786728 8.520666 45777.367188
1.920000 -3.960000 -5.880000 140.010223 87.650902 27285.542969
1.920000 -3.960000 -5.840000 54.777870 89.655907 11038.796875
1.920000 -3.960000 -5.800000 14.681749 45.983612 2330.046387
1.920000 -3.920000 -6.200000 15.674748 19.528379 627.055359
1.920000 -3.920000 -6.160000 -34.656784 7.962618 1264.495972
1.920000 -3.920000 -6.120000 -60.159191 -57.699306 6948.337891
1.920000 -3.920000 -6.080000 -16.017090 -135.893524 18723.597656
1.920000 -3.920000 -6.040000 87.356712 -159.586823 33099.148438
1.920000 -3.920000 -6.000000 184.757385 -96.304939 43409.933594
1.920000 -3.920000 -5.960000 209.234497 19.215931 44148.328125
1.920000 -3.920000 -5.920000 149.001328 112.737076 34911.046875
1.920000 -3.920000 -5.880000 54.669067 133.005890 20679.273438
1.920000 -3.920000 -5.840000 -8.217936 90.298615 8221.374023
1.920000 -3.920000 -5.800000 -14.200426 37.623913 1617.210938
1.920000 -3.880000 -6.200000 3.112472 32.255711 1050.118408
1.920000 -3.880000 -6.160000 -32.070900 3.420788 1040.244385
1.920000 -3.880000 -6.120000 -25.501949 -54.659473 3638.007324
1.920000 -3.880000 -6.080000 36.052181 -91.890594 9743.641602
1.920000 -3.880000 -6.040000 115.194206 -66.101059 17639.054688
1.920000 -3.880000 -6.000000 152.778168 15.711655 23588.023438
1.920000 -3.880000 -5.960000 119.455086 100.196945 24308.945312
1.920000 -3.880000 -5.920000 40.869858 133.044144 19371.089844
1.920000 -3.880000 -5.880000 -26.863686 103.800400 11496.180664
1.920000 -3.880000 -5.840000 -46.296227 48.853859 4530.040039
1.920000 -3.880000 -5.800000 -25.437536 13.518147 829.808533
1.920000 -3.840000 -6.200000 -17.048100 31.127399 1259.552734
1.920000 -3.840000 -6.160000 -32.475716 -1.000647 1055.673462
1.920000 -3.840000 -6.120000 -10.214336 -36.650673 1447.604492
1.920000 -3.840000 -6.080000 38.313416 -39.807804 3052.579102
1.920000 -3.840000 -6.040000 74.634094 0.248116 5570.309570
1.920000 -3.840000 -6.000000 67.337067 56.847771 7765.949707
1.920000 -3.840000 -5.960000 20.445930 88.874001 8316.624023
1.920000 -3.840000 -5.920000 -31.072823 76.567657 6828.126465
1.920000 -3.840000 -5.880000 -53.157539 36.199966 4136.161621
1.920000 -3.840000 -5.840000 -40.449020 1.617432 1638.739380
1.920000 -3.840000 -5.800000 -15.067419 -6.881584 274.383301
1.920000 -3.800000 -6.200000 -30.031578 15.532948 1143.168213
1.920000 -3.800000 -6.160000 -31.824219 -8.976739 1093.362671
1.920000 -3.800000 -6.120000 -11.961296 -24.661367 751.255615
1.920000 -3.800000 -6.080000 12.396460 -16.983124 442.098694
1.920000 -3.800000 -6.040000 19.733631 7.296928 442.661377
1.920000 -3.800000 -6.000000 4.257248 26.729227 732.575745
1.920000 -3.800000 -5.960000 -19.630402 25.362801 1028.624268
1.920000 -3.800000 -5.920000 -31.816418 6.443031 1053.797119
1.920000 -3.800000 -5.880000 -24.701509 -12.756741 772.898987
1.920000 -3.800000 -5.840000 -7.689342 -18.018202 383.781586
1.920000 -3.800000 -5.800000 4.257022 -9.637474 111.003143
1.960000 -4.200000 -6.200000 31.519775 4.471428 1013.489868
1.960000 -4.200000 -6.160000 8.199247 25.786566 732.174622
1.960000 -4.200000 -6.120000 -24.433350 16.333828 863.782532
1.960000 -4.200000 -6.080000 -33.486393 -17.964622 1444.066162
1.960000 -4.200000 -6.040000 -7.672729 -43.755966 1973.455322
1.960000 -4.200000 -6.000000 28.429688 -33.856491 1954.509033
1.960000 -4.200000 -5.960000 38.032021 3.429085 1458.193237
1.960000 -4.200000 -5.920000 10.025833 31.344727 1083.009155
1.960000 -4.200000 -5.880000 -28.952789 21.865433 1316.361206
1.960000 -4.200000 -5.840000 -41.568161 -15.785788 1977.103027
1.960000 -4.200000 -5.800000 -17.598392 -45.245914 2356.896240
1.960000 -4.160000 -6.200000 23.631472 16.498089 830.633423
1.960000 -4.160000 -6.160000 3.256023 28.955887 849.045044
1.960000 -4.160000 -6.120000 -18.305479 21.806549 810.616150
1.960000 -4.160000 -6.080000 -24.962044 4.505121 643.399780
1.960000 -4.160000 -6.040000 -18.009315 -5.146870 350.825714
1.960000 -4.160000 -6.000000 -13.568880 -1.380615 186.020599
1.960000 -4.160000 -5.960000 -22.968540 3.063713 536.940186
1.960000 -4.160000 -5.920000 -38.291004 -7.858852 1527.962646
1.960000 -4.160000 -5.880000 -40.115101 -33.516975 2732.608887
1.960000 -4.160000 -5.840000 -19.416790 -54.761444 3375.827393
1.960000 -4.160000 -5.800000 10.651154 -53.282295 2952.449951
1.960000 -4.120000 -6.200000 12.310741 20.144371 557.350037
1.960000 -4.120000 -6.160000 -3.108194 36.002426 1305.835571
1.960000 -4.120000 -6.120000 -29.597378 40.984993 2555.774414
1.960000 -4.120000 -6.080000 -58.457150 29.094934 4263.753418
1.960000 -4.120000 -6.040000 -78.829956 0.832626 6214.855469
1.960000 -4.120000 -6.000000 -81.681007 -36.796722 8025.786133
1.960000 -4.120000 -5.960000 -63.404072 -71.925850 9193.404297
1.960000 -4.120000 -5.920000 -28.715218 -91.773621 9246.960938
1.960000 -4.120000 -5.880000 9.529701 -88.946442 8002.284668
1.960000 -4.120000 -5.840000 36.012848 -66.870956 5768.649902
1.960000 -4.120000 -5.800000 42.184555 -39.112213 3309.302002
1.960000 -4.080000 -6.200000 5.046105 16.599518 301.007172
1.960000 -4.080000 -6.160000 -17.262526 42.357651 2092.165283
1.960000 -4.080000 -6.120000 -66.408203 46.885651 6608.313477
1.960000 -4.080000 -6.080000 -117.942497 8.589531 13984.212891
1.960000 -4.080000 -6.040000 -134.527527 -66.104004 22467.394531
1.960000 -4.080000 -6.000000 -95.159286 -140.741531 28863.468750
1.960000 -4.080000 -5.960000 -15.021729 -173.253143 30242.304688
1.960000 -4.080000 -5.920000 63.219959 -147.717361 25817.181641
1.960000 -4.080000 -5.880000 100.890869 -86.012794 17577.167969
1.960000 -4.080000 -5.840000 90.839951 -29.087168 9097.959961
1.960000 -4.080000 -5.800000 57.967957 -4.781754 3383.149170
1.960000 -4.040000 -6.200000 5.263863 12.692547 188.808990
1.960000 -4.040000 -6.160000 -36.948967 39.026569 2888.299316
1.960000 -4.040000 -6.120000 -105.946030 17.435593 11528.561523
1.960000 -4.040000 -6.080000 -148.540955 -66.931824 26544.285156
1.960000 -4.040000 -6.040000 -115.089722 -174.756531 43785.488281
1.960000 -4.040000 -6.000000 -7.015118 -236.379059 55924.269531
1.960000 -4.040000 -5.960000 116.743958 -207.882660 56844.351562
1.960000 -4.040000 -5.920000 184.450867 -108.815231 45862.875000
1.960000 -4.040000 -5.880000 168.393570 -5.766174 28389.642578
1.960000 -4.040000 -5.840000 102.382477 43.239727 12351.845703
1.960000 -4.040000 -5.800000 46.254799 32.180809 3175.110840
1.960000 -4.000000 -6.200000 9.129650 15.205521 314.558350
1.960000 -4.000000 -6.160000 -51.938606 23.461220 3248.047852
1.960000 -4.000000 -6.120000 -114.679596 -38.069874 14600.725586
1.960000 -4.000000 -6.080000 -109.909714 -152.001297 35184.539062
1.960000 -4.000000 -6.040000 -8.864683 -242.619629 58942.867188
1.960000 -4.000000 -6.000000 140.217133 -235.752563 75240.109375
1.960000 -4.000000 -5.960000 244.650116 -125.212692 75531.898438
1.960000 -4.000000 -5.920000 243.116104 18.250916 59438.539062
1.960000 -4.000000 -5.880000 154.725220 106.036285 35183.585938
1.960000 -4.000000 -5.840000 56.496376 103.766670 13959.362305
1.960000 -4.000000 -5.800000 13.262732 50.271126 2703.086182
1.960000 -3.960000 -6.200000 8.527613 24.659119 680.792297
1.960000 -3.960000 -6.160000 -54.349091 3.526182 2966.257812
1.960000 -3.960000 -6.120000 -82.041870 -84.601105 13888.214844
1.960000 -3.960000 -6.080000 -19.142763 -185.082703 34622.050781
1.960000 -3.960000 -6.040000 118.606453 -211.798599 58926.140625
1.960000 -3.960000 -6.000000 245.183777 -124.392136 75588.492188
1.960000 -3.960000 -5.960000 273.470947 29.545048 75659.265625
1.960000 -3.960000 -5.920000 189.845581 151.200195 58902.843750
1.960000 -3.960000 -5.880000 63.451012 173.425507 34102.437500
1.960000 -3.960000 -5.840000 -17.518158 112.046349 12861.269531
1.960000 -3.960000 -5.800000 -20.006184 40.263973 2021.434814
1.960000 -3.920000 -6.200000 -1.786189 34.210884 1173.575073
1.960000 -3.920000 -6.160000 -46.692944 -10.174529 2283.751953
1.960000 -3.920000 -6.120000 -31.645670 -94.100044 9856.266602
1.960000 -3.920000 -6.080000 62.639538 -146.115814 25273.542969
1.960000 -3.920000 -6.040000 181.878479 -104.231583 43944.003906
1.960000 -3.920000 -6.000000 237.880844 21.829945 57063.843750
1.960000 -3.920000 -5.960000 185.437149 151.743073 57412.898438
1.960000 -3.920000 -5.920000 63.057549 201.663544 44644.437500
1.960000 -3.920000 -5.880000 -41.992104 154.413345 25606.816406
1.960000 -3.920000 -5.840000 -69.973816 67.022156 9388.304688
1.960000 -3.920000 -5.800000 -33.260483 12.493763 1262.353882
1.960000 -3.880000 -6.200000 -19.121149 35.148949 1601.066895
1.960000 -3.880000 -6.160000 -38.498787 -14.788686 1700.861816
1.960000 -3.880000 -6.120000 1.786900 -70.876053 5026.607910
1.960000 -3.880000 -6.080000 86.604248 -73.309288 12874.547852
1.960000 -3.880000 -6.040000 151.939880 -0.167366 23085.753906
1.960000 -3.880000 -6.000000 140.127441 105.357796 30735.964844
1.960000 -3.880000 -5.960000 53.543182 169.068069 31450.884766
1.960000 -3.880000 -5.920000 -46.164513 150.202454 24691.939453
1.960000 -3.880000 -5.880000 -92.861885 74.589607 14186.939453
1.960000 -3.880000 -5.840000 -71.380936 6.305752 5135.000488
1.960000 -3.880000 -5.800000 -22.061996 -11.524706 619.550537
1.960000 -3.840000 -6.200000 -34.577023 24.301426 1786.129761
1.960000 -3.840000 -6.160000 -35.674641 -16.662661 1550.324219
1.960000 -3.840000 -6.120000 4.833075 -43.820553 1943.599487
1.960000 -3.840000 -6.080000 57.628071 -23.625309 3879.149902
1.960000 -3.840000 -6.040000 75.656677 36.665760 7068.310547
1.960000 -3.840000 -6.000000 38.260536 91.892563 9908.111328
1.960000 -3.840000 -5.960000 -28.263100 99.054199 10610.537109
1.960000 -3.840000 -5.920000 -74.303864 55.704971 8624.107422
1.960000 -3.840000 -5.880000 -71.283707 -0.249176 5081.428711
1.960000 -3.840000 -5.840000 -33.676701 -27.298510 1879.328735
1.960000 -3.840000 -5.800000 0.116127 -16.089970 258.900604
1.960000 -3.800000 -6.200000 -40.238373 6.729755 1664.416138
1.960000 -3.800000 -6.160000 -34.875004 -22.608393 1727.405273
1.960000 -3.800000 -6.120000 -6.478531 -35.703011 1316.676270
1.960000 -3.800000 -6.080000 20.789606 -19.896290 828.070068
1.960000 -3.800000 -6.040000 23.206696 10.810116 655.409302
1.960000 -3.800000 -6.000000 0.069077 29.090633 846.269714
1.960000 -3.800000 -5.960000 -26.419971 20.228107 1107.191162
1.960000 -3.800000 -5.920000 -33.012001 -5.205208 1116.886475
1.960000 -3.800000 -5.880000 -16.613951 -23.362190 821.815308
1.960000 -3.800000 -5.840000 5.491402 -20.202120 438.281128
1.960000 -3.800000 -5.800000 14.238008 -2.494753 208.944641
2.000000 -4.200000 -6.200000 12.935234 21.166744 615.351318
2.000000 -4.200000 -6.160000 -15.114298 19.522512 609.570496
2.000000 -4.200000 -6.120000 -30.838522 -7.493216 1007.162720
2.000000 -4.200000 -6.080000 -15.829914 -37.262474 1639.078125
2.000000 -4.200000 -6.040000 18.660503 -40.511326 1989.381836
2.000000 -4.200000 -6.000000 39.948772 -11.965027 1739.066284
2.000000 -4.200000 -5.960000 26.126484 21.858131 1160.371094
2.000000 -4.200000 -5.920000 -10.767212 27.859289 892.072876
2.000000 -4.200000 -5.880000 -35.779133 -0.415503 1280.318970
2.000000 -4.200000 -5.840000 -25.769178 -36.198750 1974.400024
2.000000 -4.200000 -5.800000 7.932631 -46.638489 2238.075195
2.000000 -4.160000 -6.200000 3.979218 18.293568 350.488800
2.000000 -4.160000 -6.160000 -13.073541 16.092527 429.886902
2.000000 -4.160000 -6.120000 -22.829193 2.194839 525.989380
2.000000 -4.160000 -6.080000 -19.774323 -11.371876 520.343384
2.000000 -4.160000 -6.040000 -12.263384 -14.780655 368.858337
2.000000 -4.160000 -6.000000 -12.392670 -11.972832 296.926941
2.000000 -4.160000 -5.960000 -20.802917 -16.110222 692.300659
2.000000 -4.160000 -5.920000 -24.344360 -33.261787 1698.994385
2.000000 -4.160000 -5.880000 -10.493427 -52.899212 2908.438721
2.000000 -4.160000 -5.840000 16.997820 -57.085915 3547.727539
2.000000 -4.160000 -5.800000 39.245613 -39.512196 3101.431641
2.000000 -4.120000 -6.200000 2.501513 13.713886 194.328247
2.000000 -4.120000 -6.160000 -14.271643 23.331041 748.017212
2.000000 -4.120000 -6.120000 -40.310703 18.507320 1967.473633
2.000000 -4.120000 -6.080000 -62.396935 -6.064995 3930.161621
2.000000 -4.120000 -6.040000 -66.357155 -44.216423 6358.364258
2.000000 -4.120000 -6.000000 -45.879677 -80.814285 8635.893555
2.000000 -4.120000 -5.960000 -6.870934 -99.897675 10026.754883
2.000000 -4.120000 -5.920000 35.301193 -93.564964 10000.576172
2.000000 -4.120000 -5.880000 64.068283 -66.369560 8509.664062
2.000000 -4.120000 -5.840000 70.724319 -32.570873 6062.791016
2.000000 -4.120000 -5.800000 58.800892 -7.632342 3515.797607
2.000000 -4.080000 -6.200000 5.337103 14.188386 229.794968
2.000000 -4.080000 -6.160000 -28.669247 30.487696 1751.425293
2.000000 -4.080000 -6.120000 -78.072342 9.606531 6187.576172
2.000000 -4.080000 -6.080000 -104.347794 -54.407692 13848.659180
2.000000 -4.080000 -6.040000 -75.648239 -131.140366 22920.451172
2.000000 -4.080000 -6.000000 3.781952 -172.882507 29902.664062
2.000000 -4.080000 -5.960000 92.519760 -151.578827 31536.046875
2.000000 -4.080000 -5.920000 142.460449 -81.414185 26923.250000
2.000000 -4.080000 -5.880000 134.845749 -6.851967 18230.326172
2.000000 -4.080000 -5.840000 90.838745 32.922661 9335.579102
2.000000 -4.080000 -5.800000 49.381058 31.504189 3431.002686
2.000000 -4.040000 -6.200000 5.709868 20.600357 456.977325
2.000000 -4.040000 -6.160000 -50.220707 23.261194 3063.202637
2.000000 -4.040000 -6.120000 -102.234528 -35.608303 11719.849609
2.000000 -4.040000 -6.080000 -92.055901 -135.968750 26961.789062
2.000000 -4.040000 -6.040000 0.434719 -211.166473 44591.468750
2.000000 -4.040000 -6.000000 130.351227 -200.208725 57074.976562
2.000000 -4.040000 -5.960000 218.523743 -101.516830 58058.292969
2.000000 -4.040000 -5.920000 215.071899 22.929161 46781.667969
2.000000 -4.040000 -5.880000 138.173645 98.557587 28805.554688
2.000000 -4.040000 -5.840000 53.287086 97.420601 12330.287109
2.000000 -4.040000 -5.800000 14.726631 52.473610 2970.353516
2.000000 -4.000000 -6.200000 -0.523187 28.236025 797.546814
2.000000 -4.000000 -6.160000 -62.567760 0.425377 3914.905518
2.000000 -4.000000 -6.120000 -84.064705 -91.342361 15410.300781
2.000000 -4.000000 -6.080000 -14.289478 -189.394211 36074.355469
2.000000 -4.000000 -6.040000 126.110344 -209.626617 59847.140625
2.000000 -4.000000 -6.000000 250.000626 -116.461655 76063.632812
2.000000 -4.000000 -5.960000 273.134521 39.182632 76137.750000
2.000000 -4.000000 -5.920000 185.685089 158.798126 59695.796875
2.000000 -4.000000 -5.880000 58.431164 177.909225 35065.894531
2.000000 -4.000000 -5.840000 -21.365681 114.616600 13593.457031
2.000000 -4.000000 -5.800000 -22.391258 42.533573 2310.473389
2.000000 -3.960000 -6.200000 -12.178924 31.554773 1144.029907
2.000000 -3.960000 -6.160000 -56.431969 -24.007141 3760.909912
2.000000 -3.960000 -6.120000 -30.790276 -117.843407 14835.109375
2.000000 -3.960000 -6.080000 81.116127 -169.969803 35469.562500
2.000000 -3.960000 -6.040000 215.262177 -114.624031 59476.472656
2.000000 -3.960000 -6.000000 273.267609 32.837368 75753.476562
2.000000 -3.960000 -5.960000 207.639069 179.820099 75449.250000
2.000000 -3.960000 -5.920000 65.240540 232.696548 58404.011719
2.000000 -3.960000 -5.880000 -53.894882 174.800369 33459.828125
2.000000 -3.960000 -5.840000 -83.019547 73.227119 12254.456055
2.000000 -3.960000 -5.800000 -38.303036 11.747101 1605.116943
2.000000 -3.920000 -6.200000 -24.966358 28.250324 1421.399902
2.000000 -3.920000 -6.160000 -39.210373 -35.280506 2782.167480
2.000000 -3.920000 -6.120000 19.978512 -99.888184 10376.790039
2.000000 -3.920000 -6.080000 129.957932 -93.119179 25560.246094
2.000000 -3.920000 -6.040000 209.208633 8.637413 43842.859375
2.000000 -3.920000 -6.000000 186.579208 147.473724 56560.300781
2.000000 -3.920000 -5.960000 68.299866 227.900665 56603.585938
2.000000 -3.920000 -5.920000 -63.964027 199.017242 43699.261719
2.000000 -3.920000 -5.880000 -124.068970 96.633423 24731.128906
2.000000 -3.920000 -5.840000 -93.427017 5.999199 8764.597656
2.000000 -3.920000 -5.800000 -26.807571 -16.041225 975.966797
2.000000 -3.880000 -6.200000 -35.200039 19.413248 1615.916992
2.000000 -3.880000 -6.160000 -26.455650 -32.751480 1772.560791
2.000000 -3.880000 -6.120000 36.540302 -60.299908 4971.272461
2.000000 -3.880000 -6.080000 110.479675 -18.866302 12561.696289
2.000000 -3.880000 -6.040000 128.262772 77.725266 22492.554688
2.000000 -3.880000 -6.000000 62.105431 161.442230 29920.677734
2.000000 -3.880000 -5.960000 -46.214264 168.455399 30512.978516
2.000000 -3.880000 -5.920000 -120.194710 96.530930 23764.988281
2.000000 -3.880000 -5.880000 -115.764389 5.355042 13430.070312
2.000000 -3.880000 -5.840000 -55.961884 -39.450138 4688.045898
2.000000 -3.880000 -5.800000 -2.120329 -22.740437 521.623230
2.000000 -3.840000 -6.200000 -41.253113 7.134118 1752.714966
2.000000 -3.840000 -6.160000 -25.171127 -28.910519 1469.403809
2.000000 -3.840000 -6.120000 21.721390 -35.174122 1709.037598
2.000000 -3.840000 -6.080000 58.597420 5.677628 3465.893066
2.000000 -3.840000 -6.040000 46.566906 65.984673 6522.454102
2.000000 -3.840000 -6.000000 -11.880844 95.658722 9291.745117
2.000000 -3.840000 -5.960000 -72.461807 68.721329 9973.333984
2.000000 -3.840000 -5.920000 -89.280312 7.625603 8029.124023
2.000000 -3.840000 -5.880000 -55.953255 -38.648468 4624.470703
2.000000 -3.840000 -5.840000 -7.765776 -39.970547 1657.951904
2.000000 -3.840000 -5.800000 14.762166 -8.881205 296.797333
2.000000 -3.800000 -6.200000 -42.391235 -7.012986 1846.198853
2.000000 -3.800000 -6.160000 -27.495502 -34.451023 1942.875732
2.000000 -3.800000 -6.120000 5.058176 -38.295097 1492.099609
2.000000 -3.800000 -6.080000 26.977028 -13.972843 923.000366
2.000000 -3.800000 -6.040000 19.588173 16.526863 656.833740
2.000000 -3.800000 -6.000000 -8.091675 26.139618 748.754822
2.000000 -3.800000 -5.960000 -28.974178 8.780052 916.592285
2.000000 -3.800000 -5.920000 -24.739151 -16.241760 875.820312
2.000000 -3.800000 -5.880000 -2.319305 -24.674683 614.219116
2.000000 -3.800000 -5.840000 15.398842 -10.693798 351.481628
2.000000 -3.800000 -5.800000 13.160618 10.079447 274.797119
2.040000 -4.200000 -6.200000 -6.958381 15.600673 291.800049
2.040000 -4.200000 -6.160000 -20.737415 -1.436823 432.104858
2.040000 -4.200000 -6.120000 -14.605967 -25.994864 889.067139
2.040000 -4.200000 -6.080000 11.037687 -36.426193 1448.698120
2.040000 -4.200000 -6.040000 35.540405 -20.640831 1689.164307
2.040000 -4.200000 -6.000000 36.176704 9.306805 1395.370483
2.040000 -4.200000 -5.960000 11.142220 26.448254 823.659180
2.040000 -4.200000 -5.920000 -16.903008 14.660668 500.646851
2.040000 -4.200000 -5.880000 -22.113525 -14.992012 713.768433
2.040000 -4.200000 -5.840000 -0.650513 -34.790718 1210.817261
2.040000 -4.200000 -5.800000 25.978912 -27.633444 1438.511108
2.040000 -4.160000 -6.200000 -4.531795 6.078230 57.482040
2.040000 -4.160000 -6.160000 -10.569935 -0.119387 111.737778
2.040000 -4.160000 -6.120000 -10.906570 -9.738355 213.788818
2.040000 -4.160000 -6.080000 -5.538750 -16.198471 293.068207
2.040000 -4.160000 -6.040000 -0.651390 -17.064384 291.617523
2.040000 -4.160000 -6.000000 -0.657761 -17.544323 308.235901
2.040000 -4.160000 -5.960000 -1.567673 -24.043732 580.558594
2.040000 -4.160000 -5.920000 5.406189 -34.810959 1241.029785
2.040000 -4.160000 -5.880000 22.898602 -39.338974 2071.900879
2.040000 -4.160000 -5.840000 41.592552 -28.883324 2564.186768
2.040000 -4.160000 -5.800000 47.560139 -7.302426 2315.292236
2.040000 -4.120000 -6.200000 4.058837 6.918716 64.342796
2.040000 -4.120000 -6.160000 -12.686060 12.754251 323.607025
2.040000 -4.120000 -6.120000 -34.198322 -0.154720 1169.549194
2.040000 -4.120000 -6.080000 -42.625195 -31.196182 2790.108887
2.040000 -4.120000 -6.040000 -26.397110 -65.302048 4961.165039
2.040000 -4.120000 -6.000000 10.644302 -83.229614 7040.469727
2.040000 -4.120000 -5.960000 51.727074 -74.761642 8264.993164
2.040000 -4.120000 -5.920000 78.485916 -44.797585 8166.862793
2.040000 -4.120000 -5.880000 82.128723 -8.816109 6822.850586
2.040000 -4.120000 -5.840000 66.908043 17.617579 4787.064941
2.040000 -4.120000 -5.800000 45.140381 27.356142 2786.012451
2.040000 -4.080000 -6.200000 6.206365 17.845478 356.980042
2.040000 -4.080000 -6.160000 -31.981316 18.137966 1351.790405
2.040000 -4.080000 -6.120000 -64.217514 -22.825151 4644.876953
2.040000 -4.080000 -6.080000 -53.722919 -88.031990 10635.783203
2.040000 -4.080000 -6.040000 8.721931 -133.740906 17962.701172
2.040000 -4.080000 -6.000000 92.246315 -123.585274 23782.703125
2.040000 -4.080000 -5.960000 147.786285 -59.156170 25340.240234
2.040000 -4.080000 -5.920000 146.136368 20.684196 21783.673828
2.040000 -4.080000 -5.880000 98.756508 71.125549 14811.691406
2.040000 -4.080000 -5.840000 44.276016 75.030846 7589.993652
2.040000 -4.080000 -5.800000 15.198884 50.238533 2754.916260
2.040000 -4.040000 -6.200000 -3.792787 28.076025 802.648438
2.040000 -4.040000 -6.160000 -52.929352 2.501131 2807.771973
2.040000 -4.040000 -6.120000 -65.814651 -71.339607 9420.908203
2.040000 -4.040000 -6.080000 -6.994648 -145.247879 21145.873047
2.040000 -4.040000 -6.040000 102.944031 -155.770416 34861.894531
2.040000 -4.040000 -6.000000 195.942169 -79.855621 44770.253906
2.040000 -4.040000 -5.960000 210.161591 40.749638 45828.425781
2.040000 -4.040000 -5.920000 141.124420 131.607574 37236.656250
2.040000 -4.040000 -5.880000 43.180485 145.947571 23165.248047
2.040000 -4.040000 -5.840000 -18.934412 98.304115 10022.210938
2.040000 -4.040000 -5.800000 -22.249767 43.188839 2360.327881
2.040000 -4.000000 -6.200000 -19.719742 27.836292 1163.727417
2.040000 -4.000000 -6.160000 -55.515625 -26.581980 3788.586182
2.040000 -4.000000 -6.120000 -26.051708 -109.517204 12672.708984
2.040000 -4.000000 -6.080000 77.076630 -149.885178 28406.373047
2.040000 -4.000000 -6.040000 193.964020 -94.219559 46499.363281
2.040000 -4.000000 -6.000000 239.631378 39.043056 58947.558594
2.040000 -4.000000 -5.960000 176.673340 167.215103 59174.359375
2.040000 -4.000000 -5.920000 49.178967 210.445038 46705.683594
2.040000 -4.000000 -5.880000 -55.353195 157.031815 27722.966797
2.040000 -4.000000 -5.840000 -80.280968 66.729012 10897.794922
2.040000 -4.000000 -5.800000 -40.825111 12.112671 1813.406494
2.040000 -3.960000 -6.200000 -30.954720 17.649918 1269.714233
2.040000 -3.960000 -6.160000 -36.539963 -47.594086 3600.365723
2.040000 -3.960000 -6.120000 29.804342 -106.194199 12165.506836
2.040000 -3.960000 -6.080000 140.024368 -90.086510 27722.402344
2.040000 -3.960000 -6.040000 213.038986 17.879875 45705.300781
2.040000 -3.960000 -6.000000 182.630371 156.682419 57903.234375
2.040000 -3.960000 -5.960000 59.739738 232.635925 57688.308594
2.040000 -3.960000 -5.920000 -72.800987 198.845367 44839.464844
2.040000 -3.960000 -5.880000 -130.781799 93.749466 25892.839844
2.040000 -3.960000 -5.840000 -98.001831 2.669643 9611.486328
2.040000 -3.960000 -5.800000 -30.289459 -18.764442 1269.555664
2.040000 -3.920000 -6.200000 -33.523422 5.910189 1158.750122
2.040000 -3.920000 -6.160000 -12.989702 -47.363651 2412.047852
2.040000 -3.920000 -6.120000 61.601334 -66.430374 8207.718750
2.040000 -3.920000 -6.080000 139.386795 -8.782280 19505.806641
2.040000 -3.920000 -6.040000 148.852844 104.236702 33022.460938
2.040000 -3.920000 -6.000000 64.867081 195.432388 42401.558594
2.040000 -3.920000 -5.960000 -61.681053 196.438431 42392.609375
2.040000 -3.920000 -5.920000 -144.554321 108.965897 32769.515625
2.040000 -3.920000 -5.880000 -136.405670 2.677601 18613.677734
2.040000 -3.920000 -5.840000 -65.823463 -48.303242 6665.931641
2.040000 -3.920000 -5.800000 -3.667238 -28.225685 810.137878
2.040000 -3.880000 -6.200000 -32.500080 -1.516444 1058.554810
2.040000 -3.880000 -6.160000 -3.870898 -34.223728 1186.247437
2.040000 -3.880000 -6.120000 52.994972 -26.125008 3490.983154
2.040000 -3.880000 -6.080000 87.538834 36.528633 8997.388672
2.040000 -3.880000 -6.040000 56.612370 114.184258 16243.005859
2.040000 -3.880000 -6.000000 -29.859009 144.197205 21684.394531
2.040000 -3.880000 -5.960000 -111.740097 98.202217 22129.525391
2.040000 -3.880000 -5.920000 -130.787842 10.085323 17207.171875
2.040000 -3.880000 -5.880000 -82.121643 -54.330246 9695.740234
2.040000 -3.880000 -5.840000 -14.964415 -56.378822 3402.505127
2.040000 -3.880000 -5.800000 16.171461 -14.750685 479.098846
2.040000 -3.840000 -6.200000 -33.900230 -7.444442 1204.645264
2.040000 -3.840000 -6.160000 -10.374226 -27.989473 891.035217
2.040000 -3.840000 -6.120000 25.260086 -15.968996 893.080811
2.040000 -3.840000 -6.080000 36.261372 26.657110 2025.488525
2.040000 -3.840000 -6.040000 4.226257 64.587585 4189.417480
2.040000 -3.840000 -6.000000 -49.247284 61.584557 6217.952637
2.040000 -3.840000 -5.960000 -80.570587 16.443115 6761.995605
2.040000 -3.840000 -5.920000 -65.001686 -34.601181 5422.460938
2.040000 -3.840000 -5.880000 -19.289631 -51.981270 3074.142334
2.040000 -3.840000 -5.840000 16.163181 -29.000334 1102.267822
2.040000 -3.840000 -5.800000 16.351307 5.629513 299.056641
2.040000 -3.800000 -6.200000 -36.016613 -18.472473 1638.428711
2.040000 -3.800000 -6.160000 -15.707788 -38.045372 1694.184937
2.040000 -3.800000 -6.120000 12.918690 -32.750389 1239.480591
2.040000 -3.800000 -6.080000 24.886673 -7.122649 670.078613
2.040000 -3.800000 -6.040000 11.473793 15.207935 362.929230
2.040000 -3.800000 -6.000000 -11.714814 15.272545 370.487488
2.040000 -3.800000 -5.960000 -21.393435 -2.991486 466.628021
2.040000 -3.800000 -5.920000 -10.002590 -18.394829 438.421539
2.040000 -3.800000 -5.880000 8.283085 -15.037895 294.747803
2.040000 -3.800000 -5.840000 13.910133 2.419195 199.344315
2.040000 -3.800000 -5.800000 2.059788 15.699326 250.711548
2.080000 -4.200000 -6.200000 -10.777276 -1.165922 117.509056
2.080000 -4.200000 -6.160000 -6.246694 -15.322806 273.809570
2.080000 -4.200000 -6.120000 9.420864 -23.086775 621.751831
2.080000 -4.200000 -6.080000 27.603945 -15.866953 1013.737976
2.080000 -4.200000 -6.040000 34.327545 3.932415 1193.844238
2.080000 -4.200000 -6.000000 22.874752 22.069153 1010.301758
2.080000 -4.200000 -5.960000 1.754490 23.977203 577.984558
2.080000 -4.200000 -5.920000 -11.540642 8.600166 207.149277
2.080000 -4.200000 -5.880000 -6.447311 -9.769226 137.005600
2.080000 -4.200000 -5.840000 10.559160 -14.638622 325.785126
2.080000 -4.200000 -5.800000 22.301786 -3.067923 506.781830
2.080000 -4.160000 -6.200000 2.119941 -3.615705 17.567474
2.080000 -4.160000 -6.160000 2.760462 -3.250501 18.185905
2.080000 -4.160000 -6.120000 2.877035 -5.094234 34.228558
2.080000 -4.160000 -6.080000 4.786540 -7.796513 83.696579
2.080000 -4.160000 -6.040000 8.018780 -9.497112 154.495972
2.080000 -4.160000 -6.000000 11.381500 -10.450712 238.755920
2.080000 -4.160000 -5.960000 15.693966 -11.513134 378.852844
2.080000 -4.160000 -5.920000 22.604874 -11.024841 632.527466
2.080000 -4.160000 -5.880000 30.650953 -5.309456 967.671265
2.080000 -4.160000 -5.840000 34.208229 6.514254 1212.638428
2.080000 -4.160000 -5.800000 28.365463 18.988945 1165.179565
2.080000 -4.120000 -6.200000 9.606141 8.809973 169.893570
2.080000 -4.120000 -6.160000 -7.721771 11.677997 196.001358
2.080000 -4.120000 -6.120000 -22.270445 -5.697056 528.429138
2.080000 -4.120000 -6.080000 -16.855085 -33.580284 1411.729370
2.080000 -4.120000 -6.040000 10.886135 -51.721199 2793.590332
2.080000 -4.120000 -6.000000 46.270241 -45.728577 4232.038086
2.080000 -4.120000 -5.960000 69.331314 -17.849163 5125.423828
2.080000 -4.120000 -5.920000 69.504272 16.208420 5093.556641
2.080000 -4.120000 -5.880000 51.157970 39.888256 4208.210938
2.080000 -4.120000 -5.840000 27.440783 46.364422 2902.656250
2.080000 -4.120000 -5.800000 9.923026 39.702019 1674.716675
2.080000 -4.080000 -6.200000 0.787197 23.642138 559.570374
2.080000 -4.080000 -6.160000 -30.861275 8.954945 1032.609253
2.080000 -4.080000 -6.120000 -38.535439 -35.322544 2732.662109
2.080000 -4.080000 -6.080000 -2.813919 -77.694763 6044.394043
2.080000 -4.080000 -6.040000 61.176308 -81.270218 10347.388672
2.080000 -4.080000 -6.000000 113.021591 -35.391098 14026.410156
2.080000 -4.080000 -5.960000 119.018822 34.151337 15331.792969
2.080000 -4.080000 -5.920000 78.614014 85.772835 13537.142578
2.080000 -4.080000 -5.880000 22.304159 94.775375 9479.847656
2.080000 -4.080000 -5.840000 -15.224569 69.221634 5023.422363
2.080000 -4.080000 -5.800000 -21.334497 37.458920 1858.331421
2.080000 -4.040000 -6.200000 -18.605703 25.228046 982.626587
2.080000 -4.040000 -6.160000 -44.148136 -15.329884 2184.063232
2.080000 -4.040000 -6.120000 -21.370340 -73.299408 5829.494629
2.080000 -4.040000 -6.080000 51.248978 -98.353256 12299.821289
2.080000 -4.040000 -6.040000 129.747894 -56.754890 20055.632812
2.080000 -4.040000 -6.000000 157.224182 35.353405 25969.306641
2.080000 -4.040000 -5.960000 111.445587 121.116013 27089.207031
2.080000 -4.040000 -5.920000 23.947096 148.545593 22639.255859
2.080000 -4.040000 -5.880000 -47.199848 111.536530 14668.222656
2.080000 -4.040000 -5.840000 -65.364388 49.832550 6755.786133
2.080000 -4.040000 -5.800000 -40.335983 10.702097 1741.526489
2.080000 -4.000000 -6.200000 -32.312775 11.056879 1166.369873
2.080000 -4.000000 -6.160000 -32.635529 -42.681107 2886.754639
2.080000 -4.000000 -6.120000 23.441597 -85.731476 7899.394043
2.080000 -4.000000 -6.080000 109.208405 -67.789925 16521.949219
2.080000 -4.000000 -6.040000 161.559647 19.368668 26476.664062
2.080000 -4.000000 -6.000000 132.993469 126.006958 33565.015625
2.080000 -4.000000 -5.960000 35.450066 181.322739 34134.644531
2.080000 -4.000000 -5.920000 -66.818245 152.179749 27623.353516
2.080000 -4.000000 -5.880000 -110.760193 69.449600 17091.066406
2.080000 -4.000000 -5.840000 -85.082748 -2.037737 7243.226562
2.080000 -4.000000 -5.800000 -32.144413 -20.284611 1444.728760
2.080000 -3.960000 -6.200000 -30.766346 -6.223896 985.304932
2.080000 -3.960000 -6.160000 -5.256232 -50.539249 2581.843750
2.080000 -3.960000 -6.120000 62.473301 -59.415161 7433.074707
2.080000 -3.960000 -6.080000 125.925888 -2.290445 15862.575195
2.080000 -3.960000 -6.040000 126.668800 97.383690 25528.568359
2.080000 -3.960000 -6.000000 48.239174 172.827118 32196.230469
2.080000 -3.960000 -5.960000 -62.855579 168.481705 32336.908203
2.080000 -3.960000 -5.920000 -133.146072 88.971985 25643.890625
2.080000 -3.960000 -5.880000 -123.911392 -4.833057 15377.391602
2.080000 -3.960000 -5.840000 -60.886002 -49.676136 6174.823730
2.080000 -3.960000 -5.800000 -5.294273 -32.387909 1077.005981
2.080000 -3.920000 -6.200000 -20.560230 -13.182824 596.509888
2.080000 -3.920000 -6.160000 13.922702 -35.700733 1468.384033
2.080000 -3.920000 -6.120000 66.529800 -16.316721 4692.449707
2.080000 -3.920000 -6.080000 90.229713 50.530155 10694.698242
2.080000 -3.920000 -6.040000 49.859188 123.720947 17792.812500
2.080000 -3.920000 -6.000000 -39.558327 145.555298 22751.207031
2.080000 -3.920000 -5.960000 -118.816818 93.496620 22859.054688
2.080000 -3.920000 -5.920000 -133.849854 3.409023 17927.404297
2.080000 -3.920000 -5.880000 -82.628296 -60.603756 10500.250000
2.080000 -3.920000 -5.840000 -14.392824 -62.060459 4058.653809
2.080000 -3.920000 -5.800000 17.422993 -20.213713 712.154846
2.080000 -3.880000 -6.200000 -15.781786 -10.308574 355.331482
2.080000 -3.880000 -6.160000 10.840941 -17.557718 425.799469
2.080000 -3.880000 -6.120000 39.229553 7.552082 1595.991821
2.080000 -3.880000 -6.080000 35.540508 55.884342 4386.187500
2.080000 -3.880000 -6.040000 -11.781498 89.094032 8076.550293
2.080000 -3.880000 -6.000000 -74.285660 73.268448 10886.625000
2.080000 -3.880000 -5.960000 -104.951607 13.332375 11192.591797
2.080000 -3.880000 -5.920000 -80.632309 -47.800545 8786.460938
2.080000 -3.880000 -5.880000 -23.726246 -67.001877 5052.186035
2.080000 -3.880000 -5.840000 19.117567 -39.181625 1900.681152
2.080000 -3.880000 -5.800000 20.249899 1.415190 412.061188
2.080000 -3.840000 -6.200000 -21.053730 -10.589165 555.389954
2.080000 -3.840000 -6.160000 -3.892499 -17.234047 312.163910
2.080000 -3.840000 -6.120000 12.502796 -2.515667 162.648499
2.080000 -3.840000 -6.080000 7.104279 23.010563 579.956787
2.080000 -3.840000 -6.040000 -21.107021 33.673569 1579.415527
2.080000 -3.840000 -6.000000 -48.816826 14.681328 2598.624023
2.080000 -3.840000 -5.960000 -50.047470 -20.973686 2944.644775
2.080000 -3.840000 -5.920000 -22.227905 -43.586456 2393.858887
2.080000 -3.840000 -5.880000 10.696175 -35.369625 1365.418579
2.080000 -3.840000 -5.840000 21.735563 -7.218525 524.541809
2.080000 -3.840000 -5.800000 6.659895 13.442946 225.067017
2.080000 -3.800000 -6.200000 -25.420187 -23.456018 1196.370728
2.080000 -3.800000 -6.160000 -6.625198 -34.733784 1250.329102
2.080000 -3.800000 -6.120000 13.774406 -26.772285 906.489502
2.080000 -3.800000 -6.080000 19.460720 -7.453150 434.269073
2.080000 -3.800000 -6.040000 9.054362 5.896118 116.745682
2.080000 -3.800000 -6.000000 -3.900631 4.167683 32.584503
2.080000 -3.800000 -5.960000 -6.079479 -5.493820 67.142128
2.080000 -3.800000 -5.920000 2.039207 -9.122276 87.374298
2.080000 -3.800000 -5.880000 8.399509 -1.637604 73.233505
2.080000 -3.800000 -5.840000 3.858398 8.444786 86.201653
2.080000 -3.800000 -5.800000 -7.740604 9.619473 152.451202
2.120000 -4.200000 -6.200000 0.900778 -10.402649 109.026505
2.120000 -4.200000 -6.160000 11.861876 -9.733159 235.438477
2.120000 -4.200000 -6.120000 20.270584 -2.660862 417.976776
2.120000 -4.200000 -6.080000 22.933319 8.345333 595.581726
2.120000 -4.200000 -6.040000 18.210377 19.100958 696.464417
2.120000 -4.200000 -6.000000 7.598232 24.559191 660.887024
2.120000 -4.200000 -5.960000 -3.619175 21.754410 486.352753
2.120000 -4.200000 -5.920000 -9.145202 12.881800 249.575470
2.120000 -4.200000 -5.880000 -6.703122 4.591663 66.015221
2.120000 -4.200000 -5.840000 -0.499713 2.694307 7.509005
2.120000 -4.200000 -5.800000 2.290251 6.732391 50.570343
2.120000 -4.160000 -6.200000 12.628429 -0.296352 159.565063
2.120000 -4.160000 -6.160000 10.022554 7.807627 161.410645
2.120000 -4.160000 -6.120000 4.155409 8.618320 91.542870
2.120000 -4.160000 -6.080000 2.500309 4.243450 24.258413
2.120000 -4.160000 -6.040000 6.546410 1.229044 44.366028
2.120000 -4.160000 -6.000000 11.964649 3.387032 154.624817
2.120000 -4.160000 -5.960000 14.171843 9.112698 283.882385
2.120000 -4.160000 -5.920000 12.417399 14.639538 368.507874
2.120000 -4.160000 -5.880000 8.626659 18.167847 404.489899
2.120000 -4.160000 -5.840000 4.010536 20.021194 416.932648
2.120000 -4.160000 -5.800000 -1.596718 19.969538 401.331940
2.120000 -4.120000 -6.200000 8.744043 16.990278 365.127869
2.120000 -4.120000 -6.160000 -9.006511 15.913696 334.362976
2.120000 -4.120000 -6.120000 -16.733875 -1.932922 283.758759
2.120000 -4.120000 -6.080000 -4.105606 -20.444099 434.817200
2.120000 -4.120000 -6.040000 21.225256 -22.000109 934.516296
2.120000 -4.120000 -6.000000 40.673409 -2.820007 1662.278564
2.120000 -4.120000 -5.960000 40.722458 24.798035 2273.261230
2.120000 -4.120000 -5.920000 22.880497 43.876209 2448.638916
2.120000 -4.120000 -5.880000 -0.051048 46.096943 2124.930908
2.120000 -4.120000 -5.840000 -15.701050 35.506233 1507.215576
2.120000 -4.120000 -5.800000 -20.210802 21.863842 886.504150
2.120000 -4.080000 -6.200000 -10.071102 23.594490 658.127075
2.120000 -4.080000 -6.160000 -28.728304 2.381996 830.989319
2.120000 -4.080000 -6.120000 -19.356474 -29.822647 1264.063354
2.120000 -4.080000 -6.080000 17.658100 -43.914703 2240.309814
2.120000 -4.080000 -6.040000 57.165718 -22.478037 3773.181641
2.120000 -4.080000 -6.000000 69.377899 24.282383 5402.927246
2.120000 -4.080000 -5.960000 44.411053 66.393013 6380.374023
2.120000 -4.080000 -5.920000 -0.542366 78.450104 6154.712891
2.120000 -4.080000 -5.880000 -36.731331 58.546356 4776.866211
2.120000 -4.080000 -5.840000 -46.848007 26.193552 2880.837891
2.120000 -4.080000 -5.800000 -35.268230 3.688362 1257.452026
2.120000 -4.040000 -6.200000 -27.237492 11.179516 866.862488
2.120000 -4.040000 -6.160000 -28.980309 -23.934544 1412.720703
2.120000 -4.040000 -6.120000 4.955672 -50.879364 2613.268311
2.120000 -4.040000 -6.080000 55.683125 -39.877556 4690.830078
2.120000 -4.040000 -6.040000 85.026001 11.603794 7364.068848
2.120000 -4.040000 -6.000000 66.591415 72.889694 9747.324219
2.120000 -4.040000 -5.960000 8.939796 103.285522 10747.819336
2.120000 -4.040000 -5.920000 -50.620888 84.787827 9751.450195
2.120000 -4.040000 -5.880000 -76.441307 35.332985 7091.693359
2.120000 -4.040000 -5.840000 -61.812050 -8.524299 3893.393066
2.120000 -4.040000 -5.800000 -29.711605 -22.433508 1386.041748
2.120000 -4.000000 -6.200000 -27.191216 -9.573883 831.021423
2.120000 -4.000000 -6.160000 -7.237619 -40.033379 1655.054565
2.120000 -4.000000 -6.120000 38.872131 -43.752899 3425.358887
2.120000 -4.000000 -6.080000 78.907806 -4.226381 6244.304199
2.120000 -4.000000 -6.040000 76.673599 60.578594 9548.607422
2.120000 -4.000000 -6.000000 24.073946 107.622711 12162.203125
2.120000 -4.000000 -5.960000 -48.152824 102.741669 12874.544922
2.120000 -4.000000 -5.920000 -93.491676 49.641525 11204.974609
2.120000 -4.000000 -5.880000 -87.259109 -13.071009 7785.003418
2.120000 -4.000000 -5.840000 -44.966843 -44.728336 4022.641113
2.120000 -4.000000 -5.800000 -5.391739 -35.203293 1268.342651
2.120000 -3.960000 -6.200000 -11.969261 -19.945787 541.097656
2.120000 -3.960000 -6.160000 17.235001 -31.891998 1314.144775
2.120000 -3.960000 -6.120000 53.808605 -12.314270 3047.007324
2.120000 -3.960000 -6.080000 65.931870 37.764008 5773.131348
2.120000 -3.960000 -6.040000 32.841198 88.142426 8847.631836
2.120000 -3.960000 -6.000000 -32.437504 100.242088 11100.667969
2.120000 -3.960000 -5.960000 -88.495499 60.284798 11465.709961
2.120000 -3.960000 -5.920000 -98.173271 -6.097476 9675.170898
2.120000 -3.960000 -5.880000 -59.867249 -53.841499 6482.994141
2.120000 -3.960000 -5.840000 -7.936287 -56.137520 3214.405762
2.120000 -3.960000 -5.800000 18.595591 -25.091698 975.389282
2.120000 -3.920000 -6.200000 1.089936 -13.320298 178.618301
2.120000 -3.920000 -6.160000 22.462873 -9.606878 596.872803
2.120000 -3.920000 -6.120000 37.946667 16.246721 1703.905396
2.120000 -3.920000 -6.080000 26.678900 53.387821 3562.023193
2.120000 -3.920000 -6.040000 -15.161253 73.951447 5698.680176
2.120000 -3.920000 -6.000000 -64.332283 55.686287 7239.605469
2.120000 -3.920000 -5.960000 -86.032204 4.742998 7424.036133
2.120000 -3.920000 -5.920000 -63.812126 -45.386452 6131.917480
2.120000 -3.920000 -5.880000 -15.521400 -61.174313 3983.210449
2.120000 -3.920000 -5.840000 21.756302 -38.043304 1920.629639
2.120000 -3.920000 -5.800000 24.626257 -2.920895 614.984131
2.120000 -3.880000 -6.200000 -1.340212 -2.322961 7.192317
2.120000 -3.880000 -6.160000 6.848277 2.498730 53.142548
2.120000 -3.880000 -6.120000 8.797001 17.579285 386.418457
2.120000 -3.880000 -6.080000 -5.694572 33.268112 1139.195435
2.120000 -3.880000 -6.040000 -32.958633 32.482491 2141.383789
2.120000 -3.880000 -6.000000 -53.671200 7.867752 2942.499268
2.120000 -3.880000 -5.960000 -48.752258 -27.077635 3109.980957
2.120000 -3.880000 -5.920000 -18.677254 -47.037441 2561.360840
2.120000 -3.880000 -5.880000 14.430527 -37.637047 1624.787354
2.120000 -3.880000 -5.840000 26.216026 -9.450312 776.588440
2.120000 -3.880000 -5.800000 12.602952 11.927296 301.094788
2.120000 -3.840000 -6.200000 -13.209988 -4.535938 195.078506
2.120000 -3.840000 -6.160000 -8.567583 -8.453108 144.858521
2.120000 -3.840000 -6.120000 -3.730591 -5.417627 43.267994
2.120000 -3.840000 -6.080000 -5.912182 0.207207 34.996830
2.120000 -3.840000 -6.040000 -13.697603 -0.668571 188.071320
2.120000 -3.840000 -6.000000 -17.212543 -10.720493 411.200653
2.120000 -3.840000 -5.960000 -8.970375 -21.372936 537.270020
2.120000 -3.840000 -5.920000 6.502125 -20.992649 482.968933
2.120000 -3.840000 -5.880000 15.944330 -7.829189 315.517883
2.120000 -3.840000 -5.840000 11.008348 6.920702 169.079849
2.120000 -3.840000 -5.800000 -2.475979 10.304543 112.314064
2.120000 -3.800000 -6.200000 -15.129192 -21.855316 706.547302
2.120000 -3.800000 -6.160000 -2.130022 -29.412525 869.633606
2.120000 -3.800000 -6.120000 12.618094 -25.346588 801.665833
2.120000 -3.800000 -6.080000 19.929447 -13.220661 571.968750
2.120000 -3.800000 -6.040000 17.836159 -1.693405 320.996185
2.120000 -3.800000 -6.000000 11.560808 3.908524 148.928833
2.120000 -3.800000 -5.960000 6.676735 5.040788 69.988327
2.120000 -3.800000 -5.920000 3.741743 5.699355 46.483288
2.120000 -3.800000 -5.880000 0.057501 6.574408 43.226143
2.120000 -3.800000 -5.840000 -4.754574 4.913079 46.744320
2.120000 -3.800000 -5.800000 -7.118789 -0.336091 50.790112
2.160000 -4.200000 -6.200000 12.951524 -4.279309 186.054459
2.160000 -4.200000 -6.160000 15.777506 7.674162 307.822449
2.160000 -4.200000 -6.120000 10.487527 16.190527 372.121368
2.160000 -4.200000 -6.080000 3.713939 18.620293 360.508636
2.160000 -4.200000 -6.040000 -0.612215 18.495171 342.446167
2.160000 -4.200000 -6.000000 -4.132479 19.238123 387.182770
2.160000 -4.200000 -5.960000 -9.848219 19.654737 483.296143
2.160000 -4.200000 -5.920000 -16.902296 16.183863 547.605042
2.160000 -4.200000 -5.880000 -20.924509 8.301190 506.744843
2.160000 -4.200000 -5.840000 -19.200989 0.098594 368.687714
2.160000 -4.200000 -5.800000 -14.095668 -4.004670 214.725235
2.160000 -4.160000 -6.200000 13.634335 11.303755 313.669952
2.160000 -4.160000 -6.160000 2.749007 19.691635 395.317535
2.160000 -4.160000 -6.120000 -7.740805 16.066551 318.054108
2.160000 -4.160000 -6.080000 -8.976320 7.803481 141.468643
2.160000 -4.160000 -6.040000 -3.070206 5.106871 35.506294
2.160000 -4.160000 -6.000000 0.831169 10.505179 111.049637
2.160000 -4.160000 -5.960000 -3.173969 17.533037 317.481445
2.160000 -4.160000 -5.920000 -12.319155 18.603016 497.833771
2.160000 -4.160000 -5.880000 -19.373188 12.629900 534.834778
2.160000 -4.160000 -5.840000 -20.465815 4.637573 440.356659
2.160000 -4.160000 -5.800000 -17.679283 -0.693492 313.037964
2.160000 -4.120000 -6.200000 -0.738628 21.539305 464.487213
2.160000 -4.120000 -6.160000 -16.886686 15.951015 539.595093
2.160000 -4.120000 -6.120000 -19.948490 0.161389 397.968292
2.160000 -4.120000 -6.080000 -7.890856 -9.902279 160.320740
2.160000 -4.120000 -6.040000 7.238308 -4.331133 71.151825
2.160000 -4.120000 -6.000000 11.104551 12.243253 273.208282
2.160000 -4.120000 -5.960000 -0.138913 25.993576 675.685303
2.160000 -4.120000 -5.920000 -17.879190 26.683279 1031.662842
2.160000 -4.120000 -5.880000 -30.081104 15.321742 1139.628662
2.160000 -4.120000 -5.840000 -31.319975 0.833792 981.636047
2.160000 -4.120000 -5.800000 -24.763393 -8.861812 691.757324
2.160000 -4.080000 -6.200000 -18.542181 14.711672 560.245728
2.160000 -4.080000 -6.160000 -26.077763 -3.527514 692.493042
2.160000 -4.080000 -6.120000 -14.194530 -20.458757 620.045471
2.160000 -4.080000 -6.080000 8.023994 -20.025688 465.412689
2.160000 -4.080000 -6.040000 21.896786 -0.364210 479.601898
2.160000 -4.080000 -6.000000 14.897243 24.389299 816.765808
2.160000 -4.080000 -5.960000 -9.158674 35.953655 1376.546631
2.160000 -4.080000 -5.920000 -33.961502 26.530762 1857.265015
2.160000 -4.080000 -5.880000 -44.274857 3.732510 1974.194580
2.160000 -4.080000 -5.840000 -36.914825 -17.195095 1658.375610
2.160000 -4.080000 -5.800000 -20.693878 -25.645355 1085.920898
2.160000 -4.040000 -6.200000 -22.782919 -4.492387 539.242920
2.160000 -4.040000 -6.160000 -15.136126 -22.835831 750.577454
2.160000 -4.040000 -6.120000 6.561090 -28.111759 833.318909
2.160000 -4.040000 -6.080000 26.390934 -12.559509 854.222656
2.160000 -4.040000 -6.040000 27.400497 15.509932 991.345215
2.160000 -4.040000 -6.000000 5.414835 36.684464 1375.070312
2.160000 -4.040000 -5.960000 -26.577553 35.077198 1936.776123
2.160000 -4.040000 -5.920000 -47.835983 10.872334 2406.488770
2.160000 -4.040000 -5.880000 -45.682419 -19.851818 2480.978027
2.160000 -4.040000 -5.840000 -24.638586 -37.942947 2046.727173
2.160000 -4.040000 -5.800000 -1.455127 -35.718822 1277.951660
2.160000 -4.000000 -6.200000 -9.075744 -18.191133 413.286438
2.160000 -4.000000 -6.160000 6.749296 -24.441813 642.955200
2.160000 -4.000000 -6.120000 24.601109 -15.269547 838.373596
2.160000 -4.000000 -6.080000 30.819309 7.412721 1004.778259
2.160000 -4.000000 -6.040000 16.822941 30.483496 1212.254883
2.160000 -4.000000 -6.000000 -12.466191 37.118469 1533.186646
2.160000 -4.000000 -5.960000 -39.475723 19.630394 1943.685059
2.160000 -4.000000 -5.920000 -46.032135 -12.695704 2280.138428
2.160000 -4.000000 -5.880000 -27.865471 -39.188271 2312.205078
2.160000 -4.000000 -5.840000 1.250462 -43.723885 1913.341675
2.160000 -4.000000 -5.800000 20.664177 -27.637978 1190.865967
2.160000 -3.960000 -6.200000 8.670347 -13.637261 261.149811
2.160000 -3.960000 -6.160000 18.971676 -7.373496 414.292938
2.160000 -3.960000 -6.120000 23.343990 6.343024 585.175842
2.160000 -3.960000 -6.080000 16.337734 22.294794 763.979370
2.160000 -3.960000 -6.040000 -2.705170 30.710627 950.460510
2.160000 -3.960000 -6.000000 -25.413879 22.567822 1155.171875
2.160000 -3.960000 -5.960000 -37.056496 -1.581002 1375.683350
2.160000 -3.960000 -5.920000 -27.500513 -28.281912 1556.144775
2.160000 -3.960000 -5.880000 -1.556911 -39.757465 1583.079956
2.160000 -3.960000 -5.840000 22.775967 -28.912563 1354.680908
2.160000 -3.960000 -5.800000 29.055584 -6.454537 885.888000
2.160000 -3.920000 -6.200000 12.420579 2.773136 161.961060
2.160000 -3.920000 -6.160000 10.208718 10.400761 212.393738
2.160000 -3.920000 -6.120000 4.409609 15.609690 263.107056
2.160000 -3.920000 -6.080000 -4.163090 17.711226 331.018829
2.160000 -3.920000 -6.040000 -14.730328 14.192125 418.398987
2.160000 -3.920000 -6.000000 -22.542738 2.420220 514.032532
2.160000 -3.920000 -5.960000 -20.019369 -14.447132 609.494751
2.160000 -3.920000 -5.920000 -4.594663 -26.003281 697.281494
2.160000 -3.920000 -5.880000 15.387351 -22.562088 745.818359
2.160000 -3.920000 -5.840000 25.726135 -5.688828 694.196777
2.160000 -3.920000 -5.800000 19.525867 11.062770 503.644379
2.160000 -3.880000 -6.200000 -0.353284 11.809855 139.597473
2.160000 -3.880000 -6.160000 -8.941025 9.827696 176.525528
2.160000 -3.880000 -6.120000 -12.411320 2.967807 162.848740
2.160000 -3.880000 -6.080000 -10.724939 -2.818365 122.967506
2.160000 -3.880000 -6.040000 -7.768826 -5.869369 94.804138
2.160000 -3.880000 -6.000000 -4.901168 -8.458933 95.574989
2.160000 -3.880000 -5.960000 0.208229 -11.021989 121.527596
2.160000 -3.880000 -5.920000 8.225658 -9.843382 164.553619
2.160000 -3.880000 -5.880000 14.394859 -2.099049 211.617981
2.160000 -3.880000 -5.840000 12.720635 8.381646 232.066559
2.160000 -3.880000 -5.800000 3.813188 13.245949 189.995560
2.160000 -3.840000 -6.200000 -13.154583 2.407928 178.841187
2.160000 -3.840000 -6.160000 -15.982818 -8.708056 331.280701
2.160000 -3.840000 -6.120000 -8.301776 -18.658188 417.047455
2.160000 -3.840000 -6.080000 4.444843 -19.589359 403.499634
2.160000 -3.840000 -6.040000 13.468699 -11.806940 320.809692
2.160000 -3.840000 -6.000000 14.785673 -1.794619 221.836792
2.160000 -3.840000 -5.960000 10.914852 4.924137 143.381119
2.160000 -3.840000 -5.920000 6.108539 7.643858 95.742813
2.160000 -3.840000 -5.880000 2.035196 8.158584 70.704506
2.160000 -3.840000 -5.840000 -1.454430 7.092638 52.420883
2.160000 -3.840000 -5.800000 -3.373776 4.170121 28.772274
2.160000 -3.800000 -6.200000 -7.999901 -15.133068 293.008179
2.160000 -3.800000 -6.160000 -0.233353 -24.310410 591.050476
2.160000 -3.800000 -6.120000 14.723139 -25.540524 869.089172
2.160000 -3.800000 -6.080000 28.082190 -14.981625 1013.058472
2.160000 -3.800000 -6.040000 31.151234 2.527844 976.789368
2.160000 -3.800000 -6.000000 22.251469 17.299149 794.388428
2.160000 -3.800000 -5.960000 7.382605 22.161942 545.654480
2.160000 -3.800000 -5.920000 -4.903467 16.885616 309.168030
2.160000 -3.800000 -5.880000 -9.278211 6.919876 133.969879
2.160000 -3.800000 -5.840000 -5.913426 -1.019617 36.008224
2.160000 -3.800000 -5.800000 0.852834 -2.771522 8.408658
2.200000 -4.200000 -6.200000 12.569200 8.292486 226.750092
2.200000 -4.200000 -6.160000 3.651941 18.774658 365.824463
2.200000 -4.200000 -6.120000 -8.120918 18.034943 391.208466
2.200000 -4.200000 -6.080000 -12.783274 10.855294 281.249481
2.200000 -4.200000 -6.040000 -10.464228 7.126210 160.282928
2.200000 -4.200000 -6.000000 -9.671104 10.149111 196.534698
2.200000 -4.200000 -5.960000 -16.395437 13.311393 446.003540
2.200000 -4.200000 -5.920000 -26.702988 8.281658 781.635437
2.200000 -4.200000 -5.880000 -30.933727 -4.958778 981.484985
2.200000 -4.200000 -5.840000 -24.403566 -17.641256 906.747986
2.200000 -4.200000 -5.800000 -12.422757 -21.469414 615.260620
2.200000 -4.160000 -6.200000 3.427962 17.993212 335.506592
2.200000 -4.160000 -6.160000 -11.688286 19.380877 512.234375
2.200000 -4.160000 -6.120000 -20.461044 9.511100 509.115356
2.200000 -4.160000 -6.080000 -17.946558 -0.366809 322.213501
2.200000 -4.160000 -6.040000 -11.126839 -1.430749 125.853584
2.200000 -4.160000 -6.000000 -10.182076 4.178585 121.135231
2.200000 -4.160000 -5.960000 -17.489822 6.944488 354.119812
2.200000 -4.160000 -5.920000 -25.896255 0.771502 671.211243
2.200000 -4.160000 -5.880000 -27.032784 -10.965754 851.019104
2.200000 -4.160000 -5.840000 -19.903164 -19.864985 790.753540
2.200000 -4.160000 -5.800000 -10.667038 -21.446058 573.719116
2.200000 -4.120000 -6.200000 -11.086646 16.140797 383.439056
2.200000 -4.120000 -6.160000 -23.270428 7.625898 599.667114
2.200000 -4.120000 -6.120000 -24.066086 -5.691322 611.567688
2.200000 -4.120000 -6.080000 -15.613356 -12.698291 405.023468
2.200000 -4.120000 -6.040000 -7.758505 -9.644638 153.213440
2.200000 -4.120000 -6.000000 -8.190878 -2.572534 73.708412
2.200000 -4.120000 -5.960000 -15.784482 -0.480838 249.381073
2.200000 -4.120000 -5.920000 -22.886332 -6.845536 570.645508
2.200000 -4.120000 -5.880000 -23.034245 -17.489332 836.453125
2.200000 -4.120000 -5.840000 -16.082016 -25.563305 912.113770
2.200000 -4.120000 -5.800000 -6.675219 -27.553194 803.737061
2.200000 -4.080000 -6.200000 -17.916920 2.386435 326.711090
2.200000 -4.080000 -6.160000 -21.479811 -9.016006 542.670654
2.200000 -4.080000 -6.120000 -16.010004 -18.777523 608.915588
2.200000 -4.080000 -6.080000 -6.416619 -20.884800 477.347870
2.200000 -4.080000 -6.040000 -0.230935 -15.514038 240.738708
2.200000 -4.080000 -6.000000 -1.778847 -8.574027 76.678238
2.200000 -4.080000 -5.960000 -9.050496 -6.969182 130.480972
2.200000 -4.080000 -5.920000 -15.418718 -13.307924 414.837708
2.200000 -4.080000 -5.880000 -14.741064 -24.023350 794.420288
2.200000 -4.080000 -5.840000 -5.940778 -32.111591 1066.447144
2.200000 -4.080000 -5.800000 6.303857 -32.319836 1084.310425
2.200000 -4.040000 -6.200000 -9.516001 -11.052785 212.718323
2.200000 -4.040000 -6.160000 -7.345562 -17.035225 344.156158
2.200000 -4.040000 -6.120000 -2.124239 -21.073809 448.617798
2.200000 -4.040000 -6.080000 4.708644 -21.090111 466.964111
2.200000 -4.040000 -6.040000 9.484030 -16.313721 356.084290
2.200000 -4.040000 -6.000000 8.351121 -9.899649 167.744263
2.200000 -4.040000 -5.960000 1.734917 -7.989112 66.835854
2.200000 -4.040000 -5.920000 -4.081606 -14.216372 218.764755
2.200000 -4.040000 -5.880000 -1.674126 -24.876026 621.619324
2.200000 -4.040000 -5.840000 10.030012 -30.814690 1050.146240
2.200000 -4.040000 -5.800000 23.384953 -25.644081 1204.474854
2.200000 -4.000000 -6.200000 6.860429 -10.638753 160.248550
2.200000 -4.000000 -6.160000 6.261701 -9.564745 130.693237
2.200000 -4.000000 -6.120000 6.238813 -12.395563 192.572769
2.200000 -4.000000 -6.080000 10.931322 -15.009514 344.779297
2.200000 -4.000000 -6.040000 17.077402 -11.916864 433.649323
2.200000 -4.000000 -6.000000 17.620579 -4.692058 332.500214
2.200000 -4.000000 -5.960000 11.276121 -1.429294 129.193787
2.200000 -4.000000 -5.920000 5.800519 -7.107628 84.164398
2.200000 -4.000000 -5.880000 9.856832 -16.290083 362.523926
2.200000 -4.000000 -5.840000 22.335796 -17.843912 817.292969
2.200000 -4.000000 -5.800000 32.049095 -7.318331 1080.702515
2.200000 -3.960000 -6.200000 15.131368 4.067240 245.500717
2.200000 -3.960000 -6.160000 6.124093 5.546645 68.269783
2.200000 -3.960000 -6.120000 2.449674 -2.838744 14.059370
2.200000 -3.960000 -6.080000 9.738953 -9.869102 192.246384
2.200000 -3.960000 -6.040000 19.982697 -6.329851 439.375183
2.200000 -3.960000 -6.000000 21.844734 3.982004 493.048767
2.200000 -3.960000 -5.960000 14.539000 9.347826 298.764343
2.200000 -3.960000 -5.920000 8.503860 4.684031 94.255791
2.200000 -3.960000 -5.880000 12.362055 -2.217568 157.738007
2.200000 -3.960000 -5.840000 22.056252 -0.259677 486.545685
2.200000 -3.960000 -5.800000 25.444931 11.088005 770.388367
2.200000 -3.920000 -6.200000 6.805551 18.806702 400.007538
2.200000 -3.920000 -6.160000 -7.585869 12.296897 208.759079
2.200000 -3.920000 -6.120000 -7.823034 -3.818210 75.778587
2.200000 -3.920000 -6.080000 6.652280 -11.832911 184.270615
2.200000 -3.920000 -6.040000 20.874817 -3.689080 449.367310
2.200000 -3.920000 -6.000000 21.729237 11.363752 601.294617
2.200000 -3.920000 -5.960000 11.587996 18.661198 482.521973
2.200000 -3.920000 -5.920000 3.468811 14.543901 223.557724
2.200000 -3.920000 -5.880000 5.016864 8.531301 97.952034
2.200000 -3.920000 -5.840000 10.623901 10.197172 216.849609
2.200000 -3.920000 -5.800000 10.141929 17.524658 409.972351
2.200000 -3.880000 -6.200000 -9.436440 19.008213 450.358551
2.200000 -3.880000 -6.160000 -20.262196 2.761139 418.180481
2.200000 -3.880000 -6.120000 -11.011975 -15.926766 374.925476
2.200000 -3.880000 -6.080000 10.506968 -18.475471 451.739410
2.200000 -3.880000 -6.040000 24.925774 -2.665466 628.398926
2.200000 -3.880000 -6.000000 21.352554 16.709120 735.126221
2.200000 -3.880000 -5.960000 6.593238 24.306746 634.288635
2.200000 -3.880000 -5.920000 -4.635293 18.796623 374.798981
2.200000 -3.880000 -5.880000 -5.522549 10.710872 145.221313
2.200000 -3.880000 -5.840000 -1.470757 8.779693 79.246124
2.200000 -3.880000 -5.800000 -0.539227 11.581284 134.416901
2.200000 -3.840000 -6.200000 -16.299044 5.592447 296.934265
2.200000 -3.840000 -6.160000 -17.377728 -13.601636 486.989929
2.200000 -3.840000 -6.120000 0.409363 -26.570419 706.154785
2.200000 -3.840000 -6.080000 23.316359 -19.491203 923.559570
2.200000 -3.840000 -6.040000 32.521397 3.185913 1067.791260
2.200000 -3.840000 -6.000000 21.896763 23.865677 1049.038818
2.200000 -3.840000 -5.960000 2.064198 28.833193 835.613953
2.200000 -3.840000 -5.920000 -11.477078 19.302799 504.321381
2.200000 -3.840000 -5.880000 -12.297350 7.024834 200.573090
2.200000 -3.840000 -5.840000 -5.671968 1.715055 35.112640
2.200000 -3.840000 -5.800000 -0.291073 3.985887 15.972015
2.200000 -3.800000 -6.200000 -6.476997 -5.160329 68.580482
2.200000 -3.800000 -6.160000 -0.442781 -18.595730 345.997223
2.200000 -3.800000 -6.120000 18.326267 -21.905756 815.714233
2.200000 -3.800000 -6.080000 35.546295 -7.180644 1315.100708
2.200000 -3.800000 -6.040000 36.260353 17.523468 1621.885132
2.200000 -3.800000 -6.000000 18.712404 35.114258 1583.165161
2.200000 -3.800000 -5.960000 -4.400596 34.541328 1212.468628
2.200000 -3.800000 -5.920000 -17.501560 19.473549 685.523682
2.200000 -3.800000 -5.880000 -14.903740 3.561555 234.806137
2.200000 -3.800000 -5.840000 -3.593083 -1.811425 16.191505
2.200000 -3.800000 -5.800000 4.560059 4.224844 38.643440
