#kx 	ky 	kz 	real 	imag 	intensity
4.800000 2.800000 -5.200000 -20.194677 -13.969595 602.974548
4.800000 2.800000 -5.160000 -3.733439 -26.992014 742.507385
4.800000 2.800000 -5.120000 15.200695 -19.892666 626.779297
4.800000 2.800000 -5.080000 17.987560 -1.139378 324.850525
4.800000 2.800000 -5.040000 3.304907 9.121675 94.127373
4.800000 2.800000 -5.000000 -12.002673 0.466413 144.281708
4.800000 2.800000 -4.960000 -11.297405 -17.303223 427.032898
4.800000 2.800000 -4.920000 4.461093 -25.521240 671.235046
4.800000 2.800000 -4.880000 18.903021 -16.798695 639.520325
4.800000 2.800000 -4.840000 18.736162 -1.909906 354.691498
4.800000 2.800000 -4.800000 7.654155 3.368402 69.932220
4.800000 2.840000 -5.200000 -6.193244 -27.666859 803.811340
4.800000 2.840000 -5.160000 13.986835 -31.966198 1217.469360
4.800000 2.840000 -5.120000 29.021173 -19.830551 1235.479248
4.800000 2.840000 -5.080000 28.774639 -3.348969 839.195435
4.800000 2.840000 -5.040000 18.134043 3.689135 342.453217
4.800000 2.840000 -5.000000 10.158545 -0.990047 104.176224
4.800000 2.840000 -4.960000 12.053489 -8.046291 210.029388
4.800000 2.840000 -4.920000 19.184881 -8.168516 434.784302
4.800000 2.840000 -4.880000 22.372498 -1.779319 503.694641
4.800000 2.840000 -4.840000 18.934965 3.330845 369.627411
4.800000 2.840000 -4.800000 14.802614 2.419109 224.969482
4.800000 2.880000 -5.200000 10.615108 -25.527239 764.320435
4.800000 2.880000 -5.160000 29.081215 -22.794777 1365.318848
4.800000 2.880000 -5.120000 40.256454 -8.683521 1695.985718
4.800000 2.880000 -5.080000 39.411530 7.269424 1606.113159
4.800000 2.880000 -5.040000 30.572018 16.759178 1215.518311
4.800000 2.880000 -5.000000 21.108181 18.162962 775.448486
4.800000 2.880000 -4.960000 15.509580 15.050662 467.069489
4.800000 2.880000 -4.920000 13.956044 11.354482 323.695435
4.800000 2.880000 -4.880000 14.971353 8.842012 302.322571
4.800000 2.880000 -4.840000 17.603331 8.200369 377.123291
4.800000 2.880000 -4.800000 20.768017 10.478663 541.112915
4.800000 2.920000 -5.200000 17.474545 -13.776211 495.143677
4.800000 2.920000 -5.160000 32.876961 -7.276781 1133.846069
4.800000 2.920000 -5.120000 41.077602 8.449560 1758.764404
4.800000 2.920000 -5.080000 37.650749 26.067410 2097.088623
4.800000 2.920000 -5.040000 24.463043 37.306080 1990.184082
4.800000 2.920000 -5.000000 8.516451 37.509521 1479.494141
4.800000 2.920000 -4.960000 -1.951542 28.218897 800.114685
4.800000 2.920000 -4.920000 -2.264077 16.369606 273.090027
4.800000 2.920000 -4.880000 5.714671 10.080961 134.283234
4.800000 2.920000 -4.840000 14.744071 13.315521 394.690735
4.800000 2.920000 -4.800000 17.240091 23.154018 833.329346
4.800000 2.960000 -5.200000 13.474575 -4.569348 202.443115
4.800000 2.960000 -5.160000 26.291779 4.810185 714.395508
4.800000 2.960000 -5.120000 29.845617 22.491169 1396.613525
4.800000 2.960000 -5.080000 19.875401 39.208431 1932.332520
4.800000 2.960000 -5.040000 0.817734 44.812305 2008.811401
4.800000 2.960000 -5.000000 -16.090576 35.849331 1544.081177
4.800000 2.960000 -4.960000 -20.636616 18.970827 785.762207
4.800000 2.960000 -4.920000 -11.577264 6.487883 176.125671
4.800000 2.960000 -4.880000 2.189482 6.888163 52.240616
4.800000 2.960000 -4.840000 8.818924 18.239321 410.446228
4.800000 2.960000 -4.800000 3.095638 30.296745 927.475708
4.800000 3.000000 -5.200000 7.078468 -3.224839 60.504295
4.800000 3.000000 -5.160000 15.671163 9.437654 334.654663
4.800000 3.000000 -5.120000 11.562705 25.945175 806.848267
4.800000 3.000000 -5.080000 -4.335184 34.585709 1214.965088
4.800000 3.000000 -5.040000 -21.611103 28.581875 1283.963379
4.800000 3.000000 -5.000000 -28.174032 12.298543 945.030212
4.800000 3.000000 -4.960000 -20.259350 -1.801311 413.685974
4.800000 3.000000 -4.920000 -5.652069 -3.389536 43.434837
4.800000 3.000000 -4.880000 3.030087 7.258944 61.873695
4.800000 3.000000 -4.840000 -0.984775 20.139252 406.559235
4.800000 3.000000 -4.800000 -13.646405 24.665281 794.600464
4.800000 3.040000 -5.200000 4.744797 -5.274007 50.328255
4.800000 3.040000 -5.160000 5.623219 8.100512 97.238876
4.800000 3.040000 -5.120000 -5.239465 16.520954 300.393921
4.800000 3.040000 -5.080000 -18.614138 12.214790 495.687195
4.800000 3.040000 -5.040000 -22.723728 -1.324017 518.120789
4.800000 3.040000 -5.000000 -14.004090 -12.259241 346.403534
4.800000 3.040000 -4.960000 -0.351097 -11.171556 124.926941
4.800000 3.040000 -4.920000 6.260710 0.584255 39.537842
4.800000 3.040000 -4.880000 0.520363 12.669193 160.779236
4.800000 3.040000 -4.840000 -12.265838 15.515562 391.183441
4.800000 3.040000 -4.800000 -22.132824 8.310711 558.929810
4.800000 3.080000 -5.200000 4.396049 -4.824464 42.600708
4.800000 3.080000 -5.160000 -2.867393 2.497814 14.461016
4.800000 3.080000 -5.120000 -12.571762 -2.152361 162.681854
4.800000 3.080000 -5.080000 -12.261637 -14.803710 369.497559
4.800000 3.080000 -5.040000 0.755786 -22.149000 491.149414
4.800000 3.080000 -5.000000 15.917803 -14.857656 474.126404
4.800000 3.080000 -4.960000 19.414377 2.733425 384.389648
4.800000 3.080000 -4.920000 7.586299 16.513327 330.241913
4.800000 3.080000 -4.880000 -9.872689 16.033630 354.547302
4.800000 3.080000 -4.840000 -19.695023 3.675202 401.401031
4.800000 3.080000 -4.800000 -17.311365 -9.167712 383.730286
4.800000 3.120000 -5.200000 0.359053 -3.018832 9.242268
4.800000 3.120000 -5.160000 -8.651557 -7.865603 136.717163
4.800000 3.120000 -5.120000 -6.387071 -22.143513 531.129822
4.800000 3.120000 -5.080000 11.585657 -29.773474 1020.687134
4.800000 3.120000 -5.040000 32.266747 -17.992302 1364.865845
4.800000 3.120000 -5.000000 36.688034 8.182975 1412.972900
4.800000 3.120000 -4.960000 18.757801 29.061802 1196.443359
4.800000 3.120000 -4.920000 -8.047566 28.586222 881.935364
4.800000 3.120000 -4.880000 -23.288404 9.234486 627.625488
4.800000 3.120000 -4.840000 -18.466419 -11.443085 471.952820
4.800000 3.120000 -4.800000 -3.118363 -18.407740 348.569061
4.800000 3.160000 -5.200000 -7.384008 -6.460418 96.260574
4.800000 3.160000 -5.160000 -7.758926 -22.349264 559.690552
4.800000 3.160000 -5.120000 11.396355 -34.447212 1316.487427
4.800000 3.160000 -5.080000 38.584675 -24.397020 2083.991699
4.800000 3.160000 -5.040000 49.849121 7.313296 2538.419189
4.800000 3.160000 -5.000000 31.839666 38.567917 2501.248535
4.800000 3.160000 -4.960000 -3.748458 45.050552 2043.603149
4.800000 3.160000 -4.920000 -29.942120 22.990595 1425.097900
4.800000 3.160000 -4.880000 -29.147333 -7.752661 909.670776
4.800000 3.160000 -4.840000 -7.978382 -23.141502 599.183716
4.800000 3.160000 -4.800000 11.888749 -16.683071 419.667236
4.800000 3.200000 -5.200000 -11.356932 -17.990284 452.630249
4.800000 3.200000 -5.160000 3.306133 -35.447445 1267.451904
4.800000 3.200000 -5.120000 33.201019 -33.238289 2207.091553
4.800000 3.200000 -5.080000 53.931805 -3.745100 2922.665527
4.800000 3.200000 -5.040000 44.075451 35.028908 3169.669922
4.800000 3.200000 -5.000000 6.996324 53.523300 2913.692139
4.800000 3.200000 -4.960000 -30.161703 37.549854 2319.719971
4.800000 3.200000 -4.920000 -40.506168 1.473623 1642.921143
4.800000 3.200000 -4.880000 -20.970572 -25.528465 1091.467407
4.800000 3.200000 -4.840000 7.411172 -26.101337 736.205322
4.800000 3.200000 -4.800000 21.354782 -7.752738 516.131653
4.840000 2.800000 -5.200000 11.885710 -15.097996 369.219574
4.840000 2.800000 -5.160000 24.569075 -7.742004 663.578064
4.840000 2.800000 -5.120000 24.715534 8.336584 680.356262
4.840000 2.800000 -5.080000 10.566360 17.133564 405.206970
4.840000 2.800000 -5.040000 -4.083397 9.520332 107.310852
4.840000 2.800000 -5.000000 -4.581745 -6.378836 61.681931
4.840000 2.800000 -4.960000 8.604176 -13.801332 264.508575
4.840000 2.800000 -4.920000 20.451248 -5.611479 449.742249
4.840000 2.800000 -4.880000 17.998859 8.069142 389.070007
4.840000 2.800000 -4.840000 4.575084 11.289550 148.385330
4.840000 2.800000 -4.800000 -4.110571 0.045574 16.898870
4.840000 2.840000 -5.200000 20.155231 -9.061493 488.344025
4.840000 2.840000 -5.160000 31.566902 -1.448028 998.566101
4.840000 2.840000 -5.120000 34.129166 12.774595 1327.990234
4.840000 2.840000 -5.080000 26.723843 24.204361 1300.014893
4.840000 2.840000 -5.040000 15.786915 27.556225 1008.572205
4.840000 2.840000 -5.000000 7.676254 24.990089 683.429443
4.840000 2.840000 -4.960000 3.197548 21.225830 460.760162
4.840000 2.840000 -4.920000 -0.236685 17.509399 306.635101
4.840000 2.840000 -4.880000 -2.895632 11.769810 146.913116
4.840000 2.840000 -4.840000 -1.422956 3.896096 17.204369
4.840000 2.840000 -4.800000 6.218307 -1.427059 40.703835
4.840000 2.880000 -5.200000 19.041220 1.128519 363.841614
4.840000 2.880000 -5.160000 32.648148 9.487099 1155.906494
4.840000 2.880000 -5.120000 38.160370 28.875444 2290.005127
4.840000 2.880000 -5.080000 28.352581 50.278099 3331.756104
4.840000 2.880000 -5.040000 5.087864 61.499790 3808.110596
4.840000 2.880000 -5.000000 -20.986635 55.109657 3477.513184
4.840000 2.880000 -4.960000 -36.705593 33.676334 2481.395996
4.840000 2.880000 -4.920000 -34.658863 8.590580 1275.034912
4.840000 2.880000 -4.880000 -17.913673 -6.994977 369.829407
4.840000 2.880000 -4.840000 2.150852 -6.513472 47.051476
4.840000 2.880000 -4.800000 13.625523 6.232231 224.495575
4.840000 2.920000 -5.200000 10.107718 4.954140 126.709457
4.840000 2.920000 -5.160000 26.400871 19.070887 1060.704712
4.840000 2.920000 -5.120000 26.959789 47.934383 3024.535400
4.840000 2.920000 -5.080000 2.104776 73.510971 5408.292969
4.840000 2.920000 -5.040000 -38.824799 74.726677 7091.441406
4.840000 2.920000 -5.000000 -71.463219 45.231590 7152.888672
4.840000 2.920000 -4.960000 -74.411911 0.892332 5537.928711
4.840000 2.920000 -4.920000 -46.579395 -31.048935 3133.676514
4.840000 2.920000 -4.880000 -8.356435 -32.894955 1151.907959
4.840000 2.920000 -4.840000 14.836498 -9.523194 310.812897
4.840000 2.920000 -4.800000 12.233863 17.576792 458.611023
4.840000 2.960000 -5.200000 3.288649 -0.634680 11.218028
4.840000 2.960000 -5.160000 16.165882 23.239763 801.422363
4.840000 2.960000 -5.120000 1.781081 55.770077 3113.473877
4.840000 2.960000 -5.080000 -40.087494 68.926910 6357.926270
4.840000 2.960000 -5.040000 -84.228874 44.082558 9037.775391
4.840000 2.960000 -5.000000 -98.076767 -8.895720 9698.185547
4.840000 2.960000 -4.960000 -69.231850 -56.450645 7979.724121
4.840000 2.960000 -4.920000 -17.232655 -67.855011 4901.267090
4.840000 2.960000 -4.880000 22.178711 -40.157127 2104.489990
4.840000 2.960000 -4.840000 26.371208 1.042028 696.526428
4.840000 2.960000 -4.800000 2.119643 24.974342 628.210632
4.840000 3.000000 -5.200000 5.333846 -8.111671 94.249130
4.840000 3.000000 -5.160000 5.821494 21.887316 512.944397
4.840000 3.000000 -5.120000 -24.869823 44.025814 2556.780518
4.840000 3.000000 -5.080000 -69.279449 31.735685 5806.795898
4.840000 3.000000 -5.040000 -92.351303 -16.055622 8786.546875
4.840000 3.000000 -5.000000 -71.142120 -69.496643 9890.984375
4.840000 3.000000 -4.960000 -16.593349 -90.884781 8535.381836
4.840000 3.000000 -4.920000 34.099998 -66.434875 5576.402832
4.840000 3.000000 -4.880000 48.431267 -17.387341 2647.907227
4.840000 3.000000 -4.840000 24.455954 19.542507 980.003296
4.840000 3.000000 -4.800000 -11.547594 23.349302 678.536865
4.840000 3.040000 -5.200000 12.195554 -8.464682 220.382370
4.840000 3.040000 -5.160000 -2.941108 16.312885 274.760345
4.840000 3.040000 -5.120000 -38.182735 16.781586 1739.542847
4.840000 3.040000 -5.080000 -63.802860 -17.043064 4361.270996
4.840000 3.040000 -5.040000 -52.603050 -64.610077 6941.542969
4.840000 3.040000 -5.000000 -5.818219 -89.764862 8091.582031
4.840000 3.040000 -4.960000 45.449356 -71.760178 7215.166992
4.840000 3.040000 -4.920000 66.024773 -23.585594 4915.550781
4.840000 3.040000 -4.880000 45.937206 19.708511 2498.652344
4.840000 3.040000 -4.840000 6.339183 31.208019 1014.125732
4.840000 3.040000 -4.800000 -21.816883 12.371891 629.040039
4.840000 3.080000 -5.200000 14.024521 -1.876440 200.208206
4.840000 3.080000 -5.160000 -9.104155 6.688094 127.616226
4.840000 3.080000 -5.120000 -31.274807 -12.472630 1133.680054
4.840000 3.080000 -5.080000 -27.098650 -47.658951 3005.712402
4.840000 3.080000 -5.040000 7.993553 -69.231842 4856.944824
4.840000 3.080000 -5.000000 50.989010 -55.636780 5695.330078
4.840000 3.080000 -4.960000 70.232559 -13.492170 5114.650879
4.840000 3.080000 -4.920000 52.728546 27.718765 3548.629395
4.840000 3.080000 -4.880000 14.170621 41.202290 1898.435181
4.840000 3.080000 -4.840000 -16.731812 24.195492 865.375366
4.840000 3.080000 -4.800000 -23.142105 -3.885598 550.654907
4.840000 3.120000 -5.200000 6.990466 2.312778 54.215561
4.840000 3.120000 -5.160000 -9.910252 -6.645504 142.375809
4.840000 3.120000 -5.120000 -8.852224 -30.155464 987.713867
4.840000 3.120000 -5.080000 16.549555 -45.141472 2311.640137
4.840000 3.120000 -5.040000 49.126251 -32.561203 3473.620605
4.840000 3.120000 -5.000000 62.231506 3.604622 3885.753906
4.840000 3.120000 -4.960000 43.766403 38.552151 3401.766357
4.840000 3.120000 -4.920000 6.933026 48.278080 2378.839844
4.840000 3.120000 -4.880000 -22.237713 29.690983 1376.070312
4.840000 3.120000 -4.840000 -27.547756 0.562303 759.195007
4.840000 3.120000 -4.800000 -13.558672 -18.594147 529.579834
4.840000 3.160000 -5.200000 -1.655175 -3.633274 15.940286
4.840000 3.160000 -5.160000 -2.052821 -19.967058 402.897491
4.840000 3.160000 -5.120000 17.248177 -30.492191 1227.273315
4.840000 3.160000 -5.080000 42.667439 -18.273808 2154.442383
4.840000 3.160000 -5.040000 50.836025 13.986630 2779.927246
4.840000 3.160000 -5.000000 30.491543 44.033237 2868.660156
4.840000 3.160000 -4.960000 -6.030657 49.357128 2472.494873
4.840000 3.160000 -4.920000 -33.405758 27.108749 1850.828979
4.840000 3.160000 -4.880000 -35.420830 -4.614271 1275.926636
4.840000 3.160000 -4.840000 -17.003880 -24.232735 876.357300
4.840000 3.160000 -4.800000 4.074782 -24.679794 625.696045
4.840000 3.200000 -5.200000 -1.200692 -16.498228 273.633179
4.840000 3.200000 -5.160000 13.784338 -26.373291 885.558472
4.840000 3.200000 -5.120000 35.898163 -16.990185 1577.344482
4.840000 3.200000 -5.080000 43.925575 11.580767 2063.570312
4.840000 3.200000 -5.040000 25.296822 39.861713 2228.885254
4.840000 3.200000 -5.000000 -10.376093 45.161709 2147.243164
4.840000 3.200000 -4.960000 -38.316574 22.183758 1960.278931
4.840000 3.200000 -4.920000 -39.985779 -12.159667 1746.720093
4.840000 3.200000 -4.880000 -18.145615 -34.176510 1497.297119
4.840000 3.200000 -4.840000 8.221284 -33.417023 1184.286865
4.840000 3.200000 -4.800000 22.394714 -18.192677 832.496704
4.880000 2.800000 -5.200000 33.360771 15.211948 1344.344482
4.880000 2.800000 -5.160000 25.853840 32.608150 1731.712524
4.880000 2.800000 -5.120000 5.061089 39.001438 1546.726807
4.880000 2.800000 -5.080000 -13.633192 26.562721 891.442139
4.880000 2.800000 -5.040000 -14.800953 5.382431 248.038773
4.880000 2.800000 -5.000000 0.416786 -5.503465 30.461834
4.880000 2.800000 -4.960000 14.644234 2.275593 219.631912
4.880000 2.800000 -4.920000 12.255429 17.377609 452.176819
4.880000 2.800000 -4.880000 -3.963337 20.692654 443.893951
4.880000 2.800000 -4.840000 -15.668297 5.810857 279.261597
4.880000 2.800000 -4.800000 -8.499893 -13.925773 266.175323
4.880000 2.840000 -5.200000 19.395033 27.716152 1144.352417
4.880000 2.840000 -5.160000 15.810169 35.957779 1542.923340
4.880000 2.840000 -5.120000 7.596393 42.314102 1848.188477
4.880000 2.840000 -5.080000 -2.942215 44.419846 1981.779297
4.880000 2.840000 -5.040000 -13.524445 42.484879 1987.875488
4.880000 2.840000 -5.000000 -23.572517 36.949642 1920.939575
4.880000 2.840000 -4.960000 -32.109329 26.660378 1741.784790
4.880000 2.840000 -4.920000 -35.331173 11.145500 1372.513916
4.880000 2.840000 -4.880000 -28.608341 -5.512193 848.821472
4.880000 2.840000 -4.840000 -12.151430 -15.060572 374.478088
4.880000 2.840000 -4.800000 6.235969 -11.469351 170.433304
4.880000 2.880000 -5.200000 -0.481236 25.456921 648.286377
4.880000 2.880000 -5.160000 6.642398 35.277336 1288.611938
4.880000 2.880000 -5.120000 1.987574 55.782566 3115.645020
4.880000 2.880000 -5.080000 -22.725903 72.533005 5777.503418
4.880000 2.880000 -5.040000 -59.880753 67.834198 8187.183105
4.880000 2.880000 -5.000000 -88.553864 35.976227 9136.075195
4.880000 2.880000 -4.960000 -89.475861 -9.465279 8095.520996
4.880000 2.880000 -4.920000 -60.520500 -43.887814 5588.871094
4.880000 2.880000 -4.880000 -19.269901 -49.633213 2834.784912
4.880000 2.880000 -4.840000 10.142641 -28.797352 932.160645
4.880000 2.880000 -4.800000 14.935493 -0.146173 223.090332
4.880000 2.920000 -5.200000 -11.419785 8.722473 206.493011
4.880000 2.920000 -5.160000 -0.548269 32.349289 1046.777100
4.880000 2.920000 -5.120000 -20.346874 65.637543 4722.282227
4.880000 2.920000 -5.080000 -71.492691 75.172829 10762.159180
4.880000 2.920000 -5.040000 -123.366089 38.628822 16711.376953
4.880000 2.920000 -5.000000 -136.237366 -31.387165 19545.773438
4.880000 2.920000 -4.960000 -95.262924 -93.119614 17746.287109
4.880000 2.920000 -4.920000 -25.059498 -108.376541 12373.453125
4.880000 2.920000 -4.880000 29.639736 -73.340607 6257.358887
4.880000 2.920000 -4.840000 40.107468 -19.660078 1995.127686
4.880000 2.920000 -4.800000 13.926592 14.168263 394.689636
4.880000 2.960000 -5.200000 -5.105867 -9.203397 110.772400
4.880000 2.960000 -5.160000 -6.377279 28.599272 858.588013
4.880000 2.960000 -5.120000 -51.123444 55.837681 5731.453125
4.880000 2.960000 -5.080000 -115.272827 33.256737 14393.834961
4.880000 2.960000 -5.040000 -147.259369 -41.807003 23433.148438
4.880000 2.960000 -5.000000 -112.022186 -125.381485 28269.488281
4.880000 2.960000 -4.960000 -24.926811 -160.255737 26303.246094
4.880000 2.960000 -4.920000 58.050823 -124.076996 18764.998047
4.880000 2.960000 -4.880000 86.417740 -47.665932 9740.066406
4.880000 2.960000 -4.840000 55.202980 13.207983 3221.819824
4.880000 2.960000 -4.800000 3.070560 25.111870 640.034363
4.880000 3.000000 -5.200000 11.674162 -13.848866 328.077148
4.880000 3.000000 -5.160000 -12.022908 23.701321 706.302979
4.880000 3.000000 -5.120000 -70.790924 24.015285 5588.088867
4.880000 3.000000 -5.080000 -117.067871 -34.535069 14897.557617
4.880000 3.000000 -5.040000 -101.169640 -121.761581 25061.179688
4.880000 3.000000 -5.000000 -18.680717 -174.943817 30954.308594
4.880000 3.000000 -4.960000 79.985886 -151.689117 29407.330078
4.880000 3.000000 -4.920000 129.963898 -67.591980 21459.291016
4.880000 3.000000 -4.880000 105.812752 17.285042 11495.111328
4.880000 3.000000 -4.840000 39.094673 50.137642 4042.176758
4.880000 3.000000 -4.800000 -14.435673 26.456869 908.354614
4.880000 3.040000 -5.200000 23.187529 -3.297351 548.533997
4.880000 3.040000 -5.160000 -17.071087 15.891937 543.975647
4.880000 3.040000 -5.120000 -65.111404 -14.923136 4462.195312
4.880000 3.040000 -5.080000 -70.443619 -86.101318 12375.740234
4.880000 3.040000 -5.040000 -10.549753 -145.473450 21273.822266
4.880000 3.040000 -5.000000 82.606949 -140.948898 26690.500000
4.880000 3.040000 -4.960000 145.434296 -67.749649 25741.150391
4.880000 3.040000 -4.920000 136.078812 25.186169 19151.787109
4.880000 3.040000 -4.880000 68.792343 76.696602 10614.755859
4.880000 3.040000 -4.840000 -2.073700 63.684135 4059.969482
4.880000 3.040000 -4.800000 -30.879013 14.022036 1150.130859
4.880000 3.080000 -5.200000 19.920593 10.322664 503.387451
4.880000 3.080000 -5.160000 -18.583572 4.403324 364.738403
4.880000 3.080000 -5.120000 -36.871712 -40.614464 3009.057617
4.880000 3.080000 -5.080000 -4.980074 -91.688828 8431.641602
4.880000 3.080000 -5.040000 65.440636 -101.221840 14528.337891
4.880000 3.080000 -5.000000 125.451988 -50.224236 18260.675781
4.880000 3.080000 -4.960000 129.294800 31.481026 17708.199219
4.880000 3.080000 -4.920000 74.009499 88.921364 13384.414062
4.880000 3.080000 -4.880000 0.963043 88.015633 7747.678711
4.880000 3.080000 -4.840000 -41.091255 41.081184 3376.154785
4.880000 3.080000 -4.800000 -35.366142 -9.774590 1346.306641
4.880000 3.120000 -5.200000 7.359652 13.232579 229.265625
4.880000 3.120000 -5.160000 -13.056860 -8.062205 235.480743
4.880000 3.120000 -5.120000 -2.554092 -42.794662 1837.906616
4.880000 3.120000 -5.080000 40.240601 -56.715256 4835.925781
4.880000 3.120000 -5.040000 85.038437 -27.705610 7999.136719
4.880000 3.120000 -5.000000 93.955124 31.132309 9796.786133
4.880000 3.120000 -4.960000 55.128220 79.840370 9413.605469
4.880000 3.120000 -4.920000 -6.039902 84.965904 7255.685547
4.880000 3.120000 -4.880000 -48.676361 46.912369 4570.158203
4.880000 3.120000 -4.840000 -50.156113 -3.458194 2527.594727
4.880000 3.120000 -4.800000 -20.564323 -33.364830 1536.103271
4.880000 3.160000 -5.200000 -0.410694 3.558463 12.831329
4.880000 3.160000 -5.160000 -0.201884 -15.742999 247.882782
4.880000 3.160000 -5.120000 21.328054 -26.705847 1168.088135
4.880000 3.160000 -5.080000 48.107185 -12.036160 2459.170410
4.880000 3.160000 -5.040000 54.630116 24.050343 3562.868408
4.880000 3.160000 -5.000000 29.067324 56.497986 4036.931641
4.880000 3.160000 -4.960000 -14.551300 60.034752 3815.911621
4.880000 3.160000 -4.920000 -47.279289 30.826059 3185.577148
4.880000 3.160000 -4.880000 -49.077633 -10.938957 2528.274902
4.880000 3.160000 -4.840000 -23.417866 -38.932571 2064.141602
4.880000 3.160000 -4.800000 9.340532 -41.198494 1784.561523
4.880000 3.200000 -5.200000 4.669042 -7.735472 81.637474
4.880000 3.200000 -5.160000 15.053120 -13.853876 418.526306
4.880000 3.200000 -5.120000 29.004623 -5.628569 872.948975
4.880000 3.200000 -5.080000 31.108166 15.230450 1199.684570
4.880000 3.200000 -5.040000 13.475666 33.430439 1299.187866
4.880000 3.200000 -5.000000 -15.232250 32.463585 1285.905884
4.880000 3.200000 -4.960000 -35.639301 9.372238 1357.998657
4.880000 3.200000 -4.920000 -33.407459 -22.070694 1603.173828
4.880000 3.200000 -4.880000 -10.373873 -42.590351 1921.555176
4.880000 3.200000 -4.840000 18.513859 -42.198067 2123.439941
4.880000 3.200000 -4.800000 38.098755 -25.321018 2092.669189
4.920000 2.800000 -5.200000 20.599720 55.106911 3461.120117
4.920000 2.800000 -5.160000 -9.017624 62.370277 3971.369141
4.920000 2.800000 -5.120000 -37.005497 44.723312 3369.581543
4.920000 2.800000 -5.080000 -42.640472 12.707155 1979.681641
4.920000 2.800000 -5.040000 -23.650330 -9.296286 645.759033
4.920000 2.800000 -5.000000 0.063026 -6.341202 40.214809
4.920000 2.800000 -4.960000 5.698964 12.058746 177.891556
4.920000 2.800000 -4.920000 -9.530792 21.761887 564.415710
4.920000 2.800000 -4.880000 -25.981855 9.058276 757.109192
4.920000 2.800000 -4.840000 -22.443157 -15.266558 736.763062
4.920000 2.800000 -4.800000 1.721388 -27.498434 759.127075
4.920000 2.840000 -5.200000 -13.809719 51.762085 2870.021729
4.920000 2.840000 -5.160000 -27.600075 48.615070 3125.189209
4.920000 2.840000 -5.120000 -37.888916 41.030067 3119.036377
4.920000 2.840000 -5.080000 -44.524124 32.498146 3038.527100
4.920000 2.840000 -5.040000 -50.274830 23.958912 3101.588135
4.920000 2.840000 -5.000000 -56.248390 12.234634 3313.567627
4.920000 2.840000 -4.960000 -58.075966 -5.643318 3404.664795
4.920000 2.840000 -4.920000 -48.720707 -26.207878 3060.560059
4.920000 2.840000 -4.880000 -26.564915 -39.206955 2242.879883
4.920000 2.840000 -4.840000 -0.242882 -35.614208 1268.430786
4.920000 2.840000 -4.800000 16.391970 -16.880053 553.632812
4.920000 2.880000 -5.200000 -34.878109 24.093691 1796.988525
4.920000 2.880000 -5.160000 -33.192501 31.420551 2088.993164
4.920000 2.880000 -5.120000 -47.937481 44.738293 4299.517090
4.920000 2.880000 -5.080000 -80.983673 43.377705 8439.980469
4.920000 2.880000 -5.040000 -113.351982 12.162018 12996.586914
4.920000 2.880000 -5.000000 -118.285515 -41.550751 15717.927734
4.920000 2.880000 -4.960000 -84.192650 -89.492622 15097.332031
4.920000 2.880000 -4.920000 -26.783577 -103.432755 11415.695312
4.920000 2.880000 -4.880000 21.664808 -77.753311 6514.941406
4.920000 2.880000 -4.840000 37.219448 -33.497589 2507.375977
4.920000 2.880000 -4.800000 21.523241 -0.394926 463.405884
4.920000 2.920000 -5.200000 -28.350166 -8.520512 876.331055
4.920000 2.920000 -5.160000 -30.264267 19.732801 1305.309326
4.920000 2.920000 -5.120000 -71.002907 38.750950 6543.048828
4.920000 2.920000 -5.080000 -128.412094 11.394176 16619.494141
4.920000 2.920000 -5.040000 -153.517700 -64.723465 27756.810547
4.920000 2.920000 -5.000000 -112.984573 -147.043625 34387.343750
4.920000 2.920000 -4.960000 -22.222569 -180.080505 32922.832031
4.920000 2.920000 -4.920000 63.797070 -142.160446 24279.658203
4.920000 2.920000 -4.880000 95.224976 -63.579132 13110.101562
4.920000 2.920000 -4.840000 66.656036 0.528057 4443.306152
4.920000 2.920000 -4.800000 15.910063 16.454420 523.878052
4.920000 2.960000 -5.200000 -1.507933 -23.037731 533.010925
4.920000 2.960000 -5.160000 -26.903625 14.647642 938.358459
4.920000 2.960000 -5.120000 -91.665001 10.816547 8519.470703
4.920000 2.960000 -5.080000 -141.243896 -60.178272 23571.261719
4.920000 2.960000 -5.040000 -117.729507 -163.380051 40553.277344
4.920000 2.960000 -5.000000 -16.046627 -225.225189 50983.882812
4.920000 2.960000 -4.960000 104.207169 -195.800446 49196.949219
4.920000 2.960000 -4.920000 166.186249 -93.657379 36389.574219
4.920000 2.960000 -4.880000 139.635468 9.905138 19596.175781
4.920000 2.960000 -4.840000 61.979408 52.110588 6556.960449
4.920000 2.960000 -4.800000 -0.542398 27.614742 762.868164
4.920000 3.000000 -5.200000 23.300364 -12.165491 690.906128
4.920000 3.000000 -5.160000 -27.047260 10.922012 850.844604
4.920000 3.000000 -5.120000 -89.363449 -31.145384 8955.861328
4.920000 3.000000 -5.080000 -95.599686 -128.358490 25615.203125
4.920000 3.000000 -5.040000 -12.782784 -211.363953 44838.117188
4.920000 3.000000 -5.000000 117.989426 -207.737549 57076.394531
4.920000 3.000000 -4.960000 209.841446 -107.973526 55691.714844
4.920000 3.000000 -4.920000 202.964813 22.648647 41707.675781
4.920000 3.000000 -4.880000 114.119781 99.286301 22881.093750
4.920000 3.000000 -4.840000 17.195391 87.785172 8001.917969
4.920000 3.000000 -4.800000 -23.861395 24.988750 1193.803711
4.920000 3.040000 -5.200000 28.355545 10.707802 918.693970
4.920000 3.040000 -5.160000 -27.907911 3.718266 792.677002
4.920000 3.040000 -5.120000 -58.829319 -64.041222 7562.166504
4.920000 3.040000 -5.080000 -13.865475 -147.430206 21927.917969
4.920000 3.040000 -5.040000 96.617119 -171.706451 38817.972656
4.920000 3.040000 -5.000000 199.937927 -99.727180 49920.687500
4.920000 3.040000 -4.960000 220.052841 29.440006 49289.968750
4.920000 3.040000 -4.920000 143.436417 130.329910 37559.890625
4.920000 3.040000 -4.880000 29.545006 142.914246 21297.390625
4.920000 3.040000 -4.840000 -43.059093 79.220337 8129.947266
4.920000 3.040000 -4.800000 -42.073006 3.555016 1782.776001
4.920000 3.080000 -5.200000 14.823338 25.141788 851.840881
4.920000 3.080000 -5.160000 -24.119106 -6.206868 620.256470
4.920000 3.080000 -5.120000 -15.941944 -69.702438 5112.575195
4.920000 3.080000 -5.080000 54.318867 -108.855087 14799.968750
4.920000 3.080000 -5.040000 143.803925 -74.804016 26275.208984
4.920000 3.080000 -5.000000 182.659576 24.717480 33975.472656
4.920000 3.080000 -4.960000 134.735733 125.520699 33909.164062
4.920000 3.080000 -4.920000 30.906105 159.607910 26429.873047
4.920000 3.080000 -4.880000 -57.348381 111.823860 15793.413086
4.920000 3.080000 -4.840000 -78.661102 28.043545 6974.009277
4.920000 3.080000 -4.800000 -39.519897 -29.688353 2443.220459
4.920000 3.120000 -5.200000 -1.171544 22.116575 490.515442
4.920000 3.120000 -5.160000 -13.809870 -13.383117 369.820312
4.920000 3.120000 -5.120000 16.194704 -49.788422 2741.155273
4.920000 3.120000 -5.080000 74.879288 -45.659447 7691.692871
4.920000 3.120000 -5.040000 115.257095 11.774261 13422.831055
4.920000 3.120000 -5.000000 96.863876 88.620789 17236.253906
4.920000 3.120000 -4.960000 23.831764 129.474838 17331.687500
4.920000 3.120000 -4.920000 -55.801250 104.313583 13995.102539
4.920000 3.120000 -4.880000 -90.099014 33.448376 9236.625977
4.920000 3.120000 -4.840000 -65.010315 -32.137299 5259.146484
4.920000 3.120000 -4.800000 -10.161539 -54.514843 3075.125000
4.920000 3.160000 -5.200000 -5.371366 9.808390 125.056076
4.920000 3.160000 -5.160000 -0.845637 -12.944410 168.272858
4.920000 3.160000 -5.120000 26.148891 -21.753172 1156.965088
4.920000 3.160000 -5.080000 53.939537 0.189873 2909.509766
4.920000 3.160000 -5.040000 53.431435 43.028137 4706.338867
4.920000 3.160000 -5.000000 15.441643 74.442261 5780.094727
4.920000 3.160000 -4.960000 -37.719845 66.435608 5836.476562
4.920000 3.160000 -4.920000 -69.067528 20.388691 5186.021973
4.920000 3.160000 -4.880000 -57.387062 -33.391468 4408.265137
4.920000 3.160000 -4.840000 -13.324345 -60.891083 3885.261963
4.920000 3.160000 -4.800000 32.319740 -50.541267 3598.985352
4.920000 3.200000 -5.200000 2.065365 2.747262 11.813181
4.920000 3.200000 -5.160000 8.341494 -5.084427 95.431908
4.920000 3.200000 -5.120000 19.891619 -2.088070 400.036530
4.920000 3.200000 -5.080000 23.628263 12.758163 721.065613
4.920000 3.200000 -5.040000 10.583477 27.398312 862.677490
4.920000 3.200000 -5.000000 -13.542366 25.891174 853.748596
4.920000 3.200000 -4.960000 -30.765808 3.217949 956.890198
4.920000 3.200000 -4.920000 -25.223686 -28.372253 1441.219116
4.920000 3.200000 -4.880000 3.212377 -48.052986 2319.408691
4.920000 3.200000 -4.840000 38.460258 -42.548790 3289.591064
4.920000 3.200000 -4.800000 60.817394 -15.420089 3936.534424
4.960000 2.800000 -5.200000 -20.998753 71.898163 5610.293457
4.960000 2.800000 -5.160000 -57.860794 54.768539 6347.464844
4.960000 2.800000 -5.120000 -72.727921 14.252529 5492.485352
4.960000 2.800000 -5.080000 -54.263054 -23.049591 3475.762695
4.960000 2.800000 -5.040000 -18.982063 -32.157238 1394.406738
4.960000 2.800000 -5.000000 3.222477 -13.560730 194.277756
4.960000 2.800000 -4.960000 -2.310406 7.609055 63.235687
4.960000 2.800000 -4.920000 -21.534828 7.124886 514.512817
4.960000 2.800000 -4.880000 -27.456829 -14.231424 956.410889
4.960000 2.800000 -4.840000 -8.426950 -32.833866 1149.076294
4.960000 2.800000 -4.800000 20.472195 -27.653919 1183.849976
4.960000 2.840000 -5.200000 -56.044598 40.879284 4812.112793
4.960000 2.840000 -5.160000 -67.984978 22.404488 5123.917969
4.960000 2.840000 -5.120000 -69.598694 2.844505 4852.069336
4.960000 2.840000 -5.080000 -64.846954 -12.072086 4350.862793
4.960000 2.840000 -5.040000 -59.530571 -23.009544 4073.328125
4.960000 2.840000 -5.000000 -54.308838 -34.962219 4171.806641
4.960000 2.840000 -4.960000 -43.535294 -49.519333 4347.486328
4.960000 2.840000 -4.920000 -22.408150 -60.088661 4112.772461
4.960000 2.840000 -4.880000 4.760582 -56.768829 3245.363037
4.960000 2.840000 -4.840000 25.129578 -36.997719 2000.326904
4.960000 2.840000 -4.800000 27.880621 -10.664484 891.060242
4.960000 2.880000 -5.200000 -56.836273 -5.134546 3256.725586
4.960000 2.880000 -5.160000 -57.624901 -2.790100 3328.413818
4.960000 2.880000 -5.120000 -74.781937 -3.266136 5603.005371
4.960000 2.880000 -5.080000 -98.672440 -25.821037 10402.975586
4.960000 2.880000 -5.040000 -104.016724 -72.610931 16091.826172
4.960000 2.880000 -5.000000 -72.178993 -121.037445 19859.871094
4.960000 2.880000 -4.960000 -10.894737 -139.455948 19566.656250
4.960000 2.880000 -4.920000 48.205452 -113.608414 15230.637695
4.960000 2.880000 -4.880000 73.691971 -59.681126 8992.342773
4.960000 2.880000 -4.840000 58.904190 -11.511206 3602.211426
4.960000 2.880000 -4.800000 25.083010 6.621903 673.006958
4.960000 2.920000 -5.200000 -25.107775 -34.314865 1807.910400
4.960000 2.920000 -5.160000 -41.076759 -12.021469 1831.815918
4.960000 2.920000 -5.120000 -86.357079 -20.821274 7891.070312
4.960000 2.920000 -5.080000 -117.948837 -80.982536 20470.099609
4.960000 2.920000 -5.040000 -90.077347 -163.966446 34998.925781
4.960000 2.920000 -5.000000 0.102524 -210.242310 44201.839844
4.960000 2.920000 -4.960000 102.952034 -180.030884 43010.242188
4.960000 2.920000 -4.920000 155.221115 -89.820038 32161.232422
4.960000 2.920000 -4.880000 132.458221 0.643566 17545.593750
4.960000 2.920000 -4.840000 66.413269 38.911766 5924.847656
4.960000 2.920000 -4.800000 12.954342 20.578495 591.289429
4.960000 2.960000 -5.200000 13.338960 -29.672852 1058.406006
4.960000 2.960000 -5.160000 -30.898687 -10.947330 1074.572876
4.960000 2.960000 -5.120000 -85.992355 -54.401390 10354.196289
4.960000 2.960000 -5.080000 -85.232590 -149.888916 29731.281250
4.960000 2.960000 -5.040000 2.898239 -228.485626 52214.078125
4.960000 2.960000 -5.000000 136.148026 -219.085876 66534.906250
4.960000 2.960000 -4.960000 227.569962 -114.104210 64807.855469
4.960000 2.960000 -4.920000 218.672592 19.680723 48205.035156
4.960000 2.960000 -4.880000 128.240662 97.378899 25928.316406
4.960000 2.960000 -4.840000 31.485771 86.374138 8451.845703
4.960000 2.960000 -4.800000 -8.061073 25.600340 720.358276
4.960000 3.000000 -5.200000 31.349583 -1.362404 984.652466
4.960000 3.000000 -5.160000 -28.264500 -10.308994 905.157349
4.960000 3.000000 -5.120000 -59.461269 -87.502350 11192.303711
4.960000 3.000000 -5.080000 -4.007425 -181.656799 33015.250000
4.960000 3.000000 -5.040000 126.144608 -206.759201 58661.828125
4.960000 3.000000 -5.000000 246.800156 -120.221741 75363.585938
4.960000 3.000000 -4.960000 270.067291 32.094673 73966.414062
4.960000 3.000000 -4.920000 181.069778 150.803436 55527.941406
4.960000 3.000000 -4.880000 49.657436 166.945419 30336.634766
4.960000 3.000000 -4.840000 -33.118416 95.965912 10306.285156
4.960000 3.000000 -4.800000 -31.504005 13.565548 1176.526489
4.960000 3.040000 -5.200000 22.110931 25.174435 1122.645386
4.960000 3.040000 -5.160000 -26.003841 -14.498439 886.404480
4.960000 3.040000 -5.120000 -14.195822 -97.047348 9619.708984
4.960000 3.040000 -5.080000 79.576988 -149.085678 28559.035156
4.960000 3.040000 -5.040000 200.570251 -104.657730 51181.664062
4.960000 3.040000 -5.000000 256.070496 28.254314 66370.406250
4.960000 3.040000 -4.960000 196.232788 165.586090 65926.062500
4.960000 3.040000 -4.920000 60.251938 216.332291 50429.957031
4.960000 3.040000 -4.880000 -57.436878 159.015671 28584.978516
4.960000 3.040000 -4.840000 -88.422081 53.899601 10723.630859
4.960000 3.040000 -4.800000 -41.775711 -16.890709 2030.506104
4.960000 3.080000 -5.200000 0.672867 32.303368 1043.960327
4.960000 3.080000 -5.160000 -18.669529 -19.175856 716.264771
4.960000 3.080000 -5.120000 25.341681 -75.925400 6406.867188
4.960000 3.080000 -5.080000 116.531876 -74.047867 19062.763672
4.960000 3.080000 -5.040000 185.219101 11.006699 34427.265625
4.960000 3.080000 -5.000000 166.239731 132.158936 45101.632812
4.960000 3.080000 -4.960000 60.021164 204.723770 45514.359375
4.960000 3.080000 -4.920000 -63.499905 178.342468 35838.273438
4.960000 3.080000 -4.880000 -123.888000 79.175995 21617.074219
4.960000 3.080000 -4.840000 -96.381294 -16.755512 9570.100586
4.960000 3.080000 -4.800000 -24.120911 -51.006874 3183.519531
4.960000 3.120000 -5.200000 -13.342043 22.565899 687.229919
4.960000 3.120000 -5.160000 -8.367519 -18.261400 403.494110
4.960000 3.120000 -5.120000 39.481491 -39.839081 3145.940430
4.960000 3.120000 -5.080000 96.595505 -6.571281 9373.873047
4.960000 3.120000 -5.040000 108.652512 72.012947 16991.232422
4.960000 3.120000 -5.000000 50.526356 141.013474 22437.710938
4.960000 3.120000 -4.960000 -45.758991 144.915726 23094.453125
4.960000 3.120000 -4.920000 -114.750961 76.778008 19062.644531
4.960000 3.120000 -4.880000 -112.414276 -15.253323 12869.633789
4.960000 3.120000 -4.840000 -50.714783 -70.035782 7477.000000
4.960000 3.120000 -4.800000 18.652353 -63.251396 4348.649414
4.960000 3.160000 -5.200000 -13.336186 11.013374 299.148285
4.960000 3.160000 -5.160000 -1.419867 -11.246082 128.490387
4.960000 3.160000 -5.120000 29.590664 -12.086548 1021.692017
4.960000 3.160000 -5.080000 51.374046 19.734619 3028.748047
4.960000 3.160000 -5.040000 35.871815 63.976997 5379.843262
4.960000 3.160000 -5.000000 -15.571686 82.324982 7019.880371
4.960000 3.160000 -4.960000 -68.221886 52.346844 7394.417969
4.960000 3.160000 -4.920000 -81.767876 -10.166458 6789.342285
4.960000 3.160000 -4.880000 -44.816505 -62.854206 5959.170410
4.960000 3.160000 -4.840000 16.250822 -71.934387 5438.645508
4.960000 3.160000 -4.800000 61.206505 -37.914600 5183.753418
4.960000 3.200000 -5.200000 -7.596420 8.191551 124.807114
4.960000 3.200000 -5.160000 -1.160894 -3.339107 12.497313
4.960000 3.200000 -5.120000 13.093304 -3.097055 181.026352
4.960000 3.200000 -5.080000 19.853447 11.354120 523.075439
4.960000 3.200000 -5.040000 8.191124 26.337206 760.742920
4.960000 3.200000 -5.000000 -15.044270 23.433975 775.481201
4.960000 3.200000 -4.960000 -28.532408 -1.920822 817.787842
4.960000 3.200000 -4.920000 -15.138401 -33.278481 1336.628418
4.960000 3.200000 -4.880000 21.510761 -45.675034 2548.921631
4.960000 3.200000 -4.840000 58.634033 -26.689230 4150.265137
4.960000 3.200000 -4.800000 72.665237 13.472525 5461.745605
5.000000 2.800000 -5.200000 -61.252388 51.752514 6430.177734
5.000000 2.800000 -5.160000 -85.252838 12.761911 7430.912598
5.000000 2.800000 -5.120000 -74.680077 -34.754448 6784.985352
5.000000 2.800000 -5.080000 -34.723099 -59.748833 4775.616699
5.000000 2.800000 -5.040000 5.241556 -48.643326 2393.646973
5.000000 2.800000 -5.000000 18.028400 -18.258797 658.406860
5.000000 2.800000 -4.960000 3.484116 0.767845 12.728648
5.000000 2.800000 -4.920000 -13.541954 -6.229781 222.194702
5.000000 2.800000 -4.880000 -9.760994 -25.324093 736.586670
5.000000 2.800000 -4.840000 13.264378 -30.747696 1121.364502
5.000000 2.800000 -4.800000 32.712234 -12.468807 1225.561523
5.000000 2.840000 -5.200000 -75.766716 1.960590 5744.438965
5.000000 2.840000 -5.160000 -75.551918 -25.502516 6358.470703
5.000000 2.840000 -5.120000 -62.249569 -47.952629 6174.463379
5.000000 2.840000 -5.080000 -43.113613 -59.755650 5429.521484
5.000000 2.840000 -5.040000 -25.714096 -63.006264 4631.003906
5.000000 2.840000 -5.000000 -11.403625 -63.471176 4158.632812
5.000000 2.840000 -4.960000 3.843597 -62.921337 3973.867920
5.000000 2.840000 -4.920000 21.975235 -56.750076 3703.481934
5.000000 2.840000 -4.880000 37.471931 -40.213451 3021.267334
5.000000 2.840000 -4.840000 41.157310 -16.495550 1966.027344
5.000000 2.840000 -4.800000 29.982958 3.202410 909.233215
5.000000 2.880000 -5.200000 -49.296860 -40.976875 4109.284668
5.000000 2.880000 -5.160000 -48.711281 -43.859226 4296.420410
5.000000 2.880000 -5.120000 -56.937820 -56.374184 6419.963867
5.000000 2.880000 -5.080000 -57.217346 -86.672119 10785.880859
5.000000 2.880000 -5.040000 -31.039322 -122.290703 15918.455078
5.000000 2.880000 -5.000000 21.638481 -137.061554 19254.093750
5.000000 2.880000 -4.960000 77.186188 -113.371750 18810.861328
5.000000 2.880000 -4.920000 105.055611 -59.594185 14588.148438
5.000000 2.880000 -4.880000 92.462799 -5.569286 8580.385742
5.000000 2.880000 -4.840000 54.541691 20.731247 3404.580811
5.000000 2.880000 -4.800000 20.777435 14.504856 642.092651
5.000000 2.920000 -5.200000 -3.341730 -49.125504 2424.482422
5.000000 2.920000 -5.160000 -25.269732 -41.492950 2360.224121
5.000000 2.920000 -5.120000 -52.771828 -73.346176 8164.527344
5.000000 2.920000 -5.080000 -41.263077 -136.644897 20374.468750
5.000000 2.920000 -5.040000 28.655628 -183.622162 34538.242188
5.000000 2.920000 -5.000000 125.352150 -166.637283 43481.144531
5.000000 2.920000 -4.960000 187.638367 -83.426025 42168.058594
5.000000 2.920000 -4.920000 176.173920 16.702618 31316.226562
5.000000 2.920000 -4.880000 106.883026 73.370583 16807.222656
5.000000 2.920000 -4.840000 35.035717 64.775002 5423.302246
5.000000 2.920000 -4.800000 6.299175 20.646551 465.959656
5.000000 2.960000 -5.200000 28.816673 -23.255106 1371.200562
5.000000 2.960000 -5.160000 -15.039732 -31.912193 1244.581543
5.000000 2.960000 -5.120000 -33.879677 -96.131607 10389.119141
5.000000 2.960000 -5.080000 20.593422 -171.093582 29697.103516
5.000000 2.960000 -5.040000 135.543716 -183.746948 52135.039062
5.000000 2.960000 -5.000000 237.121628 -100.484985 66323.898438
5.000000 2.960000 -4.960000 251.087280 35.742508 64322.351562
5.000000 2.960000 -4.920000 168.359283 138.022125 47394.953125
5.000000 2.960000 -4.880000 52.592094 148.970764 24958.216797
5.000000 2.960000 -4.840000 -17.118725 85.874420 7667.466797
5.000000 2.960000 -4.800000 -12.696728 16.972803 449.282959
5.000000 3.000000 -5.200000 29.896931 11.699415 1030.702759
5.000000 3.000000 -5.160000 -12.904181 -26.787056 884.064270
5.000000 3.000000 -5.120000 3.925022 -105.895309 11229.222656
5.000000 3.000000 -5.080000 100.931343 -151.975128 33283.574219
5.000000 3.000000 -5.040000 221.527435 -100.474983 59169.628906
5.000000 3.000000 -5.000000 272.830200 37.663925 75854.890625
5.000000 3.000000 -4.960000 207.549164 176.056656 74072.601562
5.000000 3.000000 -4.920000 68.632217 224.385529 55059.250000
5.000000 3.000000 -4.880000 -47.714153 164.905426 29470.439453
5.000000 3.000000 -4.840000 -75.262390 61.768402 9479.762695
5.000000 3.000000 -4.800000 -27.926611 -2.357590 785.453796
5.000000 3.040000 -5.200000 8.895981 30.695152 1021.330872
5.000000 3.040000 -5.160000 -9.584652 -26.215847 779.136169
5.000000 3.040000 -5.120000 43.749763 -87.752609 9614.562500
5.000000 3.040000 -5.080000 149.410416 -80.832260 28857.328125
5.000000 3.040000 -5.040000 226.685104 21.328686 51841.050781
5.000000 3.040000 -5.000000 201.626709 162.818207 67163.093750
5.000000 3.040000 -4.960000 77.129723 245.992371 66461.242188
5.000000 3.040000 -4.920000 -64.611740 215.121017 50451.726562
5.000000 3.040000 -4.880000 -132.174164 103.435501 28168.914062
5.000000 3.040000 -4.840000 -100.954018 -0.647278 10192.132812
5.000000 3.040000 -4.800000 -24.290024 -32.986298 1678.101074
5.000000 3.080000 -5.200000 -12.540184 28.024708 942.640503
5.000000 3.080000 -5.160000 -3.191217 -23.466490 560.859985
5.000000 3.080000 -5.120000 61.890640 -48.591446 6191.580078
5.000000 3.080000 -5.080000 137.743210 -0.619789 18973.576172
5.000000 3.080000 -5.040000 152.391968 106.873184 34645.191406
5.000000 3.080000 -5.000000 73.498421 200.493225 45599.554688
5.000000 3.080000 -4.960000 -55.328136 207.373840 46065.113281
5.000000 3.080000 -4.920000 -147.614670 120.058060 36204.027344
5.000000 3.080000 -4.880000 -147.379913 3.159622 21730.820312
5.000000 3.080000 -4.840000 -73.310776 -64.425232 9525.080078
5.000000 3.080000 -4.800000 5.944935 -55.215149 3084.054932
5.000000 3.120000 -5.200000 -21.127857 15.808125 696.283142
5.000000 3.120000 -5.160000 0.602926 -15.870684 252.242126
5.000000 3.120000 -5.120000 50.638683 -12.591198 2722.814697
5.000000 3.120000 -5.080000 84.018654 42.155815 8836.247070
5.000000 3.120000 -5.040000 57.268223 115.494995 16618.742188
5.000000 3.120000 -5.000000 -26.413689 147.304291 22396.238281
5.000000 3.120000 -4.960000 -112.397873 103.465752 23338.445312
5.000000 3.120000 -4.920000 -139.097427 9.279205 19434.197266
5.000000 3.120000 -4.880000 -90.755096 -70.761017 13243.609375
5.000000 3.120000 -4.840000 -8.484970 -87.933548 7804.303711
5.000000 3.120000 -4.800000 49.121887 -46.684029 4592.358398
5.000000 3.160000 -5.200000 -19.841053 7.475913 449.556671
5.000000 3.160000 -5.160000 -2.414537 -8.517020 78.369629
5.000000 3.160000 -5.120000 25.217468 1.006685 636.934143
5.000000 3.160000 -5.080000 32.946232 36.685532 2431.282471
5.000000 3.160000 -5.040000 2.289101 69.452682 4828.915039
5.000000 3.160000 -5.000000 -50.585537 64.376953 6703.288574
5.000000 3.160000 -4.960000 -84.330322 14.807945 7330.878418
5.000000 3.160000 -4.920000 -68.158890 -47.500618 6901.942871
5.000000 3.160000 -4.880000 -10.026264 -78.071259 6195.647461
5.000000 3.160000 -4.840000 50.115791 -57.274536 5791.964844
5.000000 3.160000 -4.800000 74.838722 -4.403748 5620.227539
5.000000 3.200000 -5.200000 -18.572262 5.161350 371.568420
5.000000 3.200000 -5.160000 -8.812826 -7.632042 135.913971
5.000000 3.200000 -5.120000 7.945827 -5.708246 95.720245
5.000000 3.200000 -5.080000 14.063019 10.433113 306.618347
5.000000 3.200000 -5.040000 0.899021 23.458248 551.097656
5.000000 3.200000 -5.000000 -19.537325 15.810616 631.682617
5.000000 3.200000 -4.960000 -23.995127 -10.940720 695.465454
5.000000 3.200000 -4.920000 -0.505547 -34.537178 1193.072266
5.000000 3.200000 -4.880000 38.318516 -31.242002 2444.371338
5.000000 3.200000 -4.840000 64.922646 2.467919 4221.040527
5.000000 3.200000 -4.800000 60.153996 46.611847 5791.167480
5.040000 2.800000 -5.200000 -72.473892 11.346547 5381.208984
5.040000 2.800000 -5.160000 -73.402344 -33.260670 6494.176270
5.040000 2.800000 -5.120000 -40.884743 -69.077492 6443.261719
5.040000 2.800000 -5.080000 6.972307 -71.843575 5210.112305
5.040000 2.800000 -5.040000 38.916298 -42.388069 3311.226562
5.040000 2.800000 -5.000000 38.085068 -6.604786 1494.095581
5.040000 2.800000 -4.960000 16.249039 8.556216 337.240082
5.040000 2.800000 -4.920000 0.367725 -0.676228 0.592506
5.040000 2.800000 -4.880000 5.546558 -14.541634 242.223419
5.040000 2.800000 -4.840000 22.048611 -12.365601 639.049316
5.040000 2.800000 -4.800000 28.459162 6.169068 847.981323
5.040000 2.840000 -5.200000 -61.177620 -35.942993 5034.600098
5.040000 2.840000 -5.160000 -47.028610 -61.354153 5976.022461
5.040000 2.840000 -5.120000 -20.810724 -76.039429 6215.081055
5.040000 2.840000 -5.080000 7.667679 -74.882286 5666.150391
5.040000 2.840000 -5.040000 28.535923 -61.684402 4619.264648
5.040000 2.840000 -5.000000 38.854904 -45.053772 3539.545898
5.040000 2.840000 -4.960000 42.483696 -30.629829 2743.050781
5.040000 2.840000 -4.920000 43.619446 -17.922634 2223.876953
5.040000 2.840000 -4.880000 41.760197 -4.570618 1764.804565
5.040000 2.840000 -4.840000 33.802719 7.776814 1203.102661
5.040000 2.840000 -4.800000 20.397305 13.535666 599.264282
5.040000 2.880000 -5.200000 -19.877495 -58.267487 3790.214844
5.040000 2.880000 -5.160000 -14.709759 -64.067253 4320.989746
5.040000 2.880000 -5.120000 -7.699970 -78.099075 6158.754883
5.040000 2.880000 -5.080000 13.600109 -95.450531 9295.766602
5.040000 2.880000 -5.040000 51.649384 -99.673996 12602.564453
5.040000 2.880000 -5.000000 91.876091 -77.048691 14377.716797
5.040000 2.880000 -4.960000 111.739510 -31.251968 13462.403320
5.040000 2.880000 -4.920000 99.021713 16.222977 10068.484375
5.040000 2.880000 -4.880000 62.894402 41.615921 5687.590820
5.040000 2.880000 -4.840000 27.188927 37.211082 2123.902344
5.040000 2.880000 -4.800000 11.561590 16.150734 394.516602
5.040000 2.920000 -5.200000 20.648876 -43.853203 2349.479492
5.040000 2.920000 -5.160000 5.191341 -50.138710 2540.840088
5.040000 2.920000 -5.120000 5.734141 -84.213318 7124.763184
5.040000 2.920000 -5.080000 47.308922 -118.583801 16300.251953
5.040000 2.920000 -5.040000 118.402046 -112.202171 26608.371094
5.040000 2.920000 -5.000000 173.893524 -49.954937 32734.453125
5.040000 2.920000 -4.960000 172.239731 38.140026 31121.187500
5.040000 2.920000 -4.920000 112.934418 99.029572 22561.039062
5.040000 2.920000 -4.880000 38.060345 100.874405 11624.235352
5.040000 2.920000 -4.840000 -4.022615 58.203323 3403.808350
5.040000 2.920000 -4.800000 1.509007 15.235718 234.404190
5.040000 2.960000 -5.200000 35.007187 -9.266052 1311.362915
5.040000 2.960000 -5.160000 10.509764 -35.506054 1371.134888
5.040000 2.960000 -5.120000 29.748121 -87.835640 8600.050781
5.040000 2.960000 -5.080000 104.739716 -111.846146 23479.968750
5.040000 2.960000 -5.040000 190.975494 -62.862984 40423.394531
5.040000 2.960000 -5.000000 220.322891 46.320091 50687.726562
5.040000 2.960000 -4.960000 162.025238 148.819672 48399.472656
5.040000 2.960000 -4.920000 53.141479 179.057053 34885.445312
5.040000 2.960000 -4.880000 -32.597740 128.769882 17644.294922
5.040000 2.960000 -4.840000 -48.250519 50.519039 4880.286133
5.040000 2.960000 -4.800000 -9.313388 7.116581 137.384918
5.040000 3.000000 -5.200000 21.913795 18.775307 832.726562
5.040000 3.000000 -5.160000 10.512733 -27.190924 849.863892
5.040000 3.000000 -5.120000 60.033634 -74.174416 9105.880859
5.040000 3.000000 -5.080000 150.958939 -59.857101 26371.474609
5.040000 3.000000 -5.040000 212.196838 35.510643 46288.503906
5.040000 3.000000 -5.000000 181.966583 159.798615 58647.433594
5.040000 3.000000 -4.960000 67.614807 227.777390 56454.300781
5.040000 3.000000 -4.920000 -55.857826 194.860504 41090.714844
5.040000 3.000000 -4.880000 -109.893814 95.420654 21181.751953
5.040000 3.000000 -4.840000 -78.299171 9.073523 6213.088867
5.040000 3.000000 -4.800000 -13.083298 -10.997757 292.123352
5.040000 3.040000 -5.200000 -0.951500 26.390499 697.363770
5.040000 3.040000 -5.160000 11.658424 -21.086252 580.548889
5.040000 3.040000 -5.120000 77.672546 -39.920391 7626.662109
5.040000 3.040000 -5.080000 150.310333 14.467302 22802.498047
5.040000 3.040000 -5.040000 158.308884 125.043213 40697.507812
5.040000 3.040000 -5.000000 73.044296 216.620483 52259.902344
5.040000 3.040000 -4.960000 -57.787598 218.474289 51070.421875
5.040000 3.040000 -4.920000 -147.031799 128.184906 38049.718750
5.040000 3.040000 -4.880000 -142.795898 14.126572 20590.228516
5.040000 3.040000 -4.840000 -69.756569 -46.083416 6989.660156
5.040000 3.040000 -4.800000 0.653927 -31.145292 970.456848
5.040000 3.080000 -5.200000 -16.641808 18.943520 635.806702
5.040000 3.080000 -5.160000 11.181297 -12.556307 282.682251
5.040000 3.080000 -5.120000 68.041351 -1.889893 4633.197266
5.040000 3.080000 -5.080000 101.173721 66.545555 14664.433594
5.040000 3.080000 -5.040000 63.067047 151.624924 26967.570312
5.040000 3.080000 -5.000000 -38.027699 184.365540 35436.757812
5.040000 3.080000 -4.960000 -136.711517 129.762283 35528.289062
5.040000 3.080000 -4.920000 -164.566650 21.676510 27552.052734
5.040000 3.080000 -4.880000 -109.351593 -65.209457 16210.043945
5.040000 3.080000 -4.840000 -22.416426 -80.131981 6923.630371
5.040000 3.080000 -4.800000 31.095558 -35.401230 2220.180664
5.040000 3.120000 -5.200000 -21.927374 9.018628 562.145386
5.040000 3.120000 -5.160000 4.149577 -4.931878 41.542412
5.040000 3.120000 -5.120000 37.759300 16.752653 1706.416138
5.040000 3.120000 -5.080000 39.024899 69.399124 6339.181152
5.040000 3.120000 -5.040000 -11.637527 111.059097 12469.554688
5.040000 3.120000 -5.000000 -87.039795 97.674744 17116.281250
5.040000 3.120000 -4.960000 -131.266907 26.547562 17935.773438
5.040000 3.120000 -4.920000 -108.381363 -56.262619 14912.001953
5.040000 3.120000 -4.880000 -35.020351 -94.423965 10142.309570
5.040000 3.120000 -4.840000 35.175209 -69.291000 6038.538086
5.040000 3.120000 -4.800000 59.354259 -11.527121 3655.802734
5.040000 3.160000 -5.200000 -23.265127 2.184366 546.037598
5.040000 3.160000 -5.160000 -6.855289 -5.601695 78.373985
5.040000 3.160000 -5.120000 10.183538 8.662996 178.751953
5.040000 3.160000 -5.080000 4.147755 36.109337 1321.088013
5.040000 3.160000 -5.040000 -29.384392 47.983315 3165.840820
5.040000 3.160000 -5.000000 -65.232948 23.247772 4795.796387
5.040000 3.160000 -4.960000 -68.953918 -27.322872 5501.182617
5.040000 3.160000 -4.920000 -29.514820 -66.799187 5333.255859
5.040000 3.160000 -4.880000 28.369724 -64.029640 4904.636230
5.040000 3.160000 -4.840000 65.253914 -20.963392 4697.537109
5.040000 3.160000 -4.800000 60.646523 30.885658 4631.924805
5.040000 3.200000 -5.200000 -24.693573 -4.715408 632.007568
5.040000 3.200000 -5.160000 -12.338585 -15.492151 392.247437
5.040000 3.200000 -5.120000 3.441957 -11.035776 133.635422
5.040000 3.200000 -5.080000 6.877663 3.684856 60.880409
5.040000 3.200000 -5.040000 -4.820127 11.386391 152.883514
5.040000 3.200000 -5.000000 -16.554438 1.011871 275.073303
5.040000 3.200000 -4.960000 -10.071304 -18.727444 452.148315
5.040000 3.200000 -4.920000 16.364532 -26.012676 944.457214
5.040000 3.200000 -4.880000 43.989830 -6.892445 1982.610840
5.040000 3.200000 -4.840000 49.872540 30.558064 3421.065430
5.040000 3.200000 -4.800000 27.249249 62.980953 4709.122070
5.080000 2.800000 -5.200000 -52.952980 -18.874689 3160.271973
5.080000 2.800000 -5.160000 -36.374722 -52.596100 4089.469971
5.080000 2.800000 -5.120000 3.362577 -67.811142 4609.658203
5.080000 2.800000 -5.080000 44.063351 -50.650883 4507.090820
5.080000 2.800000 -5.040000 60.072678 -11.480031 3740.517578
5.080000 2.800000 -5.000000 44.735664 22.624992 2513.169922
5.080000 2.800000 -4.960000 15.744358 31.428501 1235.635498
5.080000 2.800000 -4.920000 -2.181977 18.189983 335.636505
5.080000 2.800000 -4.880000 0.124821 3.385624 11.478029
5.080000 2.800000 -4.840000 10.739760 2.907639 123.796814
5.080000 2.800000 -4.800000 12.261276 13.486899 332.235352
5.080000 2.840000 -5.200000 -28.572302 -48.233936 3142.889160
5.080000 2.840000 -5.160000 -6.913317 -63.955757 4138.132812
5.080000 2.840000 -5.120000 23.625669 -65.079727 4793.543457
5.080000 2.840000 -5.080000 50.214695 -47.549995 4782.517578
5.080000 2.840000 -5.040000 60.775658 -19.094831 4058.293213
5.080000 2.840000 -5.000000 53.508202 6.244225 2902.117920
5.080000 2.840000 -4.960000 37.322929 19.011215 1754.427368
5.080000 2.840000 -4.920000 23.180813 20.206886 945.668335
5.080000 2.840000 -4.880000 15.388897 17.122351 529.993042
5.080000 2.840000 -4.840000 11.154081 14.820709 344.066956
5.080000 2.840000 -4.800000 7.101974 12.547623 207.880875
5.080000 2.880000 -5.200000 8.001808 -49.659855 2530.129883
5.080000 2.880000 -5.160000 18.545139 -54.391430 3302.349854
5.080000 2.880000 -5.120000 36.465385 -58.241508 4721.797852
5.080000 2.880000 -5.080000 61.575729 -51.808270 6475.666992
5.080000 2.880000 -5.040000 83.805519 -28.513035 7836.358398
5.080000 2.880000 -5.000000 89.506958 7.045082 8061.128906
5.080000 2.880000 -4.960000 72.724945 39.815506 6874.191895
5.080000 2.880000 -4.920000 41.388973 54.500931 4683.398438
5.080000 2.880000 -4.880000 12.456343 46.945358 2359.027100
5.080000 2.880000 -4.840000 -0.239336 26.963018 727.061646
5.080000 2.880000 -4.800000 4.647366 10.405067 129.863434
5.080000 2.920000 -5.200000 31.622265 -26.304523 1691.895630
5.080000 2.920000 -5.160000 29.728008 -36.368523 2206.423828
5.080000 2.920000 -5.120000 48.427986 -52.459927 5097.313477
5.080000 2.920000 -5.080000 87.966095 -49.242126 10162.820312
5.080000 2.920000 -5.040000 123.535210 -10.736546 15376.221680
5.080000 2.920000 -5.000000 124.359482 50.169483 17982.257812
5.080000 2.920000 -4.960000 82.120987 98.145340 16376.364258
5.080000 2.920000 -4.920000 21.230190 104.176735 11303.512695
5.080000 2.920000 -4.880000 -20.306450 70.438789 5373.975098
5.080000 2.920000 -4.840000 -22.391773 27.797916 1274.115723
5.080000 2.920000 -4.800000 2.359604 8.370371 75.630844
5.080000 2.960000 -5.200000 31.481556 2.170696 995.800293
5.080000 2.960000 -5.160000 30.243975 -21.273733 1367.269775
5.080000 2.960000 -5.120000 64.012352 -41.124096 5788.772461
5.080000 2.960000 -5.080000 117.396965 -21.415562 14240.673828
5.080000 2.960000 -5.040000 146.124176 45.169140 23392.527344
5.080000 2.960000 -5.000000 115.754120 122.497498 28404.652344
5.080000 2.960000 -4.960000 36.577545 158.008713 26304.669922
5.080000 2.960000 -4.920000 -41.123642 128.561874 18219.310547
5.080000 2.960000 -4.880000 -69.413788 61.337097 8580.513672
5.080000 2.960000 -4.840000 -43.082451 9.054974 1938.090088
5.080000 2.960000 -4.800000 -0.078128 3.354874 11.261281
5.080000 3.000000 -5.200000 15.540253 18.761866 593.507080
5.080000 3.000000 -5.160000 27.446575 -10.435590 862.216064
5.080000 3.000000 -5.120000 75.009521 -16.717121 5905.890137
5.080000 3.000000 -5.080000 122.733139 29.650982 15942.604492
5.080000 3.000000 -5.040000 119.914467 112.769165 27096.363281
5.080000 3.000000 -5.000000 49.588818 176.141068 33484.726562
5.080000 3.000000 -4.960000 -49.164196 170.159332 31371.316406
5.080000 3.000000 -4.920000 -111.307465 97.979340 21989.302734
5.080000 3.000000 -4.880000 -101.994980 14.117607 10602.282227
5.080000 3.000000 -4.840000 -45.123459 -24.143871 2619.053223
5.080000 3.000000 -4.800000 2.674665 -5.719919 39.871311
5.080000 3.040000 -5.200000 -1.887230 20.729593 433.277679
5.080000 3.040000 -5.160000 22.287289 -0.333897 496.834717
5.080000 3.040000 -5.120000 67.405701 14.619404 4757.255371
5.080000 3.040000 -5.080000 88.973267 75.941391 13683.336914
5.080000 3.040000 -5.040000 49.359703 146.636337 23938.595703
5.080000 3.040000 -5.000000 -40.583981 168.826294 30149.376953
5.080000 3.040000 -4.960000 -123.128677 116.554352 28745.587891
5.080000 3.040000 -4.920000 -141.858582 23.098000 20657.375000
5.080000 3.040000 -4.880000 -91.457069 -46.494709 10526.153320
5.080000 3.040000 -4.840000 -20.412582 -52.467594 3169.521973
5.080000 3.040000 -4.800000 15.577112 -11.860834 383.325806
5.080000 3.080000 -5.200000 -13.584281 15.075667 411.808411
5.080000 3.080000 -5.160000 11.133923 7.553379 181.017761
5.080000 3.080000 -5.120000 38.930321 33.965916 2669.253418
5.080000 3.080000 -5.080000 32.347775 86.439560 8518.175781
5.080000 3.080000 -5.040000 -23.723000 122.873909 15660.777344
5.080000 3.080000 -5.000000 -98.952316 102.948990 20390.054688
5.080000 3.080000 -4.960000 -138.606827 29.087873 20057.955078
5.080000 3.080000 -4.920000 -111.971451 -50.410942 15078.869141
5.080000 3.080000 -4.880000 -41.003288 -82.398514 8470.785156
5.080000 3.080000 -4.840000 19.984680 -55.031250 3427.825928
5.080000 3.080000 -4.800000 33.649532 -4.164039 1149.630249
5.080000 3.120000 -5.200000 -20.730976 7.198649 481.593933
5.080000 3.120000 -5.160000 -4.581846 6.171147 59.076378
5.080000 3.120000 -5.120000 6.373955 27.381603 790.379517
5.080000 3.120000 -5.080000 -10.921379 56.547787 3316.928711
5.080000 3.120000 -5.040000 -55.253578 61.650490 6853.741211
5.080000 3.120000 -5.000000 -94.727936 24.515953 9574.414062
5.080000 3.120000 -4.960000 -93.192444 -36.468548 10014.787109
5.080000 3.120000 -4.920000 -45.098038 -78.528702 8200.589844
5.080000 3.120000 -4.880000 16.912689 -72.063957 5479.252930
5.080000 3.120000 -4.840000 50.745117 -26.754185 3290.853271
5.080000 3.120000 -4.800000 41.604851 19.605045 2115.321289
5.080000 3.160000 -5.200000 -24.835489 -3.183558 626.936584
5.080000 3.160000 -5.160000 -14.974574 -7.381143 278.719147
5.080000 3.160000 -5.120000 -7.891375 1.612980 64.875496
5.080000 3.160000 -5.080000 -16.602276 13.225307 450.544312
5.080000 3.160000 -5.040000 -36.470821 8.753113 1406.737793
5.080000 3.160000 -5.000000 -46.059341 -17.163033 2416.032471
5.080000 3.160000 -4.960000 -27.947605 -46.733047 2965.046387
5.080000 3.160000 -4.920000 11.602318 -53.472828 2993.957031
5.080000 3.160000 -4.880000 45.729679 -27.389355 2841.380371
5.080000 3.160000 -4.840000 50.749680 14.916718 2798.038574
5.080000 3.160000 -4.800000 26.735531 45.647034 2798.440186
5.080000 3.200000 -5.200000 -22.814419 -16.296173 786.062927
5.080000 3.200000 -5.160000 -10.617363 -24.588314 717.313599
5.080000 3.200000 -5.120000 2.838564 -20.562449 430.871735
5.080000 3.200000 -5.080000 6.892715 -10.156715 150.668396
5.080000 3.200000 -5.040000 2.468260 -5.248943 33.643715
5.080000 3.200000 -5.000000 0.887009 -9.655945 94.024055
5.080000 3.200000 -4.960000 10.514130 -14.018265 307.058655
5.080000 3.200000 -4.920000 26.091103 -5.677917 712.984375
5.080000 3.200000 -4.880000 32.692646 17.061390 1359.900146
5.080000 3.200000 -4.840000 20.317974 41.722443 2153.582275
5.080000 3.200000 -4.800000 -6.383395 52.780254 2826.503174
5.120000 2.800000 -5.200000 -24.920391 -22.076443 1108.395264
5.120000 2.800000 -5.160000 -5.079837 -39.775013 1607.856323
5.120000 2.800000 -5.120000 27.744244 -38.816669 2276.477051
5.120000 2.800000 -5.080000 53.389679 -12.253288 3000.600830
5.120000 2.800000 -5.040000 52.632252 26.198193 3456.499023
5.120000 2.800000 -5.000000 25.260118 51.657555 3306.576660
5.120000 2.800000 -4.960000 -8.586422 49.293152 2503.541504
5.120000 2.800000 -4.920000 -26.078749 26.700699 1393.028442
5.120000 2.800000 -4.880000 -21.276188 5.261670 480.361359
5.120000 2.800000 -4.840000 -7.522786 -0.480740 56.823421
5.120000 2.800000 -4.800000 -1.473035 5.464776 32.033607
5.120000 2.840000 -5.200000 -4.861673 -34.716187 1228.849487
5.120000 2.840000 -5.160000 15.711359 -40.707848 1903.975708
5.120000 2.840000 -5.120000 41.172859 -30.295753 2613.037109
5.120000 2.840000 -5.080000 55.618946 -2.429823 3099.371094
5.120000 2.840000 -5.040000 47.648705 29.199764 3123.025146
5.120000 2.840000 -5.000000 21.561840 46.324051 2610.830566
5.120000 2.840000 -4.960000 -5.562297 41.353565 1741.056519
5.120000 2.840000 -4.920000 -18.351791 22.885096 860.515869
5.120000 2.840000 -4.880000 -14.981171 6.502822 266.722168
5.120000 2.840000 -4.840000 -5.432781 0.807839 30.167715
5.120000 2.840000 -4.800000 0.454481 2.534498 6.630234
5.120000 2.880000 -5.200000 17.085682 -29.040640 1135.279297
5.120000 2.880000 -5.160000 30.634703 -29.375359 1801.396729
5.120000 2.880000 -5.120000 47.903618 -19.462990 2673.564453
5.120000 2.880000 -5.080000 58.409523 3.151697 3421.605469
5.120000 2.880000 -5.040000 52.593620 30.430445 3692.100830
5.120000 2.880000 -5.000000 30.732075 48.709923 3317.116943
5.120000 2.880000 -4.960000 3.843031 49.060719 2421.722900
5.120000 2.880000 -4.920000 -14.286634 33.958302 1357.274170
5.120000 2.880000 -4.880000 -16.842947 14.715654 500.235352
5.120000 2.880000 -4.840000 -7.399294 2.729158 62.197857
5.120000 2.880000 -4.800000 4.598981 2.296971 26.426706
5.120000 2.920000 -5.200000 28.045074 -11.481304 918.346558
5.120000 2.920000 -5.160000 36.062248 -14.157866 1500.930908
5.120000 2.920000 -5.120000 52.421349 -8.503158 2820.301514
5.120000 2.920000 -5.080000 66.185631 13.220407 4555.316895
5.120000 2.920000 -5.040000 62.300117 45.458214 5947.753906
5.120000 2.920000 -5.000000 35.578499 70.492714 6235.052246
5.120000 2.920000 -4.960000 -2.023697 71.828728 5163.461426
5.120000 2.920000 -4.920000 -28.944412 48.619137 3201.599609
5.120000 2.920000 -4.880000 -30.922333 17.642118 1267.435059
5.120000 2.920000 -4.840000 -12.467495 0.171763 155.467926
5.120000 2.920000 -4.800000 7.444373 5.029323 80.712784
5.120000 2.960000 -5.200000 25.593912 6.540637 697.828247
5.120000 2.960000 -5.160000 34.568954 0.189164 1195.048340
5.120000 2.960000 -5.120000 54.887981 6.846071 3059.559082
5.120000 2.960000 -5.080000 69.181595 35.787697 6066.852539
5.120000 2.960000 -5.040000 56.785427 75.660645 8949.118164
5.120000 2.960000 -5.000000 14.847366 99.458519 10112.441406
5.120000 2.960000 -4.960000 -34.277828 87.171280 8773.801758
5.120000 2.960000 -4.920000 -59.414322 45.430237 5593.968262
5.120000 2.960000 -4.880000 -47.334789 4.059256 2257.059814
5.120000 2.960000 -4.840000 -14.571821 -9.161789 296.276337
5.120000 2.960000 -4.800000 7.713525 7.713697 118.999588
5.120000 3.000000 -5.200000 14.852384 18.151690 550.077148
5.120000 3.000000 -5.160000 27.438911 13.166333 926.246216
5.120000 3.000000 -5.120000 47.698368 26.954475 3001.677979
5.120000 3.000000 -5.080000 52.477779 63.111027 6736.918945
5.120000 3.000000 -5.040000 23.273342 100.283913 10598.511719
5.120000 3.000000 -5.000000 -31.350857 106.952972 12421.814453
5.120000 3.000000 -4.960000 -77.339493 70.940796 11013.994141
5.120000 3.000000 -4.920000 -83.237579 14.359791 7134.698242
5.120000 3.000000 -4.880000 -49.116535 -23.453108 2962.482422
5.120000 3.000000 -4.840000 -7.162476 -20.602890 475.780121
5.120000 3.000000 -4.800000 8.008098 8.526297 136.827362
5.120000 3.040000 -5.200000 1.037601 22.262251 496.684448
5.120000 3.040000 -5.160000 13.127096 22.327862 670.854065
5.120000 3.040000 -5.120000 25.289022 41.330124 2347.713867
5.120000 3.040000 -5.080000 15.292738 74.072090 5720.541992
5.120000 3.040000 -5.040000 -25.268484 93.907181 9457.054688
5.120000 3.040000 -5.000000 -75.548859 75.682480 11435.467773
5.120000 3.040000 -4.960000 -99.200073 22.938372 10366.823242
5.120000 3.040000 -4.920000 -77.293716 -30.124802 6881.822266
5.120000 3.040000 -4.880000 -27.798635 -47.577034 3036.338379
5.120000 3.040000 -4.840000 9.779558 -24.382084 690.125793
5.120000 3.040000 -4.800000 10.827412 10.106502 219.374207
5.120000 3.080000 -5.200000 -13.021639 18.963245 529.167725
5.120000 3.080000 -5.160000 -6.470196 21.069443 485.784851
5.120000 3.080000 -5.120000 -4.328503 36.268654 1334.151245
5.120000 3.080000 -5.080000 -21.940294 54.488331 3450.354736
5.120000 3.080000 -5.040000 -57.160957 52.946480 6070.705078
5.120000 3.080000 -5.000000 -85.372894 19.813585 7681.109375
5.120000 3.080000 -4.960000 -80.060333 -28.680538 7232.229980
5.120000 3.080000 -4.920000 -39.882286 -58.768913 5044.381836
5.120000 3.080000 -4.880000 6.809460 -49.669365 2513.414551
5.120000 3.080000 -4.840000 27.043188 -13.518518 914.084351
5.120000 3.080000 -4.800000 13.591909 16.604599 460.452698
5.120000 3.120000 -5.200000 -23.741680 7.629439 621.875732
5.120000 3.120000 -5.160000 -21.631876 5.500486 498.193390
5.120000 3.120000 -5.120000 -22.047863 10.571911 597.873596
5.120000 3.120000 -5.080000 -33.521568 14.335184 1329.193115
5.120000 3.120000 -5.040000 -50.114510 3.023766 2520.607178
5.120000 3.120000 -5.000000 -53.489983 -24.498652 3461.362061
5.120000 3.120000 -4.960000 -31.635700 -50.258938 3526.778320
5.120000 3.120000 -4.920000 5.581144 -52.141491 2749.884277
5.120000 3.120000 -4.880000 32.630035 -26.049765 1743.309448
5.120000 3.120000 -4.840000 31.775162 8.579300 1083.265259
5.120000 3.120000 -4.800000 9.623645 27.032944 823.394592
5.120000 3.160000 -5.200000 -25.216024 -9.429677 724.766724
5.120000 3.160000 -5.160000 -20.877167 -17.361320 737.271484
5.120000 3.160000 -5.120000 -14.643699 -18.846004 569.609802
5.120000 3.160000 -5.080000 -12.809619 -18.147219 493.407867
5.120000 3.160000 -5.040000 -12.548319 -22.332161 656.185730
5.120000 3.160000 -5.000000 -5.121542 -30.271210 942.576294
5.120000 3.160000 -4.960000 12.095280 -31.467730 1136.513794
5.120000 3.160000 -4.920000 29.368145 -17.343090 1163.270752
5.120000 3.160000 -4.880000 32.676582 7.621945 1125.853027
5.120000 3.160000 -4.840000 17.977772 28.283070 1123.132324
5.120000 3.160000 -4.800000 -4.264948 33.034904 1109.494751
5.120000 3.200000 -5.200000 -13.978140 -23.951782 769.076294
5.120000 3.200000 -5.160000 -2.969499 -31.847076 1023.054199
5.120000 3.200000 -5.120000 10.958948 -30.290291 1037.600220
5.120000 3.200000 -5.080000 20.451063 -21.492840 880.188110
5.120000 3.200000 -5.040000 23.950546 -11.283138 700.937866
5.120000 3.200000 -5.000000 24.529966 -2.291257 606.969116
5.120000 3.200000 -4.960000 23.879612 7.202885 622.117371
5.120000 3.200000 -4.920000 19.558270 18.435286 722.385620
5.120000 3.200000 -4.880000 8.717957 28.192730 870.832764
5.120000 3.200000 -4.840000 -6.905351 31.163370 1018.839478
5.120000 3.200000 -4.800000 -21.412304 25.588079 1113.236572
5.160000 2.800000 -5.200000 -11.704641 -6.573289 180.206757
5.160000 2.800000 -5.160000 0.792467 -15.184858 231.207932
5.160000 2.800000 -5.120000 21.950657 -9.201445 566.497925
5.160000 2.800000 -5.080000 33.937305 16.034021 1408.830566
5.160000 2.800000 -5.040000 21.393847 45.996861 2573.407715
5.160000 2.800000 -5.000000 -11.714349 57.755432 3472.916016
5.160000 2.800000 -4.960000 -43.097698 41.102375 3546.816895
5.160000 2.800000 -4.920000 -51.528564 8.702065 2730.918701
5.160000 2.800000 -4.880000 -35.628487 -15.632297 1513.757690
5.160000 2.800000 -4.840000 -13.172984 -18.832035 528.173035
5.160000 2.800000 -4.800000 -2.289106 -8.479172 77.136360
5.160000 2.840000 -5.200000 -3.230630 -15.191389 241.215271
5.160000 2.840000 -5.160000 11.692429 -17.040215 427.081787
5.160000 2.840000 -5.120000 27.734051 -2.574579 775.806030
5.160000 2.840000 -5.080000 27.931381 24.310017 1371.138916
5.160000 2.840000 -5.040000 5.820756 45.158485 2073.169922
5.160000 2.840000 -5.000000 -25.962500 43.065403 2528.680176
5.160000 2.840000 -4.960000 -45.626713 18.793421 2434.989502
5.160000 2.840000 -4.920000 -41.432835 -9.608426 1809.001709
5.160000 2.840000 -4.880000 -21.069426 -23.357109 989.475220
5.160000 2.840000 -4.840000 -2.390517 -18.830517 360.302917
5.160000 2.840000 -4.800000 3.947978 -7.359343 69.746460
5.160000 2.880000 -5.200000 9.373885 -15.617117 331.764069
5.160000 2.880000 -5.160000 21.967129 -11.293633 610.100891
5.160000 2.880000 -5.120000 29.607983 5.587225 907.849731
5.160000 2.880000 -5.080000 21.640137 26.497725 1170.424927
5.160000 2.880000 -5.040000 -0.692352 36.541817 1335.783691
5.160000 2.880000 -5.000000 -23.858704 27.666822 1334.690796
5.160000 2.880000 -4.960000 -33.205856 6.030624 1138.997314
5.160000 2.880000 -4.920000 -24.959389 -13.510249 805.497925
5.160000 2.880000 -4.880000 -7.886992 -19.917810 458.923828
5.160000 2.880000 -4.840000 5.724071 -13.436720 213.310425
5.160000 2.880000 -4.800000 9.981806 -2.206321 104.504295
5.160000 2.920000 -5.200000 20.042580 -7.087716 451.940704
5.160000 2.920000 -5.160000 27.696022 0.714909 767.580750
5.160000 2.920000 -5.120000 28.615074 15.028437 1044.676392
5.160000 2.920000 -5.080000 18.709671 28.601837 1168.116821
5.160000 2.920000 -5.040000 1.156013 33.049236 1093.588501
5.160000 2.920000 -5.000000 -15.256901 25.065456 861.050110
5.160000 2.920000 -4.960000 -21.998508 8.974768 564.480835
5.160000 2.920000 -4.920000 -16.363104 -6.042608 304.264282
5.160000 2.920000 -4.880000 -3.022918 -11.805202 148.500839
5.160000 2.920000 -4.840000 9.088932 -6.020841 118.859207
5.160000 2.920000 -4.800000 12.291805 6.620461 194.918976
5.160000 2.960000 -5.200000 23.241993 7.770612 600.572632
5.160000 2.960000 -5.160000 25.089394 16.243031 893.313721
5.160000 2.960000 -5.120000 22.167027 26.227142 1179.239990
5.160000 2.960000 -5.080000 13.277214 34.974827 1399.522949
5.160000 2.960000 -5.040000 -1.035609 38.178795 1458.692871
5.160000 2.960000 -5.000000 -16.249571 31.754625 1272.404785
5.160000 2.960000 -4.960000 -24.407345 16.251543 859.831177
5.160000 2.960000 -4.920000 -19.639475 -0.522593 385.982086
5.160000 2.960000 -4.880000 -4.730683 -7.552251 79.415855
5.160000 2.960000 -4.840000 8.634970 0.137299 74.581551
5.160000 2.960000 -4.800000 8.627488 15.465607 313.618530
5.160000 3.000000 -5.200000 15.401688 22.934765 763.215393
5.160000 3.000000 -5.160000 11.418930 29.166603 981.082703
5.160000 3.000000 -5.120000 6.379861 34.253925 1214.034058
5.160000 3.000000 -5.080000 -1.715232 39.316418 1548.722656
5.160000 3.000000 -5.040000 -15.223064 40.345932 1859.535889
5.160000 3.000000 -5.000000 -29.929092 31.025930 1858.358887
5.160000 3.000000 -4.960000 -35.381042 11.768730 1390.321167
5.160000 3.000000 -4.920000 -24.940792 -6.238485 660.961792
5.160000 3.000000 -4.880000 -5.292375 -9.442600 117.171928
5.160000 3.000000 -4.840000 6.938632 3.998882 64.135674
5.160000 3.000000 -4.800000 0.639323 19.957041 398.692200
5.160000 3.040000 -5.200000 -2.194932 30.006668 905.217896
5.160000 3.040000 -5.160000 -10.488382 30.603605 1046.586792
5.160000 3.040000 -5.120000 -15.750669 29.556189 1121.651855
5.160000 3.040000 -5.080000 -22.054192 29.634043 1364.563843
5.160000 3.040000 -5.040000 -32.449265 25.895988 1723.556885
5.160000 3.040000 -5.000000 -41.089043 12.447246 1843.243408
5.160000 3.040000 -4.960000 -37.456207 -6.854986 1449.958252
5.160000 3.040000 -4.920000 -19.427723 -18.276134 711.453491
5.160000 3.040000 -4.880000 0.512283 -11.621496 135.321609
5.160000 3.040000 -4.840000 5.660964 6.972831 80.666878
5.160000 3.040000 -4.800000 -7.239885 18.786659 405.354492
5.160000 3.080000 -5.200000 -21.422556 22.780603 977.881775
5.160000 3.080000 -5.160000 -29.796818 15.390924 1124.730957
5.160000 3.080000 -5.120000 -31.349905 7.863908 1044.657593
5.160000 3.080000 -5.080000 -31.744490 3.259725 1018.338440
5.160000 3.080000 -5.040000 -33.686604 -2.982199 1143.680786
5.160000 3.080000 -5.000000 -31.768444 -14.089106 1207.736938
5.160000 3.080000 -4.960000 -19.789112 -23.999174 967.569336
5.160000 3.080000 -4.920000 -1.581172 -22.121826 491.875275
5.160000 3.080000 -4.880000 9.442514 -6.481750 131.174164
5.160000 3.080000 -4.840000 3.890282 10.812162 132.037155
5.160000 3.080000 -4.800000 -11.781361 14.500914 349.076965
5.160000 3.120000 -5.200000 -30.509462 3.280852 941.591248
5.160000 3.120000 -5.160000 -33.304405 -10.600177 1221.547119
5.160000 3.120000 -5.120000 -26.833054 -21.166710 1168.042358
5.160000 3.120000 -5.080000 -17.926769 -25.282682 960.583130
5.160000 3.120000 -5.040000 -10.193329 -26.225492 791.680359
5.160000 3.120000 -5.000000 -1.692449 -25.921068 674.766174
5.160000 3.120000 -4.960000 8.643980 -21.071075 518.708618
5.160000 3.120000 -4.920000 15.665388 -8.644068 320.124298
5.160000 3.120000 -4.880000 12.303716 6.789802 197.482834
5.160000 3.120000 -4.840000 -0.878397 14.864067 221.712067
5.160000 3.120000 -4.800000 -13.402623 10.291064 285.536316
5.160000 3.160000 -5.200000 -22.542156 -16.962399 795.871765
5.160000 3.160000 -5.160000 -16.747314 -31.478722 1271.382446
5.160000 3.160000 -5.120000 -1.933089 -38.416504 1479.564575
5.160000 3.160000 -5.080000 13.782684 -34.843624 1404.040527
5.160000 3.160000 -5.040000 24.486860 -23.928825 1172.195068
5.160000 3.160000 -5.000000 28.525320 -9.947682 912.650269
5.160000 3.160000 -4.960000 25.862473 4.214772 686.631775
5.160000 3.160000 -4.920000 16.549822 15.476685 513.424377
5.160000 3.160000 -4.880000 2.819100 19.789505 399.571838
5.160000 3.160000 -4.840000 -9.420864 15.398293 325.860077
5.160000 3.160000 -4.800000 -14.240347 6.512863 245.204865
5.160000 3.200000 -5.200000 -2.497956 -24.209732 592.350952
5.160000 3.200000 -5.160000 9.046668 -32.984985 1169.851440
5.160000 3.200000 -5.120000 26.688835 -31.485491 1703.630127
5.160000 3.200000 -5.080000 41.261528 -17.670382 2014.756104
5.160000 3.200000 -5.040000 45.016109 3.486510 2038.605835
5.160000 3.200000 -5.000000 35.713749 23.319519 1819.271729
5.160000 3.200000 -4.960000 17.269005 34.039589 1456.912109
5.160000 3.200000 -4.920000 -2.380580 32.405743 1055.799316
5.160000 3.200000 -4.880000 -15.292810 21.368656 690.489502
5.160000 3.200000 -4.840000 -18.066027 8.550135 399.486115
5.160000 3.200000 -4.800000 -14.202402 1.272234 203.326797
5.200000 2.800000 -5.200000 -18.029732 6.741039 370.512848
5.200000 2.800000 -5.160000 -13.150698 -3.149773 182.861923
5.200000 2.800000 -5.120000 0.823944 -0.491919 0.920868
5.200000 2.800000 -5.080000 5.839574 18.206722 365.585358
5.200000 2.800000 -5.040000 -10.886555 36.944874 1483.440796
5.200000 2.800000 -5.000000 -41.049408 34.776546 2894.461914
5.200000 2.800000 -4.960000 -60.872669 7.614230 3763.458496
5.200000 2.800000 -4.920000 -53.601185 -26.036297 3550.975586
5.200000 2.800000 -4.880000 -25.732693 -42.197929 2442.836670
5.200000 2.800000 -4.840000 0.054659 -33.887489 1148.364868
5.200000 2.800000 -4.800000 7.535803 -15.664717 302.171661
5.200000 2.840000 -5.200000 -15.347990 -8.351676 305.311279
5.200000 2.840000 -5.160000 -4.625069 -11.924755 163.591049
5.200000 2.840000 -5.120000 4.631812 -0.537189 21.742256
5.200000 2.840000 -5.080000 -2.444890 17.276215 304.445068
5.200000 2.840000 -5.040000 -25.563541 22.704933 1169.008545
5.200000 2.840000 -5.000000 -47.098698 5.630878 2249.994141
5.200000 2.840000 -4.960000 -48.219631 -23.949600 2898.716309
5.200000 2.840000 -4.920000 -27.012802 -44.518246 2711.565674
5.200000 2.840000 -4.880000 0.037602 -43.054638 1853.703369
5.200000 2.840000 -4.840000 14.450100 -25.903929 879.818970
5.200000 2.840000 -4.800000 12.500593 -10.022238 256.710083
5.200000 2.880000 -5.200000 -0.452428 -16.456394 271.017578
5.200000 2.880000 -5.160000 8.893486 -10.430075 187.880554
5.200000 2.880000 -5.120000 7.655351 3.317647 69.611183
5.200000 2.880000 -5.080000 -7.202846 11.135053 175.870377
5.200000 2.880000 -5.040000 -24.803104 2.692401 622.442993
5.200000 2.880000 -5.000000 -29.883289 -18.209087 1224.581787
5.200000 2.880000 -4.960000 -17.046488 -36.480915 1621.439941
5.200000 2.880000 -4.920000 4.486025 -39.413750 1573.568115
5.200000 2.880000 -4.880000 19.991880 -27.337612 1147.020264
5.200000 2.880000 -4.840000 22.307304 -11.218926 623.480103
5.200000 2.880000 -4.800000 15.819412 -1.099998 251.463791
5.200000 2.920000 -5.200000 17.028761 -8.972694 370.487946
5.200000 2.920000 -5.160000 17.158617 3.078322 303.894226
5.200000 2.920000 -5.120000 6.227531 10.517931 149.409012
5.200000 2.920000 -5.080000 -7.112586 5.651916 82.533035
5.200000 2.920000 -5.040000 -11.639933 -8.488153 207.536789
5.200000 2.920000 -5.000000 -3.608895 -21.174143 461.368469
5.200000 2.920000 -4.960000 10.761396 -23.694248 677.225098
5.200000 2.920000 -4.920000 21.859024 -15.921171 731.300598
5.200000 2.920000 -4.880000 24.692799 -4.251356 627.808350
5.200000 2.920000 -4.840000 20.726803 5.230265 456.956024
5.200000 2.920000 -4.800000 13.659834 10.639000 299.779388
5.200000 2.960000 -5.200000 22.851810 11.548954 655.583618
5.200000 2.960000 -5.160000 10.983474 20.852741 555.473511
5.200000 2.960000 -5.120000 -2.952907 16.514061 281.433868
5.200000 2.960000 -5.080000 -7.121869 3.378396 62.134579
5.200000 2.960000 -5.040000 0.475532 -6.811869 46.627686
5.200000 2.960000 -5.000000 11.880548 -6.967563 189.694366
5.200000 2.960000 -4.960000 18.410961 0.371199 339.101288
5.200000 2.960000 -4.920000 18.223244 8.356540 401.918365
5.200000 2.960000 -4.880000 14.815025 13.626159 405.157166
5.200000 2.960000 -4.840000 10.374194 17.384071 409.829834
5.200000 2.960000 -4.800000 3.409092 20.040920 413.260406
5.200000 3.000000 -5.200000 9.677222 31.021940 1056.009399
5.200000 3.000000 -5.160000 -9.466203 29.212553 942.982239
5.200000 3.000000 -5.120000 -18.057053 13.662328 512.716370
5.200000 3.000000 -5.080000 -10.792788 -0.460011 116.695869
5.200000 3.000000 -5.040000 2.894743 -2.013847 12.435117
5.200000 3.000000 -5.000000 10.451155 6.697387 154.081619
5.200000 3.000000 -4.960000 8.573053 15.576633 316.128754
5.200000 3.000000 -4.920000 3.202168 18.907461 367.745972
5.200000 3.000000 -4.880000 -0.430736 19.373249 375.508331
5.200000 3.000000 -4.840000 -4.108964 20.779081 448.653809
5.200000 3.000000 -4.800000 -11.597460 20.481697 554.000977
5.200000 3.040000 -5.200000 -15.232420 33.992577 1387.521851
5.200000 3.040000 -5.160000 -32.204639 18.657848 1385.254150
5.200000 3.040000 -5.120000 -29.815109 -2.474140 895.062134
5.200000 3.040000 -5.080000 -13.306931 -11.776104 315.751038
5.200000 3.040000 -5.040000 1.344371 -5.119459 28.016195
5.200000 3.040000 -5.000000 4.161484 7.464807 73.041283
5.200000 3.040000 -4.960000 -1.662127 14.974170 226.988419
5.200000 3.040000 -4.920000 -7.694747 15.992332 314.963837
5.200000 3.040000 -4.880000 -11.334112 15.603887 371.943359
5.200000 3.040000 -4.840000 -16.165260 15.309166 495.686218
5.200000 3.040000 -4.800000 -22.877405 10.389967 631.327087
5.200000 3.080000 -5.200000 -34.302662 16.762566 1457.656250
5.200000 3.080000 -5.160000 -40.938698 -7.090894 1726.257690
5.200000 3.080000 -5.120000 -26.811398 -26.366619 1414.049561
5.200000 3.080000 -5.080000 -4.901590 -27.731037 793.036011
5.200000 3.080000 -5.040000 8.571107 -14.297378 277.878876
5.200000 3.080000 -5.000000 8.297091 1.139677 70.140594
5.200000 3.080000 -4.960000 0.321579 9.707506 94.339096
5.200000 3.080000 -4.920000 -8.060576 11.638594 200.429749
5.200000 3.080000 -4.880000 -15.096313 10.239994 332.756165
5.200000 3.080000 -4.840000 -21.321342 5.430807 484.093292
5.200000 3.080000 -4.800000 -23.564531 -3.999246 571.281067
5.200000 3.120000 -5.200000 -33.633804 -8.429397 1202.287476
5.200000 3.120000 -5.160000 -27.948729 -31.940231 1801.309814
5.200000 3.120000 -5.120000 -5.829120 -43.472763 1923.859741
5.200000 3.120000 -5.080000 17.359602 -35.661694 1573.112061
5.200000 3.120000 -5.040000 27.975285 -15.494891 1022.708252
5.200000 3.120000 -5.000000 23.328739 4.225145 562.081909
5.200000 3.120000 -4.960000 9.659637 15.066852 320.318604
5.200000 3.120000 -4.920000 -5.297689 15.679193 273.902588
5.200000 3.120000 -4.880000 -16.313398 8.390545 336.528198
5.200000 3.120000 -4.840000 -19.957758 -3.190610 408.492096
5.200000 3.120000 -4.800000 -14.548286 -13.386286 390.845276
5.200000 3.160000 -5.200000 -14.852306 -22.947952 747.199524
5.200000 3.160000 -5.160000 -1.468850 -39.231506 1541.268555
5.200000 3.160000 -5.120000 22.504559 -40.890297 2178.471436
5.200000 3.160000 -5.080000 42.523659 -24.377831 2402.540283
5.200000 3.160000 -5.040000 46.766056 1.924436 2190.767334
5.200000 3.160000 -5.000000 33.371120 24.405102 1709.240723
5.200000 3.160000 -4.960000 10.130394 32.806946 1178.920532
5.200000 3.160000 -4.920000 -11.039787 25.182970 756.058899
5.200000 3.160000 -4.880000 -20.568573 7.904195 485.542480
5.200000 3.160000 -4.840000 -15.987466 -8.075051 320.805511
5.200000 3.160000 -4.800000 -3.434655 -13.331665 189.530151
5.200000 3.200000 -5.200000 6.131203 -17.246634 335.038025
5.200000 3.200000 -5.160000 19.981457 -25.262611 1037.458130
5.200000 3.200000 -5.120000 40.213501 -19.198944 1985.725098
5.200000 3.200000 -5.080000 53.111748 2.984133 2829.762695
5.200000 3.200000 -5.040000 47.395271 31.435112 3234.478027
5.200000 3.200000 -5.000000 23.029446 50.228333 3053.240723
5.200000 3.200000 -4.960000 -7.586439 48.301628 2390.601318
5.200000 3.200000 -4.920000 -27.584864 27.704178 1528.446167
5.200000 3.200000 -4.880000 -27.526480 2.608960 764.513794
5.200000 3.200000 -4.840000 -12.314014 -10.952372 271.589386
5.200000 3.200000 -4.800000 2.813891 -7.226692 60.143059
