#kx 	ky 	kz 	real 	imag 	intensity
4.800000 -7.200000 2.800000 -43.887886 -4.939454 1950.544678
4.800000 -7.200000 2.840000 -30.946899 -16.101147 1216.957520
4.800000 -7.200000 2.880000 -20.762005 -13.137243 603.648010
4.800000 -7.200000 2.920000 -22.843952 -7.820556 583.007202
4.800000 -7.200000 2.960000 -30.439346 -13.375305 1105.452637
4.800000 -7.200000 3.000000 -28.332560 -28.902567 1638.092285
4.800000 -7.200000 3.040000 -10.445251 -39.345074 1657.138062
4.800000 -7.200000 3.080000 12.005636 -31.322840 1125.255615
4.800000 -7.200000 3.120000 20.812429 -7.889978 495.408997
4.800000 -7.200000 3.160000 8.703581 13.462119 256.980957
4.800000 -7.200000 3.200000 -13.722324 17.297142 487.493317
4.800000 -7.160000 2.800000 -33.326241 -24.730728 1722.247192
4.800000 -7.160000 2.840000 -17.142719 -24.161728 877.661987
4.800000 -7.160000 2.880000 -12.661692 -15.421778 398.149658
4.800000 -7.160000 2.920000 -18.720316 -12.826956 514.981018
4.800000 -7.160000 2.960000 -22.751324 -21.368389 974.230835
4.800000 -7.160000 3.000000 -15.198012 -32.085258 1260.443481
4.800000 -7.160000 3.040000 0.007610 -32.499653 1056.227417
4.800000 -7.160000 3.080000 9.802555 -20.365614 510.848328
4.800000 -7.160000 3.120000 5.844354 -6.085560 71.190506
4.800000 -7.160000 3.160000 -7.140570 -1.923635 54.688107
4.800000 -7.160000 3.200000 -16.738993 -10.010922 380.412445
4.800000 -7.120000 2.800000 -13.846521 -30.402670 1116.048462
4.800000 -7.120000 2.840000 -3.571918 -20.436953 430.427643
4.800000 -7.120000 2.880000 -6.141909 -11.585440 171.945450
4.800000 -7.120000 2.920000 -13.086851 -12.276737 321.983948
4.800000 -7.120000 2.960000 -14.540702 -19.588623 595.146118
4.800000 -7.120000 3.000000 -9.041809 -24.870798 700.310913
4.800000 -7.120000 3.040000 -2.903303 -24.011362 584.974670
4.800000 -7.120000 3.080000 -1.498822 -20.896832 438.924042
4.800000 -7.120000 3.120000 -3.119568 -21.365683 466.224091
4.800000 -7.120000 3.160000 -1.890501 -25.747841 666.525269
4.800000 -7.120000 3.200000 4.641607 -28.638083 841.684265
4.800000 -7.080000 2.800000 -0.419783 -21.324747 454.921051
4.800000 -7.080000 2.840000 0.558539 -10.133146 102.992622
4.800000 -7.080000 2.880000 -5.956303 -5.384499 64.470367
4.800000 -7.080000 2.920000 -12.159460 -7.955297 211.139206
4.800000 -7.080000 2.960000 -14.684574 -13.628271 401.366486
4.800000 -7.080000 3.000000 -14.738520 -19.819859 610.050781
4.800000 -7.080000 3.040000 -12.789321 -27.317986 909.839050
4.800000 -7.080000 3.080000 -6.111242 -35.868378 1323.887817
4.800000 -7.080000 3.120000 7.176502 -40.755264 1712.493774
4.800000 -7.080000 3.160000 23.010220 -36.140366 1835.596191
4.800000 -7.080000 3.200000 32.738007 -22.008909 1556.169189
4.800000 -7.040000 2.800000 -1.218064 -9.965601 100.796883
4.800000 -7.040000 2.840000 -5.215498 -4.159232 44.500633
4.800000 -7.040000 2.880000 -11.169647 -3.584258 137.607925
4.800000 -7.040000 2.920000 -16.776543 -6.786890 327.514282
4.800000 -7.040000 2.960000 -21.729141 -14.040220 669.283386
4.800000 -7.040000 3.000000 -22.923635 -26.988159 1253.853760
4.800000 -7.040000 3.040000 -14.159560 -42.949524 2045.154785
4.800000 -7.040000 3.080000 6.980707 -52.351395 2789.398682
4.800000 -7.040000 3.120000 32.677044 -45.329529 3122.555176
4.800000 -7.040000 3.160000 48.242695 -22.153158 2818.120117
4.800000 -7.040000 3.200000 44.281837 4.231882 1978.789917
4.800000 -7.000000 2.800000 -9.432367 -9.061112 171.073303
4.800000 -7.000000 2.840000 -11.617260 -8.344093 204.584625
4.800000 -7.000000 2.880000 -14.926897 -8.842693 301.005493
4.800000 -7.000000 2.920000 -20.534731 -12.590761 580.202454
4.800000 -7.000000 2.960000 -25.176426 -23.963392 1208.096558
4.800000 -7.000000 3.000000 -20.010044 -42.262989 2186.562012
4.800000 -7.000000 3.040000 1.176575 -56.820896 3229.998535
4.800000 -7.000000 3.080000 32.084183 -53.372604 3878.029785
4.800000 -7.000000 3.120000 54.841064 -27.901314 3786.025635
4.800000 -7.000000 3.160000 54.100800 6.396907 2967.816895
4.800000 -7.000000 3.200000 31.458834 28.383104 1795.258789
4.800000 -6.960000 2.800000 -11.124121 -18.148670 453.120300
4.800000 -6.960000 2.840000 -9.207294 -17.183786 380.056763
4.800000 -6.960000 2.880000 -11.386401 -16.069378 387.875061
4.800000 -6.960000 2.920000 -16.886278 -20.899803 721.948120
4.800000 -6.960000 2.960000 -17.420305 -34.965897 1526.080933
4.800000 -6.960000 3.000000 -3.339670 -51.117664 2624.168945
4.800000 -6.960000 3.040000 24.623680 -54.194191 3543.335938
4.800000 -6.960000 3.080000 51.145866 -34.535400 3808.593506
4.800000 -6.960000 3.120000 57.241104 0.155906 3276.568359
4.800000 -6.960000 3.160000 37.655525 28.431339 2226.279785
4.800000 -6.960000 3.200000 7.231711 33.080387 1146.609619
4.800000 -6.920000 2.800000 -1.010286 -24.549360 603.691772
4.800000 -6.920000 2.840000 1.246137 -19.710644 390.062347
4.800000 -6.920000 2.880000 -2.513689 -17.446230 310.689575
4.800000 -6.920000 2.920000 -7.078753 -23.501221 602.416138
4.800000 -6.920000 2.960000 -2.715154 -36.124855 1312.377197
4.800000 -6.920000 3.000000 15.249063 -43.985771 2167.281982
4.800000 -6.920000 3.040000 38.613811 -34.904266 2709.334473
4.800000 -6.920000 3.080000 50.448128 -8.724118 2621.124023
4.800000 -6.920000 3.120000 39.891640 19.290892 1963.481445
4.800000 -6.920000 3.160000 13.651003 30.420397 1111.750366
4.800000 -6.920000 3.200000 -8.630457 19.553762 456.834412
4.800000 -6.880000 2.800000 11.345963 -18.094818 456.153320
4.800000 -6.880000 2.840000 9.279436 -11.758497 224.370178
4.800000 -6.880000 2.880000 3.494836 -11.192703 137.490479
4.800000 -6.880000 2.920000 0.741988 -17.820431 318.118286
4.800000 -6.880000 2.960000 7.143538 -26.137129 734.179626
4.800000 -6.880000 3.000000 21.487143 -26.515032 1164.744263
4.800000 -6.880000 3.040000 33.806545 -13.851137 1334.736450
4.800000 -6.880000 3.080000 33.075058 5.818272 1127.811768
4.800000 -6.880000 3.120000 18.038719 18.900082 682.608459
4.800000 -6.880000 3.160000 -0.105453 16.434610 270.107513
4.800000 -6.880000 3.200000 -7.536452 3.180260 66.912170
4.800000 -6.840000 2.800000 12.139345 -3.328198 158.440613
4.800000 -6.840000 2.840000 6.216567 -1.193912 40.071133
4.800000 -6.840000 2.880000 1.236491 -4.175760 18.965879
4.800000 -6.840000 2.920000 0.653517 -10.142690 103.301239
4.800000 -6.840000 2.960000 5.623534 -14.699162 247.689484
4.800000 -6.840000 3.000000 13.244240 -13.545912 358.901611
4.800000 -6.840000 3.040000 17.706120 -6.342071 353.728546
4.800000 -6.840000 3.080000 15.104825 1.923920 231.857208
4.800000 -6.840000 3.120000 7.698738 4.940149 83.675644
4.800000 -6.840000 3.160000 2.306551 1.506046 7.588353
4.800000 -6.840000 3.200000 3.179250 -2.691049 17.349371
4.800000 -6.800000 2.800000 -0.833375 4.656870 22.380953
4.800000 -6.800000 2.840000 -4.718740 0.122993 22.281639
4.800000 -6.800000 2.880000 -5.294510 -4.654068 49.692181
4.800000 -6.800000 2.920000 -4.107034 -8.496517 89.058533
4.800000 -6.800000 2.960000 -1.802645 -11.617347 138.212280
4.800000 -6.800000 3.000000 1.790918 -13.706440 191.073883
4.800000 -6.800000 3.040000 6.214037 -13.828098 229.830566
4.800000 -6.800000 3.080000 10.155825 -11.661396 239.128937
4.800000 -6.800000 3.120000 12.577310 -7.842981 219.701080
4.800000 -6.800000 3.160000 13.051823 -2.986523 179.269394
4.800000 -6.800000 3.200000 10.730333 2.463656 121.209656
4.840000 -7.200000 2.800000 -48.249939 -11.810396 2467.541992
4.840000 -7.200000 2.840000 -37.173309 -21.168858 1829.975586
4.840000 -7.200000 2.880000 -30.061665 -23.002596 1432.823120
4.840000 -7.200000 2.920000 -27.981205 -26.748127 1498.410156
4.840000 -7.200000 2.960000 -22.339544 -35.776718 1779.028809
4.840000 -7.200000 3.000000 -6.779602 -41.858421 1798.090454
4.840000 -7.200000 3.040000 12.538848 -34.128662 1321.988281
4.840000 -7.200000 3.080000 20.920338 -12.941137 605.133545
4.840000 -7.200000 3.120000 10.145773 7.385757 157.486115
4.840000 -7.200000 3.160000 -11.619221 11.182816 260.061646
4.840000 -7.200000 3.200000 -26.343203 -3.261871 704.604126
4.840000 -7.160000 2.800000 -30.677044 -36.565243 2278.097900
4.840000 -7.160000 2.840000 -15.843994 -34.367855 1432.181519
4.840000 -7.160000 2.880000 -9.958362 -29.123175 947.328247
4.840000 -7.160000 2.920000 -8.048248 -28.290884 865.148438
4.840000 -7.160000 2.960000 -2.711094 -30.081146 912.225403
4.840000 -7.160000 3.000000 6.250732 -27.241653 781.179321
4.840000 -7.160000 3.040000 11.359504 -17.190439 424.549530
4.840000 -7.160000 3.080000 6.543593 -6.595234 86.315727
4.840000 -7.160000 3.120000 -4.729387 -4.920582 46.579231
4.840000 -7.160000 3.160000 -11.754462 -13.973358 333.422119
4.840000 -7.160000 3.200000 -7.236149 -25.129292 683.843201
4.840000 -7.120000 2.800000 -2.455040 -40.933414 1681.571655
4.840000 -7.120000 2.840000 8.702520 -28.199499 870.945618
4.840000 -7.120000 2.880000 9.594177 -16.133013 352.322357
4.840000 -7.120000 2.920000 5.248140 -9.213155 112.425201
4.840000 -7.120000 2.960000 -0.083355 -6.995806 48.948246
4.840000 -7.120000 3.000000 -5.089186 -8.155071 92.404999
4.840000 -7.120000 3.040000 -8.870854 -12.886314 244.749146
4.840000 -7.120000 3.080000 -8.629400 -20.899378 511.250549
4.840000 -7.120000 3.120000 -1.629793 -28.491472 814.420227
4.840000 -7.120000 3.160000 10.610625 -29.764744 998.525391
4.840000 -7.120000 3.200000 21.462955 -21.853630 938.239624
4.840000 -7.080000 2.800000 16.604616 -25.833153 943.065063
4.840000 -7.080000 2.840000 19.955063 -7.187424 449.863586
4.840000 -7.080000 2.880000 11.523394 8.843124 210.989456
4.840000 -7.080000 2.920000 -5.564037 15.680983 276.851746
4.840000 -7.080000 2.960000 -24.149708 8.706131 659.005066
4.840000 -7.080000 3.000000 -33.992889 -11.127560 1279.339111
4.840000 -7.080000 3.040000 -26.983801 -34.773659 1937.332886
4.840000 -7.080000 3.080000 -4.113152 -48.455498 2364.853271
4.840000 -7.080000 3.120000 22.768793 -42.908745 2359.578369
4.840000 -7.080000 3.160000 38.223660 -21.166157 1909.054321
4.840000 -7.080000 3.200000 34.670223 2.889663 1210.374512
4.840000 -7.040000 2.800000 17.218039 -7.510167 352.863464
4.840000 -7.040000 2.840000 12.226524 12.399723 303.241028
4.840000 -7.040000 2.880000 -7.733078 26.150434 743.645691
4.840000 -7.040000 2.920000 -36.279400 21.658581 1785.288940
4.840000 -7.040000 2.960000 -56.678516 -5.581882 3243.611572
4.840000 -7.040000 3.000000 -51.673763 -44.118313 4616.603516
4.840000 -7.040000 3.040000 -18.479010 -70.564484 5320.819824
4.840000 -7.040000 3.080000 25.262871 -66.340584 5039.286133
4.840000 -7.040000 3.120000 52.873589 -33.502930 3918.062744
4.840000 -7.040000 3.160000 49.275730 5.661108 2460.145752
4.840000 -7.040000 3.200000 22.621809 26.390476 1208.203491
4.840000 -7.000000 2.800000 7.809103 -0.610163 61.354389
4.840000 -7.000000 2.840000 -4.550831 17.380737 322.800079
4.840000 -7.000000 2.880000 -33.250965 21.566763 1570.751953
4.840000 -7.000000 2.920000 -62.228275 -1.306950 3874.066162
4.840000 -7.000000 2.960000 -66.891922 -45.670399 6560.314453
4.840000 -7.000000 3.000000 -34.822876 -85.181427 8468.507812
4.840000 -7.000000 3.040000 19.509520 -91.050270 8670.772461
4.840000 -7.000000 3.080000 62.497223 -56.544762 7103.212891
4.840000 -7.000000 3.120000 67.626038 -4.675085 4595.137207
4.840000 -7.000000 3.160000 37.170975 29.943455 2278.291992
4.840000 -7.000000 3.200000 -0.993748 29.449799 868.278198
4.840000 -6.960000 2.800000 3.159325 -4.398338 29.326706
4.840000 -6.960000 2.840000 -15.344105 9.000523 316.450958
4.840000 -6.960000 2.880000 -45.130722 -0.294004 2036.868530
4.840000 -6.960000 2.920000 -61.104881 -37.379745 5131.051758
4.840000 -6.960000 2.960000 -41.447384 -82.122765 8462.034180
4.840000 -6.960000 3.000000 10.289200 -101.468430 10401.708984
4.840000 -6.960000 3.040000 63.218925 -76.977402 9922.153320
4.840000 -6.960000 3.080000 82.537842 -22.794014 7332.062012
4.840000 -6.960000 3.120000 58.618198 24.426838 4032.763672
4.840000 -6.960000 3.160000 14.732346 35.944904 1509.078125
4.840000 -6.960000 3.200000 -14.201361 13.972218 396.901520
4.840000 -6.920000 2.800000 7.713989 -6.691034 104.275566
4.840000 -6.920000 2.840000 -14.511084 -0.787806 211.192184
4.840000 -6.920000 2.880000 -36.799923 -21.150530 1801.579346
4.840000 -6.920000 2.920000 -34.144058 -59.460327 4701.347168
4.840000 -6.920000 2.960000 2.006666 -87.603897 7678.469727
4.840000 -6.920000 3.000000 52.369568 -80.073273 9154.300781
4.840000 -6.920000 3.040000 83.140671 -37.279919 8302.163086
4.840000 -6.920000 3.080000 74.057762 12.650892 5644.597168
4.840000 -6.920000 3.120000 35.817524 36.968933 2649.597168
4.840000 -6.920000 3.160000 0.129795 25.771343 664.178955
4.840000 -6.920000 3.200000 -8.533501 -1.595336 75.365730
4.840000 -6.880000 2.800000 12.174645 0.033740 148.223129
4.840000 -6.880000 2.840000 -9.002908 -3.170323 91.103294
4.840000 -6.880000 2.880000 -19.275381 -27.102703 1106.096802
4.840000 -6.880000 2.920000 -3.784612 -54.619003 2997.558838
4.840000 -6.880000 2.960000 31.853912 -62.063026 4866.491211
4.840000 -6.880000 3.000000 64.057991 -39.522453 5665.450684
4.840000 -6.880000 3.040000 70.242218 -0.501331 4934.220703
4.840000 -6.880000 3.080000 47.994843 28.761536 3130.730957
4.840000 -6.880000 3.120000 16.741852 31.495819 1272.276245
4.840000 -6.880000 3.160000 0.040927 13.908299 193.442474
4.840000 -6.880000 3.200000 4.950315 -2.442115 30.469547
4.840000 -6.840000 2.800000 6.473097 9.217699 126.866959
4.840000 -6.840000 2.840000 -7.945186 -0.909175 63.952576
4.840000 -6.840000 2.880000 -7.926753 -20.449694 481.023376
4.840000 -6.840000 2.920000 9.030273 -34.121250 1245.805664
4.840000 -6.840000 2.960000 32.183884 -30.426769 1961.590576
4.840000 -6.840000 3.000000 45.848770 -10.865641 2220.171875
4.840000 -6.840000 3.040000 41.876141 11.409496 1883.787842
4.840000 -6.840000 3.080000 25.763489 22.645615 1176.581177
4.840000 -6.840000 3.120000 10.978189 19.682941 507.938843
4.840000 -6.840000 3.160000 6.595426 11.327748 171.817520
4.840000 -6.840000 3.200000 9.695288 8.745908 170.489502
4.840000 -6.800000 2.800000 -6.567615 8.259819 111.358170
4.840000 -6.800000 2.840000 -11.277075 -2.639896 134.141464
4.840000 -6.800000 2.880000 -6.872878 -13.709214 235.179001
4.840000 -6.800000 2.920000 3.646731 -18.986483 373.785156
4.840000 -6.800000 2.960000 14.716168 -16.608307 492.401459
4.840000 -6.800000 3.000000 21.728153 -8.728027 548.291077
4.840000 -6.800000 3.040000 23.072517 0.664304 532.782349
4.840000 -6.800000 3.080000 20.025436 8.353703 470.802460
4.840000 -6.800000 3.120000 14.865001 13.375128 399.862305
4.840000 -6.800000 3.160000 8.729300 16.385605 344.688721
4.840000 -6.800000 3.200000 1.161092 17.458239 306.138245
4.880000 -7.200000 2.800000 -52.075218 -29.172873 3562.884766
4.880000 -7.200000 2.840000 -38.713932 -39.830811 3085.261963
4.880000 -7.200000 2.880000 -26.023445 -44.673134 2672.908691
4.880000 -7.200000 2.920000 -13.483301 -47.326233 2421.571533
4.880000 -7.200000 2.960000 1.657511 -46.066704 2124.888428
4.880000 -7.200000 3.000000 16.586185 -35.676922 1547.944336
4.880000 -7.200000 3.040000 22.111908 -16.354664 756.411499
4.880000 -7.200000 3.080000 11.863758 1.521448 143.063553
4.880000 -7.200000 3.120000 -8.176819 4.623603 88.238068
4.880000 -7.200000 3.160000 -21.860209 -9.973045 577.330322
4.880000 -7.200000 3.200000 -16.880661 -29.666508 1165.058350
4.880000 -7.160000 2.800000 -19.349489 -52.416527 3121.895020
4.880000 -7.160000 2.840000 -2.495452 -47.888462 2299.531982
4.880000 -7.160000 2.880000 8.085274 -39.369537 1615.332153
4.880000 -7.160000 2.920000 14.148453 -30.119484 1107.362061
4.880000 -7.160000 2.960000 16.742851 -19.989006 679.883423
4.880000 -7.160000 3.000000 14.005396 -9.516338 286.711792
4.880000 -7.160000 3.040000 4.797346 -3.128269 32.800598
4.880000 -7.160000 3.080000 -6.442442 -6.177652 79.668442
4.880000 -7.160000 3.120000 -10.749516 -18.132233 444.329956
4.880000 -7.160000 3.160000 -2.398899 -30.021458 907.042603
4.880000 -7.160000 3.200000 14.138419 -30.761887 1146.188477
4.880000 -7.120000 2.800000 18.746323 -44.704826 2349.946045
4.880000 -7.120000 2.840000 29.535057 -24.786768 1486.703369
4.880000 -7.120000 2.880000 27.177776 -3.731925 752.558777
4.880000 -7.120000 2.920000 13.347172 10.622969 290.994446
4.880000 -7.120000 2.960000 -5.716873 12.435505 187.324432
4.880000 -7.120000 3.000000 -20.744949 0.789299 430.975922
4.880000 -7.120000 3.040000 -23.372599 -18.546684 890.257874
4.880000 -7.120000 3.080000 -11.195055 -34.868492 1341.140991
4.880000 -7.120000 3.120000 9.639874 -38.314537 1560.930908
4.880000 -7.120000 3.160000 27.334061 -26.373268 1442.700195
4.880000 -7.120000 3.200000 31.870811 -6.058704 1052.456543
4.880000 -7.080000 2.800000 36.966404 -14.739498 1583.767822
4.880000 -7.080000 2.840000 33.186806 15.202480 1332.479370
4.880000 -7.080000 2.880000 8.385023 38.037018 1517.123291
4.880000 -7.080000 2.920000 -28.686474 38.047791 2270.548096
4.880000 -7.080000 2.960000 -57.474247 10.231224 3407.967041
4.880000 -7.080000 3.000000 -58.439808 -31.998455 4439.112305
4.880000 -7.080000 3.040000 -28.648449 -63.336792 4832.283203
4.880000 -7.080000 3.080000 13.954391 -64.466789 4350.691895
4.880000 -7.080000 3.120000 43.042343 -36.727764 3201.572021
4.880000 -7.080000 3.160000 43.431744 -0.610962 1886.689697
4.880000 -7.080000 3.200000 21.146130 20.770470 878.571167
4.880000 -7.040000 2.800000 28.585234 13.240585 992.428711
4.880000 -7.040000 2.840000 5.978506 43.308861 1911.400024
4.880000 -7.040000 2.880000 -40.069496 50.618622 4167.809570
4.880000 -7.040000 2.920000 -84.633301 18.514816 7505.593750
4.880000 -7.040000 2.960000 -94.498291 -42.284767 10717.928711
4.880000 -7.040000 3.000000 -55.999660 -95.528122 12261.583984
4.880000 -7.040000 3.040000 9.724251 -105.799637 11288.125000
4.880000 -7.040000 3.080000 60.776684 -67.594902 8262.875977
4.880000 -7.040000 3.120000 67.413170 -10.244935 4649.494141
4.880000 -7.040000 3.160000 34.672756 26.661976 1913.061035
4.880000 -7.040000 3.200000 -5.257936 25.056913 655.494812
4.880000 -7.000000 2.800000 8.495112 22.223051 566.030945
4.880000 -7.000000 2.840000 -30.358772 41.140503 2614.196045
4.880000 -7.000000 2.880000 -82.712273 20.362078 7255.934082
4.880000 -7.000000 2.920000 -108.148300 -43.037682 13548.296875
4.880000 -7.000000 2.960000 -76.685654 -113.914597 18857.224609
4.880000 -7.000000 3.000000 0.671724 -142.938431 20431.845703
4.880000 -7.000000 3.040000 75.563087 -107.924690 17357.519531
4.880000 -7.000000 3.080000 100.417542 -34.385918 11266.074219
4.880000 -7.000000 3.120000 67.346161 25.380083 5179.653809
4.880000 -7.000000 3.160000 11.981676 36.094551 1446.377197
4.880000 -7.000000 3.200000 -20.242987 5.858632 444.102051
4.880000 -6.960000 2.800000 -4.177554 15.577919 260.123505
4.880000 -6.960000 2.840000 -49.814507 15.651119 2726.442627
4.880000 -6.960000 2.880000 -87.943024 -30.974901 8693.419922
4.880000 -6.960000 2.920000 -76.748993 -103.748032 16654.062500
4.880000 -6.960000 2.960000 -8.014995 -151.382599 22980.931641
4.880000 -6.960000 3.000000 78.840599 -134.225449 24232.310547
4.880000 -6.960000 3.040000 126.331573 -60.783630 19654.316406
4.880000 -6.960000 3.080000 107.118423 17.430845 11778.190430
4.880000 -6.960000 3.120000 46.063240 49.575504 4579.552734
4.880000 -6.960000 3.160000 -4.248538 27.183552 756.995544
4.880000 -6.960000 3.200000 -10.387364 -14.204332 309.660400
4.880000 -6.920000 2.800000 -4.561116 8.584366 94.495117
4.880000 -6.920000 2.840000 -44.482872 -10.085587 2080.445068
4.880000 -6.920000 2.880000 -55.915478 -66.132820 7500.090820
4.880000 -6.920000 2.920000 -13.339231 -120.936531 14803.580078
4.880000 -6.920000 2.960000 64.568451 -127.674789 20469.937500
4.880000 -6.920000 3.000000 126.079468 -73.642303 21319.220703
4.880000 -6.920000 3.040000 129.642151 5.897848 16841.873047
4.880000 -6.920000 3.080000 79.500763 57.150452 9586.544922
4.880000 -6.920000 3.120000 20.118601 53.646084 3282.660400
4.880000 -6.920000 3.160000 -4.753764 15.664726 267.981934
4.880000 -6.920000 3.200000 11.101295 -13.297749 300.068848
4.880000 -6.880000 2.800000 -2.656339 9.647252 100.125610
4.880000 -6.880000 2.840000 -27.610960 -19.590698 1146.160645
4.880000 -6.880000 2.880000 -15.629330 -65.894218 4586.323730
4.880000 -6.880000 2.920000 35.670589 -89.910995 9356.377930
4.880000 -6.880000 2.960000 93.497108 -65.781609 13068.929688
4.880000 -6.880000 3.000000 116.511909 -5.649254 13606.939453
4.880000 -6.880000 3.040000 90.518639 49.753357 10669.020508
4.880000 -6.880000 3.080000 39.786251 66.325027 5981.955078
4.880000 -6.880000 3.120000 3.695864 44.632725 2005.739502
4.880000 -6.880000 3.160000 1.661384 15.145105 232.134415
4.880000 -6.880000 3.200000 19.437943 7.154510 429.020630
4.880000 -6.840000 2.800000 -7.798028 12.508144 217.262909
4.880000 -6.840000 2.840000 -16.494839 -15.672879 517.718872
4.880000 -6.840000 2.880000 4.396603 -42.846821 1855.180176
4.880000 -6.840000 2.920000 43.032936 -44.167294 3802.583496
4.880000 -6.840000 2.960000 71.818100 -14.741440 5375.149414
4.880000 -6.840000 3.000000 70.771667 26.066103 5688.070801
4.880000 -6.840000 3.040000 43.787491 51.740376 4594.410645
4.880000 -6.840000 3.080000 13.152214 51.018288 2775.846436
4.880000 -6.840000 3.120000 -1.497559 34.960091 1224.450562
4.880000 -6.840000 3.160000 0.594722 23.385326 547.227173
4.880000 -6.840000 3.200000 4.484358 25.163164 653.294250
4.880000 -6.800000 2.800000 -16.176605 6.817282 308.157898
4.880000 -6.800000 2.840000 -14.978951 -11.836844 364.479858
4.880000 -6.800000 2.880000 0.945301 -23.636620 559.583374
4.880000 -6.800000 2.920000 21.152298 -20.102455 851.528442
4.880000 -6.800000 2.960000 33.280563 -3.792725 1121.980713
4.880000 -6.800000 3.000000 31.988640 15.196400 1254.203613
4.880000 -6.800000 3.040000 21.032429 27.778240 1213.993652
4.880000 -6.800000 3.080000 7.967703 31.701012 1068.438477
4.880000 -6.800000 3.120000 -2.621204 30.359129 928.547424
4.880000 -6.800000 3.160000 -11.182985 27.192299 864.480286
4.880000 -6.800000 3.200000 -19.611589 21.889065 863.745605
4.920000 -7.200000 2.800000 -40.582478 -54.765236 4646.168457
4.920000 -7.200000 2.840000 -19.851963 -62.257748 4270.127441
4.920000 -7.200000 2.880000 0.247139 -60.088303 3610.665039
4.920000 -7.200000 2.920000 16.559763 -50.546406 2829.165039
4.920000 -7.200000 2.960000 26.856659 -35.107216 1953.796753
4.920000 -7.200000 3.000000 27.502201 -16.434168 1026.453003
4.920000 -7.200000 3.040000 16.249699 -1.636112 266.729553
4.920000 -7.200000 3.080000 -1.917653 0.170273 3.706386
4.920000 -7.200000 3.120000 -14.238583 -13.550840 386.362488
4.920000 -7.200000 3.160000 -9.194929 -32.800674 1160.431030
4.920000 -7.200000 3.200000 11.867065 -40.518730 1782.594727
4.920000 -7.160000 2.800000 6.676367 -62.037041 3893.168457
4.920000 -7.160000 2.840000 25.272732 -49.764740 3115.240234
4.920000 -7.160000 2.880000 34.365223 -31.054621 2145.357910
4.920000 -7.160000 2.920000 32.424988 -12.059370 1196.808350
4.920000 -7.160000 2.960000 21.141291 1.361847 448.808777
4.920000 -7.160000 3.000000 5.089022 4.641281 47.439636
4.920000 -7.160000 3.040000 -8.393494 -3.810909 84.973770
4.920000 -7.160000 3.080000 -11.262897 -20.000572 526.875732
4.920000 -7.160000 3.120000 0.158531 -33.967937 1153.845947
4.920000 -7.160000 3.160000 20.455160 -34.748882 1625.898438
4.920000 -7.160000 3.200000 36.396919 -18.786346 1677.662598
4.920000 -7.120000 2.800000 43.400284 -32.235825 2922.732910
4.920000 -7.120000 2.840000 46.717793 -3.155911 2192.511963
4.920000 -7.120000 2.880000 30.373640 22.915398 1447.673462
4.920000 -7.120000 2.920000 0.220104 32.006676 1024.475708
4.920000 -7.120000 2.960000 -28.187847 17.960293 1117.126831
4.920000 -7.120000 3.000000 -38.653385 -11.878677 1635.187256
4.920000 -7.120000 3.040000 -25.108578 -40.204327 2246.828613
4.920000 -7.120000 3.080000 4.022762 -50.615852 2578.147217
4.920000 -7.120000 3.120000 31.327417 -38.051491 2429.322998
4.920000 -7.120000 3.160000 41.727684 -11.396382 1871.077148
4.920000 -7.120000 3.200000 31.530109 13.175495 1167.741455
4.920000 -7.080000 2.800000 45.700474 12.029342 2233.238281
4.920000 -7.080000 2.840000 23.754520 45.924656 2673.351074
4.920000 -7.080000 2.880000 -22.321026 57.770622 3835.673096
4.920000 -7.080000 2.920000 -68.791992 31.493595 5724.185059
4.920000 -7.080000 2.960000 -84.572845 -23.651707 7711.969727
4.920000 -7.080000 3.000000 -56.007919 -75.370033 8817.529297
4.920000 -7.080000 3.040000 0.036957 -91.400024 8353.965820
4.920000 -7.080000 3.080000 47.898262 -64.331978 6432.846680
4.920000 -7.080000 3.120000 60.276276 -16.415833 3902.708984
4.920000 -7.080000 3.160000 37.451138 19.412613 1779.437256
4.920000 -7.080000 3.200000 2.991997 24.905170 629.219543
4.920000 -7.040000 2.800000 17.895796 39.565269 1885.670044
4.920000 -7.040000 2.840000 -29.297432 60.642532 4535.856445
4.920000 -7.040000 2.880000 -89.874352 37.023571 9448.143555
4.920000 -7.040000 2.920000 -120.201912 -32.853615 15527.860352
4.920000 -7.040000 2.960000 -89.257622 -110.735634 20229.304688
4.920000 -7.040000 3.000000 -9.384853 -144.881363 21078.685547
4.920000 -7.040000 3.040000 69.126038 -112.577499 17452.101562
4.920000 -7.040000 3.080000 97.613838 -39.777435 11110.705078
4.920000 -7.040000 3.120000 67.619278 20.994938 5013.154297
4.920000 -7.040000 3.160000 13.781736 34.186275 1358.637695
4.920000 -7.040000 3.200000 -19.487217 6.461128 421.497803
4.920000 -7.000000 2.800000 -14.170359 37.308624 1592.732544
4.920000 -7.000000 2.840000 -73.900597 31.221521 6436.081543
4.920000 -7.000000 2.880000 -120.183510 -31.534592 15438.506836
4.920000 -7.000000 2.920000 -104.052765 -123.253922 26018.507812
4.920000 -7.000000 2.960000 -18.742668 -181.519394 33300.578125
4.920000 -7.000000 3.000000 86.194336 -160.748444 33269.527344
4.920000 -7.000000 3.040000 142.476685 -73.827209 25750.062500
4.920000 -7.000000 3.080000 119.898651 17.057674 14666.650391
4.920000 -7.000000 3.120000 49.598366 53.206787 5290.959961
4.920000 -7.000000 3.160000 -7.046736 26.641912 759.447998
4.920000 -7.000000 3.200000 -12.765151 -20.733852 592.841736
4.920000 -6.960000 2.800000 -28.351070 17.988501 1127.369385
4.920000 -6.960000 2.840000 -80.801941 -17.279051 6827.519043
4.920000 -6.960000 2.880000 -89.531830 -99.654236 17946.916016
4.920000 -6.960000 2.920000 -23.643902 -174.251129 30922.488281
4.920000 -6.960000 2.960000 86.779251 -178.630707 39439.566406
4.920000 -6.960000 3.000000 169.268845 -100.070435 38666.031250
4.920000 -6.960000 3.040000 169.693512 9.056642 28877.912109
4.920000 -6.960000 3.080000 98.660172 75.101135 15374.009766
4.920000 -6.960000 3.120000 19.451233 65.632957 4686.035645
4.920000 -6.960000 3.160000 -9.952084 12.107479 245.635010
4.920000 -6.960000 3.200000 15.286346 -25.916126 905.317993
4.920000 -6.920000 2.800000 -24.222672 3.236481 597.212585
4.920000 -6.920000 2.840000 -53.805344 -49.163994 5312.113281
4.920000 -6.920000 2.880000 -23.700869 -121.216110 15255.077148
4.920000 -6.920000 2.920000 64.829124 -151.183243 27059.187500
4.920000 -6.920000 2.960000 155.881165 -102.423180 34789.445312
4.920000 -6.920000 3.000000 184.372940 -0.713524 33993.890625
4.920000 -6.920000 3.040000 133.372864 85.168762 25042.039062
4.920000 -6.920000 3.080000 48.249043 102.910645 12918.570312
4.920000 -6.920000 3.120000 -5.854069 59.756416 3605.099365
4.920000 -6.920000 3.160000 -1.415686 9.441784 91.151451
4.920000 -6.920000 3.200000 33.563946 -1.261436 1128.129639
4.920000 -6.880000 2.800000 -17.380285 1.505281 304.340179
4.920000 -6.880000 2.840000 -21.493965 -49.705936 2932.670654
4.920000 -6.880000 2.880000 27.563938 -91.906647 9206.602539
4.920000 -6.880000 2.920000 102.878670 -79.949356 16975.919922
4.920000 -6.880000 2.960000 148.895462 -10.547981 22281.119141
4.920000 -6.880000 3.000000 130.251923 71.366226 22058.701172
4.920000 -6.880000 3.040000 63.382484 111.402451 16427.845703
4.920000 -6.880000 3.080000 0.244427 92.839409 8619.215820
4.920000 -6.880000 3.120000 -19.332165 47.234070 2604.790039
4.920000 -6.880000 3.160000 -0.232660 20.445024 418.053162
4.920000 -6.880000 3.200000 19.934761 29.494400 1267.314331
4.920000 -6.840000 2.800000 -19.019356 3.579093 374.545807
4.920000 -6.840000 2.840000 -7.507130 -33.299843 1165.236572
4.920000 -6.840000 2.880000 36.214447 -47.409649 3559.161133
4.920000 -6.840000 2.920000 80.210800 -19.229961 6803.563965
4.920000 -6.840000 2.960000 89.511345 35.552166 9276.237305
4.920000 -6.840000 3.000000 57.074604 79.503769 9578.359375
4.920000 -6.840000 3.040000 8.582592 86.594803 7572.320312
4.920000 -6.840000 3.080000 -22.684406 63.003387 4484.008789
4.920000 -6.840000 3.120000 -25.321810 36.788250 1994.569336
4.920000 -6.840000 3.160000 -15.474583 28.891529 1074.183105
4.920000 -6.840000 3.200000 -15.790006 35.142540 1484.322510
4.920000 -6.800000 2.800000 -24.218489 -2.188938 591.326660
4.920000 -6.800000 2.840000 -10.646778 -22.929447 639.113403
4.920000 -6.800000 2.880000 16.051975 -24.981022 881.717407
4.920000 -6.800000 2.920000 36.129128 -5.151657 1331.853394
4.920000 -6.800000 2.960000 35.905697 23.169531 1826.046265
4.920000 -6.800000 3.000000 17.723839 42.586464 2127.741455
4.920000 -6.800000 3.040000 -5.059116 45.720398 2115.949463
4.920000 -6.800000 3.080000 -21.303419 37.901451 1890.355713
4.920000 -6.800000 3.120000 -29.916401 28.143288 1687.035645
4.920000 -6.800000 3.160000 -36.006889 19.472694 1675.681885
4.920000 -6.800000 3.200000 -41.775932 8.465086 1816.886230
4.960000 -7.200000 2.800000 -7.253951 -70.128258 4970.592285
4.960000 -7.200000 2.840000 18.149670 -65.511986 4621.230957
4.960000 -7.200000 2.880000 35.929077 -49.037117 3695.537598
4.960000 -7.200000 2.920000 41.800926 -27.902187 2525.849365
4.960000 -7.200000 2.960000 36.229248 -9.048140 1394.427246
4.960000 -7.200000 3.000000 22.308067 2.101818 502.067505
4.960000 -7.200000 3.040000 5.705446 1.536175 34.911949
4.960000 -7.200000 3.080000 -4.809900 -10.956446 143.178848
4.960000 -7.200000 3.120000 -0.886238 -28.092579 789.978394
4.960000 -7.200000 3.160000 17.832472 -36.425495 1644.813721
4.960000 -7.200000 3.200000 39.528797 -25.570435 2216.372803
4.960000 -7.160000 2.800000 39.668243 -50.761017 4150.250488
4.960000 -7.160000 2.840000 52.607998 -27.333757 3514.735840
4.960000 -7.160000 2.880000 48.975182 -1.078166 2399.730713
4.960000 -7.160000 2.920000 30.900070 16.376446 1223.002319
4.960000 -7.160000 2.960000 7.693581 18.066204 385.578918
4.960000 -7.160000 3.000000 -9.360342 4.794247 110.600807
4.960000 -7.160000 3.040000 -12.167137 -15.752918 396.193665
4.960000 -7.160000 3.080000 0.756195 -32.299057 1043.800903
4.960000 -7.160000 3.120000 22.940773 -34.679966 1728.979126
4.960000 -7.160000 3.160000 41.773605 -19.403927 2121.546387
4.960000 -7.160000 3.200000 44.703056 6.639077 2042.440674
4.960000 -7.120000 2.800000 56.350338 -2.375988 3181.005859
4.960000 -7.120000 2.840000 44.179680 29.766788 2837.905762
4.960000 -7.120000 2.880000 10.511694 47.174942 2335.970703
4.960000 -7.120000 2.920000 -27.871006 36.263111 2091.806152
4.960000 -7.120000 2.960000 -48.199387 1.124344 2324.445068
4.960000 -7.120000 3.000000 -38.117531 -37.840897 2884.879639
4.960000 -7.120000 3.040000 -4.552231 -57.871994 3369.890625
4.960000 -7.120000 3.080000 31.666142 -49.085041 3412.085938
4.960000 -7.120000 3.120000 50.294853 -19.592096 2913.422607
4.960000 -7.120000 3.160000 43.949303 11.833632 2071.576172
4.960000 -7.120000 3.200000 20.258537 28.506266 1223.015503
4.960000 -7.080000 2.800000 32.026726 40.520859 2667.651123
4.960000 -7.080000 2.840000 -9.040000 62.532234 3992.001953
4.960000 -7.080000 2.880000 -62.951668 46.786980 6151.934082
4.960000 -7.080000 2.920000 -93.746811 -8.678696 8863.784180
4.960000 -7.080000 2.960000 -75.382347 -73.913818 11145.750000
4.960000 -7.080000 3.000000 -15.498619 -107.686302 11836.546875
4.960000 -7.080000 3.040000 48.371895 -89.806816 10405.104492
4.960000 -7.080000 3.080000 77.773598 -36.525345 7382.833008
4.960000 -7.080000 3.120000 61.972763 14.157988 4041.071777
4.960000 -7.080000 3.160000 22.111416 32.990990 1577.320068
4.960000 -7.080000 3.200000 -9.926291 18.831543 453.158264
4.960000 -7.040000 2.800000 -12.178071 49.709431 2619.333008
4.960000 -7.040000 2.840000 -70.931915 42.794754 6862.727539
4.960000 -7.040000 2.880000 -116.157654 -17.096960 13784.906250
4.960000 -7.040000 2.920000 -103.289742 -103.866463 21457.011719
4.960000 -7.040000 2.960000 -26.405357 -160.590866 26486.667969
4.960000 -7.040000 3.000000 69.962387 -145.802704 26153.164062
4.960000 -7.040000 3.040000 124.497635 -70.030243 20403.896484
4.960000 -7.040000 3.080000 108.926941 12.378586 12018.307617
4.960000 -7.040000 3.120000 48.485832 48.931835 4745.200195
4.960000 -7.040000 3.160000 -4.140484 29.907501 911.602234
4.960000 -7.040000 3.200000 -14.785994 -11.235916 344.871429
4.960000 -7.000000 2.800000 -43.076725 26.166975 2540.314941
4.960000 -7.000000 2.840000 -96.714531 -16.074692 9612.095703
4.960000 -7.000000 2.880000 -102.682770 -104.777145 21522.000000
4.960000 -7.000000 2.920000 -31.360945 -182.696228 34361.417969
4.960000 -7.000000 2.960000 84.551796 -186.619308 41975.773438
4.960000 -7.000000 3.000000 170.366180 -105.068169 40063.953125
4.960000 -7.000000 3.040000 171.370636 7.458662 29423.525391
4.960000 -7.000000 3.080000 99.000748 75.771469 15542.463867
4.960000 -7.000000 3.120000 17.702311 66.925095 4792.339844
4.960000 -7.000000 3.160000 -13.605804 12.386195 338.535767
4.960000 -7.000000 3.200000 10.843182 -28.039083 903.764771
4.960000 -6.960000 2.800000 -44.566177 -4.572422 2007.051270
4.960000 -6.960000 2.840000 -71.775345 -70.469086 10117.591797
4.960000 -6.960000 2.880000 -28.846067 -153.756348 24473.109375
4.960000 -6.960000 2.920000 79.158081 -183.702209 40012.500000
4.960000 -6.960000 2.960000 185.308273 -120.889030 48953.312500
4.960000 -6.960000 3.000000 214.754608 1.178756 46120.933594
4.960000 -6.960000 3.040000 150.783447 100.786179 32893.500000
4.960000 -6.960000 3.080000 49.153355 118.024399 16345.810547
4.960000 -6.960000 3.120000 -13.223915 63.825897 4248.617188
4.960000 -6.960000 3.160000 -5.252835 2.742434 35.113220
4.960000 -6.960000 3.200000 38.932243 -10.270025 1621.192993
4.960000 -6.920000 2.800000 -28.157272 -18.609081 1139.129883
4.960000 -6.920000 2.840000 -22.357395 -85.540817 7817.084473
4.960000 -6.920000 2.880000 50.924229 -133.950058 20535.894531
4.960000 -6.920000 2.920000 152.388901 -107.072464 34686.890625
4.960000 -6.920000 2.960000 207.330750 -5.738300 43018.968750
4.960000 -6.920000 3.000000 171.875870 105.456993 40662.492188
4.960000 -6.920000 3.040000 73.920914 152.889206 28839.410156
4.960000 -6.920000 3.080000 -12.193714 117.948662 14060.573242
4.960000 -6.920000 3.120000 -32.715454 48.885345 3460.078125
4.960000 -6.920000 3.160000 1.854382 11.165123 128.098709
4.960000 -6.920000 3.200000 36.064163 27.321486 2047.087402
4.960000 -6.880000 2.800000 -16.506350 -14.543223 483.964905
4.960000 -6.880000 2.840000 11.742144 -63.799961 4208.312988
4.960000 -6.880000 2.880000 83.765244 -72.104111 12215.619141
4.960000 -6.880000 2.920000 146.529831 -13.686745 21658.318359
4.960000 -6.880000 2.960000 146.020508 79.728958 27678.695312
4.960000 -6.880000 3.000000 77.863297 143.899429 26769.738281
4.960000 -6.880000 3.040000 -7.830170 139.157471 19426.113281
4.960000 -6.880000 3.080000 -52.672607 83.997719 9830.020508
4.960000 -6.880000 3.120000 -41.491280 33.232521 2825.926758
4.960000 -6.880000 3.160000 -9.484055 24.528126 691.576233
4.960000 -6.880000 3.200000 -1.627478 47.072742 2218.491699
4.960000 -6.840000 2.800000 -18.961550 -9.250097 445.104675
4.960000 -6.840000 2.840000 14.009058 -36.334557 1516.453613
4.960000 -6.840000 2.880000 63.609444 -22.207882 4539.351562
4.960000 -6.840000 2.920000 86.928909 32.197357 8593.304688
4.960000 -6.840000 2.960000 60.379887 89.518440 11659.282227
4.960000 -6.840000 3.000000 1.718765 109.471054 11986.866211
4.960000 -6.840000 3.040000 -47.437080 84.643005 9414.714844
4.960000 -6.840000 3.080000 -60.311836 43.534206 5532.744629
4.960000 -6.840000 3.120000 -46.116356 19.862267 2521.228027
4.960000 -6.840000 3.160000 -34.561146 20.872494 1630.133789
4.960000 -6.840000 3.200000 -42.794876 25.854111 2499.836426
4.960000 -6.800000 2.800000 -24.714832 -15.768169 859.458130
4.960000 -6.800000 2.840000 0.937323 -28.455360 810.586121
4.960000 -6.800000 2.880000 28.314545 -13.876369 994.267090
4.960000 -6.800000 2.920000 34.570679 18.412663 1534.157959
4.960000 -6.800000 2.960000 14.793213 45.071983 2250.322754
4.960000 -6.800000 3.000000 -15.942329 50.119171 2766.089355
4.960000 -6.800000 3.040000 -38.727974 36.527294 2834.099121
4.960000 -6.800000 3.080000 -47.285629 18.496368 2578.046387
4.960000 -6.800000 3.120000 -48.656586 5.205761 2394.563232
4.960000 -6.800000 3.160000 -50.467297 -5.990459 2582.833496
4.960000 -6.800000 3.200000 -50.865383 -21.409975 3045.674072
5.000000 -7.200000 2.800000 32.836224 -56.498833 4270.335938
5.000000 -7.200000 2.840000 51.375389 -36.636581 3981.669922
5.000000 -7.200000 2.880000 53.698372 -11.275255 3010.646484
5.000000 -7.200000 2.920000 41.817631 7.787863 1809.364990
5.000000 -7.200000 2.960000 24.031046 14.665857 792.578491
5.000000 -7.200000 3.000000 8.546415 10.001122 173.063644
5.000000 -7.200000 3.040000 0.854759 -2.213882 5.631889
5.000000 -7.200000 3.080000 4.147570 -16.134617 277.528198
5.000000 -7.200000 3.120000 18.197048 -23.755541 895.458313
5.000000 -7.200000 3.160000 36.277565 -17.392164 1618.549072
5.000000 -7.200000 3.200000 45.729076 3.666703 2104.593262
5.000000 -7.160000 2.800000 58.820663 -16.192463 3722.066162
5.000000 -7.160000 2.840000 56.846157 12.928284 3398.626221
5.000000 -7.160000 2.880000 35.867500 33.799351 2428.873535
5.000000 -7.160000 2.920000 7.462043 35.335335 1304.268066
5.000000 -7.160000 2.960000 -13.010522 18.587952 514.785645
5.000000 -7.160000 3.000000 -16.252327 -5.565601 295.114044
5.000000 -7.160000 3.040000 -2.843395 -24.091017 588.461975
5.000000 -7.160000 3.080000 19.117199 -28.188961 1160.084839
5.000000 -7.160000 3.120000 38.371418 -15.941732 1726.504517
5.000000 -7.160000 3.160000 44.624496 7.284077 2044.403442
5.000000 -7.160000 3.200000 32.929104 30.034519 1986.398193
5.000000 -7.120000 2.800000 45.119484 31.174286 3007.604004
5.000000 -7.120000 2.840000 17.035038 54.089874 3215.907227
5.000000 -7.120000 2.880000 -23.610477 50.352776 3092.856689
5.000000 -7.120000 2.920000 -51.625244 17.233711 2962.166504
5.000000 -7.120000 2.960000 -48.309364 -26.683256 3045.790771
5.000000 -7.120000 3.000000 -15.890930 -55.077969 3286.104248
5.000000 -7.120000 3.040000 24.953102 -52.908665 3421.984131
5.000000 -7.120000 3.080000 50.805237 -25.270370 3219.763672
5.000000 -7.120000 3.120000 50.649734 9.025496 2646.854980
5.000000 -7.120000 3.160000 29.785589 31.386227 1872.276611
5.000000 -7.120000 3.200000 2.886335 33.629326 1139.262451
5.000000 -7.080000 2.800000 1.077065 51.687408 2672.748291
5.000000 -7.080000 2.840000 -45.963207 50.033031 4615.920898
5.000000 -7.080000 2.880000 -84.425186 7.395947 7182.312012
5.000000 -7.080000 2.920000 -80.780258 -57.475788 9828.916016
5.000000 -7.080000 2.960000 -29.417633 -103.523972 11582.610352
5.000000 -7.080000 3.000000 39.607140 -100.012108 11571.147461
5.000000 -7.080000 3.040000 83.610161 -51.459923 9638.783203
5.000000 -7.080000 3.080000 80.427475 7.285282 6521.653809
5.000000 -7.080000 3.120000 42.592361 40.019550 3415.673828
5.000000 -7.080000 3.160000 2.520514 35.531208 1268.819824
5.000000 -7.080000 3.200000 -15.007004 10.040766 326.027130
5.000000 -7.040000 2.800000 -40.564297 33.113152 2741.942871
5.000000 -7.040000 2.840000 -86.316284 -2.769569 7458.171387
5.000000 -7.040000 2.880000 -92.675659 -76.869705 14497.728516
5.000000 -7.040000 2.920000 -35.839718 -142.666061 21638.089844
5.000000 -7.040000 2.960000 58.136654 -149.260437 25658.548828
5.000000 -7.040000 3.000000 129.925461 -86.697495 24397.080078
5.000000 -7.040000 3.040000 135.349213 3.143875 18329.294922
5.000000 -7.040000 3.080000 81.129654 61.300606 10339.785156
5.000000 -7.040000 3.120000 15.594360 59.813583 3820.848877
5.000000 -7.040000 3.160000 -14.900133 19.469456 601.073669
5.000000 -7.040000 3.200000 -2.118412 -15.600073 247.849945
5.000000 -7.000000 2.800000 -52.009743 -5.543921 2735.748535
5.000000 -7.000000 2.840000 -73.652084 -67.834412 10026.136719
5.000000 -7.000000 2.880000 -31.652458 -143.538284 21605.117188
5.000000 -7.000000 2.920000 67.985031 -169.602829 33387.082031
5.000000 -7.000000 2.960000 164.726852 -111.772987 39628.136719
5.000000 -7.000000 3.000000 191.818207 -0.753939 36794.792969
5.000000 -7.000000 3.040000 134.465668 90.244476 26225.082031
5.000000 -7.000000 3.080000 42.184250 107.353081 13304.194336
5.000000 -7.000000 3.120000 -16.294214 59.216713 3772.120605
5.000000 -7.000000 3.160000 -11.828846 2.393841 145.652069
5.000000 -7.000000 3.200000 27.395569 -13.511068 933.066162
5.000000 -6.960000 2.800000 -33.485504 -32.823788 2198.679932
5.000000 -6.960000 2.840000 -20.359797 -99.504860 10315.738281
5.000000 -6.960000 2.880000 58.460716 -143.578064 24032.316406
5.000000 -6.960000 2.920000 161.615875 -110.262550 38277.523438
5.000000 -6.960000 2.960000 214.044739 -3.228297 45825.570312
5.000000 -6.960000 3.000000 173.383011 110.555725 42284.234375
5.000000 -6.960000 3.040000 70.126656 156.616241 29446.394531
5.000000 -6.960000 3.080000 -18.922449 117.329041 14124.162109
5.000000 -6.960000 3.120000 -38.789318 43.190437 3370.024902
5.000000 -6.960000 3.160000 -0.465355 2.103418 4.640924
5.000000 -6.960000 3.200000 38.696735 18.090881 1824.717407
5.000000 -6.920000 2.800000 -9.300213 -33.663872 1219.750244
5.000000 -6.920000 2.840000 30.603039 -82.881653 7805.914062
5.000000 -6.920000 2.880000 114.716599 -82.077393 19896.597656
5.000000 -6.920000 2.920000 181.511749 -6.020969 32982.769531
5.000000 -6.920000 2.960000 171.183731 104.870285 40301.644531
5.000000 -6.920000 3.000000 83.171555 175.024445 37551.062500
5.000000 -6.920000 3.040000 -20.168442 160.540802 26180.115234
5.000000 -6.920000 3.080000 -69.269516 87.341827 12426.860352
5.000000 -6.920000 3.120000 -48.219051 23.585840 2881.368652
5.000000 -6.920000 3.160000 -2.199989 15.084110 232.370331
5.000000 -6.920000 3.200000 12.178624 47.769962 2430.288086
5.000000 -6.880000 2.800000 -1.896410 -20.236065 413.094696
5.000000 -6.880000 2.840000 45.849621 -43.799049 4020.544434
5.000000 -6.880000 2.880000 107.255295 -11.704372 11640.690430
5.000000 -6.880000 2.920000 125.591049 69.062607 20542.753906
5.000000 -6.880000 2.960000 74.051117 143.687744 26129.736328
5.000000 -6.880000 3.000000 -15.763161 157.737381 25129.558594
5.000000 -6.880000 3.040000 -81.406326 107.052155 18087.154297
5.000000 -6.880000 3.080000 -86.481812 39.416096 9032.732422
5.000000 -6.880000 3.120000 -50.397514 7.203096 2591.793945
5.000000 -6.880000 3.160000 -23.143486 19.574547 918.783813
5.000000 -6.880000 3.200000 -33.723633 40.878998 2808.375977
5.000000 -6.840000 2.800000 -10.596482 -15.323854 347.105957
5.000000 -6.840000 2.840000 29.624594 -20.040710 1279.246582
5.000000 -6.840000 2.880000 61.749954 17.852215 4131.758301
5.000000 -6.840000 2.920000 50.410450 74.450645 8084.111816
5.000000 -6.840000 2.960000 -3.270844 105.633499 11169.134766
5.000000 -6.840000 3.000000 -61.755886 88.266022 11604.679688
5.000000 -6.840000 3.040000 -86.728912 40.519306 9163.718750
5.000000 -6.840000 3.080000 -73.588913 1.391224 5417.263672
5.000000 -6.840000 3.120000 -50.433750 -7.927222 2606.404053
5.000000 -6.840000 3.160000 -45.310223 -0.738344 2053.561523
5.000000 -6.840000 3.200000 -57.875656 -4.819263 3372.816895
5.000000 -6.800000 2.800000 -16.037325 -26.877316 979.585876
5.000000 -6.800000 2.840000 12.921926 -24.396915 762.185669
5.000000 -6.800000 2.880000 28.019630 2.980288 793.981812
5.000000 -6.800000 2.920000 14.499855 33.244698 1315.455811
5.000000 -6.800000 2.960000 -17.592743 42.934246 2152.854004
5.000000 -6.800000 3.000000 -45.142124 28.013969 2822.593750
5.000000 -6.800000 3.040000 -54.452065 3.586464 2977.890137
5.000000 -6.800000 3.080000 -50.606270 -14.622499 2774.812012
5.000000 -6.800000 3.120000 -46.036068 -25.254822 2757.125488
5.000000 -6.800000 3.160000 -43.897804 -37.317604 3319.620605
5.000000 -6.800000 3.200000 -35.779610 -54.590549 4260.308594
5.040000 -7.200000 2.800000 51.935127 -16.409796 2966.538818
5.040000 -7.200000 2.840000 52.784924 9.717703 2880.681885
5.040000 -7.200000 2.880000 36.680573 28.389139 2151.407715
5.040000 -7.200000 2.920000 15.199780 31.110783 1198.914062
5.040000 -7.200000 2.960000 0.359002 21.056458 443.503265
5.040000 -7.200000 3.000000 -3.456039 7.165503 63.288635
5.040000 -7.200000 3.040000 1.449793 -3.725827 15.983687
5.040000 -7.200000 3.080000 11.396515 -8.689064 205.380386
5.040000 -7.200000 3.120000 23.136206 -5.850585 569.513367
5.040000 -7.200000 3.160000 31.444920 6.113391 1026.156494
5.040000 -7.200000 3.200000 28.939192 23.899912 1408.682617
5.040000 -7.160000 2.800000 47.680367 23.375664 2819.838867
5.040000 -7.160000 2.840000 29.342770 45.510105 2932.167725
5.040000 -7.160000 2.880000 -0.125260 48.407417 2343.293701
5.040000 -7.160000 2.920000 -22.580212 30.537886 1442.428467
5.040000 -7.160000 2.960000 -26.184467 4.248074 703.672485
5.040000 -7.160000 3.000000 -12.409229 -15.198162 384.973083
5.040000 -7.160000 3.040000 8.392450 -19.804123 462.636505
5.040000 -7.160000 3.080000 25.573606 -10.527397 764.835449
5.040000 -7.160000 3.120000 32.673634 6.903887 1115.229980
5.040000 -7.160000 3.160000 27.158489 25.306505 1378.002686
5.040000 -7.160000 3.200000 10.246266 36.706245 1452.334473
5.040000 -7.120000 2.800000 13.362514 47.547112 2439.284668
5.040000 -7.120000 2.840000 -20.361397 52.101418 3129.144043
5.040000 -7.120000 2.880000 -50.508354 27.770769 3322.309326
5.040000 -7.120000 2.920000 -54.511223 -13.243031 3146.851318
5.040000 -7.120000 2.960000 -28.287811 -45.315689 2853.711914
5.040000 -7.120000 3.000000 11.166424 -49.746555 2599.408691
5.040000 -7.120000 3.040000 40.203857 -27.565678 2376.216797
5.040000 -7.120000 3.080000 45.599701 4.521759 2099.779053
5.040000 -7.120000 3.120000 30.371746 28.356703 1726.545532
5.040000 -7.120000 3.160000 7.097067 35.260925 1293.701294
5.040000 -7.120000 3.200000 -12.082390 27.072823 878.921875
5.040000 -7.080000 2.800000 -27.567034 37.645798 2177.147461
5.040000 -7.080000 2.840000 -62.467400 15.357395 4138.025391
5.040000 -7.080000 2.880000 -71.348984 -34.853710 6305.458496
5.040000 -7.080000 2.920000 -37.550133 -81.638062 8074.785156
5.040000 -7.080000 2.960000 22.569199 -91.205742 8827.856445
5.040000 -7.080000 3.000000 71.484222 -56.014282 8247.593750
5.040000 -7.080000 3.040000 80.765739 -0.608311 6523.474609
5.040000 -7.080000 3.080000 52.076008 39.581749 4278.625488
5.040000 -7.080000 3.120000 11.672551 45.865189 2239.864014
5.040000 -7.080000 3.160000 -13.473479 26.330832 874.847290
5.040000 -7.080000 3.200000 -15.023825 3.101505 235.334641
5.040000 -7.040000 2.800000 -45.989559 1.940197 2118.803955
5.040000 -7.040000 2.840000 -63.107323 -43.728340 5894.702148
5.040000 -7.040000 2.880000 -34.054420 -99.828400 11125.412109
5.040000 -7.040000 2.920000 37.048271 -120.947006 16000.752930
5.040000 -7.040000 2.960000 107.438049 -82.359436 18326.011719
5.040000 -7.040000 3.000000 129.941086 -4.815472 16907.875000
5.040000 -7.040000 3.040000 92.967537 61.238850 12393.160156
5.040000 -7.040000 3.080000 28.942240 77.661552 6868.970215
5.040000 -7.040000 3.120000 -15.541616 47.780197 2524.489014
5.040000 -7.040000 3.160000 -18.540916 7.567963 401.039642
5.040000 -7.040000 3.200000 4.712256 -9.329338 109.241913
5.040000 -7.000000 2.800000 -32.066002 -31.388639 2013.475220
5.040000 -7.000000 2.840000 -19.645489 -83.546753 7366.005371
5.040000 -7.000000 2.880000 43.664268 -117.083984 15615.227539
5.040000 -7.000000 2.920000 125.175919 -89.734253 23721.246094
5.040000 -7.000000 2.960000 166.430328 -4.805641 27722.148438
5.040000 -7.000000 3.000000 134.506546 85.457657 25395.023438
5.040000 -7.000000 3.040000 52.812412 122.898270 17893.134766
5.040000 -7.000000 3.080000 -19.103563 92.882675 8992.137695
5.040000 -7.000000 3.120000 -37.528675 33.458405 2527.866211
5.040000 -7.000000 3.160000 -8.873528 -2.585052 85.421989
5.040000 -7.000000 3.200000 23.907621 5.528669 602.140503
5.040000 -6.960000 2.800000 -3.024000 -39.415535 1562.728882
5.040000 -6.960000 2.840000 35.051064 -77.864761 7291.498047
5.040000 -6.960000 2.880000 108.410065 -71.869400 16917.953125
5.040000 -6.960000 2.920000 163.760574 -1.506022 26819.792969
5.040000 -6.960000 2.960000 150.356293 96.745499 31966.707031
5.040000 -6.960000 3.000000 69.275009 156.794327 29383.488281
5.040000 -6.960000 3.040000 -23.809223 140.829269 20399.761719
5.040000 -6.960000 3.080000 -67.197174 72.405167 9757.968750
5.040000 -6.960000 3.120000 -46.463593 12.550344 2316.376709
5.040000 -6.960000 3.160000 -1.632978 3.182156 12.792732
5.040000 -6.960000 3.200000 15.799430 33.230106 1353.861938
5.040000 -6.920000 2.800000 14.263357 -24.433041 800.416809
5.040000 -6.920000 2.840000 61.881866 -38.846081 5338.383301
5.040000 -6.920000 2.880000 117.520111 0.242167 13811.035156
5.040000 -6.920000 2.920000 127.203079 82.955795 23062.287109
5.040000 -6.920000 2.960000 67.771149 154.006683 28310.988281
5.040000 -6.920000 3.000000 -26.186668 160.599640 26477.986328
5.040000 -6.920000 3.040000 -90.688385 101.507668 18528.189453
5.040000 -6.920000 3.080000 -89.733444 27.888409 8829.854492
5.040000 -6.920000 3.120000 -45.238102 -5.222080 2073.755859
5.040000 -6.920000 3.160000 -11.123533 11.759532 262.019592
5.040000 -6.920000 3.200000 -19.736359 40.623001 2039.752197
5.040000 -6.880000 2.800000 9.194272 -9.205762 169.280701
5.040000 -6.880000 2.840000 50.522621 -3.703781 2566.253174
5.040000 -6.880000 2.880000 76.379578 45.906670 7941.262207
5.040000 -6.880000 2.920000 50.249870 109.026649 14411.860352
5.040000 -6.880000 2.960000 -21.047390 134.896912 18640.169922
5.040000 -6.880000 3.000000 -89.555954 100.629700 18146.605469
5.040000 -6.880000 3.040000 -109.820312 33.681381 13194.936523
5.040000 -6.880000 3.080000 -80.313843 -14.769489 6668.451172
5.040000 -6.880000 3.120000 -40.987591 -18.395584 2018.380127
5.040000 -6.880000 3.160000 -31.061382 3.111948 974.493652
5.040000 -6.880000 3.200000 -51.493008 9.593503 2743.565186
5.040000 -6.840000 2.800000 -3.877621 -12.440874 169.811279
5.040000 -6.840000 2.840000 25.449074 1.823370 650.980042
5.040000 -6.840000 2.880000 29.404213 42.324570 2655.976807
5.040000 -6.840000 2.920000 -6.008785 75.055717 5669.466309
5.040000 -6.840000 2.960000 -58.297123 69.179146 8184.308594
5.040000 -6.840000 3.000000 -89.315796 27.390625 8727.557617
5.040000 -6.840000 3.040000 -81.833908 -17.728306 7011.081543
5.040000 -6.840000 3.080000 -53.604298 -36.910660 4235.817383
5.040000 -6.840000 3.120000 -35.476341 -31.457952 2248.173584
5.040000 -6.840000 3.160000 -38.518303 -26.716805 2197.447266
5.040000 -6.840000 3.200000 -45.360252 -41.298065 3763.082520
5.040000 -6.800000 2.800000 -2.678413 -29.546198 880.151672
5.040000 -6.800000 2.840000 17.809853 -13.925277 511.104187
5.040000 -6.800000 2.880000 15.011784 13.132879 397.826172
5.040000 -6.800000 2.920000 -10.212208 26.944124 830.275024
5.040000 -6.800000 2.960000 -37.193291 15.910149 1636.473633
5.040000 -6.800000 3.000000 -47.079826 -9.248703 2302.048584
5.040000 -6.800000 3.040000 -39.857033 -29.782150 2475.559570
5.040000 -6.800000 3.080000 -29.244467 -38.980179 2374.693115
5.040000 -6.800000 3.120000 -23.743481 -45.454887 2629.899658
5.040000 -6.800000 3.160000 -17.075876 -57.895359 3643.458008
5.040000 -6.800000 3.200000 1.493254 -71.166428 5066.890625
5.080000 -7.200000 2.800000 35.153381 23.337086 1780.379883
5.080000 -7.200000 2.840000 19.308437 40.380753 2003.421021
5.080000 -7.200000 2.880000 -3.358429 40.470543 1649.143921
5.080000 -7.200000 2.920000 -17.635483 25.933220 983.542175
5.080000 -7.200000 2.960000 -17.555187 9.100159 390.997498
5.080000 -7.200000 3.000000 -8.776719 -0.131324 77.048042
5.080000 -7.200000 3.040000 0.072651 -1.184544 1.408422
5.080000 -7.200000 3.080000 5.778826 1.348926 35.214428
5.080000 -7.200000 3.120000 9.802244 5.412376 125.377808
5.080000 -7.200000 3.160000 11.787439 12.515992 295.593781
5.080000 -7.200000 3.200000 7.517812 21.807167 532.070007
5.080000 -7.160000 2.800000 12.118622 41.272728 1850.299072
5.080000 -7.160000 2.840000 -12.521877 46.717537 2339.325684
5.080000 -7.160000 2.880000 -34.219944 31.405176 2157.289551
5.080000 -7.160000 2.920000 -38.225304 5.797107 1494.780273
5.080000 -7.160000 2.960000 -24.472849 -13.344378 776.992798
5.080000 -7.160000 3.000000 -4.739574 -17.220913 319.023407
5.080000 -7.160000 3.040000 9.406057 -9.083822 170.989746
5.080000 -7.160000 3.080000 14.461143 2.935163 217.739838
5.080000 -7.160000 3.120000 12.632135 13.845732 351.275146
5.080000 -7.160000 3.160000 5.690304 22.209183 525.627380
5.080000 -7.160000 3.200000 -5.981477 25.687737 695.637878
5.080000 -7.120000 2.800000 -18.493069 36.177719 1650.821045
5.080000 -7.120000 2.840000 -43.740700 24.642307 2520.492188
5.080000 -7.120000 2.880000 -52.899803 -5.955493 2833.856934
5.080000 -7.120000 2.920000 -36.020683 -35.348282 2546.990723
5.080000 -7.120000 2.960000 -3.660391 -43.961418 1946.004761
5.080000 -7.120000 3.000000 23.388023 -28.717457 1371.691895
5.080000 -7.120000 3.040000 31.420103 -2.743040 994.747192
5.080000 -7.120000 3.080000 21.878040 17.801918 795.556946
5.080000 -7.120000 3.120000 5.405443 25.525299 680.759705
5.080000 -7.120000 3.160000 -8.760368 22.641167 589.366516
5.080000 -7.120000 3.200000 -17.298828 14.309831 504.020691
5.080000 -7.080000 2.800000 -35.415306 9.749187 1349.290527
5.080000 -7.080000 2.840000 -49.581669 -17.412651 2761.542236
5.080000 -7.080000 2.880000 -35.339687 -52.904022 4047.729004
5.080000 -7.080000 2.920000 5.082451 -68.698730 4745.347168
5.080000 -7.080000 2.960000 46.559608 -50.053371 4673.137207
5.080000 -7.080000 3.000000 62.343735 -8.551468 3959.868896
5.080000 -7.080000 3.040000 45.875656 28.518858 2917.901123
5.080000 -7.080000 3.080000 13.541094 41.062984 1869.529907
5.080000 -7.080000 3.120000 -11.734732 29.848331 1028.626831
5.080000 -7.080000 3.160000 -18.840504 10.765549 470.861603
5.080000 -7.080000 3.200000 -12.879114 -1.428103 167.911057
5.080000 -7.040000 2.800000 -26.927818 -19.175190 1092.795288
5.080000 -7.040000 2.840000 -21.351749 -51.847000 3144.008545
5.080000 -7.040000 2.880000 16.588905 -74.330032 5800.145508
5.080000 -7.040000 2.920000 67.002495 -59.696888 8053.052734
5.080000 -7.040000 2.960000 93.974472 -9.313864 8917.949219
5.080000 -7.040000 3.000000 77.035767 45.681717 8021.328613
5.080000 -7.040000 3.040000 29.255697 70.435379 5817.038574
5.080000 -7.040000 3.080000 -14.892807 55.272964 3276.896240
5.080000 -7.040000 3.120000 -29.418980 20.862919 1300.737793
5.080000 -7.040000 3.160000 -16.168823 -3.086702 270.958588
5.080000 -7.040000 3.200000 2.391549 -3.602194 18.695309
5.080000 -7.000000 2.800000 -1.732556 -29.824804 892.520752
5.080000 -7.000000 2.840000 22.596268 -53.978031 3424.219238
5.080000 -7.000000 2.880000 70.153732 -49.597824 7381.490234
5.080000 -7.000000 2.920000 106.130875 -3.160315 11273.750000
5.080000 -7.000000 2.960000 97.019005 61.747948 13225.496094
5.080000 -7.000000 3.000000 43.032593 101.757301 12206.352539
5.080000 -7.000000 3.040000 -19.682682 91.430550 8746.953125
5.080000 -7.000000 3.080000 -50.193588 45.243889 4566.405762
5.080000 -7.000000 3.120000 -37.603664 2.917204 1422.545654
5.080000 -7.000000 3.160000 -6.746513 -6.837125 92.261719
5.080000 -7.000000 3.200000 8.459984 10.904449 190.478333
5.080000 -6.960000 2.800000 18.241501 -17.850273 651.384644
5.080000 -6.960000 2.840000 50.770760 -24.617130 3183.673096
5.080000 -6.960000 2.880000 87.695755 5.678531 7722.791016
5.080000 -6.960000 2.920000 91.024597 65.690445 12600.711914
5.080000 -6.960000 2.960000 44.684498 115.649017 15371.399414
5.080000 -6.960000 3.000000 -25.817650 117.496399 14471.954102
5.080000 -6.960000 3.040000 -73.403580 70.519745 10361.119141
5.080000 -6.960000 3.080000 -71.032715 12.708109 5207.142578
5.080000 -6.960000 3.120000 -34.464474 -14.147236 1387.944214
5.080000 -6.960000 3.160000 -4.461558 -1.315387 21.635744
5.080000 -6.960000 3.200000 -7.343785 23.335155 598.460693
5.080000 -6.920000 2.800000 17.945011 0.824474 322.703186
5.080000 -6.920000 2.840000 46.380589 9.952303 2250.207275
5.080000 -6.920000 2.880000 60.405388 51.213619 6271.645508
5.080000 -6.920000 2.920000 32.728577 99.503723 10972.151367
5.080000 -6.920000 2.960000 -29.186234 114.471329 13955.521484
5.080000 -6.920000 3.000000 -85.028694 79.121742 13490.128906
5.080000 -6.920000 3.040000 -97.310188 18.113276 9797.363281
5.080000 -6.920000 3.080000 -65.841965 -24.214518 4921.507324
5.080000 -6.920000 3.120000 -26.217844 -24.758795 1300.373291
5.080000 -6.920000 3.160000 -14.236732 -0.679760 203.146591
5.080000 -6.920000 3.200000 -32.627312 11.312271 1192.509033
5.080000 -6.880000 2.800000 3.425052 5.642499 43.568775
5.080000 -6.880000 2.840000 22.077263 22.486416 993.044434
5.080000 -6.880000 2.880000 16.013954 57.930626 3612.404297
5.080000 -6.880000 2.920000 -24.064756 80.538521 7065.565430
5.080000 -6.880000 2.960000 -74.128723 63.980621 9588.587891
5.080000 -6.880000 3.000000 -97.366913 14.858849 9701.100586
5.080000 -6.880000 3.040000 -79.400986 -31.912853 7322.946777
5.080000 -6.880000 3.080000 -41.597691 -46.424252 3885.579102
5.080000 -6.880000 3.120000 -18.582060 -31.495241 1337.243164
5.080000 -6.880000 3.160000 -23.736729 -16.527306 836.584106
5.080000 -6.880000 3.200000 -38.467453 -25.234060 2116.502930
5.080000 -6.840000 2.800000 -4.546494 -7.908451 83.214203
5.080000 -6.840000 2.840000 6.144571 10.158432 140.949493
5.080000 -6.840000 2.880000 -8.267776 32.972435 1155.537598
5.080000 -6.840000 2.920000 -41.559303 34.579521 2922.918945
5.080000 -6.840000 2.960000 -67.050453 7.083260 4545.935547
5.080000 -6.840000 3.000000 -64.210114 -30.446789 5049.945312
5.080000 -6.840000 3.040000 -38.906136 -51.479103 4163.785645
5.080000 -6.840000 3.080000 -15.505315 -48.694458 2611.564941
5.080000 -6.840000 3.120000 -10.108957 -38.975937 1621.314697
5.080000 -6.840000 3.160000 -14.571905 -42.279892 1999.929688
5.080000 -6.840000 3.200000 -8.150321 -58.695488 3511.588135
5.080000 -6.800000 2.800000 7.947375 -23.343040 608.058289
5.080000 -6.800000 2.840000 13.669107 -4.889290 210.749649
5.080000 -6.800000 2.880000 -0.439816 9.007338 81.325569
5.080000 -6.800000 2.920000 -20.808313 3.630051 446.163177
5.080000 -6.800000 2.960000 -28.841000 -16.476006 1103.262085
5.080000 -6.800000 3.000000 -20.160044 -34.339462 1585.626099
5.080000 -6.800000 3.040000 -6.470245 -40.062023 1646.829834
5.080000 -6.800000 3.080000 0.786600 -39.972279 1598.401855
5.080000 -6.800000 3.120000 4.604118 -45.455170 2087.370361
5.080000 -6.800000 3.160000 17.334049 -55.960178 3432.010742
5.080000 -6.800000 3.200000 42.852215 -57.492165 5141.661133
5.120000 -7.200000 2.800000 -3.025987 33.874489 1156.637573
5.120000 -7.200000 2.840000 -22.120750 33.468769 1609.486084
5.120000 -7.200000 2.880000 -34.667381 18.140417 1530.901978
5.120000 -7.200000 2.920000 -31.983171 -0.198077 1022.962524
5.120000 -7.200000 2.960000 -19.342669 -8.923192 453.762177
5.120000 -7.200000 3.000000 -8.789546 -6.450343 118.863037
5.120000 -7.200000 3.040000 -6.304040 -1.206670 41.196972
5.120000 -7.200000 3.080000 -7.500750 -0.489183 56.500546
5.120000 -7.200000 3.120000 -5.438836 -2.650253 36.604782
5.120000 -7.200000 3.160000 -0.199206 -1.069431 1.183367
5.120000 -7.200000 3.200000 1.357429 5.862722 36.214123
5.120000 -7.160000 2.800000 -21.207455 26.195942 1135.983521
5.120000 -7.160000 2.840000 -37.991913 17.269438 1741.619019
5.120000 -7.160000 2.880000 -42.198414 -3.149824 1790.627563
5.120000 -7.160000 2.920000 -30.165085 -19.856009 1304.193481
5.120000 -7.160000 2.960000 -12.154324 -22.519829 654.870300
5.120000 -7.160000 3.000000 -0.732273 -14.118575 199.870392
5.120000 -7.160000 3.040000 0.997422 -4.973457 25.730127
5.120000 -7.160000 3.080000 -0.873218 -0.846972 1.479871
5.120000 -7.160000 3.120000 -0.881943 1.121658 2.035939
5.120000 -7.160000 3.160000 -0.815043 5.481429 30.710360
5.120000 -7.160000 3.200000 -5.619992 10.538464 142.643524
5.120000 -7.120000 2.800000 -28.926785 7.531575 893.483459
5.120000 -7.120000 2.840000 -38.930046 -7.830746 1576.869019
5.120000 -7.120000 2.880000 -31.940739 -28.320560 1822.264893
5.120000 -7.120000 2.920000 -10.803332 -37.364300 1512.802979
5.120000 -7.120000 2.960000 9.560787 -28.742819 917.558289
5.120000 -7.120000 3.000000 16.807404 -10.844385 400.089478
5.120000 -7.120000 3.040000 11.129443 3.276425 134.599472
5.120000 -7.120000 3.080000 1.612836 7.995669 66.531960
5.120000 -7.120000 3.120000 -4.668341 7.087472 72.025665
5.120000 -7.120000 3.160000 -8.118649 5.942626 101.227264
5.120000 -7.120000 3.200000 -12.208737 4.745086 171.569107
5.120000 -7.080000 2.800000 -20.829941 -10.555718 545.309631
5.120000 -7.080000 2.840000 -21.206957 -27.509130 1206.487305
5.120000 -7.080000 2.880000 -3.787193 -40.833221 1681.694702
5.120000 -7.080000 2.920000 20.960844 -35.816700 1722.192871
5.120000 -7.080000 2.960000 34.833729 -13.400505 1392.962158
5.120000 -7.080000 3.000000 28.667566 11.102588 945.096802
5.120000 -7.080000 3.040000 9.410202 22.387920 589.770874
5.120000 -7.080000 3.080000 -8.070251 17.713097 378.882721
5.120000 -7.080000 3.120000 -14.658767 6.254043 253.992493
5.120000 -7.080000 3.160000 -12.584845 -1.757847 161.468338
5.120000 -7.080000 3.200000 -9.509249 -3.882009 105.495804
5.120000 -7.040000 2.800000 -2.871117 -15.963268 263.069244
5.120000 -7.040000 2.840000 5.415104 -28.391542 835.403076
5.120000 -7.040000 2.880000 26.956593 -28.649693 1547.462769
5.120000 -7.040000 2.920000 44.743473 -8.434455 2073.118408
5.120000 -7.040000 2.960000 41.750839 21.609091 2210.085449
5.120000 -7.040000 3.000000 17.384907 40.741371 1962.094360
5.120000 -7.040000 3.040000 -11.650014 36.688683 1481.782227
5.120000 -7.040000 3.080000 -26.457535 15.856922 951.443115
5.120000 -7.040000 3.120000 -21.954908 -3.957105 497.676697
5.120000 -7.040000 3.160000 -8.910218 -10.102995 181.462494
5.120000 -7.040000 3.200000 -1.722519 -4.704035 25.095015
5.120000 -7.000000 2.800000 11.132664 -5.916787 158.944580
5.120000 -7.000000 2.840000 23.076002 -9.922520 630.958313
5.120000 -7.000000 2.880000 39.232460 2.756238 1546.782715
5.120000 -7.000000 2.920000 40.564491 30.405941 2569.999023
5.120000 -7.000000 2.960000 17.802994 54.044430 3237.746826
5.120000 -7.000000 3.000000 -17.422359 54.174484 3238.413330
5.120000 -7.000000 3.040000 -41.566517 29.389683 2591.528809
5.120000 -7.000000 3.080000 -40.108444 -1.697710 1611.569458
5.120000 -7.000000 3.120000 -20.032068 -17.345308 702.143433
5.120000 -7.000000 3.160000 -2.040442 -11.816417 143.791107
5.120000 -7.000000 3.200000 -0.746120 1.455711 2.675791
5.120000 -6.960000 2.800000 10.492547 9.634932 202.925446
5.120000 -6.960000 2.840000 20.239220 13.251338 585.223999
5.120000 -6.960000 2.880000 24.356672 31.843996 1607.287598
5.120000 -6.960000 2.920000 8.322493 53.871017 2971.350342
5.120000 -6.960000 2.960000 -24.890421 58.476860 4039.076172
5.120000 -6.960000 3.000000 -54.175701 36.085197 4237.147949
5.120000 -6.960000 3.040000 -58.694954 -0.322051 3445.201416
5.120000 -6.960000 3.080000 -37.565659 -25.738136 2073.630371
5.120000 -6.960000 3.120000 -10.824875 -25.823666 784.039612
5.120000 -6.960000 3.160000 -0.407933 -9.361890 87.811394
5.120000 -6.960000 3.200000 -10.002395 1.609898 102.639671
5.120000 -6.920000 2.800000 -2.431487 15.803360 255.658310
5.120000 -6.920000 2.840000 2.430624 23.001457 534.974976
5.120000 -6.920000 2.880000 -4.896662 38.487568 1505.270142
5.120000 -6.920000 2.920000 -29.352167 45.505672 2932.315918
5.120000 -6.920000 2.960000 -57.037300 29.698250 4135.239746
5.120000 -6.920000 3.000000 -66.414268 -4.233913 4428.780762
5.120000 -6.920000 3.040000 -49.276443 -34.397751 3611.373291
5.120000 -6.920000 3.080000 -19.769463 -41.641197 2124.820801
5.120000 -6.920000 3.120000 -1.278367 -27.598450 763.308655
5.120000 -6.920000 3.160000 -4.135468 -12.307444 168.575272
5.120000 -6.920000 3.200000 -16.727348 -13.840044 471.350983
5.120000 -6.880000 2.800000 -13.249372 6.343678 215.788116
5.120000 -6.880000 2.840000 -12.165366 14.100316 346.815063
5.120000 -6.880000 2.880000 -24.896442 21.832352 1096.484375
5.120000 -6.880000 2.920000 -45.861492 14.285056 2307.339111
5.120000 -6.880000 2.960000 -57.075634 -11.231310 3383.770264
5.120000 -6.880000 3.000000 -46.145920 -39.443478 3685.233887
5.120000 -6.880000 3.040000 -19.932871 -51.108875 3009.436523
5.120000 -6.880000 3.080000 1.557253 -42.151146 1779.144165
5.120000 -6.880000 3.120000 5.183282 -27.382355 776.659729
5.120000 -6.880000 3.160000 -2.621916 -24.633207 613.669373
5.120000 -6.880000 3.200000 -3.744383 -36.246574 1327.834595
5.120000 -6.840000 2.800000 -8.418475 -9.268462 156.775116
5.120000 -6.840000 2.840000 -9.769575 -0.732567 95.981247
5.120000 -6.840000 2.880000 -22.490387 0.531023 506.099487
5.120000 -6.840000 2.920000 -33.766014 -13.696320 1327.732910
5.120000 -6.840000 2.960000 -29.588562 -35.329124 2123.630127
5.120000 -6.840000 3.000000 -10.446880 -47.711967 2385.569092
5.120000 -6.840000 3.040000 8.817359 -43.439369 1964.724609
5.120000 -6.840000 3.080000 15.282836 -32.068069 1261.926147
5.120000 -6.840000 3.120000 12.046734 -28.761440 972.344238
5.120000 -6.840000 3.160000 14.028469 -36.620022 1537.823975
5.120000 -6.840000 3.200000 30.203075 -42.857784 2749.015381
5.120000 -6.800000 2.800000 10.983349 -13.427850 300.941101
5.120000 -6.800000 2.840000 5.469907 -3.285908 40.717072
5.120000 -6.800000 2.880000 -6.227855 -5.569561 69.806183
5.120000 -6.800000 2.920000 -9.548658 -19.146828 457.777893
5.120000 -6.800000 2.960000 0.684673 -30.647343 939.728394
5.120000 -6.800000 3.000000 14.879234 -30.253750 1136.681030
5.120000 -6.800000 3.040000 21.005987 -22.866150 964.112305
5.120000 -6.800000 3.080000 19.742054 -21.074287 833.874268
5.120000 -6.800000 3.120000 23.787128 -28.185104 1360.227539
5.120000 -6.800000 3.160000 41.433640 -32.090767 2746.563721
5.120000 -6.800000 3.200000 63.852036 -18.466282 4418.085938
5.160000 -7.200000 2.800000 -30.067078 11.071353 1026.604004
5.160000 -7.200000 2.840000 -38.139404 -0.525688 1454.890503
5.160000 -7.200000 2.880000 -34.222549 -16.028278 1428.088623
5.160000 -7.200000 2.920000 -20.521500 -23.395058 968.460693
5.160000 -7.200000 2.960000 -8.493961 -18.828255 426.650543
5.160000 -7.200000 3.000000 -6.565845 -10.381670 150.889404
5.160000 -7.200000 3.040000 -11.428224 -8.700764 206.307587
5.160000 -7.200000 3.080000 -12.410124 -15.212023 385.416809
5.160000 -7.200000 3.120000 -3.887001 -20.853645 449.983276
5.160000 -7.200000 3.160000 8.175072 -16.558125 341.003265
5.160000 -7.200000 3.200000 12.700698 -3.673408 174.801651
5.160000 -7.160000 2.800000 -27.271202 -6.110548 781.057251
5.160000 -7.160000 2.840000 -30.034164 -16.782997 1183.719971
5.160000 -7.160000 2.880000 -21.792217 -27.439926 1227.850220
5.160000 -7.160000 2.920000 -8.058076 -28.332010 867.635376
5.160000 -7.160000 2.960000 0.270933 -20.017277 400.764771
5.160000 -7.160000 3.000000 -0.885100 -12.068409 146.429901
5.160000 -7.160000 3.040000 -4.890481 -11.732450 161.567184
5.160000 -7.160000 3.080000 -2.927755 -15.780617 257.599609
5.160000 -7.160000 3.120000 5.181560 -14.879957 248.261688
5.160000 -7.160000 3.160000 10.510305 -5.206311 137.572189
5.160000 -7.160000 3.200000 5.429227 6.250824 68.549309
5.160000 -7.120000 2.800000 -13.759350 -14.740679 406.607300
5.160000 -7.120000 2.840000 -14.030075 -22.047747 682.946106
5.160000 -7.120000 2.880000 -5.684858 -27.196655 771.975708
5.160000 -7.120000 2.920000 4.502130 -23.528351 573.852478
5.160000 -7.120000 2.960000 8.036152 -14.195412 266.089447
5.160000 -7.120000 3.000000 4.203742 -7.693906 76.867645
5.160000 -7.120000 3.040000 -0.061605 -7.830586 61.321873
5.160000 -7.120000 3.080000 0.905657 -9.929448 99.414154
5.160000 -7.120000 3.120000 4.680724 -7.342400 75.820007
5.160000 -7.120000 3.160000 4.004147 -0.134039 16.051157
5.160000 -7.120000 3.200000 -3.980396 4.415821 35.343029
5.160000 -7.080000 2.800000 0.233672 -10.175278 103.590881
5.160000 -7.080000 2.840000 -0.797825 -14.439823 209.145020
5.160000 -7.080000 2.880000 4.512861 -16.210119 283.133881
5.160000 -7.080000 2.920000 9.718246 -11.306235 222.275269
5.160000 -7.080000 2.960000 8.756008 -3.640652 89.922028
5.160000 -7.080000 3.000000 2.553907 0.013454 6.522624
5.160000 -7.080000 3.040000 -2.772155 -2.296018 12.956539
5.160000 -7.080000 3.080000 -3.216501 -6.196016 48.736496
5.160000 -7.080000 3.120000 -1.044879 -6.740294 46.523331
5.160000 -7.080000 3.160000 -1.382021 -4.262262 20.076862
5.160000 -7.080000 3.200000 -5.703161 -3.683857 46.096848
5.160000 -7.040000 2.800000 4.833830 2.892013 31.729649
5.160000 -7.040000 2.840000 1.348314 -0.691634 2.296309
5.160000 -7.040000 2.880000 2.905097 -2.319180 13.818187
5.160000 -7.040000 2.920000 3.860172 0.632797 15.301359
5.160000 -7.040000 2.960000 -0.050900 4.240020 17.980358
5.160000 -7.040000 3.000000 -6.936158 3.076008 57.572113
5.160000 -7.040000 3.040000 -10.983264 -3.534785 133.126801
5.160000 -7.040000 3.080000 -8.833653 -10.733867 193.249329
5.160000 -7.040000 3.120000 -3.078178 -13.307645 186.568604
5.160000 -7.040000 3.160000 0.660590 -11.034046 122.186554
5.160000 -7.040000 3.200000 -0.326425 -8.611652 74.267105
5.160000 -7.000000 2.800000 -2.694414 14.112221 206.414642
5.160000 -7.000000 2.840000 -7.857458 8.668416 136.881073
5.160000 -7.000000 2.880000 -8.540550 4.750988 95.512894
5.160000 -7.000000 2.920000 -9.569987 3.741416 105.582848
5.160000 -7.000000 2.960000 -13.468834 1.850606 184.834229
5.160000 -7.000000 3.000000 -17.230385 -4.645475 318.466614
5.160000 -7.000000 3.040000 -15.604383 -14.230931 446.016174
5.160000 -7.000000 3.080000 -7.315438 -20.819111 486.950989
5.160000 -7.000000 3.120000 2.608463 -19.818882 399.592163
5.160000 -7.000000 3.160000 7.270556 -13.220904 227.653305
5.160000 -7.000000 3.200000 4.735267 -8.153257 88.898361
5.160000 -6.960000 2.800000 -16.226620 14.821276 482.973389
5.160000 -6.960000 2.840000 -20.582575 6.783278 469.655273
5.160000 -6.960000 2.880000 -21.125204 0.136219 446.292816
5.160000 -6.960000 2.920000 -21.308914 -5.106495 480.146118
5.160000 -6.960000 2.960000 -21.443207 -11.784779 598.692139
5.160000 -6.960000 3.000000 -18.161379 -20.583864 753.531128
5.160000 -6.960000 3.040000 -8.973873 -27.564270 840.319397
5.160000 -6.960000 3.080000 3.302990 -27.531296 768.881958
5.160000 -6.960000 3.120000 11.791106 -20.003130 539.155396
5.160000 -6.960000 3.160000 11.891218 -11.026999 262.995789
5.160000 -6.960000 3.200000 6.364620 -8.183119 107.471817
5.160000 -6.920000 2.800000 -25.064724 4.197227 645.857117
5.160000 -6.920000 2.840000 -26.613934 -4.537698 728.892151
5.160000 -6.920000 2.880000 -25.583546 -12.575415 812.658875
5.160000 -6.920000 2.920000 -22.706196 -20.677664 943.137085
5.160000 -6.920000 2.960000 -16.398079 -28.855843 1101.556641
5.160000 -6.920000 3.000000 -5.490264 -34.175720 1198.122803
5.160000 -6.920000 3.040000 7.399663 -32.822918 1132.098999
5.160000 -6.920000 3.080000 16.491154 -24.650099 879.585571
5.160000 -6.920000 3.120000 17.798674 -14.871610 537.957581
5.160000 -6.920000 3.160000 13.444020 -10.199142 284.764160
5.160000 -6.920000 3.200000 10.438089 -12.671169 269.512238
5.160000 -6.880000 2.800000 -21.550261 -9.731956 559.124695
5.160000 -6.880000 2.840000 -21.082104 -16.068840 702.662720
5.160000 -6.880000 2.880000 -18.962788 -24.013054 936.214111
5.160000 -6.880000 2.920000 -12.247303 -32.863823 1230.027344
5.160000 -6.880000 2.960000 0.290253 -38.124695 1453.576538
5.160000 -6.880000 3.000000 14.639044 -35.226280 1455.192505
5.160000 -6.880000 3.040000 23.720959 -24.995312 1187.449463
5.160000 -6.880000 3.080000 23.955973 -14.307961 778.606323
5.160000 -6.880000 3.120000 19.301052 -10.146387 475.479797
5.160000 -6.880000 3.160000 17.812052 -12.777051 480.522217
5.160000 -6.880000 3.200000 23.796793 -15.410480 803.770264
5.160000 -6.840000 2.800000 -7.205865 -15.368389 288.111877
5.160000 -6.840000 2.840000 -8.473775 -18.183828 402.456482
5.160000 -6.840000 2.880000 -6.779368 -26.257759 735.429749
5.160000 -6.840000 2.920000 3.311868 -34.228920 1182.587524
5.160000 -6.840000 2.960000 19.018356 -33.528366 1485.849243
5.160000 -6.840000 3.000000 30.385712 -22.284325 1419.882568
5.160000 -6.840000 3.040000 30.450218 -8.869671 1005.886841
5.160000 -6.840000 3.080000 23.420685 -3.831332 563.207581
5.160000 -6.840000 3.120000 20.909023 -8.333810 506.639648
5.160000 -6.840000 3.160000 29.401197 -12.223553 1013.845642
5.160000 -6.840000 3.200000 42.573883 -4.701834 1834.642822
5.160000 -6.800000 2.800000 7.283137 -6.246562 92.063622
5.160000 -6.800000 2.840000 0.536526 -8.674077 75.527466
5.160000 -6.800000 2.880000 1.587092 -18.993076 363.255798
5.160000 -6.800000 2.920000 14.390811 -25.327293 848.567261
5.160000 -6.800000 2.960000 29.367741 -18.481318 1204.023193
5.160000 -6.800000 3.000000 33.552650 -3.324274 1136.831177
5.160000 -6.800000 3.040000 25.848972 5.891770 702.882324
5.160000 -6.800000 3.080000 19.235279 2.088933 374.359619
5.160000 -6.800000 3.120000 26.084290 -5.263010 708.089417
5.160000 -6.800000 3.160000 42.708275 0.177152 1824.028076
5.160000 -6.800000 3.200000 51.475044 22.683365 3164.215332
5.200000 -7.200000 2.800000 -24.992043 -20.449650 1042.790283
5.200000 -7.200000 2.840000 -19.685352 -28.522129 1201.024902
5.200000 -7.200000 2.880000 -8.356431 -31.442884 1058.484863
5.200000 -7.200000 2.920000 1.621722 -25.469341 651.317322
5.200000 -7.200000 2.960000 2.836919 -15.867737 259.833160
5.200000 -7.200000 3.000000 -3.514033 -12.363310 165.199860
5.200000 -7.200000 3.040000 -7.665364 -18.794601 411.994843
5.200000 -7.200000 3.080000 -1.005467 -28.006060 785.350342
5.200000 -7.200000 3.120000 14.402719 -28.234793 1004.641846
5.200000 -7.200000 3.160000 26.786444 -14.966375 941.505920
5.200000 -7.200000 3.200000 25.715370 3.976843 677.095581
5.200000 -7.160000 2.800000 -5.073981 -26.368095 721.021729
5.200000 -7.160000 2.840000 -0.600204 -27.273659 744.212708
5.200000 -7.160000 2.880000 5.882305 -24.491474 634.433838
5.200000 -7.160000 2.920000 8.818055 -17.233959 374.767426
5.200000 -7.160000 2.960000 5.043661 -11.326900 153.737183
5.200000 -7.160000 3.000000 -0.739853 -12.908192 167.168793
5.200000 -7.160000 3.040000 0.151035 -20.234558 409.460144
5.200000 -7.160000 3.080000 10.506837 -23.701210 672.140991
5.200000 -7.160000 3.120000 22.483141 -15.412541 743.038086
5.200000 -7.160000 3.160000 24.300446 1.607361 593.095276
5.200000 -7.160000 3.200000 12.147026 14.993182 372.345764
5.200000 -7.120000 2.800000 10.514719 -14.070483 308.537811
5.200000 -7.120000 2.840000 8.232920 -11.437765 198.603424
5.200000 -7.120000 2.880000 6.727785 -9.525088 135.990402
5.200000 -7.120000 2.920000 4.093313 -7.910391 79.329498
5.200000 -7.120000 2.960000 0.406623 -9.216064 85.101189
5.200000 -7.120000 3.000000 -0.307656 -14.349960 206.016006
5.200000 -7.120000 3.040000 5.454976 -18.813072 383.688446
5.200000 -7.120000 3.080000 14.881430 -15.979408 476.798462
5.200000 -7.120000 3.120000 19.485573 -4.670774 401.503693
5.200000 -7.120000 3.160000 13.023187 7.634920 227.895401
5.200000 -7.120000 3.200000 -1.319808 10.786193 118.083847
5.200000 -7.080000 2.800000 9.374870 5.386773 116.905518
5.200000 -7.080000 2.840000 -0.614896 4.353863 19.334219
5.200000 -7.080000 2.880000 -6.660160 -1.523808 46.679722
5.200000 -7.080000 2.920000 -8.002668 -8.795771 141.408279
5.200000 -7.080000 2.960000 -5.209292 -15.284526 260.753448
5.200000 -7.080000 3.000000 1.041269 -19.099329 365.868591
5.200000 -7.080000 3.040000 8.855796 -18.061590 404.646149
5.200000 -7.080000 3.080000 14.215736 -11.533096 335.099487
5.200000 -7.080000 3.120000 13.090069 -2.750640 178.915924
5.200000 -7.080000 3.160000 5.428261 2.200907 34.310009
5.200000 -7.080000 3.200000 -3.432890 -0.856493 12.518313
5.200000 -7.040000 2.800000 -6.912430 16.050838 305.411102
5.200000 -7.040000 2.840000 -19.457541 5.874931 413.110718
5.200000 -7.040000 2.880000 -22.199547 -9.433666 581.813965
5.200000 -7.040000 2.920000 -15.210740 -22.082050 718.983521
5.200000 -7.040000 2.960000 -3.409748 -27.272839 755.434143
5.200000 -7.040000 3.000000 7.366652 -24.982288 678.382324
5.200000 -7.040000 3.040000 13.562910 -18.419432 523.227966
5.200000 -7.040000 3.080000 14.630480 -11.389500 343.771637
5.200000 -7.040000 3.120000 12.018600 -6.636167 188.485474
5.200000 -7.040000 3.160000 8.067350 -5.469349 94.995926
5.200000 -7.040000 3.200000 5.339293 -7.726736 88.210495
5.200000 -7.000000 2.800000 -25.237957 10.135276 739.678284
5.200000 -7.000000 2.840000 -32.718048 -8.638720 1145.098145
5.200000 -7.000000 2.880000 -25.962906 -28.250212 1472.146973
5.200000 -7.000000 2.920000 -8.994497 -38.651974 1574.876099
5.200000 -7.000000 2.960000 8.544342 -36.586948 1411.610474
5.200000 -7.000000 3.000000 18.902851 -26.779633 1074.466553
5.200000 -7.000000 3.040000 21.063572 -16.777166 725.147339
5.200000 -7.000000 3.080000 19.208973 -10.793887 485.492645
5.200000 -7.000000 3.120000 17.484444 -8.105873 371.410950
5.200000 -7.000000 3.160000 16.727674 -6.280379 319.258270
5.200000 -7.000000 3.200000 15.829375 -4.700221 272.661194
5.200000 -6.960000 2.800000 -32.374493 -6.880522 1095.449341
5.200000 -6.960000 2.840000 -30.476212 -28.039152 1714.993530
5.200000 -6.960000 2.880000 -14.410408 -44.187538 2160.198486
5.200000 -6.960000 2.920000 7.914042 -46.677208 2241.393799
5.200000 -6.960000 2.960000 25.132910 -36.139404 1937.719727
5.200000 -6.960000 3.000000 31.218466 -21.068687 1418.482178
5.200000 -6.960000 3.040000 28.846016 -10.016848 932.429871
5.200000 -6.960000 3.080000 24.864504 -5.149250 644.758301
5.200000 -6.960000 3.120000 23.253414 -2.901384 549.139282
5.200000 -6.960000 3.160000 22.773104 0.233158 518.668640
5.200000 -6.960000 3.200000 20.743923 3.753385 444.398254
5.200000 -6.920000 2.800000 -24.903887 -22.193096 1112.737061
5.200000 -6.920000 2.840000 -15.814993 -38.749199 1751.614380
5.200000 -6.920000 2.880000 3.719599 -47.252434 2246.627930
5.200000 -6.920000 2.920000 24.983704 -42.044575 2391.931641
5.200000 -6.920000 2.960000 37.959259 -26.267756 2130.900391
5.200000 -6.920000 3.000000 38.948902 -9.204561 1601.740967
5.200000 -6.920000 3.040000 32.460438 1.393466 1055.621826
5.200000 -6.920000 3.080000 26.008196 4.732515 698.822998
5.200000 -6.920000 3.120000 23.362944 5.453023 575.562622
5.200000 -6.920000 3.160000 22.763863 7.677151 577.132080
5.200000 -6.920000 3.200000 20.890749 11.198420 561.828003
5.200000 -6.880000 2.800000 -10.063493 -26.062014 780.502441
5.200000 -6.880000 2.840000 -0.390012 -35.778084 1280.223389
5.200000 -6.880000 2.880000 16.593662 -38.824577 1782.697388
5.200000 -6.880000 2.920000 34.035664 -30.367817 2080.630615
5.200000 -6.880000 2.960000 43.027725 -12.982450 2019.929199
5.200000 -6.880000 3.000000 39.912258 4.398042 1612.331177
5.200000 -6.880000 3.040000 29.479609 13.539537 1052.366333
5.200000 -6.880000 3.080000 20.629862 13.546633 609.102417
5.200000 -6.880000 3.120000 18.506321 10.650997 455.927673
5.200000 -6.880000 3.160000 20.714840 11.576534 563.120728
5.200000 -6.880000 3.200000 21.031752 17.219193 738.835144
5.200000 -6.840000 2.800000 1.164926 -17.884163 321.200348
5.200000 -6.840000 2.840000 6.110404 -24.791830 651.971863
5.200000 -6.840000 2.880000 19.503586 -27.958435 1162.063965
5.200000 -6.840000 2.920000 35.277916 -19.721836 1633.482178
5.200000 -6.840000 2.960000 42.357857 -1.367637 1796.058472
5.200000 -6.840000 3.000000 35.449203 16.208879 1519.373779
5.200000 -6.840000 3.040000 21.157431 22.321562 945.889038
5.200000 -6.840000 3.080000 12.063583 17.037342 435.801086
5.200000 -6.840000 3.120000 14.229849 11.079634 325.246887
5.200000 -6.840000 3.160000 21.246498 14.577145 663.906860
5.200000 -6.840000 3.200000 21.400513 26.436279 1156.858887
5.200000 -6.800000 2.800000 1.816193 -4.711590 25.497635
5.200000 -6.800000 2.840000 2.527990 -15.349489 241.997543
5.200000 -6.800000 2.880000 16.507687 -21.829998 749.052551
5.200000 -6.800000 2.920000 33.976540 -12.869387 1320.026367
5.200000 -6.800000 2.960000 39.258041 8.152243 1607.652954
5.200000 -6.800000 3.000000 27.487421 25.199532 1390.574707
5.200000 -6.800000 3.040000 10.627672 26.093599 793.823364
5.200000 -6.800000 3.080000 5.045775 15.775515 274.326721
5.200000 -6.800000 3.120000 13.637880 11.090063 308.981262
5.200000 -6.800000 3.160000 22.360088 22.057533 986.508301
5.200000 -6.800000 3.200000 15.696383 40.191460 1861.729858
