#kx 	ky 	kz 	real 	imag 	intensity
1.800000 -8.200000 -4.200000 -59.030697 -2.206492 3489.491943
1.800000 -8.200000 -4.160000 -39.826679 -26.946638 2312.285645
1.800000 -8.200000 -4.120000 -12.744097 -22.847286 684.410461
1.800000 -8.200000 -4.080000 -6.574124 0.921903 44.069016
1.800000 -8.200000 -4.040000 -26.582954 15.207238 937.913513
1.800000 -8.200000 -4.000000 -49.831184 2.141907 2487.734619
1.800000 -8.200000 -3.960000 -50.264214 -26.468773 3227.087158
1.800000 -8.200000 -3.920000 -26.088593 -42.570808 2492.888428
1.800000 -8.200000 -3.880000 -0.542836 -31.545288 995.399902
1.800000 -8.200000 -3.840000 3.198610 -6.195184 48.611412
1.800000 -8.200000 -3.800000 -14.928709 8.398245 293.396851
1.800000 -8.160000 -4.200000 -44.703831 -39.186970 3534.051270
1.800000 -8.160000 -4.160000 -13.687212 -47.309326 2425.512207
1.800000 -8.160000 -4.120000 5.993600 -27.977160 818.644653
1.800000 -8.160000 -4.080000 -2.222700 -5.489655 35.076714
1.800000 -8.160000 -4.040000 -25.283943 -5.158972 665.892761
1.800000 -8.160000 -4.000000 -35.641434 -27.319168 2016.648682
1.800000 -8.160000 -3.960000 -20.550661 -48.510715 2775.619141
1.800000 -8.160000 -3.920000 5.704024 -47.137104 2254.442383
1.800000 -8.160000 -3.880000 18.251846 -25.416466 979.126587
1.800000 -8.160000 -3.840000 7.528747 -5.102428 82.716812
1.800000 -8.160000 -3.800000 -13.031128 -3.832347 184.497192
1.800000 -8.120000 -4.200000 -5.864475 -52.776180 2819.717285
1.800000 -8.120000 -4.160000 20.632275 -40.444092 2061.415283
1.800000 -8.120000 -4.120000 23.999254 -15.875304 827.989502
1.800000 -8.120000 -4.080000 6.963243 -4.210110 66.211777
1.800000 -8.120000 -4.040000 -8.289340 -14.618263 282.406769
1.800000 -8.120000 -4.000000 -4.311364 -32.582493 1080.206787
1.800000 -8.120000 -3.960000 14.180433 -37.091026 1576.828979
1.800000 -8.120000 -3.920000 27.290108 -23.069153 1276.935791
1.800000 -8.120000 -3.880000 22.009859 -5.183025 511.297638
1.800000 -8.120000 -3.840000 4.913101 -0.789324 24.761595
1.800000 -8.120000 -3.800000 -6.905217 -12.053339 192.964996
1.800000 -8.080000 -4.200000 28.617474 -32.584908 1880.736084
1.800000 -8.080000 -4.160000 37.753330 -10.229216 1529.950806
1.800000 -8.080000 -4.120000 26.930433 6.730735 770.551025
1.800000 -8.080000 -4.080000 11.276198 6.038395 163.614868
1.800000 -8.080000 -4.040000 7.295878 -5.316109 81.490852
1.800000 -8.080000 -4.000000 15.925465 -10.931664 373.121704
1.800000 -8.080000 -3.960000 23.665306 -3.680539 573.593079
1.800000 -8.080000 -3.920000 19.101429 7.438173 420.191010
1.800000 -8.080000 -3.880000 5.599026 8.686836 106.810211
1.800000 -8.080000 -3.840000 -3.317038 -2.775570 18.706530
1.800000 -8.080000 -3.800000 0.588335 -16.548061 274.184479
1.800000 -8.040000 -4.200000 34.749397 3.191050 1217.703369
1.800000 -8.040000 -4.160000 26.929876 20.320072 1138.123535
1.800000 -8.040000 -4.120000 12.205647 23.963224 723.213989
1.800000 -8.040000 -4.080000 4.352891 17.106293 311.572906
1.800000 -8.040000 -4.040000 6.234038 12.021276 183.374329
1.800000 -8.040000 -4.000000 8.464205 15.255928 304.386108
1.800000 -8.040000 -3.960000 2.066236 20.391846 420.096680
1.800000 -8.040000 -3.920000 -9.999846 16.408442 369.233887
1.800000 -8.040000 -3.880000 -15.689962 1.459617 248.305405
1.800000 -8.040000 -3.840000 -7.551747 -13.989267 252.728485
1.800000 -8.040000 -3.800000 8.690331 -18.222719 407.589355
1.800000 -8.000000 -4.200000 14.862120 26.361412 915.806641
1.800000 -8.000000 -4.160000 0.692639 30.779160 947.836426
1.800000 -8.000000 -4.120000 -9.080313 25.018936 708.399231
1.800000 -8.000000 -4.080000 -10.308128 18.883129 462.830078
1.800000 -8.000000 -4.040000 -9.961283 19.060562 462.532166
1.800000 -8.000000 -4.000000 -16.320332 20.977896 706.425293
1.800000 -8.000000 -3.960000 -27.513920 14.523038 967.934448
1.800000 -8.000000 -3.920000 -32.075520 -2.894430 1037.216675
1.800000 -8.000000 -3.880000 -21.404549 -21.176525 906.599915
1.800000 -8.000000 -3.840000 -0.197261 -26.820000 719.351318
1.800000 -8.000000 -3.800000 17.277489 -16.679876 576.729858
1.800000 -7.960000 -4.200000 -8.226395 25.631126 724.628235
1.800000 -7.960000 -4.160000 -19.467220 20.805943 811.859863
1.800000 -7.960000 -4.120000 -23.118639 12.512066 691.023315
1.800000 -7.960000 -4.080000 -22.376154 8.406813 571.366760
1.800000 -7.960000 -4.040000 -25.022171 7.798844 686.931030
1.800000 -7.960000 -4.000000 -32.593128 2.525690 1068.691162
1.800000 -7.960000 -3.960000 -36.703339 -12.418613 1501.356934
1.800000 -7.960000 -3.920000 -27.607845 -30.697166 1704.509155
1.800000 -7.960000 -3.880000 -5.920470 -39.030884 1558.461914
1.800000 -7.960000 -3.840000 15.915314 -30.247368 1168.200439
1.800000 -7.960000 -3.800000 24.828585 -10.893978 735.137390
1.800000 -7.920000 -4.200000 -16.478525 13.718273 459.732788
1.800000 -7.920000 -4.160000 -24.058136 6.049622 615.391785
1.800000 -7.920000 -4.120000 -25.116707 -2.712771 638.208069
1.800000 -7.920000 -4.080000 -23.507572 -8.056879 617.519287
1.800000 -7.920000 -4.040000 -23.894697 -12.257994 721.214966
1.800000 -7.920000 -4.000000 -24.696140 -20.564045 1032.779297
1.800000 -7.920000 -3.960000 -19.025543 -32.902199 1444.526001
1.800000 -7.920000 -3.920000 -3.204953 -41.330307 1718.466064
1.800000 -7.920000 -3.880000 16.905899 -37.196083 1669.358032
1.800000 -7.920000 -3.840000 29.699207 -20.595814 1306.230469
1.800000 -7.920000 -3.800000 28.451015 -1.460879 811.594421
1.800000 -7.880000 -4.200000 -13.401456 9.100950 262.426300
1.800000 -7.880000 -4.160000 -21.071871 -0.936967 444.901642
1.800000 -7.880000 -4.120000 -20.066879 -13.060604 573.259033
1.800000 -7.880000 -4.080000 -13.350586 -20.771919 609.710754
1.800000 -7.880000 -4.040000 -6.531443 -23.786621 608.463074
1.800000 -7.880000 -4.000000 -1.078390 -25.918167 672.914307
1.800000 -7.880000 -3.960000 6.163677 -28.515427 851.120483
1.800000 -7.880000 -3.920000 17.153130 -27.788715 1066.442627
1.800000 -7.880000 -3.880000 28.074547 -19.445267 1166.298584
1.800000 -7.880000 -3.840000 32.022331 -4.926449 1049.699585
1.800000 -7.880000 -3.800000 26.115625 8.518563 754.591797
1.800000 -7.840000 -4.200000 -15.359764 14.317446 440.911621
1.800000 -7.840000 -4.160000 -22.219336 -2.851675 501.830933
1.800000 -7.840000 -4.120000 -13.973200 -19.117882 560.743713
1.800000 -7.840000 -4.080000 1.739552 -23.793739 569.168091
1.800000 -7.840000 -4.040000 13.201970 -17.615007 484.580505
1.800000 -7.840000 -4.000000 15.914098 -9.556390 344.583099
1.800000 -7.840000 -3.960000 14.819052 -6.276820 259.002777
1.800000 -7.840000 -3.920000 16.533298 -6.013850 309.516327
1.800000 -7.840000 -3.880000 21.315918 -2.678394 461.542145
1.800000 -7.840000 -3.840000 23.491974 5.852364 586.123047
1.800000 -7.840000 -3.800000 18.680815 15.012365 574.343933
1.800000 -7.800000 -4.200000 -29.336632 14.912632 1083.024536
1.800000 -7.800000 -4.160000 -27.427944 -10.426327 861.000427
1.800000 -7.800000 -4.120000 -7.054406 -24.246140 637.639954
1.800000 -7.800000 -4.080000 14.337913 -17.557932 513.856689
1.800000 -7.800000 -4.040000 20.871353 0.296753 435.701447
1.800000 -7.800000 -4.000000 12.250600 12.484491 305.939697
1.800000 -7.800000 -3.960000 1.385167 11.202405 127.412560
1.800000 -7.800000 -3.920000 -0.205646 3.193371 10.239908
1.800000 -7.800000 -3.880000 6.788838 0.279722 46.166569
1.800000 -7.800000 -3.840000 12.533173 6.586096 200.457077
1.800000 -7.800000 -3.800000 9.629507 15.723582 339.958435
1.840000 -8.200000 -4.200000 -47.607735 -32.553661 3326.237305
1.840000 -8.200000 -4.160000 -17.995640 -38.452217 1802.416016
1.840000 -8.200000 -4.120000 -2.488226 -18.625328 353.094086
1.840000 -8.200000 -4.080000 -15.106918 -0.077860 228.225037
1.840000 -8.200000 -4.040000 -38.211071 -7.316268 1513.613770
1.840000 -8.200000 -4.000000 -41.941635 -35.569221 3024.270264
1.840000 -8.200000 -3.960000 -16.880312 -55.804035 3399.035156
1.840000 -8.200000 -3.920000 15.487965 -45.917908 2348.331299
1.840000 -8.200000 -3.880000 25.431532 -14.160561 847.284302
1.840000 -8.200000 -3.840000 5.721835 9.964928 132.039169
1.840000 -8.200000 -3.800000 -22.317749 6.425826 539.373169
1.840000 -8.160000 -4.200000 -15.826511 -56.306911 3420.946777
1.840000 -8.160000 -4.160000 12.770522 -42.957550 2008.437256
1.840000 -8.160000 -4.120000 15.321274 -17.521790 541.754517
1.840000 -8.160000 -4.080000 -3.064108 -8.214607 76.868530
1.840000 -8.160000 -4.040000 -15.960299 -23.078224 787.335571
1.840000 -8.160000 -4.000000 -4.957727 -42.594101 1838.836548
1.840000 -8.160000 -3.960000 20.730503 -42.010239 2194.613770
1.840000 -8.160000 -3.920000 35.042202 -18.397192 1566.412598
1.840000 -8.160000 -3.880000 23.397758 6.732395 592.780212
1.840000 -8.160000 -3.840000 -2.503726 10.826160 123.474396
1.840000 -8.160000 -3.800000 -18.394461 -6.675185 382.914246
1.840000 -8.120000 -4.200000 24.426661 -47.131371 2818.027832
1.840000 -8.120000 -4.160000 38.793335 -21.722153 1976.774780
1.840000 -8.120000 -4.120000 29.650166 -0.653584 879.559509
1.840000 -8.120000 -4.080000 13.845407 1.166143 193.055176
1.840000 -8.120000 -4.040000 10.400959 -8.734699 184.474915
1.840000 -8.120000 -4.000000 20.272915 -11.631839 546.290771
1.840000 -8.120000 -3.960000 27.501366 0.223248 756.375000
1.840000 -8.120000 -3.920000 18.911133 15.344519 593.085205
1.840000 -8.120000 -3.880000 -0.499105 16.885296 285.362335
1.840000 -8.120000 -3.840000 -13.360287 1.845891 181.904572
1.840000 -8.120000 -3.800000 -9.263166 -16.010506 342.142548
1.840000 -8.080000 -4.200000 42.712254 -11.651226 1960.087646
1.840000 -8.080000 -4.160000 40.848618 11.941126 1811.199951
1.840000 -8.080000 -4.120000 27.495302 24.511154 1356.788330
1.840000 -8.080000 -4.080000 15.900498 25.912735 924.295715
1.840000 -8.080000 -4.040000 10.307690 25.624069 762.841370
1.840000 -8.080000 -4.000000 4.099556 28.746067 843.142700
1.840000 -8.080000 -3.960000 -8.558369 29.438631 939.878662
1.840000 -8.080000 -3.920000 -22.665873 19.228291 883.468933
1.840000 -8.080000 -3.880000 -26.485577 -0.457468 701.695068
1.840000 -8.080000 -3.840000 -15.149703 -17.200191 525.360107
1.840000 -8.080000 -3.800000 2.559083 -20.000961 406.587341
1.840000 -8.040000 -4.200000 28.434513 21.155800 1256.089355
1.840000 -8.040000 -4.160000 19.165693 34.667294 1569.145020
1.840000 -8.040000 -4.120000 7.204659 42.034615 1818.815918
1.840000 -8.040000 -4.080000 -5.988401 46.345066 2183.726074
1.840000 -8.040000 -4.040000 -23.268394 46.722748 2724.433350
1.840000 -8.040000 -4.000000 -43.429504 36.725769 3234.903809
1.840000 -8.040000 -3.960000 -56.647697 12.848330 3374.041260
1.840000 -8.040000 -3.920000 -51.674332 -16.937786 2957.125244
1.840000 -8.040000 -3.880000 -28.280188 -36.392708 2124.198242
1.840000 -8.040000 -3.840000 -0.572359 -34.986687 1224.395874
1.840000 -8.040000 -3.800000 14.488401 -18.326735 545.782959
1.840000 -8.000000 -4.200000 -0.143578 28.230654 796.990417
1.840000 -8.000000 -4.160000 -7.671209 34.340363 1238.107910
1.840000 -8.000000 -4.120000 -19.360043 40.937572 2050.696045
1.840000 -8.000000 -4.080000 -39.536919 42.910393 3404.469727
1.840000 -8.000000 -4.040000 -64.536446 30.153397 5074.180176
1.840000 -8.000000 -4.000000 -80.047501 -1.266424 6409.206543
1.840000 -8.000000 -3.960000 -71.410187 -40.151093 6711.524902
1.840000 -8.000000 -3.920000 -38.418587 -65.301422 5740.263672
1.840000 -8.000000 -3.880000 1.054735 -62.574005 3916.618652
1.840000 -8.000000 -3.840000 24.617750 -37.742825 2030.554443
1.840000 -8.000000 -3.800000 24.136852 -11.556263 716.134888
1.840000 -7.960000 -4.200000 -16.193186 13.529236 445.259491
1.840000 -7.960000 -4.160000 -21.459652 19.249657 831.065918
1.840000 -7.960000 -4.120000 -37.059044 23.772453 1938.502197
1.840000 -7.960000 -4.080000 -60.945312 14.573460 3926.716797
1.840000 -7.960000 -4.040000 -78.198402 -15.271839 6348.219238
1.840000 -7.960000 -4.000000 -71.245209 -56.200928 8234.423828
1.840000 -7.960000 -3.960000 -36.419079 -85.614296 8656.157227
1.840000 -7.960000 -3.920000 9.526986 -85.238007 7356.281250
1.840000 -7.960000 -3.880000 41.203133 -57.014435 4948.343750
1.840000 -7.960000 -3.840000 45.054443 -21.793425 2504.856201
1.840000 -7.960000 -3.800000 29.348980 -1.184920 862.766663
1.840000 -7.920000 -4.200000 -11.668742 0.176959 136.190857
1.840000 -7.920000 -4.160000 -20.597403 6.466074 466.063110
1.840000 -7.920000 -4.120000 -39.397175 2.535946 1558.568359
1.840000 -7.920000 -4.080000 -55.554939 -20.045343 3488.166992
1.840000 -7.920000 -4.040000 -52.136368 -55.231606 5768.731445
1.840000 -7.920000 -4.000000 -22.745045 -83.538063 7495.944824
1.840000 -7.920000 -3.960000 20.423227 -86.259865 7857.872559
1.840000 -7.920000 -3.920000 54.279652 -61.019096 6669.610352
1.840000 -7.920000 -3.880000 62.667847 -24.195408 4512.676758
1.840000 -7.920000 -3.840000 48.423370 2.662682 2351.912598
1.840000 -7.920000 -3.800000 28.712139 10.139068 927.187622
1.840000 -7.880000 -4.200000 -2.589444 3.485456 18.853628
1.840000 -7.880000 -4.160000 -17.266541 3.225429 308.536804
1.840000 -7.880000 -4.120000 -30.794643 -12.545692 1105.704468
1.840000 -7.880000 -4.080000 -29.341549 -39.098957 2389.654785
1.840000 -7.880000 -4.040000 -7.454508 -61.267189 3809.238037
1.840000 -7.880000 -4.000000 26.130960 -64.253464 4811.334961
1.840000 -7.880000 -3.960000 54.049469 -45.090660 4954.512695
1.840000 -7.880000 -3.920000 62.989403 -14.918668 4190.231445
1.840000 -7.880000 -3.880000 52.955555 9.904133 2902.382568
1.840000 -7.880000 -3.840000 35.404404 20.165245 1660.108887
1.840000 -7.880000 -3.800000 22.531616 19.037258 870.090942
1.840000 -7.840000 -4.200000 -7.902430 14.856393 283.160797
1.840000 -7.840000 -4.160000 -20.508118 1.768753 423.711365
1.840000 -7.840000 -4.120000 -19.053421 -19.438324 740.881348
1.840000 -7.840000 -4.080000 -1.573944 -34.943993 1223.559937
1.840000 -7.840000 -4.040000 22.446758 -34.697315 1707.760620
1.840000 -7.840000 -4.000000 39.864162 -19.612482 1973.800903
1.840000 -7.840000 -3.960000 43.609085 0.565960 1902.072632
1.840000 -7.840000 -3.920000 36.242691 15.649008 1558.424194
1.840000 -7.840000 -3.880000 25.646507 21.947237 1139.424561
1.840000 -7.840000 -3.840000 17.850908 22.638010 831.134399
1.840000 -7.840000 -3.800000 13.279082 22.789490 695.694885
1.840000 -7.800000 -4.200000 -26.478281 13.579801 885.510376
1.840000 -7.800000 -4.160000 -25.194723 -7.948234 697.948486
1.840000 -7.800000 -4.120000 -7.841041 -21.037348 504.051941
1.840000 -7.800000 -4.080000 12.298033 -16.945446 438.389740
1.840000 -7.800000 -4.040000 21.428692 -1.414446 461.189514
1.840000 -7.800000 -4.000000 16.997662 12.253351 439.065125
1.840000 -7.800000 -3.960000 7.671710 15.940403 312.951569
1.840000 -7.800000 -3.920000 3.181322 12.538687 167.339462
1.840000 -7.800000 -3.880000 5.202139 10.514749 137.622192
1.840000 -7.800000 -3.840000 7.727915 14.361718 265.979614
1.840000 -7.800000 -3.800000 4.698183 20.881800 458.122498
1.880000 -8.200000 -4.200000 -21.110615 -48.419830 2790.137939
1.880000 -8.200000 -4.160000 3.294601 -34.471970 1199.171021
1.880000 -8.200000 -4.120000 0.933946 -11.736541 138.618637
1.880000 -8.200000 -4.080000 -20.068888 -9.080540 485.216461
1.880000 -8.200000 -4.040000 -29.926777 -32.056885 1923.255859
1.880000 -8.200000 -4.000000 -9.976881 -55.850880 3218.858887
1.880000 -8.200000 -3.960000 25.779078 -51.573204 3324.356201
1.880000 -8.200000 -3.920000 44.232109 -17.821301 2274.078125
1.880000 -8.200000 -3.880000 27.644566 16.685783 1042.637329
1.880000 -8.200000 -3.840000 -7.972986 22.320484 561.772522
1.880000 -8.200000 -3.800000 -29.823879 -1.867228 892.950256
1.880000 -8.160000 -4.200000 15.195327 -51.672890 2900.985596
1.880000 -8.160000 -4.160000 28.721153 -25.364151 1468.244873
1.880000 -8.160000 -4.120000 16.733015 -6.113441 317.367981
1.880000 -8.160000 -4.080000 0.439144 -10.337923 107.065498
1.880000 -8.160000 -4.040000 3.041058 -26.557968 714.573730
1.880000 -8.160000 -4.000000 23.950893 -29.273346 1430.574097
1.880000 -8.160000 -3.960000 39.595760 -8.038218 1632.437134
1.880000 -8.160000 -3.920000 29.650862 20.243258 1288.963135
1.880000 -8.160000 -3.880000 -0.293808 29.139542 849.199219
1.880000 -8.160000 -3.840000 -24.281677 10.748133 705.122192
1.880000 -8.160000 -3.800000 -23.125231 -16.571613 809.394653
1.880000 -8.120000 -4.200000 42.628983 -25.416199 2463.213379
1.880000 -8.120000 -4.160000 41.826672 2.009662 1753.509155
1.880000 -8.120000 -4.120000 26.669987 15.804990 961.085938
1.880000 -8.120000 -4.080000 14.991562 15.017487 450.271851
1.880000 -8.120000 -4.040000 13.732342 13.310760 365.753540
1.880000 -8.120000 -4.000000 13.310307 20.460894 595.812439
1.880000 -8.120000 -3.960000 1.688356 30.096169 908.629883
1.880000 -8.120000 -3.920000 -19.019573 27.504868 1118.261963
1.880000 -8.120000 -3.880000 -32.971149 8.025623 1151.507324
1.880000 -8.120000 -3.840000 -27.730137 -15.602133 1012.387085
1.880000 -8.120000 -3.800000 -8.430151 -25.766598 734.984985
1.880000 -8.080000 -4.200000 40.611740 10.856171 1767.169922
1.880000 -8.080000 -4.160000 31.701847 31.651009 2006.793457
1.880000 -8.080000 -4.120000 16.082375 44.265091 2218.041016
1.880000 -8.080000 -4.080000 -1.836670 50.372349 2540.746826
1.880000 -8.080000 -4.040000 -22.654249 50.368252 3050.175781
1.880000 -8.080000 -4.000000 -45.163776 39.675682 3613.926514
1.880000 -8.080000 -3.960000 -60.714054 15.118721 3914.771973
1.880000 -8.080000 -3.920000 -58.281399 -16.326189 3663.265869
1.880000 -8.080000 -3.880000 -36.389130 -38.820686 2831.214355
1.880000 -8.080000 -3.840000 -8.079961 -40.510124 1706.355957
1.880000 -8.080000 -3.800000 8.863585 -25.203720 713.790588
1.880000 -8.040000 -4.200000 14.822960 29.402760 1084.242432
1.880000 -8.040000 -4.160000 5.315722 45.067947 2059.376709
1.880000 -8.040000 -4.120000 -15.200581 59.379105 3756.935791
1.880000 -8.040000 -4.080000 -48.606461 61.963150 6202.019531
1.880000 -8.040000 -4.040000 -84.837311 40.764004 8859.073242
1.880000 -8.040000 -4.000000 -103.387375 -4.283451 10707.296875
1.880000 -8.040000 -3.960000 -88.439850 -54.475170 10789.151367
1.880000 -8.040000 -3.920000 -44.827431 -82.934784 8887.676758
1.880000 -8.040000 -3.880000 2.292137 -75.864655 5760.699707
1.880000 -8.040000 -3.840000 26.646860 -44.639217 2702.714844
1.880000 -8.040000 -3.800000 22.135727 -15.872938 741.940552
1.880000 -8.000000 -4.200000 -8.928862 21.202381 529.265503
1.880000 -8.000000 -4.160000 -18.862186 37.710297 1777.848633
1.880000 -8.000000 -4.120000 -50.082985 48.589180 4869.213867
1.880000 -8.000000 -4.080000 -93.792648 31.362743 9780.682617
1.880000 -8.000000 -4.040000 -121.016464 -21.045568 15087.900391
1.880000 -8.000000 -4.000000 -104.896248 -86.540283 18492.443359
1.880000 -8.000000 -3.960000 -46.609848 -126.700005 18225.369141
1.880000 -8.000000 -3.920000 21.204861 -117.681320 14298.540039
1.880000 -8.000000 -3.880000 59.643780 -70.849792 8577.073242
1.880000 -8.000000 -3.840000 55.125404 -22.626759 3550.780518
1.880000 -8.000000 -3.800000 27.830791 -2.606069 781.344604
1.880000 -7.960000 -4.200000 -11.374447 3.376779 140.780670
1.880000 -7.960000 -4.160000 -28.207745 21.388245 1253.133911
1.880000 -7.960000 -4.120000 -68.133423 18.116034 4970.353516
1.880000 -7.960000 -4.080000 -103.048615 -25.006544 11244.343750
1.880000 -7.960000 -4.040000 -96.826920 -93.142715 18051.017578
1.880000 -7.960000 -4.000000 -39.332897 -143.997574 22282.376953
1.880000 -7.960000 -3.960000 39.740383 -141.943451 21727.242188
1.880000 -7.960000 -3.920000 93.084251 -89.300171 16639.199219
1.880000 -7.960000 -3.880000 94.841476 -24.482761 9594.310547
1.880000 -7.960000 -3.840000 59.986275 11.728447 3735.909668
1.880000 -7.960000 -3.800000 26.543304 9.723002 799.083740
1.880000 -7.920000 -4.200000 1.340151 -0.757193 2.369345
1.880000 -7.920000 -4.160000 -26.048239 10.597210 790.811584
1.880000 -7.920000 -4.120000 -62.318985 -13.012196 4052.973145
1.880000 -7.920000 -4.080000 -70.096054 -69.525696 9747.279297
1.880000 -7.920000 -4.040000 -27.894381 -123.150177 15944.062500
1.880000 -7.920000 -4.000000 46.303654 -132.608459 19729.031250
1.880000 -7.920000 -3.960000 106.900070 -87.612228 19103.527344
1.880000 -7.920000 -3.920000 118.594994 -18.627720 14411.764648
1.880000 -7.920000 -3.880000 85.007286 29.846184 8117.033203
1.880000 -7.920000 -3.840000 41.513771 36.936089 3087.667969
1.880000 -7.920000 -3.800000 20.918156 18.636982 784.906372
1.880000 -7.880000 -4.200000 6.654925 12.776031 207.514984
1.880000 -7.880000 -4.160000 -24.437916 7.916746 659.886597
1.880000 -7.880000 -4.120000 -42.347443 -29.581461 2668.368652
1.880000 -7.880000 -4.080000 -20.887026 -76.329430 6262.449707
1.880000 -7.880000 -4.040000 35.098618 -94.759140 10211.208008
1.880000 -7.880000 -4.000000 90.657455 -66.202240 12601.511719
1.880000 -7.880000 -3.960000 109.790672 -8.117996 12119.894531
1.880000 -7.880000 -3.920000 85.601486 41.205139 9025.477539
1.880000 -7.880000 -3.880000 43.487167 55.699638 4993.583496
1.880000 -7.880000 -3.840000 15.750520 41.024136 1931.058594
1.880000 -7.880000 -3.800000 13.282473 23.683813 737.347046
1.880000 -7.840000 -4.200000 -7.945199 25.217642 699.055603
1.880000 -7.840000 -4.160000 -28.595102 4.242220 835.676270
1.880000 -7.840000 -4.120000 -23.054142 -30.530104 1463.580688
1.880000 -7.840000 -4.080000 11.418465 -51.101124 2741.706299
1.880000 -7.840000 -4.040000 52.602051 -38.561428 4253.959473
1.880000 -7.840000 -4.000000 72.025810 -0.079735 5187.723633
1.880000 -7.840000 -3.960000 59.209366 37.781296 4933.175293
1.880000 -7.840000 -3.920000 28.795256 52.579803 3593.802490
1.880000 -7.840000 -3.880000 5.045547 43.772930 1941.526978
1.880000 -7.840000 -3.840000 -0.142317 29.044607 843.609497
1.880000 -7.840000 -3.800000 5.183983 24.955301 649.640747
1.880000 -7.800000 -4.200000 -30.225855 17.063900 1204.779053
1.880000 -7.800000 -4.160000 -31.008926 -7.427029 1016.714294
1.880000 -7.800000 -4.120000 -11.422497 -24.431652 727.379089
1.880000 -7.800000 -4.080000 14.336484 -20.496344 625.634888
1.880000 -7.800000 -4.040000 27.556087 0.338932 759.452820
1.880000 -7.800000 -4.000000 21.425543 21.262558 911.150269
1.880000 -7.800000 -3.960000 5.343914 28.520126 841.955017
1.880000 -7.800000 -3.920000 -5.817390 22.635056 546.187805
1.880000 -7.800000 -3.880000 -5.841309 15.102489 262.206085
1.880000 -7.800000 -3.840000 -1.055685 15.525626 242.159546
1.880000 -7.800000 -3.800000 -1.808733 22.679159 517.615784
1.920000 -8.200000 -4.200000 6.411997 -44.919014 2058.831543
1.920000 -8.200000 -4.160000 15.053082 -21.939075 707.918274
1.920000 -8.200000 -4.120000 0.362236 -8.718945 76.151215
1.920000 -8.200000 -4.080000 -14.823381 -20.523094 640.930054
1.920000 -8.200000 -4.040000 -6.066290 -43.191032 1902.265259
1.920000 -8.200000 -4.000000 24.797935 -47.255493 2848.019043
1.920000 -8.200000 -3.960000 49.354965 -20.051781 2837.986572
1.920000 -8.200000 -3.920000 41.599144 18.748295 2081.987305
1.920000 -8.200000 -3.880000 5.740178 35.785545 1313.554932
1.920000 -8.200000 -3.840000 -27.112597 17.624781 1045.725830
1.920000 -8.200000 -3.800000 -30.035461 -16.135162 1162.472412
1.920000 -8.160000 -4.200000 33.906624 -31.919250 2168.497803
1.920000 -8.160000 -4.160000 30.822414 -6.634119 994.032776
1.920000 -8.160000 -4.120000 14.261980 1.311926 205.125214
1.920000 -8.160000 -4.080000 6.744869 -7.735613 105.332962
1.920000 -8.160000 -4.040000 17.029053 -13.819077 480.955505
1.920000 -8.160000 -4.000000 30.246521 -0.867146 915.604004
1.920000 -8.160000 -3.960000 24.731310 23.866108 1181.228760
1.920000 -8.160000 -3.920000 -2.777753 36.321991 1327.002930
1.920000 -8.160000 -3.880000 -31.545521 21.451231 1455.275146
1.920000 -8.160000 -3.840000 -37.508308 -9.845387 1503.804810
1.920000 -8.160000 -3.800000 -17.953671 -31.270405 1300.172485
1.920000 -8.120000 -4.200000 43.562714 -1.615767 1900.320679
1.920000 -8.120000 -4.160000 32.928139 19.897732 1480.182129
1.920000 -8.120000 -4.120000 16.520357 28.612898 1091.620117
1.920000 -8.120000 -4.080000 4.055206 29.642862 895.143982
1.920000 -8.120000 -4.040000 -5.874851 30.928450 991.082825
1.920000 -8.120000 -4.000000 -20.248348 31.481827 1401.101074
1.920000 -8.120000 -3.960000 -38.789276 22.375183 2005.256714
1.920000 -8.120000 -3.920000 -50.176224 -0.502148 2517.905518
1.920000 -8.120000 -3.880000 -43.048477 -27.450317 2606.691406
1.920000 -8.120000 -3.840000 -19.780777 -41.613121 2122.930908
1.920000 -8.120000 -3.800000 3.250309 -35.324768 1258.403687
1.920000 -8.080000 -4.200000 28.451176 24.340387 1401.923828
1.920000 -8.080000 -4.160000 15.361700 43.159691 2098.740723
1.920000 -8.080000 -4.120000 -7.963066 56.094330 3209.984131
1.920000 -8.080000 -4.080000 -39.777267 56.486572 4772.963867
1.920000 -8.080000 -4.040000 -71.958038 37.351448 6573.089844
1.920000 -8.080000 -4.000000 -89.814896 -0.914398 8067.551270
1.920000 -8.080000 -3.960000 -80.911263 -44.976864 8569.550781
1.920000 -8.080000 -3.920000 -46.804848 -73.955185 7660.062988
1.920000 -8.080000 -3.880000 -5.504904 -74.267952 5546.032715
1.920000 -8.080000 -3.840000 20.602859 -51.170120 3042.858887
1.920000 -8.080000 -3.800000 22.130911 -24.926567 1111.110962
1.920000 -8.040000 -4.200000 3.474743 28.523880 825.685608
1.920000 -8.040000 -4.160000 -13.023729 48.895779 2560.414551
1.920000 -8.040000 -4.120000 -51.752701 58.700932 6124.141602
1.920000 -8.040000 -4.080000 -100.355042 36.340828 11391.791016
1.920000 -8.040000 -4.040000 -128.230240 -22.238041 16937.525391
1.920000 -8.040000 -4.000000 -109.534958 -92.066788 20474.199219
1.920000 -8.040000 -3.960000 -47.795090 -133.740189 20170.808594
1.920000 -8.040000 -3.920000 22.539642 -124.253387 15946.939453
1.920000 -8.040000 -3.880000 62.090912 -76.309769 9678.461914
1.920000 -8.040000 -3.840000 57.606110 -27.206326 4058.647949
1.920000 -8.040000 -3.800000 29.680931 -6.970440 929.544678
1.920000 -8.000000 -4.200000 -9.295101 14.912506 308.781738
1.920000 -8.000000 -4.160000 -35.486755 36.075882 2560.779053
1.920000 -8.000000 -4.120000 -87.740829 27.873745 8475.398438
1.920000 -8.000000 -4.080000 -129.866791 -29.744198 17750.099609
1.920000 -8.000000 -4.040000 -118.617081 -115.348648 27375.322266
1.920000 -8.000000 -4.000000 -44.831585 -175.887711 32946.355469
1.920000 -8.000000 -3.960000 52.131317 -169.558609 31467.794922
1.920000 -8.000000 -3.920000 114.017967 -102.644798 23536.050781
1.920000 -8.000000 -3.880000 111.635475 -24.435471 13059.571289
1.920000 -8.000000 -3.840000 66.373062 15.724415 4652.640625
1.920000 -8.000000 -3.800000 26.039028 8.495307 750.201233
1.920000 -7.960000 -4.200000 -3.139051 4.005409 25.896946
1.920000 -7.960000 -4.160000 -42.436028 17.126596 2094.136719
1.920000 -7.960000 -4.120000 -92.626694 -18.600479 8925.681641
1.920000 -7.960000 -4.080000 -101.275009 -99.498581 20156.595703
1.920000 -7.960000 -4.040000 -38.989502 -174.054596 31815.183594
1.920000 -7.960000 -4.000000 66.796669 -183.867950 38269.218750
1.920000 -7.960000 -3.960000 149.791290 -116.332703 35970.726562
1.920000 -7.960000 -3.920000 160.500854 -17.771095 26076.335938
1.920000 -7.960000 -3.880000 107.219513 46.942524 13699.625000
1.920000 -7.960000 -3.840000 43.771080 49.633709 4379.412598
1.920000 -7.960000 -3.800000 17.909828 16.758270 601.601562
1.920000 -7.920000 -4.200000 7.059101 10.422864 158.467010
1.920000 -7.920000 -4.160000 -38.761818 4.926813 1526.751953
1.920000 -7.920000 -4.120000 -67.349251 -52.113892 7251.779297
1.920000 -7.920000 -4.080000 -34.162529 -126.352562 17132.048828
1.920000 -7.920000 -4.040000 56.143368 -156.106354 27521.271484
1.920000 -7.920000 -4.000000 146.621048 -108.177299 33200.062500
1.920000 -7.920000 -3.960000 175.613159 -10.679178 30954.027344
1.920000 -7.920000 -3.920000 130.437393 70.493698 21983.275391
1.920000 -7.920000 -3.880000 55.621872 89.402367 11086.576172
1.920000 -7.920000 -3.840000 9.129166 56.355965 3259.336426
1.920000 -7.920000 -3.800000 10.895675 20.031059 519.959106
1.920000 -7.880000 -4.200000 1.900076 26.926311 728.636536
1.920000 -7.880000 -4.160000 -35.883255 0.672997 1288.060913
1.920000 -7.880000 -4.120000 -33.973232 -58.173233 4538.305664
1.920000 -7.880000 -4.080000 23.828762 -100.213829 10610.621094
1.920000 -7.880000 -4.040000 102.674332 -81.906845 17250.750000
1.920000 -7.880000 -4.000000 144.591827 -7.816788 20967.898438
1.920000 -7.880000 -3.960000 120.110870 71.335899 19515.431641
1.920000 -7.880000 -3.920000 53.525894 103.833221 13646.359375
1.920000 -7.880000 -3.880000 -2.064533 81.295670 6613.248047
1.920000 -7.880000 -3.840000 -13.913937 40.174187 1807.562988
1.920000 -7.880000 -3.800000 5.299704 22.200884 520.966125
1.920000 -7.840000 -4.200000 -20.380203 32.373096 1463.369995
1.920000 -7.840000 -4.160000 -37.886505 -4.320738 1454.056152
1.920000 -7.840000 -4.120000 -13.649244 -45.574257 2263.314697
1.920000 -7.840000 -4.080000 40.199154 -52.042446 4324.388184
1.920000 -7.840000 -4.040000 82.435249 -11.887077 6936.873047
1.920000 -7.840000 -4.000000 79.859268 46.836449 8571.156250
1.920000 -7.840000 -3.960000 37.105732 81.644386 8042.641113
1.920000 -7.840000 -3.920000 -9.683414 73.770538 5535.860840
1.920000 -7.840000 -3.880000 -27.827906 41.899509 2529.961182
1.920000 -7.840000 -3.840000 -16.361713 20.006294 667.957458
1.920000 -7.840000 -3.800000 -1.270350 23.745785 565.476074
1.920000 -7.800000 -4.200000 -40.852898 15.260221 1901.833496
1.920000 -7.800000 -4.160000 -37.625095 -15.631501 1659.991699
1.920000 -7.800000 -4.120000 -9.368912 -32.674755 1155.416138
1.920000 -7.800000 -4.080000 21.916147 -20.719971 909.634705
1.920000 -7.800000 -4.040000 31.684759 10.125992 1106.459717
1.920000 -7.800000 -4.000000 15.218224 34.624275 1430.434814
1.920000 -7.800000 -3.960000 -9.827667 36.312401 1415.173462
1.920000 -7.800000 -3.920000 -22.090439 21.175312 936.381348
1.920000 -7.800000 -3.880000 -16.674294 8.689884 353.546143
1.920000 -7.800000 -3.840000 -7.079742 11.070133 172.670609
1.920000 -7.800000 -3.800000 -8.995469 22.240982 575.579773
1.960000 -8.200000 -4.200000 22.825668 -28.206951 1316.643188
1.960000 -8.200000 -4.160000 17.335453 -10.039530 401.310120
1.960000 -8.200000 -4.120000 2.349205 -9.313358 92.257401
1.960000 -8.200000 -4.080000 -0.248108 -24.282047 589.679382
1.960000 -8.200000 -4.040000 17.996609 -33.576500 1451.259277
1.960000 -8.200000 -4.000000 40.791397 -18.905283 2021.347900
1.960000 -8.200000 -3.960000 42.610092 13.532814 1998.757080
1.960000 -8.200000 -3.920000 15.830940 36.845333 1608.197266
1.960000 -8.200000 -3.880000 -19.407740 29.894249 1270.326538
1.960000 -8.200000 -3.840000 -34.078777 -0.903456 1162.179321
1.960000 -8.200000 -3.800000 -18.693661 -27.624830 1112.584229
1.960000 -8.160000 -4.200000 36.432167 -10.289260 1433.171753
1.960000 -8.160000 -4.160000 25.504795 5.401081 679.666260
1.960000 -8.160000 -4.120000 12.757669 6.345495 203.023438
1.960000 -8.160000 -4.080000 10.621826 1.431347 114.871941
1.960000 -8.160000 -4.040000 15.668297 4.989769 270.393311
1.960000 -8.160000 -4.000000 12.812395 18.955444 523.466309
1.960000 -8.160000 -3.960000 -6.307649 28.852932 872.278137
1.960000 -8.160000 -3.920000 -31.238157 19.117380 1341.296631
1.960000 -8.160000 -3.880000 -41.365448 -8.510098 1783.522095
1.960000 -8.160000 -3.840000 -27.009420 -34.188957 1898.393555
1.960000 -8.160000 -3.800000 -0.327820 -38.774853 1503.596680
1.960000 -8.120000 -4.200000 33.802898 13.605976 1327.758545
1.960000 -8.120000 -4.160000 20.499355 28.777010 1248.339844
1.960000 -8.120000 -4.120000 2.449726 35.563789 1270.784180
1.960000 -8.120000 -4.080000 -16.590725 34.743439 1482.358765
1.960000 -8.120000 -4.040000 -35.338768 26.298965 1940.464111
1.960000 -8.120000 -4.000000 -50.598213 8.311195 2629.255127
1.960000 -8.120000 -3.960000 -55.152328 -18.188324 3372.594482
1.960000 -8.120000 -3.920000 -42.857533 -44.598103 3825.758789
1.960000 -8.120000 -3.880000 -16.691986 -58.046974 3648.073486
1.960000 -8.120000 -3.840000 9.975702 -51.757294 2778.332031
1.960000 -8.120000 -3.800000 22.733408 -32.331379 1562.125977
1.960000 -8.080000 -4.200000 16.197680 27.985813 1045.570557
1.960000 -8.080000 -4.160000 -2.317235 45.906906 2112.813721
1.960000 -8.080000 -4.120000 -36.800842 51.786652 4036.159180
1.960000 -8.080000 -4.080000 -76.037445 32.054081 6809.157227
1.960000 -8.080000 -4.040000 -98.339371 -14.115273 9869.873047
1.960000 -8.080000 -4.000000 -86.215744 -68.677208 12149.712891
1.960000 -8.080000 -3.960000 -41.641186 -104.125168 12576.039062
1.960000 -8.080000 -3.920000 12.465790 -102.987595 10761.839844
1.960000 -8.080000 -3.880000 47.950871 -71.191162 7367.467773
1.960000 -8.080000 -3.840000 51.925892 -33.059109 3789.203125
1.960000 -8.080000 -3.800000 34.546516 -11.768510 1331.959595
1.960000 -8.040000 -4.200000 -2.214885 25.549263 657.670532
1.960000 -8.040000 -4.160000 -32.596527 43.573357 2961.170898
1.960000 -8.040000 -4.120000 -83.773453 31.264893 7995.484863
1.960000 -8.040000 -4.080000 -121.711426 -26.069180 15493.273438
1.960000 -8.040000 -4.040000 -109.087952 -106.458809 23233.660156
1.960000 -8.040000 -4.000000 -40.114220 -162.042389 27866.886719
1.960000 -8.040000 -3.960000 48.924240 -156.662643 26936.765625
1.960000 -8.040000 -3.920000 106.369720 -96.694901 20664.421875
1.960000 -8.040000 -3.880000 106.371994 -25.701969 11975.591797
1.960000 -8.040000 -3.840000 67.020393 12.573116 4649.816406
1.960000 -8.040000 -3.800000 29.833523 8.546719 963.085449
1.960000 -8.000000 -4.200000 -8.135374 14.821309 285.855530
1.960000 -8.000000 -4.160000 -52.783901 22.884314 3309.832031
1.960000 -8.000000 -4.120000 -104.063248 -20.674126 11256.579102
1.960000 -8.000000 -4.080000 -108.520660 -108.515747 23552.400391
1.960000 -8.000000 -4.040000 -38.735672 -185.718445 35991.792969
1.960000 -8.000000 -4.000000 74.038887 -192.904388 42693.859375
1.960000 -8.000000 -3.960000 160.240906 -119.475349 39951.507812
1.960000 -8.000000 -3.920000 169.587311 -15.259109 28992.695312
1.960000 -8.000000 -3.880000 112.161087 52.112785 15295.851562
1.960000 -8.000000 -3.840000 44.649147 53.870102 4895.534180
1.960000 -8.000000 -3.800000 16.935949 17.823402 604.500061
1.960000 -7.960000 -4.200000 -2.880326 11.225696 134.312515
1.960000 -7.960000 -4.160000 -54.170364 -1.250916 2935.993164
1.960000 -7.960000 -4.120000 -82.254761 -71.266151 11844.709961
1.960000 -7.960000 -4.080000 -37.382839 -157.537003 26215.382812
1.960000 -7.960000 -4.040000 72.586975 -188.353638 40745.960938
1.960000 -7.960000 -4.000000 179.332245 -126.620560 48192.820312
1.960000 -7.960000 -3.960000 210.367340 -7.742610 44314.367188
1.960000 -7.960000 -3.920000 152.256378 88.890030 31083.441406
1.960000 -7.960000 -3.880000 59.787720 108.697250 15389.663086
1.960000 -7.960000 -3.840000 3.369564 65.031021 4240.387695
1.960000 -7.960000 -3.800000 7.258707 17.536177 360.206299
1.960000 -7.920000 -4.200000 -0.899178 20.232639 410.168213
1.960000 -7.920000 -4.160000 -44.113831 -14.717663 2162.639648
1.960000 -7.920000 -4.120000 -36.553535 -89.674240 9377.629883
1.960000 -7.920000 -4.080000 42.964058 -141.032242 21736.003906
1.960000 -7.920000 -4.040000 148.501236 -111.498947 34484.632812
1.960000 -7.920000 -4.000000 202.305710 -7.419567 40982.652344
1.960000 -7.920000 -3.960000 164.320343 101.912659 37387.367188
1.960000 -7.920000 -3.920000 68.195877 144.810715 25620.820312
1.960000 -7.920000 -3.880000 -11.459892 109.120293 12038.567383
1.960000 -7.920000 -3.840000 -27.335581 46.165543 2878.491211
1.960000 -7.920000 -3.800000 3.823779 16.438560 284.847534
1.960000 -7.880000 -4.200000 -13.673637 30.679489 1128.199463
1.960000 -7.880000 -4.160000 -36.540901 -17.206131 1631.288330
1.960000 -7.880000 -4.120000 -0.586422 -74.021515 5479.528320
1.960000 -7.880000 -4.080000 80.273758 -80.471405 12919.523438
1.960000 -7.880000 -4.040000 144.332733 -15.024834 21057.683594
1.960000 -7.880000 -4.000000 137.369843 80.941360 25421.978516
1.960000 -7.880000 -3.960000 63.496498 138.577560 23235.544922
1.960000 -7.880000 -3.920000 -19.155121 123.647018 15655.503906
1.960000 -7.880000 -3.880000 -53.234718 64.274948 6965.204102
1.960000 -7.880000 -3.840000 -32.433441 18.887329 1408.659302
1.960000 -7.880000 -3.800000 0.835378 19.236465 370.739441
1.960000 -7.840000 -4.200000 -35.944244 26.260838 1981.620239
1.960000 -7.840000 -4.160000 -36.478603 -19.554762 1713.077148
1.960000 -7.840000 -4.120000 8.091606 -48.813099 2448.192627
1.960000 -7.840000 -4.080000 64.227386 -27.173225 4863.541504
1.960000 -7.840000 -4.040000 82.978439 34.778652 8094.976074
1.960000 -7.840000 -4.000000 46.492886 89.336594 10142.615234
1.960000 -7.840000 -3.960000 -15.225433 96.045090 9456.472656
1.960000 -7.840000 -3.920000 -53.893188 58.204967 6292.293945
1.960000 -7.840000 -3.880000 -48.289829 15.821495 2582.227539
1.960000 -7.840000 -3.840000 -20.105894 4.306059 422.789124
1.960000 -7.840000 -3.800000 -7.056295 21.997860 533.697144
1.960000 -7.800000 -4.200000 -49.580559 3.594724 2471.153809
1.960000 -7.800000 -4.160000 -35.976131 -29.098442 2141.001465
1.960000 -7.800000 -4.120000 0.121393 -37.540535 1409.306519
1.960000 -7.800000 -4.080000 28.369839 -13.338295 982.757874
1.960000 -7.800000 -4.040000 25.741917 22.324249 1161.018433
1.960000 -7.800000 -4.000000 -2.058861 39.667713 1577.766357
1.960000 -7.800000 -3.960000 -28.133553 28.736874 1617.304688
1.960000 -7.800000 -3.920000 -32.001198 6.485947 1066.144165
1.960000 -7.800000 -3.880000 -18.340813 -3.133053 346.201416
1.960000 -7.800000 -3.840000 -8.789513 6.066122 114.053368
1.960000 -7.800000 -3.800000 -17.516764 18.346043 643.414307
2.000000 -8.200000 -4.200000 24.600277 -9.840210 702.003357
2.000000 -8.200000 -4.160000 15.713397 -2.663883 254.007111
2.000000 -8.200000 -4.120000 8.735123 -7.301722 129.617508
2.000000 -8.200000 -4.080000 13.812605 -14.653168 405.503357
2.000000 -8.200000 -4.040000 26.926044 -10.586399 837.083679
2.000000 -8.200000 -4.000000 32.227844 8.006809 1102.742920
2.000000 -8.200000 -3.960000 18.317856 27.414066 1087.074829
2.000000 -8.200000 -3.920000 -8.157837 29.356594 928.359924
2.000000 -8.200000 -3.880000 -26.891184 9.719467 817.603760
2.000000 -8.200000 -3.840000 -23.101843 -15.920851 787.168640
2.000000 -8.200000 -3.800000 -2.160202 -26.641319 714.426331
2.000000 -8.160000 -4.200000 28.897516 3.729826 848.978088
2.000000 -8.160000 -4.160000 20.092354 11.759288 541.983521
2.000000 -8.160000 -4.120000 11.585461 13.342016 312.232300
2.000000 -8.160000 -4.080000 6.362766 13.537876 223.758881
2.000000 -8.160000 -4.040000 0.494295 15.924141 253.822586
2.000000 -8.160000 -4.000000 -10.835777 16.680119 395.640411
2.000000 -8.160000 -3.960000 -24.918205 8.103271 686.579956
2.000000 -8.160000 -3.920000 -31.294212 -11.338074 1107.879639
2.000000 -8.160000 -3.880000 -21.685555 -31.882423 1486.752197
2.000000 -8.160000 -3.840000 -0.062370 -39.551704 1564.341187
2.000000 -8.160000 -3.800000 18.781244 -29.414967 1217.975342
2.000000 -8.120000 -4.200000 22.988722 19.388021 904.376709
2.000000 -8.120000 -4.160000 9.583391 32.251869 1132.024536
2.000000 -8.120000 -4.120000 -12.894348 36.245750 1480.018555
2.000000 -8.120000 -4.080000 -37.217907 25.413677 2031.027588
2.000000 -8.120000 -4.040000 -52.742680 0.172386 2781.820068
2.000000 -8.120000 -4.000000 -50.978092 -31.343815 3581.200684
2.000000 -8.120000 -3.960000 -30.940903 -56.499779 4149.564453
2.000000 -8.120000 -3.920000 -0.800312 -64.815750 4201.722168
2.000000 -8.120000 -3.880000 26.027451 -54.218258 3617.047607
2.000000 -8.120000 -3.840000 38.596378 -32.586227 2551.542480
2.000000 -8.120000 -3.800000 35.058517 -12.793919 1392.783936
2.000000 -8.080000 -4.200000 8.164458 27.842981 841.890015
2.000000 -8.080000 -4.160000 -18.079861 41.906509 2083.036865
2.000000 -8.080000 -4.120000 -58.214054 31.389299 4374.164062
2.000000 -8.080000 -4.080000 -86.815384 -11.923637 7679.083984
2.000000 -8.080000 -4.040000 -78.626762 -70.974258 11219.513672
2.000000 -8.080000 -4.000000 -30.703079 -112.672653 13637.805664
2.000000 -8.080000 -3.960000 32.346085 -112.659790 13738.498047
2.000000 -8.080000 -3.920000 76.112183 -74.275726 11309.947266
2.000000 -8.080000 -3.880000 82.131920 -24.954817 7368.395020
2.000000 -8.080000 -3.840000 59.400604 6.303803 3568.169922
2.000000 -8.080000 -3.800000 33.025906 10.150853 1193.750244
2.000000 -8.040000 -4.200000 -6.419448 25.012093 666.814087
2.000000 -8.040000 -4.160000 -47.877750 28.511625 3105.191895
2.000000 -8.040000 -4.120000 -91.086929 -12.403151 8450.666992
2.000000 -8.040000 -4.080000 -92.530380 -88.198227 16340.798828
2.000000 -8.040000 -4.040000 -32.413395 -152.554321 24323.449219
2.000000 -8.040000 -4.000000 61.781006 -158.188187 28840.394531
2.000000 -8.040000 -3.960000 133.577774 -98.019157 27450.777344
2.000000 -8.040000 -3.920000 143.072708 -12.490997 20625.826172
2.000000 -8.040000 -3.880000 98.066109 44.519611 11598.958008
2.000000 -8.040000 -3.840000 42.791023 49.391090 4270.551270
2.000000 -8.040000 -3.800000 16.961651 22.282352 784.200806
2.000000 -8.000000 -4.200000 -12.519797 16.838692 440.286865
2.000000 -8.000000 -4.160000 -60.147980 -1.458628 3619.907227
2.000000 -8.000000 -4.120000 -81.642433 -70.975487 11703.005859
2.000000 -8.000000 -4.080000 -34.276028 -151.012909 23979.744141
2.000000 -8.000000 -4.040000 71.119835 -176.292252 36136.988281
2.000000 -8.000000 -4.000000 170.307205 -115.452957 42333.929688
2.000000 -8.000000 -3.960000 197.651428 -3.184626 39076.226562
2.000000 -8.000000 -3.920000 142.315887 87.214066 27860.105469
2.000000 -8.000000 -3.880000 55.160667 106.053810 14290.109375
2.000000 -8.000000 -3.840000 0.815979 65.426918 4281.347656
2.000000 -8.000000 -3.800000 2.322810 19.479282 384.837891
2.000000 -7.960000 -4.200000 -11.632009 13.298656 312.157898
2.000000 -7.960000 -4.160000 -49.668106 -27.722229 3235.442627
2.000000 -7.960000 -4.120000 -33.803535 -104.382980 12038.485352
2.000000 -7.960000 -4.080000 53.580769 -151.973740 25966.916016
2.000000 -7.960000 -4.040000 163.148590 -114.691162 39771.523438
2.000000 -7.960000 -4.000000 215.539017 -2.177211 46461.808594
2.000000 -7.960000 -3.960000 171.548218 112.745132 42140.257812
2.000000 -7.960000 -3.920000 67.724968 156.261932 29004.462891
2.000000 -7.960000 -3.880000 -17.804258 116.484947 13885.734375
2.000000 -7.960000 -3.840000 -35.329914 47.204147 3476.434326
2.000000 -7.960000 -3.800000 -1.499469 12.208715 151.301147
2.000000 -7.920000 -4.200000 -13.612754 17.153433 479.547333
2.000000 -7.920000 -4.160000 -30.444204 -35.805809 2208.905518
2.000000 -7.920000 -4.120000 16.992657 -93.935997 9112.721680
2.000000 -7.920000 -4.080000 110.869446 -92.475731 20843.794922
2.000000 -7.920000 -4.040000 180.802689 -9.681442 32783.339844
2.000000 -7.920000 -4.000000 166.003662 105.029007 38588.308594
2.000000 -7.920000 -3.960000 73.114197 171.438171 34736.734375
2.000000 -7.920000 -3.920000 -28.566818 149.945999 23299.865234
2.000000 -7.920000 -3.880000 -70.459152 74.291672 10483.744141
2.000000 -7.920000 -3.840000 -44.048080 14.871943 2161.407959
2.000000 -7.920000 -3.800000 0.447699 11.635649 135.588760
2.000000 -7.880000 -4.200000 -25.368740 19.862736 1038.101318
2.000000 -7.880000 -4.160000 -20.466911 -30.478659 1347.843018
2.000000 -7.880000 -4.120000 37.412556 -58.442009 4815.167969
2.000000 -7.880000 -4.080000 106.085968 -21.837238 11731.097656
2.000000 -7.880000 -4.040000 123.015594 64.708344 19320.007812
2.000000 -7.880000 -4.000000 65.522644 137.846069 23294.755859
2.000000 -7.880000 -3.960000 -25.330696 142.919846 21067.726562
2.000000 -7.880000 -3.920000 -82.429367 84.060402 13860.751953
2.000000 -7.880000 -3.880000 -74.340149 17.143730 5820.365234
2.000000 -7.880000 -3.840000 -29.750484 -5.690838 917.476929
2.000000 -7.880000 -3.800000 -2.858238 16.983929 296.623352
2.000000 -7.840000 -4.200000 -41.572006 10.262936 1833.559570
2.000000 -7.840000 -4.160000 -22.994272 -28.388222 1334.627686
2.000000 -7.840000 -4.120000 26.286469 -33.025467 1781.659912
2.000000 -7.840000 -4.080000 61.728584 10.109604 3912.622314
2.000000 -7.840000 -4.040000 46.976116 68.660995 6921.087891
2.000000 -7.840000 -4.000000 -9.461586 93.707489 8870.615234
2.000000 -7.840000 -3.960000 -61.863327 66.638550 8267.767578
2.000000 -7.840000 -3.920000 -71.619690 15.592400 5372.502930
2.000000 -7.840000 -3.880000 -42.717045 -14.452545 2033.622070
2.000000 -7.840000 -3.840000 -13.242344 -5.936893 210.606369
2.000000 -7.840000 -3.800000 -14.185078 17.913599 522.113464
2.000000 -7.800000 -4.200000 -48.202751 -12.460861 2478.778076
2.000000 -7.800000 -4.160000 -24.824902 -38.329941 2085.459961
2.000000 -7.800000 -4.120000 10.473038 -33.856422 1255.941895
2.000000 -7.800000 -4.080000 26.591606 -2.975750 715.968628
2.000000 -7.800000 -4.040000 11.121475 26.019104 800.680969
2.000000 -7.800000 -4.000000 -18.560364 28.988609 1184.826538
2.000000 -7.800000 -3.960000 -34.580299 8.836563 1273.881958
2.000000 -7.800000 -3.920000 -26.942749 -10.425529 834.603394
2.000000 -7.800000 -3.880000 -11.265402 -10.511467 237.400208
2.000000 -7.800000 -3.840000 -9.283178 2.722828 93.591187
2.000000 -7.800000 -3.800000 -24.643616 7.929159 670.179382
2.040000 -8.200000 -4.200000 16.905424 1.115385 287.037445
2.040000 -8.200000 -4.160000 14.250581 2.068920 207.359482
2.040000 -8.200000 -4.120000 13.933626 1.491012 196.369049
2.040000 -8.200000 -4.080000 16.245461 3.202822 274.173035
2.040000 -8.200000 -4.040000 17.051659 9.636555 383.622253
2.040000 -8.200000 -4.000000 11.187355 17.715534 438.997070
2.040000 -8.200000 -3.960000 -1.405109 20.079168 405.147339
2.040000 -8.200000 -3.920000 -13.492641 11.936577 324.533264
2.040000 -8.200000 -3.880000 -15.992126 -2.967308 264.553009
2.040000 -8.200000 -3.840000 -6.684208 -14.176679 245.656845
2.040000 -8.200000 -3.800000 6.675405 -13.602254 229.582336
2.040000 -8.160000 -4.200000 19.838200 9.013557 474.798401
2.040000 -8.160000 -4.160000 15.768389 17.151417 542.813232
2.040000 -8.160000 -4.120000 5.797380 22.278008 529.919250
2.040000 -8.160000 -4.080000 -6.758539 20.690783 473.786346
2.040000 -8.160000 -4.040000 -17.115440 11.987663 436.642365
2.040000 -8.160000 -4.000000 -21.502163 -1.363155 464.201202
2.040000 -8.160000 -3.960000 -18.120010 -15.382002 564.940796
2.040000 -8.160000 -3.920000 -7.483898 -25.479137 705.195190
2.040000 -8.160000 -3.880000 7.020510 -27.616756 811.972778
2.040000 -8.160000 -3.840000 19.392771 -20.611458 800.911743
2.040000 -8.160000 -3.800000 23.784954 -8.146458 632.088806
2.040000 -8.120000 -4.200000 15.290381 20.974527 673.726562
2.040000 -8.120000 -4.160000 -0.611061 33.669167 1133.986206
2.040000 -8.120000 -4.120000 -27.226204 30.384249 1664.468750
2.040000 -8.120000 -4.080000 -47.742378 5.740257 2312.285156
2.040000 -8.120000 -4.040000 -46.504276 -29.662317 3042.500732
2.040000 -8.120000 -4.000000 -21.664795 -56.431084 3653.830566
2.040000 -8.120000 -3.960000 13.394127 -60.711533 3865.292725
2.040000 -8.120000 -3.920000 40.407230 -43.387897 3515.253906
2.040000 -8.120000 -3.880000 48.925385 -17.407194 2696.703857
2.040000 -8.120000 -3.840000 41.247303 2.916994 1709.848877
2.040000 -8.120000 -3.800000 27.541801 10.992085 879.376770
2.040000 -8.080000 -4.200000 1.567422 28.155136 795.168457
2.040000 -8.080000 -4.160000 -30.525885 32.637314 1997.023926
2.040000 -8.080000 -4.120000 -63.620193 3.918711 4062.885254
2.040000 -8.080000 -4.080000 -66.629768 -49.760010 6915.584473
2.040000 -8.080000 -4.040000 -26.745705 -95.564796 9847.962891
2.040000 -8.080000 -4.000000 36.667786 -101.727676 11693.046875
2.040000 -8.080000 -3.960000 86.100311 -63.880554 11493.988281
2.040000 -8.080000 -3.920000 95.568001 -8.100872 9198.867188
2.040000 -8.080000 -3.880000 69.259460 31.445858 5785.714844
2.040000 -8.080000 -3.840000 33.774345 39.055141 2666.010498
2.040000 -8.080000 -3.800000 13.608089 25.124296 816.410400
2.040000 -8.040000 -4.200000 -13.769838 24.214508 775.950867
2.040000 -8.040000 -4.160000 -53.089592 7.421671 2873.586182
2.040000 -8.040000 -4.120000 -69.370491 -48.972023 7210.524414
2.040000 -8.040000 -4.080000 -31.547148 -111.481964 13423.451172
2.040000 -8.040000 -4.040000 49.775490 -130.687897 19556.925781
2.040000 -8.040000 -4.000000 125.352982 -84.582817 22867.623047
2.040000 -8.040000 -3.960000 146.794830 -0.100121 21548.732422
2.040000 -8.040000 -3.920000 106.590805 68.606506 16068.452148
2.040000 -8.040000 -3.880000 41.677765 85.102631 8979.494141
2.040000 -8.040000 -3.840000 -1.196606 57.163223 3269.065918
2.040000 -8.040000 -3.800000 -4.244334 22.570816 527.456116
2.040000 -8.000000 -4.200000 -21.101315 12.825792 609.766418
2.040000 -8.000000 -4.160000 -50.457977 -26.594765 3253.289062
2.040000 -8.000000 -4.120000 -32.054619 -92.096748 9509.310547
2.040000 -8.000000 -4.080000 44.821594 -129.345108 18739.130859
2.040000 -8.000000 -4.040000 136.901489 -94.593246 27689.898438
2.040000 -8.000000 -4.000000 179.077576 1.436335 32070.839844
2.040000 -8.000000 -3.960000 140.823486 97.832649 29402.480469
2.040000 -8.000000 -3.920000 53.157845 134.411011 20892.076172
2.040000 -8.000000 -3.880000 -19.859838 101.586761 10714.283203
2.040000 -8.000000 -3.840000 -37.120785 42.751541 3205.646973
2.040000 -8.000000 -3.800000 -10.618136 9.959614 211.938721
2.040000 -7.960000 -4.200000 -19.243137 4.248434 388.347534
2.040000 -7.960000 -4.160000 -26.445734 -45.495819 2769.246582
2.040000 -7.960000 -4.120000 23.586590 -93.874870 9368.818359
2.040000 -7.960000 -4.080000 110.882278 -85.090836 19535.330078
2.040000 -7.960000 -4.040000 171.499878 -3.666200 29425.650391
2.040000 -7.960000 -4.000000 152.867767 103.267387 34032.707031
2.040000 -7.960000 -3.960000 63.533291 163.158966 30657.326172
2.040000 -7.960000 -3.920000 -32.552509 141.187164 20993.480469
2.040000 -7.960000 -3.880000 -72.778549 68.595909 10002.116211
2.040000 -7.960000 -3.840000 -48.651024 9.836807 2463.684814
2.040000 -7.960000 -3.800000 -5.059314 2.736719 33.086288
2.040000 -7.920000 -4.200000 -16.975576 3.806015 302.655945
2.040000 -7.920000 -4.160000 -3.292725 -40.404213 1643.342407
2.040000 -7.920000 -4.120000 57.332466 -57.958954 6646.251953
2.040000 -7.920000 -4.080000 121.932144 -11.913877 15009.388672
2.040000 -7.920000 -4.040000 130.730377 79.500114 23410.699219
2.040000 -7.920000 -4.000000 64.642784 152.262207 27362.468750
2.040000 -7.920000 -3.960000 -32.747345 152.898041 24450.199219
2.040000 -7.920000 -3.920000 -92.930527 87.233650 16245.792969
2.040000 -7.920000 -3.880000 -83.758934 13.141468 7188.257324
2.040000 -7.920000 -3.840000 -34.245369 -14.792946 1391.576538
2.040000 -7.920000 -3.800000 -0.604577 6.904783 48.041546
2.040000 -7.880000 -4.200000 -22.812262 5.176602 547.196533
2.040000 -7.880000 -4.160000 1.127758 -25.845890 669.281860
2.040000 -7.880000 -4.120000 51.454155 -19.286205 3019.487793
2.040000 -7.880000 -4.080000 80.851494 35.780266 7817.191406
2.040000 -7.880000 -4.040000 52.599499 101.611458 13091.595703
2.040000 -7.880000 -4.000000 -20.372383 124.119347 15820.646484
2.040000 -7.880000 -3.960000 -84.367729 84.304176 14225.107422
2.040000 -7.880000 -3.920000 -94.578247 16.576046 9219.810547
2.040000 -7.880000 -3.880000 -55.779724 -24.913061 3732.038330
2.040000 -7.880000 -3.840000 -13.598654 -17.481213 490.516174
2.040000 -7.880000 -3.800000 -7.196961 12.935959 219.135284
2.040000 -7.840000 -4.200000 -33.900261 -2.978878 1158.101318
2.040000 -7.840000 -4.160000 -8.552485 -23.331841 617.519775
2.040000 -7.840000 -4.120000 25.709652 -9.017555 742.302490
2.040000 -7.840000 -4.080000 32.349121 32.558151 2106.498779
2.040000 -7.840000 -4.040000 -1.024544 64.474815 4158.051758
2.040000 -7.840000 -4.000000 -48.367668 56.518105 5533.727539
2.040000 -7.840000 -3.960000 -70.353653 15.477695 5189.195801
2.040000 -7.840000 -3.920000 -53.040752 -22.254791 3308.597168
2.040000 -7.840000 -3.880000 -19.879320 -27.736670 1164.510254
2.040000 -7.840000 -3.840000 -5.423712 -7.139446 80.388336
2.040000 -7.840000 -3.800000 -19.598316 8.061658 449.084320
2.040000 -7.800000 -4.200000 -37.052441 -23.318272 1916.625122
2.040000 -7.800000 -4.160000 -11.477180 -37.666607 1550.499023
2.040000 -7.800000 -4.120000 14.196739 -25.040377 828.567871
2.040000 -7.800000 -4.080000 17.573116 1.388155 310.741394
2.040000 -7.800000 -4.040000 -1.047699 16.542969 274.767487
2.040000 -7.800000 -4.000000 -20.825724 9.148834 517.411926
2.040000 -7.800000 -3.960000 -23.457096 -8.571709 623.709534
2.040000 -7.800000 -3.920000 -11.637817 -16.540218 409.017639
2.040000 -7.800000 -3.880000 -3.435829 -9.414379 100.435455
2.040000 -7.800000 -3.840000 -10.249304 -1.223082 106.544151
2.040000 -7.800000 -3.800000 -23.530655 -7.912937 616.306274
2.080000 -8.200000 -4.200000 8.263911 2.735750 75.776558
2.080000 -8.200000 -4.160000 12.541451 6.743224 202.759048
2.080000 -8.200000 -4.120000 11.143793 13.327320 301.801575
2.080000 -8.200000 -4.080000 4.847460 16.761829 304.456787
2.080000 -8.200000 -4.040000 -1.690495 15.038383 229.010757
2.080000 -8.200000 -4.000000 -5.036943 10.596506 137.656738
2.080000 -8.200000 -3.960000 -5.485756 6.628880 74.035561
2.080000 -8.200000 -3.920000 -5.002754 3.898550 40.226238
2.080000 -8.200000 -3.880000 -4.139338 1.467020 19.286263
2.080000 -8.200000 -3.840000 -2.008836 -0.533136 4.319656
2.080000 -8.200000 -3.800000 1.146970 -0.392427 1.469540
2.080000 -8.160000 -4.200000 13.573057 9.657876 277.502441
2.080000 -8.160000 -4.160000 9.199564 22.516403 591.620361
2.080000 -8.160000 -4.120000 -6.642225 27.133522 780.347168
2.080000 -8.160000 -4.080000 -22.205368 16.840157 776.669250
2.080000 -8.160000 -4.040000 -25.476372 -2.366024 654.643616
2.080000 -8.160000 -4.000000 -14.540154 -17.711164 525.101379
2.080000 -8.160000 -3.960000 2.096344 -20.831612 438.350708
2.080000 -8.160000 -3.920000 14.085387 -13.346630 376.530670
2.080000 -8.160000 -3.880000 17.368641 -2.889507 310.018921
2.080000 -8.160000 -3.840000 14.734919 4.583910 238.130066
2.080000 -8.160000 -3.800000 10.523672 8.196212 177.925568
2.080000 -8.120000 -4.200000 8.841221 21.894688 557.544556
2.080000 -8.120000 -4.160000 -11.850985 31.841270 1154.312378
2.080000 -8.120000 -4.120000 -37.240173 18.329206 1722.790405
2.080000 -8.120000 -4.080000 -44.582375 -14.471096 2197.000732
2.080000 -8.120000 -4.040000 -23.973085 -44.662880 2569.481689
2.080000 -8.120000 -4.000000 12.568611 -51.214943 2780.940430
2.080000 -8.120000 -3.960000 41.641293 -31.261467 2711.276367
2.080000 -8.120000 -3.920000 47.903908 -0.627903 2295.178711
2.080000 -8.120000 -3.880000 34.309284 21.203556 1626.717773
2.080000 -8.120000 -3.840000 15.651452 26.252575 934.165649
2.080000 -8.120000 -3.800000 4.174927 20.393354 433.318939
2.080000 -8.080000 -4.200000 -6.968044 26.988674 776.942200
2.080000 -8.080000 -4.160000 -37.764534 19.118042 1791.659546
2.080000 -8.080000 -4.120000 -53.579063 -18.617359 3217.322021
2.080000 -8.080000 -4.080000 -31.953205 -62.470387 4923.556641
2.080000 -8.080000 -4.040000 20.042072 -78.282768 6529.876465
2.080000 -8.080000 -4.000000 69.503403 -51.165165 7448.597168
2.080000 -8.080000 -3.960000 84.825226 1.400127 7197.279297
2.080000 -8.080000 -3.920000 61.130077 44.976891 5759.807129
2.080000 -8.080000 -3.880000 21.197742 56.803200 3675.947754
2.080000 -8.080000 -3.840000 -6.652737 41.184345 1740.409180
2.080000 -8.080000 -3.800000 -11.448813 19.995495 530.895142
2.080000 -8.040000 -4.200000 -22.500828 17.613008 816.505371
2.080000 -8.040000 -4.160000 -46.219452 -12.165229 2284.230469
2.080000 -8.040000 -4.120000 -34.144936 -60.895786 4874.173340
2.080000 -8.040000 -4.080000 20.106514 -88.929626 8312.750000
2.080000 -8.040000 -4.040000 85.039474 -65.945496 11580.521484
2.080000 -8.040000 -4.000000 115.294930 -0.141241 13292.940430
2.080000 -8.040000 -3.960000 90.151260 66.404434 12536.798828
2.080000 -8.040000 -3.920000 30.561502 92.744141 9535.481445
2.080000 -8.040000 -3.880000 -20.585602 71.808365 5580.208496
2.080000 -8.040000 -3.840000 -35.259094 31.524471 2236.996094
2.080000 -8.040000 -3.800000 -19.677944 6.112553 424.584808
2.080000 -8.000000 -4.200000 -25.301022 0.609340 640.512939
2.080000 -8.000000 -4.160000 -27.941298 -39.477791 2339.212158
2.080000 -8.000000 -4.120000 12.759644 -75.300995 5833.048340
2.080000 -8.000000 -4.080000 79.203171 -66.620819 10711.475586
2.080000 -8.000000 -4.040000 123.715591 -4.405419 15324.956055
2.080000 -8.000000 -4.000000 108.903694 75.455261 17553.511719
2.080000 -8.000000 -3.960000 41.992302 120.030884 16170.766602
2.080000 -8.000000 -3.920000 -30.352747 104.081680 11754.285156
2.080000 -8.000000 -3.880000 -62.368469 49.637024 6353.660156
2.080000 -8.000000 -3.840000 -46.391850 3.017279 2161.307617
2.080000 -8.000000 -3.800000 -13.055330 -6.973499 219.071350
2.080000 -7.960000 -4.200000 -15.628020 -9.475579 334.021606
2.080000 -7.960000 -4.160000 2.018257 -42.418579 1803.409180
2.080000 -7.960000 -4.120000 53.065315 -50.195068 5335.472656
2.080000 -7.960000 -4.080000 102.275414 -7.936142 10523.242188
2.080000 -7.960000 -4.040000 104.764130 66.959351 15459.077148
2.080000 -7.960000 -4.000000 48.341217 124.031754 17720.750000
2.080000 -7.960000 -3.960000 -31.555447 122.563248 16017.496094
2.080000 -7.960000 -3.920000 -81.093056 67.765305 11168.220703
2.080000 -7.960000 -3.880000 -74.453911 5.089752 5569.290527
2.080000 -7.960000 -3.840000 -33.149338 -21.591143 1565.055908
2.080000 -7.960000 -3.800000 -1.265189 -7.009801 50.738014
2.080000 -7.920000 -4.200000 -6.784431 -6.356028 86.427597
2.080000 -7.920000 -4.160000 18.185051 -23.653904 890.203247
2.080000 -7.920000 -4.120000 58.191486 -8.385971 3456.573486
2.080000 -7.920000 -4.080000 75.350220 43.585609 7577.361328
2.080000 -7.920000 -4.040000 43.047665 98.910019 11636.292969
2.080000 -7.920000 -4.000000 -24.616974 113.576187 13505.544922
2.080000 -7.920000 -3.960000 -81.360031 73.810783 12067.486328
2.080000 -7.920000 -3.920000 -89.359207 10.221214 8089.541016
2.080000 -7.920000 -3.880000 -52.693745 -30.027205 3678.263672
2.080000 -7.920000 -3.840000 -10.734562 -25.851368 783.524048
2.080000 -7.920000 -3.800000 0.940115 2.102019 5.302301
2.080000 -7.880000 -4.200000 -10.264868 0.283453 105.447853
2.080000 -7.880000 -4.160000 10.570162 -6.528025 154.343414
2.080000 -7.880000 -4.120000 32.472023 14.319836 1259.489990
2.080000 -7.880000 -4.080000 26.753754 52.833820 3507.175781
2.080000 -7.880000 -4.040000 -13.091503 76.101593 5962.839844
2.080000 -7.880000 -4.000000 -60.651150 59.537331 7223.255859
2.080000 -7.880000 -3.960000 -79.535042 12.567215 6483.757812
2.080000 -7.880000 -3.920000 -57.944458 -28.806641 4187.382812
2.080000 -7.880000 -3.880000 -19.491089 -36.089851 1682.380005
2.080000 -7.880000 -3.840000 0.971163 -14.452595 209.820663
2.080000 -7.880000 -3.800000 -8.582099 5.353265 102.309860
2.080000 -7.840000 -4.200000 -21.645458 -4.811016 491.671722
2.080000 -7.840000 -4.160000 -4.972387 -10.507500 135.132187
2.080000 -7.840000 -4.120000 7.866627 4.009825 77.962509
2.080000 -7.840000 -4.080000 -0.578018 24.745655 612.681580
2.080000 -7.840000 -4.040000 -25.939240 28.772367 1500.693237
2.080000 -7.840000 -4.000000 -45.312569 8.666882 2128.343506
2.080000 -7.840000 -3.960000 -40.808807 -18.976681 2025.473145
2.080000 -7.840000 -3.920000 -18.192476 -30.629845 1269.153564
2.080000 -7.840000 -3.880000 -0.319553 -20.303308 412.326447
2.080000 -7.840000 -3.840000 -2.511668 -4.953630 30.846928
2.080000 -7.840000 -3.800000 -16.612713 -5.229889 303.333984
2.080000 -7.800000 -4.200000 -23.683556 -24.313992 1152.081055
2.080000 -7.800000 -4.160000 -3.854342 -30.132214 922.806274
2.080000 -7.800000 -4.120000 10.893276 -18.964983 478.334045
2.080000 -7.800000 -4.080000 10.106018 -3.773361 116.369858
2.080000 -7.800000 -4.040000 -0.349127 1.386772 2.045027
2.080000 -7.800000 -4.000000 -6.906349 -4.401371 67.069725
2.080000 -7.800000 -3.960000 -4.034935 -10.490835 126.338326
2.080000 -7.800000 -3.920000 0.958832 -8.971300 81.403580
2.080000 -7.800000 -3.880000 -1.209576 -4.352999 20.411673
2.080000 -7.800000 -3.840000 -8.849686 -7.376015 132.722534
2.080000 -7.800000 -3.800000 -10.015833 -20.465958 519.172302
2.120000 -8.200000 -4.200000 4.384030 -0.784118 19.834564
2.120000 -8.200000 -4.160000 8.684401 10.713315 190.193939
2.120000 -8.200000 -4.120000 0.464317 19.681274 387.568146
2.120000 -8.200000 -4.080000 -11.303223 17.067774 419.071747
2.120000 -8.200000 -4.040000 -15.007010 6.331027 265.292267
2.120000 -8.200000 -4.000000 -8.456320 -1.258756 73.093811
2.120000 -8.200000 -3.960000 -0.169123 0.973453 0.976212
2.120000 -8.200000 -3.920000 0.660643 8.666889 75.551414
2.120000 -8.200000 -3.880000 -6.058942 12.300283 188.007751
2.120000 -8.200000 -3.840000 -12.332348 8.003286 216.139404
2.120000 -8.200000 -3.800000 -11.786840 1.058836 140.050751
2.120000 -8.160000 -4.200000 9.644019 9.151994 176.766083
2.120000 -8.160000 -4.160000 -0.626268 23.940777 573.552979
2.120000 -8.160000 -4.120000 -20.279247 22.235718 905.675049
2.120000 -8.160000 -4.080000 -30.529551 3.637766 945.286804
2.120000 -8.160000 -4.040000 -21.398785 -16.154535 718.877014
2.120000 -8.160000 -4.000000 -0.770876 -20.844681 435.094940
2.120000 -8.160000 -3.960000 14.247719 -8.565191 276.359985
2.120000 -8.160000 -3.920000 13.818459 8.220142 258.520538
2.120000 -8.160000 -3.880000 2.819205 16.211107 270.747894
2.120000 -8.160000 -3.840000 -6.764633 13.242418 221.121918
2.120000 -8.160000 -3.800000 -8.652498 7.198302 126.681274
2.120000 -8.120000 -4.200000 1.542839 20.823448 435.996338
2.120000 -8.120000 -4.160000 -21.748791 23.990795 1048.568115
2.120000 -8.120000 -4.120000 -39.316021 3.106958 1555.402710
2.120000 -8.120000 -4.080000 -32.152142 -26.660933 1744.565552
2.120000 -8.120000 -4.040000 -2.691269 -40.631950 1658.198364
2.120000 -8.120000 -4.000000 27.262161 -27.140339 1479.823486
2.120000 -8.120000 -3.960000 36.421619 2.766653 1334.188721
2.120000 -8.120000 -3.920000 21.931135 26.775665 1197.911011
2.120000 -8.120000 -3.880000 -1.075962 31.304848 981.151184
2.120000 -8.120000 -3.840000 -15.499516 20.654707 666.851929
2.120000 -8.120000 -3.800000 -16.670498 8.687110 353.371368
2.120000 -8.080000 -4.200000 -15.441957 20.282238 649.823242
2.120000 -8.080000 -4.160000 -37.452068 4.102064 1419.484375
2.120000 -8.080000 -4.120000 -36.410110 -29.041615 2169.111572
2.120000 -8.080000 -4.080000 -5.642588 -51.855789 2720.861816
2.120000 -8.080000 -4.040000 35.086151 -42.560078 3042.398193
2.120000 -8.080000 -4.000000 55.974396 -4.928286 3157.421143
2.120000 -8.080000 -3.960000 42.826847 34.853619 3048.913574
2.120000 -8.080000 -3.920000 7.950579 51.001740 2664.389160
2.120000 -8.080000 -3.880000 -22.646889 38.714043 2011.658691
2.120000 -8.080000 -3.840000 -32.027084 14.378711 1232.481445
2.120000 -8.080000 -3.800000 -23.519020 -2.069004 557.425049
2.120000 -8.040000 -4.200000 -25.699661 4.697415 682.538330
2.120000 -8.040000 -4.160000 -31.313461 -23.149414 1516.428223
2.120000 -8.040000 -4.120000 -7.295315 -49.803459 2533.606201
2.120000 -8.040000 -4.080000 35.182747 -48.312702 3571.942871
2.120000 -8.040000 -4.040000 65.471855 -12.024958 4431.163574
2.120000 -8.040000 -4.000000 59.201141 37.102600 4881.377930
2.120000 -8.040000 -3.960000 19.649380 65.982269 4739.757812
2.120000 -8.040000 -3.920000 -25.234081 57.830502 3981.125732
2.120000 -8.040000 -3.880000 -46.917099 24.479870 2800.478027
2.120000 -8.040000 -3.840000 -38.834843 -6.595495 1551.645630
2.120000 -8.040000 -3.800000 -17.553394 -16.686176 586.550110
2.120000 -8.000000 -4.200000 -18.736576 -12.731256 513.144165
2.120000 -8.000000 -4.160000 -5.725269 -35.480148 1291.619629
2.120000 -8.000000 -4.120000 28.370993 -40.749382 2465.425293
2.120000 -8.000000 -4.080000 60.620358 -13.926695 3868.780518
2.120000 -8.000000 -4.040000 63.227421 33.557243 5123.795410
2.120000 -8.000000 -4.000000 28.540831 70.403717 5771.262695
2.120000 -8.000000 -3.960000 -22.148899 70.906799 5518.348145
2.120000 -8.000000 -3.920000 -55.466625 36.717880 4424.749512
2.120000 -8.000000 -3.880000 -53.489418 -5.274898 2888.942383
2.120000 -8.000000 -3.840000 -26.765520 -26.763136 1432.658447
2.120000 -8.000000 -3.800000 -1.840901 -20.938293 441.801056
2.120000 -7.960000 -4.200000 -1.620117 -15.852066 253.912781
2.120000 -7.960000 -4.160000 17.916033 -22.947548 847.574219
2.120000 -7.960000 -4.120000 43.004902 -8.658280 1924.387451
2.120000 -7.960000 -4.080000 51.193703 26.698109 3333.584229
2.120000 -7.960000 -4.040000 28.096725 61.928429 4624.556152
2.120000 -7.960000 -4.000000 -16.705864 70.516434 5251.653320
2.120000 -7.960000 -3.960000 -54.578049 43.935768 4909.115234
2.120000 -7.960000 -3.920000 -61.131016 0.504226 3737.255127
2.120000 -7.960000 -3.880000 -36.782974 -29.731411 2236.943848
2.120000 -7.960000 -3.840000 -5.126969 -30.552200 959.722778
2.120000 -7.960000 -3.800000 9.160746 -11.642324 219.462982
2.120000 -7.920000 -4.200000 7.449241 -3.551250 68.102562
2.120000 -7.920000 -4.160000 19.645397 0.600326 386.302002
2.120000 -7.920000 -4.120000 27.309748 18.849697 1101.133423
2.120000 -7.920000 -4.080000 16.687336 42.970577 2124.937744
2.120000 -7.920000 -4.040000 -13.090244 54.034088 3091.037109
2.120000 -7.920000 -4.000000 -44.981255 38.971722 3542.108398
2.120000 -7.920000 -3.960000 -56.705978 4.606995 3236.792236
2.120000 -7.920000 -3.920000 -40.572670 -26.049549 2324.720703
2.120000 -7.920000 -3.880000 -11.036806 -33.446342 1240.468872
2.120000 -7.920000 -3.840000 8.352499 -18.583931 415.126709
2.120000 -7.920000 -3.800000 6.395512 -0.704504 41.398895
2.120000 -7.880000 -4.200000 -0.913159 7.773290 61.257893
2.120000 -7.880000 -4.160000 1.812105 10.577900 115.175690
2.120000 -7.880000 -4.120000 0.072071 19.306847 372.759521
2.120000 -7.880000 -4.080000 -12.005327 26.352692 838.592224
2.120000 -7.880000 -4.040000 -29.691889 21.110184 1327.248169
2.120000 -7.880000 -4.000000 -39.584164 1.926229 1570.616333
2.120000 -7.880000 -3.960000 -32.131691 -19.612446 1417.093628
2.120000 -7.880000 -3.920000 -12.175220 -28.305315 949.426880
2.120000 -7.880000 -3.880000 4.510290 -20.000624 420.367676
2.120000 -7.880000 -3.840000 6.279769 -5.939602 74.714371
2.120000 -7.880000 -3.800000 -2.974350 -1.408847 10.831608
2.120000 -7.840000 -4.200000 -15.453794 1.742899 241.857468
2.120000 -7.840000 -4.160000 -12.437103 -2.741455 162.197113
2.120000 -7.840000 -4.120000 -9.978142 -2.460708 105.618401
2.120000 -7.840000 -4.080000 -11.688156 -2.005171 140.633698
2.120000 -7.840000 -4.040000 -14.310939 -6.179474 242.988861
2.120000 -7.840000 -4.000000 -11.878363 -13.341656 319.095276
2.120000 -7.840000 -3.960000 -3.677244 -16.699848 292.407043
2.120000 -7.840000 -3.920000 3.755077 -12.551794 171.648132
2.120000 -7.840000 -3.880000 3.790895 -5.721159 47.102547
2.120000 -7.840000 -3.840000 -1.822435 -4.949167 27.815527
2.120000 -7.840000 -3.800000 -3.592367 -12.591385 171.448074
2.120000 -7.800000 -4.200000 -15.073053 -18.506367 569.682556
2.120000 -7.800000 -4.160000 -3.211097 -22.930477 536.117920
2.120000 -7.800000 -4.120000 6.971726 -19.221848 418.084412
2.120000 -7.800000 -4.080000 11.711979 -12.292145 288.267273
2.120000 -7.800000 -4.040000 12.426603 -6.240326 193.362137
2.120000 -7.800000 -4.000000 11.362747 -1.434620 131.170166
2.120000 -7.800000 -3.960000 8.203978 2.608150 74.107689
2.120000 -7.800000 -3.920000 2.205503 3.615522 17.936249
2.120000 -7.800000 -3.880000 -3.408858 -1.756353 14.705091
2.120000 -7.800000 -3.840000 -1.923459 -12.114382 150.457932
2.120000 -7.800000 -3.800000 9.985655 -19.152063 466.514832
2.160000 -8.200000 -4.200000 5.529877 -3.910570 45.872093
2.160000 -8.200000 -4.160000 3.429333 11.392118 141.540680
2.160000 -8.200000 -4.120000 -10.232260 16.100468 363.924194
2.160000 -8.200000 -4.080000 -20.049114 6.543281 444.781494
2.160000 -8.200000 -4.040000 -16.039497 -5.772921 290.592102
2.160000 -8.200000 -4.000000 -3.772183 -7.190687 65.935341
2.160000 -8.200000 -3.960000 2.439387 3.411275 17.587406
2.160000 -8.200000 -3.920000 -4.695610 14.038400 219.125412
2.160000 -8.200000 -3.880000 -17.987761 13.039743 493.594452
2.160000 -8.200000 -3.840000 -24.224930 1.448888 588.946533
2.160000 -8.200000 -3.800000 -18.548824 -9.033724 425.667053
2.160000 -8.160000 -4.200000 6.598552 7.891925 105.823364
2.160000 -8.160000 -4.160000 -9.155586 18.453766 424.366241
2.160000 -8.160000 -4.120000 -26.245308 9.523847 779.519836
2.160000 -8.160000 -4.080000 -27.231575 -10.103841 843.646240
2.160000 -8.160000 -4.040000 -11.061048 -21.281620 575.254150
2.160000 -8.160000 -4.000000 6.631533 -13.774346 233.709839
2.160000 -8.160000 -3.960000 9.754484 4.360018 114.159714
2.160000 -8.160000 -3.920000 -2.769340 16.145714 268.353333
2.160000 -8.160000 -3.880000 -17.829706 12.852548 483.086426
2.160000 -8.160000 -3.840000 -22.749702 0.963849 518.477966
2.160000 -8.160000 -3.800000 -17.336020 -6.952450 348.874115
2.160000 -8.120000 -4.200000 -4.561956 15.332970 255.911407
2.160000 -8.120000 -4.160000 -24.916000 11.482563 752.656311
2.160000 -8.120000 -4.120000 -32.637634 -9.460191 1154.710449
2.160000 -8.120000 -4.080000 -18.645287 -28.572063 1164.009521
2.160000 -8.120000 -4.040000 5.738551 -28.124420 823.914001
2.160000 -8.120000 -4.000000 19.724646 -8.223359 456.685272
2.160000 -8.120000 -3.960000 12.505421 14.147744 356.544189
2.160000 -8.120000 -3.920000 -8.029861 21.696541 535.218567
2.160000 -8.120000 -3.880000 -24.649794 11.872087 748.558777
2.160000 -8.120000 -3.840000 -27.277843 -3.647426 757.384460
2.160000 -8.120000 -3.800000 -19.956408 -12.321532 550.078369
2.160000 -8.080000 -4.200000 -17.980709 8.554937 396.492859
2.160000 -8.080000 -4.160000 -29.454256 -7.508335 923.928345
2.160000 -8.080000 -4.120000 -21.514721 -28.451765 1272.386108
2.160000 -8.080000 -4.080000 2.150625 -35.068382 1234.416626
2.160000 -8.080000 -4.040000 22.976685 -19.611370 912.533875
2.160000 -8.080000 -4.000000 23.932598 6.812384 619.177795
2.160000 -8.080000 -3.960000 4.394595 24.115105 600.850708
2.160000 -8.080000 -3.920000 -20.201241 20.648636 834.456299
2.160000 -8.080000 -3.880000 -32.648804 1.864163 1069.419434
2.160000 -8.080000 -3.840000 -28.018955 -16.692604 1063.704834
2.160000 -8.080000 -3.800000 -15.047207 -23.771908 791.522034
2.160000 -8.040000 -4.200000 -18.954813 -7.909353 421.842804
2.160000 -8.040000 -4.160000 -16.068043 -23.630270 816.571655
2.160000 -8.040000 -4.120000 1.004925 -32.350433 1047.560425
2.160000 -8.040000 -4.080000 21.042833 -23.720249 1005.451050
2.160000 -8.040000 -4.040000 28.050404 -1.052612 787.933105
2.160000 -8.040000 -4.000000 14.873976 20.061478 623.698059
2.160000 -8.040000 -3.960000 -10.101477 24.156778 685.589783
2.160000 -8.040000 -3.920000 -29.502350 8.569941 943.832520
2.160000 -8.040000 -3.880000 -31.055841 -14.823203 1184.192627
2.160000 -8.040000 -3.840000 -16.766706 -30.012127 1181.850220
2.160000 -8.040000 -3.800000 0.422011 -29.757793 885.704346
2.160000 -8.000000 -4.200000 -4.305507 -17.739573 333.229828
2.160000 -8.000000 -4.160000 5.266360 -22.075041 515.041992
2.160000 -8.000000 -4.120000 17.742769 -17.339935 615.479248
2.160000 -8.000000 -4.080000 24.252687 -2.850601 596.318787
2.160000 -8.000000 -4.040000 17.658831 13.935134 506.022247
2.160000 -8.000000 -4.000000 -0.636076 21.420895 459.259338
2.160000 -8.000000 -3.960000 -19.768366 12.739471 553.082397
2.160000 -8.000000 -3.920000 -26.751591 -7.686163 774.724670
2.160000 -8.000000 -3.880000 -16.842318 -26.468203 984.229370
2.160000 -8.000000 -3.840000 2.221793 -31.638107 1005.906189
2.160000 -8.000000 -3.800000 16.546095 -22.266727 769.580444
2.160000 -7.960000 -4.200000 12.201231 -9.738186 243.702301
2.160000 -7.960000 -4.160000 15.506702 -3.783300 254.771179
2.160000 -7.960000 -4.120000 15.298800 3.689127 247.662964
2.160000 -7.960000 -4.080000 10.549772 10.873916 229.539734
2.160000 -7.960000 -4.040000 0.993727 14.504259 211.361023
2.160000 -7.960000 -4.000000 -10.447673 10.606418 221.649963
2.160000 -7.960000 -3.960000 -17.140734 -1.567932 296.263153
2.160000 -7.960000 -3.920000 -13.113039 -16.319990 438.293884
2.160000 -7.960000 -3.880000 0.746604 -24.152897 583.919861
2.160000 -7.960000 -3.840000 15.542965 -19.591782 625.421692
2.160000 -7.960000 -3.800000 21.186562 -6.895959 496.424652
2.160000 -7.920000 -4.200000 13.320366 8.737821 253.781647
2.160000 -7.920000 -4.160000 5.403665 13.504715 211.576904
2.160000 -7.920000 -4.120000 -2.496459 11.798847 145.445099
2.160000 -7.920000 -4.080000 -6.647850 6.786794 90.254486
2.160000 -7.920000 -4.040000 -7.672382 1.820225 62.178669
2.160000 -7.920000 -4.000000 -7.319114 -2.836156 61.613213
2.160000 -7.920000 -3.960000 -5.012133 -8.011713 89.309021
2.160000 -7.920000 -3.920000 0.916252 -12.048731 146.011444
2.160000 -7.920000 -3.880000 9.177499 -11.335773 212.726242
2.160000 -7.920000 -3.840000 14.799825 -4.935068 243.389709
2.160000 -7.920000 -3.800000 13.855448 2.690002 199.209549
2.160000 -7.880000 -4.200000 -2.416599 18.023830 330.698425
2.160000 -7.880000 -4.160000 -13.707687 12.332918 340.001587
2.160000 -7.880000 -4.120000 -16.931061 0.208221 286.704193
2.160000 -7.880000 -4.080000 -10.747742 -9.624822 208.151154
2.160000 -7.880000 -4.040000 -1.058362 -11.732947 138.782181
2.160000 -7.880000 -4.000000 5.420321 -7.734727 89.205879
2.160000 -7.880000 -3.960000 6.834552 -2.898677 55.113426
2.160000 -7.880000 -3.920000 5.817056 -0.512303 34.100594
2.160000 -7.880000 -3.880000 5.252995 -0.133227 27.611702
2.160000 -7.880000 -3.840000 5.715546 -0.107450 32.679008
2.160000 -7.880000 -3.800000 6.695745 0.067760 44.837601
2.160000 -7.840000 -4.200000 -17.236950 7.326121 350.784515
2.160000 -7.840000 -4.160000 -20.219452 -5.647448 440.719910
2.160000 -7.840000 -4.120000 -12.233843 -17.960922 472.261658
2.160000 -7.840000 -4.080000 2.575470 -21.076132 450.836395
2.160000 -7.840000 -4.040000 14.782959 -13.104331 390.259369
2.160000 -7.840000 -4.000000 17.275070 -0.228740 298.480347
2.160000 -7.840000 -3.960000 10.523196 8.587270 184.478851
2.160000 -7.840000 -3.920000 1.385340 8.466189 73.595528
2.160000 -7.840000 -3.880000 -2.598815 1.544509 9.139350
2.160000 -7.840000 -3.840000 1.512539 -5.465908 32.163925
2.160000 -7.840000 -3.800000 10.682337 -6.297340 153.768814
2.160000 -7.800000 -4.200000 -12.336112 -11.687682 288.781555
2.160000 -7.800000 -4.160000 -4.941860 -19.616028 409.210510
2.160000 -7.800000 -4.120000 7.887126 -21.750565 535.293823
2.160000 -7.800000 -4.080000 20.605680 -14.487076 634.469421
2.160000 -7.800000 -4.040000 25.687729 0.090480 659.867615
2.160000 -7.800000 -4.000000 19.354752 13.999442 570.590820
2.160000 -7.800000 -3.960000 5.647850 18.421885 371.264069
2.160000 -7.800000 -3.920000 -5.329417 10.719069 143.301117
2.160000 -7.800000 -3.880000 -4.704929 -2.452792 28.152548
2.160000 -7.800000 -3.840000 7.737097 -9.393074 148.092514
2.160000 -7.800000 -3.800000 22.366440 -2.454666 506.283020
2.200000 -8.200000 -4.200000 8.496188 -4.039503 88.502792
2.200000 -8.200000 -4.160000 0.298473 8.354322 69.883789
2.200000 -8.200000 -4.120000 -12.891676 7.100179 216.607849
2.200000 -8.200000 -4.080000 -16.972784 -3.952117 303.694641
2.200000 -8.200000 -4.040000 -9.103505 -11.149551 207.186310
2.200000 -8.200000 -4.000000 0.073283 -6.223345 38.735394
2.200000 -8.200000 -3.960000 -1.288973 4.986176 26.523403
2.200000 -8.200000 -3.920000 -13.192927 9.373280 261.911682
2.200000 -8.200000 -3.880000 -24.050526 1.064141 579.560181
2.200000 -8.200000 -3.840000 -23.481754 -12.496534 707.556152
2.200000 -8.200000 -3.800000 -13.214589 -19.063005 538.023560
2.200000 -8.160000 -4.200000 4.952431 5.147723 51.025627
2.200000 -8.160000 -4.160000 -10.519163 9.201093 195.312897
2.200000 -8.160000 -4.120000 -21.042965 -1.808661 446.077637
2.200000 -8.160000 -4.080000 -16.700228 -15.581043 521.666504
2.200000 -8.160000 -4.040000 -3.259826 -18.007080 334.881409
2.200000 -8.160000 -4.000000 4.663929 -7.442275 77.139694
2.200000 -8.160000 -3.960000 -1.054538 4.516234 21.508423
2.200000 -8.160000 -3.920000 -14.439362 5.738781 241.428772
2.200000 -8.160000 -3.880000 -22.756853 -4.341774 536.725403
2.200000 -8.160000 -3.840000 -19.937962 -15.625688 641.684448
2.200000 -8.160000 -3.800000 -11.543198 -18.995714 494.082581
2.200000 -8.120000 -4.200000 -5.173711 6.879584 74.095963
2.200000 -8.120000 -4.160000 -18.988281 0.891449 361.349487
2.200000 -8.120000 -4.120000 -21.252953 -14.125759 651.225037
2.200000 -8.120000 -4.080000 -10.097431 -24.003838 678.142334
2.200000 -8.120000 -4.040000 3.556388 -20.036585 414.112610
2.200000 -8.120000 -4.000000 6.980998 -6.932150 96.789032
2.200000 -8.120000 -3.960000 -2.310772 2.514521 11.662485
2.200000 -8.120000 -3.920000 -15.240707 -0.026957 232.279892
2.200000 -8.120000 -3.880000 -20.851391 -11.454754 565.991882
2.200000 -8.120000 -3.840000 -16.388428 -21.908932 748.581848
2.200000 -8.120000 -3.800000 -7.992074 -24.939661 685.859924
2.200000 -8.080000 -4.200000 -11.516719 -1.863001 136.105576
2.200000 -8.080000 -4.160000 -17.584042 -11.532681 442.201263
2.200000 -8.080000 -4.120000 -13.183254 -23.087402 706.826294
2.200000 -8.080000 -4.080000 -1.134231 -26.897635 724.769226
2.200000 -8.080000 -4.040000 8.849249 -19.855394 472.545898
2.200000 -8.080000 -4.000000 8.691760 -8.302582 144.479553
2.200000 -8.080000 -3.960000 -0.928652 -2.431227 6.773261
2.200000 -8.080000 -3.920000 -11.405928 -7.379430 184.551178
2.200000 -8.080000 -3.880000 -13.932681 -19.154530 561.015625
2.200000 -8.080000 -3.840000 -6.831150 -28.779613 874.930786
2.200000 -8.080000 -3.800000 3.978492 -30.229567 929.655151
2.200000 -8.040000 -4.200000 -5.551049 -12.393452 184.411789
2.200000 -8.040000 -4.160000 -6.266872 -17.625950 349.947784
2.200000 -8.040000 -4.120000 -2.058281 -23.461126 554.660950
2.200000 -8.040000 -4.080000 6.395792 -24.937563 662.788147
2.200000 -8.040000 -4.040000 13.668200 -19.410202 563.575623
2.200000 -8.040000 -4.000000 13.751829 -10.451580 298.348328
2.200000 -8.040000 -3.960000 6.323683 -5.886427 74.638992
2.200000 -8.040000 -3.920000 -1.622705 -10.649698 116.049248
2.200000 -8.040000 -3.880000 -1.614978 -21.321785 457.226654
2.200000 -8.040000 -3.840000 8.124554 -28.505266 878.558533
2.200000 -8.040000 -3.800000 20.437916 -25.470730 1066.466431
2.200000 -8.000000 -4.200000 8.710270 -11.804108 215.205765
2.200000 -8.000000 -4.160000 5.166730 -11.066578 149.164246
2.200000 -8.000000 -4.120000 4.160412 -16.129622 277.473724
2.200000 -8.000000 -4.080000 10.300773 -20.789742 538.319275
2.200000 -8.000000 -4.040000 19.303589 -17.905128 693.222168
2.200000 -8.000000 -4.000000 22.265547 -8.590052 569.543579
2.200000 -8.000000 -3.960000 16.259289 -1.964830 268.225037
2.200000 -8.000000 -3.920000 8.659655 -5.015617 100.146034
2.200000 -8.000000 -3.880000 9.493914 -14.003269 286.225952
2.200000 -8.000000 -3.840000 19.966835 -17.771820 714.512085
2.200000 -8.000000 -3.800000 30.278212 -9.920748 1015.191284
2.200000 -7.960000 -4.200000 16.755424 2.763065 288.378784
2.200000 -7.960000 -4.160000 5.266641 2.633130 34.670876
2.200000 -7.960000 -4.120000 1.320223 -8.588120 75.498787
2.200000 -7.960000 -4.080000 10.908233 -17.817684 436.459412
2.200000 -7.960000 -4.040000 24.875168 -13.942645 813.171326
2.200000 -7.960000 -4.000000 29.335098 -0.281691 860.627319
2.200000 -7.960000 -3.960000 21.280064 9.506281 543.210449
2.200000 -7.960000 -3.920000 11.467862 7.089364 181.770935
2.200000 -7.960000 -3.880000 11.607061 -1.400065 136.684067
2.200000 -7.960000 -3.840000 20.861191 -3.045825 444.466309
2.200000 -7.960000 -3.800000 27.165701 6.536427 780.700195
2.200000 -7.920000 -4.200000 8.395366 19.006546 431.730957
2.200000 -7.920000 -4.160000 -7.081419 9.874115 147.644653
2.200000 -7.920000 -4.120000 -6.218161 -8.861282 117.187851
2.200000 -7.920000 -4.080000 11.259371 -17.907339 447.446228
2.200000 -7.920000 -4.040000 28.645796 -7.904344 883.060242
2.200000 -7.920000 -4.000000 30.172791 11.227268 1036.448853
2.200000 -7.920000 -3.960000 17.055077 21.781855 765.324829
2.200000 -7.920000 -3.920000 4.493422 17.111336 312.988647
2.200000 -7.920000 -3.880000 4.215005 7.052901 67.509689
2.200000 -7.920000 -3.840000 12.584370 5.185385 185.254578
2.200000 -7.920000 -3.800000 16.752966 13.472811 462.178497
2.200000 -7.880000 -4.200000 -9.979029 21.148308 546.831909
2.200000 -7.880000 -4.160000 -19.835129 2.533155 399.849213
2.200000 -7.880000 -4.120000 -8.653639 -17.231720 371.817627
2.200000 -7.880000 -4.080000 14.965683 -19.201189 592.657349
2.200000 -7.880000 -4.040000 30.276529 -1.202095 918.113220
2.200000 -7.880000 -4.000000 25.125175 20.421764 1048.322876
2.200000 -7.880000 -3.960000 7.014314 27.805216 822.330627
2.200000 -7.880000 -3.920000 -6.197128 18.649899 386.223114
2.200000 -7.880000 -3.880000 -4.737651 6.101141 59.669258
2.200000 -7.880000 -3.840000 5.176836 3.427273 38.545830
2.200000 -7.880000 -3.800000 10.609801 11.118320 236.184906
2.200000 -7.840000 -4.200000 -20.470293 7.352662 473.094543
2.200000 -7.840000 -4.160000 -19.296547 -12.249448 522.405701
2.200000 -7.840000 -4.120000 -0.542723 -24.467510 598.953613
2.200000 -7.840000 -4.080000 22.161509 -16.728762 770.983948
2.200000 -7.840000 -4.040000 30.386868 5.941436 958.662354
2.200000 -7.840000 -4.000000 18.452322 25.309603 981.064209
2.200000 -7.840000 -3.960000 -1.686201 27.139746 739.409058
2.200000 -7.840000 -3.920000 -12.501410 13.743311 345.163849
2.200000 -7.840000 -3.880000 -7.114769 0.123878 50.635284
2.200000 -7.840000 -3.840000 6.080604 -1.046739 38.069408
2.200000 -7.840000 -3.800000 13.238430 9.810982 271.511383
2.200000 -7.800000 -4.200000 -12.652672 -6.495344 202.279602
2.200000 -7.800000 -4.160000 -5.349484 -17.915455 349.580505
2.200000 -7.800000 -4.120000 11.965439 -20.326128 556.323242
2.200000 -7.800000 -4.080000 27.448038 -7.251052 805.972534
2.200000 -7.800000 -4.040000 28.127293 14.188263 992.451416
2.200000 -7.800000 -4.000000 12.726194 28.365681 966.567871
2.200000 -7.800000 -3.960000 -6.097010 25.267506 675.620361
2.200000 -7.800000 -3.920000 -12.878159 9.947617 264.802063
2.200000 -7.800000 -3.880000 -3.390719 -1.970845 15.381207
2.200000 -7.800000 -3.840000 11.690409 1.439152 138.736801
2.200000 -7.800000 -3.800000 16.708582 17.772293 595.031128
