#kx 	ky 	kz 	real 	imag 	intensity
3.800000 5.800000 -6.200000 -8.831368 -40.767807 1740.007080
3.800000 5.800000 -6.160000 12.162989 -43.038368 2000.239502
3.800000 5.800000 -6.120000 27.813520 -30.351490 1694.804932
3.800000 5.800000 -6.080000 29.266914 -13.069217 1027.356689
3.800000 5.800000 -6.040000 19.873280 -3.682945 408.511322
3.800000 5.800000 -6.000000 10.993995 -6.012543 157.018585
3.800000 5.800000 -5.960000 11.159273 -13.187507 298.439728
3.800000 5.800000 -5.920000 19.119965 -15.353326 601.297668
3.800000 5.800000 -5.880000 26.670673 -8.889606 790.349915
3.800000 5.800000 -5.840000 27.261497 1.565345 745.639587
3.800000 5.800000 -5.800000 21.471025 8.981791 541.677490
3.800000 5.840000 -6.200000 14.465409 -39.050571 1734.195190
3.800000 5.840000 -6.160000 31.887217 -34.675762 2219.203125
3.800000 5.840000 -6.120000 41.907654 -21.270735 2208.695557
3.800000 5.840000 -6.080000 41.867676 -7.334874 1806.702637
3.800000 5.840000 -6.040000 36.158184 0.967318 1308.349976
3.800000 5.840000 -6.000000 30.880798 3.520019 966.014221
3.800000 5.840000 -5.960000 28.803127 4.115133 846.554443
3.800000 5.840000 -5.920000 28.687149 5.992937 858.867798
3.800000 5.840000 -5.880000 28.069920 9.605039 880.177185
3.800000 5.840000 -5.840000 25.758827 13.617504 848.953552
3.800000 5.840000 -5.800000 22.016052 16.836088 768.160400
3.800000 5.880000 -6.200000 26.604652 -21.825480 1184.159180
3.800000 5.880000 -6.160000 39.234371 -16.538788 1812.867432
3.800000 5.880000 -6.120000 47.192276 -5.023231 2252.343750
3.800000 5.880000 -6.080000 48.249737 8.577894 2401.617432
3.800000 5.880000 -6.040000 42.927296 20.146778 2248.645264
3.800000 5.880000 -6.000000 33.822235 26.711010 1857.421631
3.800000 5.880000 -5.960000 24.877483 27.453188 1372.566650
3.800000 5.880000 -5.920000 19.678232 24.559628 990.408081
3.800000 5.880000 -5.880000 18.959421 22.289993 856.303467
3.800000 5.880000 -5.840000 19.671247 23.789234 952.885620
3.800000 5.880000 -5.800000 17.481379 28.141975 1097.569336
3.800000 5.920000 -6.200000 21.482676 -5.341680 490.038879
3.800000 5.920000 -6.160000 33.289692 -1.700021 1111.093628
3.800000 5.920000 -6.120000 41.826080 10.330573 1856.141724
3.800000 5.920000 -6.080000 41.355186 26.661465 2421.085205
3.800000 5.920000 -6.040000 30.850792 39.526073 2514.081787
3.800000 5.920000 -6.000000 15.917215 42.642647 2071.753174
3.800000 5.920000 -5.960000 5.280444 36.491684 1359.526001
3.800000 5.920000 -5.920000 3.708592 28.428379 821.926392
3.800000 5.920000 -5.880000 7.805767 26.339512 754.699890
3.800000 5.920000 -5.840000 9.312027 31.370914 1070.848145
3.800000 5.920000 -5.800000 3.330825 37.035583 1382.728760
3.800000 5.960000 -6.200000 9.403726 -1.853418 91.865211
3.800000 5.960000 -6.160000 23.240362 3.419841 551.809753
3.800000 5.960000 -6.120000 29.757404 19.101385 1250.365967
3.800000 5.960000 -6.080000 22.913815 35.806576 1807.153809
3.800000 5.960000 -6.040000 6.847508 42.677925 1868.293701
3.800000 5.960000 -6.000000 -7.055892 36.812263 1404.928345
3.800000 5.960000 -5.960000 -10.197462 25.954306 777.614197
3.800000 5.960000 -5.920000 -4.538009 21.147875 467.826141
3.800000 5.960000 -5.880000 -0.253185 26.098505 681.196045
3.800000 5.960000 -5.840000 -5.236680 33.830811 1171.946533
3.800000 5.960000 -5.800000 -17.019859 34.259148 1463.364746
3.800000 6.000000 -6.200000 4.444937 -8.074565 84.956062
3.800000 6.000000 -6.160000 16.939373 3.033855 296.146637
3.800000 6.000000 -6.120000 15.985773 20.105293 659.767761
3.800000 6.000000 -6.080000 2.681060 29.714802 890.157532
3.800000 6.000000 -6.040000 -11.132111 25.673882 783.072083
3.800000 6.000000 -6.000000 -14.341926 14.805204 424.884888
3.800000 6.000000 -5.960000 -7.433132 9.778749 150.875397
3.800000 6.000000 -5.920000 -1.582001 16.015516 258.999481
3.800000 6.000000 -5.880000 -6.715609 26.123606 727.542175
3.800000 6.000000 -5.840000 -20.862488 27.753536 1205.502197
3.800000 6.000000 -5.800000 -32.015114 16.726440 1304.741333
3.800000 6.040000 -6.200000 9.029564 -11.123089 205.256134
3.800000 6.040000 -6.160000 13.146374 3.823372 187.445328
3.800000 6.040000 -6.120000 3.772177 14.158920 214.704346
3.800000 6.040000 -6.080000 -7.914442 11.232065 188.797684
3.800000 6.040000 -6.040000 -9.161139 0.839264 84.630821
3.800000 6.040000 -6.000000 0.603580 -2.977760 9.231365
3.800000 6.040000 -5.960000 8.758194 6.710842 121.741364
3.800000 6.040000 -5.920000 2.893316 21.496986 470.491699
3.800000 6.040000 -5.880000 -15.415792 25.769037 901.689941
3.800000 6.040000 -5.840000 -31.258263 12.957785 1144.983154
3.800000 6.040000 -5.800000 -31.165270 -7.188568 1022.949585
3.800000 6.080000 -6.200000 12.623856 -4.470909 179.350754
3.800000 6.080000 -6.160000 5.915538 5.239261 62.443447
3.800000 6.080000 -6.120000 -4.049390 1.986603 20.344149
3.800000 6.080000 -6.080000 -2.951593 -9.519341 99.329750
3.800000 6.080000 -6.040000 11.326391 -13.438112 308.869995
3.800000 6.080000 -6.000000 24.543451 -0.041376 602.382690
3.800000 6.080000 -5.960000 20.114529 22.053133 890.934937
3.800000 6.080000 -5.920000 -2.767243 32.798756 1083.416016
3.800000 6.080000 -5.880000 -26.441711 20.630598 1124.785645
3.800000 6.080000 -5.840000 -31.325745 -5.253495 1008.901428
3.800000 6.080000 -5.800000 -14.914065 -23.416191 770.747314
3.800000 6.120000 -6.200000 5.282524 4.287971 46.291756
3.800000 6.120000 -6.160000 -5.017404 0.166212 25.201965
3.800000 6.120000 -6.120000 -3.553343 -14.155704 213.010223
3.800000 6.120000 -6.080000 14.696609 -21.388687 673.466309
3.800000 6.120000 -6.040000 35.387486 -7.364853 1306.515259
3.800000 6.120000 -6.000000 36.955578 21.972889 1848.522583
3.800000 6.120000 -5.960000 12.767347 43.217392 2030.748047
3.800000 6.120000 -5.920000 -19.927530 37.217598 1782.256104
3.800000 6.120000 -5.880000 -34.934761 8.273985 1288.896362
3.800000 6.120000 -5.840000 -21.704901 -19.267555 842.341431
3.800000 6.120000 -5.800000 5.328615 -24.074547 607.977966
3.800000 6.160000 -6.200000 -9.726032 2.285998 99.821495
3.800000 6.160000 -6.160000 -11.056051 -14.931929 345.198761
3.800000 6.160000 -6.120000 7.889074 -28.124418 853.220398
3.800000 6.160000 -6.080000 35.483273 -18.573252 1604.028320
3.800000 6.160000 -6.040000 47.032001 13.738883 2400.766113
3.800000 6.160000 -6.000000 27.885796 46.086521 2901.585205
3.800000 6.160000 -5.960000 -10.330541 52.134018 2824.675781
3.800000 6.160000 -5.920000 -38.295319 26.770481 2183.189941
3.800000 6.160000 -5.880000 -35.406555 -8.378671 1323.826294
3.800000 6.160000 -5.840000 -8.180391 -24.953087 689.575378
3.800000 6.160000 -5.800000 17.500362 -13.551204 489.897827
3.800000 6.200000 -6.200000 -18.508608 -13.434922 523.065674
3.800000 6.200000 -6.160000 -3.344742 -32.785027 1086.045166
3.800000 6.200000 -6.120000 27.108505 -31.865269 1750.266357
3.800000 6.200000 -6.080000 48.944191 -3.441207 2407.375732
3.800000 6.200000 -6.040000 40.824440 35.380756 2918.432861
3.800000 6.200000 -6.000000 4.765349 55.484444 3101.231934
3.800000 6.200000 -5.960000 -33.267761 41.305649 2812.900391
3.800000 6.200000 -5.920000 -45.448242 5.350244 2094.167725
3.800000 6.200000 -5.880000 -26.392300 -23.006447 1225.850098
3.800000 6.200000 -5.840000 3.653811 -23.861961 582.743530
3.800000 6.200000 -5.800000 19.061081 -2.681406 370.514740
3.840000 5.800000 -6.200000 35.474205 -31.197472 2231.701416
3.840000 5.800000 -6.160000 48.256115 -13.852175 2520.535400
3.840000 5.800000 -6.120000 45.003067 6.276934 2064.675781
3.840000 5.800000 -6.080000 30.888731 15.876965 1206.191650
3.840000 5.800000 -6.040000 19.074490 12.432682 518.407715
3.840000 5.800000 -6.000000 17.622868 5.097574 336.550720
3.840000 5.800000 -5.960000 22.793301 4.117380 536.487366
3.840000 5.800000 -5.920000 24.896585 10.569487 731.554016
3.840000 5.800000 -5.880000 19.370811 16.855690 659.342651
3.840000 5.800000 -5.840000 10.960945 16.232145 383.624878
3.840000 5.800000 -5.800000 7.330234 10.206989 157.914948
3.840000 5.840000 -6.200000 43.717918 -6.831524 1957.926025
3.840000 5.840000 -6.160000 49.174805 6.970482 2466.749023
3.840000 5.840000 -6.120000 46.586678 20.872395 2605.975586
3.840000 5.840000 -6.080000 39.004932 30.800833 2470.076172
3.840000 5.840000 -6.040000 29.704723 36.641838 2224.994873
3.840000 5.840000 -6.000000 19.494802 39.262276 1921.573608
3.840000 5.840000 -5.960000 8.660936 37.706448 1496.788086
3.840000 5.840000 -5.920000 -0.047023 30.736866 944.757141
3.840000 5.840000 -5.880000 -2.449328 20.522455 427.170380
3.840000 5.840000 -5.840000 2.440499 12.963415 174.006165
3.840000 5.840000 -5.800000 9.841125 12.866592 262.396942
3.840000 5.880000 -6.200000 29.983879 14.090291 1097.569336
3.840000 5.880000 -6.160000 36.160469 21.707066 1778.776123
3.840000 5.880000 -6.120000 38.525124 35.896324 2772.731445
3.840000 5.880000 -6.080000 30.986477 53.262379 3797.042969
3.840000 5.880000 -6.040000 11.515965 64.951859 4351.361328
3.840000 5.880000 -6.000000 -13.343399 61.959328 4017.004639
3.840000 5.880000 -5.960000 -30.701244 43.296436 2817.147949
3.840000 5.880000 -5.920000 -30.673946 19.250078 1311.456543
3.840000 5.880000 -5.880000 -15.251657 4.713385 254.829025
3.840000 5.880000 -5.840000 2.392097 7.234788 58.064285
3.840000 5.880000 -5.800000 8.748282 20.764936 507.715027
3.840000 5.920000 -6.200000 7.311604 15.050406 279.974274
3.840000 5.920000 -6.160000 19.954964 22.925959 923.800171
3.840000 5.920000 -6.120000 22.520473 44.377274 2476.514160
3.840000 5.920000 -6.080000 4.615160 65.998718 4377.130859
3.840000 5.920000 -6.040000 -28.290054 69.189667 5587.537109
3.840000 5.920000 -6.000000 -55.997047 46.613098 5308.450195
3.840000 5.920000 -5.960000 -59.261414 10.954629 3631.918945
3.840000 5.920000 -5.920000 -36.780846 -13.919468 1546.582153
3.840000 5.920000 -5.880000 -7.114848 -12.837281 215.416855
3.840000 5.920000 -5.840000 7.279984 8.051252 117.820824
3.840000 5.920000 -5.800000 -0.774066 27.994333 784.281860
3.840000 5.960000 -6.200000 -3.678358 -1.039379 14.610627
3.840000 5.960000 -6.160000 11.450544 15.764692 379.640503
3.840000 5.960000 -6.120000 4.353405 42.966377 1865.061768
3.840000 5.960000 -6.080000 -26.743525 56.286205 3883.353027
3.840000 5.960000 -6.040000 -61.047985 39.204987 5263.887695
3.840000 5.960000 -6.000000 -71.453674 -0.079702 5105.633789
3.840000 5.960000 -5.960000 -48.795517 -33.583359 3508.844482
3.840000 5.960000 -5.920000 -10.968072 -37.478886 1524.965454
3.840000 5.960000 -5.880000 12.721634 -12.899000 328.224182
3.840000 5.960000 -5.840000 7.423459 16.332071 321.844299
3.840000 5.960000 -5.800000 -15.862194 26.452721 951.355591
3.840000 6.000000 -6.200000 4.359600 -15.338182 254.265961
3.840000 6.000000 -6.160000 10.886789 10.902654 237.390045
3.840000 6.000000 -6.120000 -10.375716 32.709137 1177.543213
3.840000 6.000000 -6.080000 -44.311943 26.763453 2679.830811
3.840000 6.000000 -6.040000 -61.387447 -7.073466 3818.452637
3.840000 6.000000 -6.000000 -44.463448 -43.157749 3839.589355
3.840000 6.000000 -5.960000 -5.648503 -52.350304 2772.459717
3.840000 6.000000 -5.920000 24.067736 -28.526585 1393.021973
3.840000 6.000000 -5.880000 22.959047 6.383005 567.860596
3.840000 6.000000 -5.840000 -2.794577 23.613689 565.415955
3.840000 6.000000 -5.800000 -27.537838 13.704069 946.134033
3.840000 6.040000 -6.200000 18.742659 -13.048007 521.537720
3.840000 6.040000 -6.160000 9.461296 11.962987 232.629181
3.840000 6.040000 -6.120000 -18.250198 16.627895 609.556641
3.840000 6.040000 -6.080000 -38.125088 -6.669746 1498.007812
3.840000 6.040000 -6.040000 -28.733385 -38.837635 2333.969238
3.840000 6.040000 -6.000000 5.070101 -50.537216 2579.716064
3.840000 6.040000 -5.960000 35.390236 -29.850126 2143.498779
3.840000 6.040000 -5.920000 37.092285 6.167130 1413.871094
3.840000 6.040000 -5.880000 10.913748 27.758110 889.622559
3.840000 6.040000 -5.840000 -18.756435 20.216595 760.514526
3.840000 6.040000 -5.800000 -28.260204 -4.383039 817.850220
3.840000 6.080000 -6.200000 21.120697 1.409893 448.071625
3.840000 6.080000 -6.160000 1.323671 11.764845 140.163681
3.840000 6.080000 -6.120000 -17.205643 -1.751795 299.102936
3.840000 6.080000 -6.080000 -13.239822 -26.909842 899.432495
3.840000 6.080000 -6.040000 13.726523 -37.865505 1622.213989
3.840000 6.080000 -6.000000 40.901505 -20.073586 2075.881836
3.840000 6.080000 -5.960000 43.105099 14.417173 2065.904541
3.840000 6.080000 -5.920000 16.994934 37.505745 1695.508667
3.840000 6.080000 -5.880000 -15.757027 31.405445 1234.585938
3.840000 6.080000 -5.840000 -29.444023 4.496486 887.168884
3.840000 6.080000 -5.800000 -17.933805 -18.630898 668.731689
3.840000 6.120000 -6.200000 7.307384 9.992876 153.255447
3.840000 6.120000 -6.160000 -8.046909 1.750860 67.818260
3.840000 6.120000 -6.120000 -6.217071 -17.657278 350.431458
3.840000 6.120000 -6.080000 15.768711 -26.775124 965.559448
3.840000 6.120000 -6.040000 39.693127 -10.831785 1692.871826
3.840000 6.120000 -6.000000 41.831921 21.943844 2231.441895
3.840000 6.120000 -5.960000 16.045868 45.876179 2362.093750
3.840000 6.120000 -5.920000 -19.059647 41.276497 2067.019287
3.840000 6.120000 -5.880000 -36.869865 12.776176 1522.617676
3.840000 6.120000 -5.840000 -26.955564 -15.690236 972.786011
3.840000 6.120000 -5.800000 -2.785879 -23.797981 574.105042
3.840000 6.160000 -6.200000 -8.603698 0.864704 74.771324
3.840000 6.160000 -6.160000 -7.050851 -16.242416 313.530609
3.840000 6.160000 -6.120000 12.625427 -24.962637 782.534668
3.840000 6.160000 -6.080000 35.556374 -11.054853 1386.465576
3.840000 6.160000 -6.040000 39.586403 20.374939 1982.221436
3.840000 6.160000 -6.000000 15.953681 46.346336 2402.502930
3.840000 6.160000 -5.960000 -20.597673 45.558075 2499.802246
3.840000 6.160000 -5.920000 -43.580833 17.953289 2221.609619
3.840000 6.160000 -5.880000 -37.940624 -15.008612 1664.749390
3.840000 6.160000 -5.840000 -12.346143 -29.815350 1041.382324
3.840000 6.160000 -5.800000 10.803215 -20.938063 555.111938
3.840000 6.200000 -6.200000 -9.635931 -19.072485 456.610840
3.840000 6.200000 -6.160000 8.744568 -29.622292 953.947632
3.840000 6.200000 -6.120000 32.404552 -19.430641 1427.604858
3.840000 6.200000 -6.080000 40.944923 9.582706 1768.314941
3.840000 6.200000 -6.040000 22.940815 38.147343 1981.500732
3.840000 6.200000 -6.000000 -12.261932 44.272045 2110.369141
3.840000 6.200000 -5.960000 -40.561157 22.203979 2138.224121
3.840000 6.200000 -5.920000 -42.891354 -12.043382 1984.711304
3.840000 6.200000 -5.880000 -20.751339 -34.306473 1607.552124
3.840000 6.200000 -5.840000 6.734275 -32.329121 1090.522461
3.840000 6.200000 -5.800000 20.521931 -13.661857 607.795959
3.880000 5.800000 -6.200000 58.055931 15.927480 3624.175781
3.880000 5.800000 -6.160000 47.674534 40.366562 3902.320312
3.880000 5.800000 -6.120000 23.625027 49.559620 3014.297852
3.880000 5.800000 -6.080000 3.890655 39.644760 1586.844238
3.880000 5.800000 -6.040000 0.623634 23.561863 555.550293
3.880000 5.800000 -6.000000 8.870655 17.203930 374.663696
3.880000 5.800000 -5.960000 13.458359 23.251270 721.749023
3.880000 5.800000 -5.920000 6.077759 29.943537 933.554565
3.880000 5.800000 -5.880000 -6.219213 25.386593 683.157715
3.880000 5.800000 -5.840000 -9.842239 11.066105 219.328354
3.880000 5.800000 -5.800000 -0.271041 -0.097864 0.083041
3.880000 5.840000 -6.200000 34.126068 41.818512 2913.376465
3.880000 5.840000 -6.160000 23.580839 51.694122 3228.338135
3.880000 5.840000 -6.120000 11.461677 55.438168 3204.760498
3.880000 5.840000 -6.080000 0.840395 55.809566 3115.414062
3.880000 5.840000 -6.040000 -9.999207 55.128788 3139.167480
3.880000 5.840000 -6.000000 -23.336468 50.759903 3121.158203
3.880000 5.840000 -5.960000 -35.829285 37.900948 2720.219482
3.880000 5.840000 -5.920000 -38.984535 17.382175 1821.933960
3.880000 5.840000 -5.880000 -27.604454 -1.169632 763.373901
3.880000 5.840000 -5.840000 -7.347518 -6.300512 93.682480
3.880000 5.840000 -5.800000 8.071712 4.173214 82.568253
3.880000 5.880000 -6.200000 -1.365891 40.193375 1617.372925
3.880000 5.880000 -6.160000 0.108461 44.314178 1963.758179
3.880000 5.880000 -6.120000 -3.853219 57.037605 3268.135742
3.880000 5.880000 -6.080000 -22.638346 69.707123 5371.577637
3.880000 5.880000 -6.040000 -53.644997 66.673363 7323.123047
3.880000 5.880000 -6.000000 -79.775261 39.550201 7928.310547
3.880000 5.880000 -5.960000 -81.489616 -1.762939 6643.665527
3.880000 5.880000 -5.920000 -54.281013 -33.576694 4073.822754
3.880000 5.880000 -5.880000 -14.997086 -36.850719 1582.888062
3.880000 5.880000 -5.840000 10.714341 -13.437128 295.353516
3.880000 5.880000 -5.800000 9.397478 15.528818 329.456787
3.880000 5.920000 -6.200000 -21.072063 12.715559 605.717285
3.880000 5.920000 -6.160000 -9.352530 26.419861 785.478882
3.880000 5.920000 -6.120000 -20.324944 51.750271 3091.193848
3.880000 5.920000 -6.080000 -58.091103 61.372395 7141.146973
3.880000 5.920000 -6.040000 -99.289406 34.320171 11036.259766
3.880000 5.920000 -6.000000 -109.995483 -21.349478 12554.806641
3.880000 5.920000 -5.960000 -75.914101 -70.858551 10783.884766
3.880000 5.920000 -5.920000 -17.489429 -80.722404 6821.986816
3.880000 5.920000 -5.880000 25.875683 -47.514526 2927.181152
3.880000 5.920000 -5.840000 28.890139 -0.292315 834.725586
3.880000 5.920000 -5.800000 0.075029 25.688967 659.928650
3.880000 5.960000 -6.200000 -11.285335 -16.499462 399.591003
3.880000 5.960000 -6.160000 -4.323981 13.170837 192.167770
3.880000 5.960000 -6.120000 -33.918022 38.747429 2651.795410
3.880000 5.960000 -6.080000 -82.411156 26.248655 7480.590332
3.880000 5.960000 -6.040000 -107.768463 -28.576643 12430.666016
3.880000 5.960000 -6.000000 -80.633545 -90.736237 14734.833008
3.880000 5.960000 -5.960000 -13.504373 -113.760040 13123.714844
3.880000 5.960000 -5.920000 47.476551 -80.531677 8739.374023
3.880000 5.960000 -5.880000 61.931686 -18.444393 4175.729492
3.880000 5.960000 -5.840000 28.997238 25.692425 1500.940552
3.880000 5.960000 -5.800000 -15.965460 26.564447 960.565796
3.880000 6.000000 -6.200000 15.210418 -23.268745 772.791321
3.880000 6.000000 -6.160000 3.211817 12.209700 159.392532
3.880000 6.000000 -6.120000 -40.479134 19.989969 2038.159180
3.880000 6.000000 -6.080000 -77.378235 -19.059845 6350.668945
3.880000 6.000000 -6.040000 -67.210846 -81.246048 11118.218750
3.880000 6.000000 -6.000000 -7.030579 -116.831024 13698.916992
3.880000 6.000000 -5.960000 62.185074 -93.980515 12699.320312
3.880000 6.000000 -5.920000 90.244553 -28.358973 8948.310547
3.880000 6.000000 -5.880000 61.538933 30.741697 4732.092285
3.880000 6.000000 -5.840000 6.241421 44.366394 2007.332275
3.880000 6.000000 -5.800000 -30.286581 15.492706 1157.300903
3.880000 6.040000 -6.200000 32.052959 -5.845055 1061.556885
3.880000 6.040000 -6.160000 1.730880 16.920069 289.284668
3.880000 6.040000 -6.120000 -37.465233 -0.370954 1403.781250
3.880000 6.040000 -6.080000 -44.783787 -49.974827 4503.070801
3.880000 6.040000 -6.040000 -3.280920 -90.431625 8188.643555
3.880000 6.040000 -6.000000 60.366772 -82.493301 10449.291992
3.880000 6.040000 -5.960000 96.984039 -26.257500 10095.360352
3.880000 6.040000 -5.920000 78.569366 37.266460 7561.934570
3.880000 6.040000 -5.880000 22.681475 62.639900 4438.206543
3.880000 6.040000 -5.840000 -25.598879 39.270889 2197.505371
3.880000 6.040000 -5.800000 -35.142506 -3.792426 1249.378174
3.880000 6.080000 -6.200000 24.959652 15.023515 848.690247
3.880000 6.080000 -6.160000 -7.721716 14.524871 270.596771
3.880000 6.080000 -6.120000 -24.803909 -17.162945 909.800537
3.880000 6.080000 -6.080000 -3.748507 -53.031967 2826.440918
3.880000 6.080000 -6.040000 44.201633 -56.790062 5178.895508
3.880000 6.080000 -6.000000 80.347977 -17.183367 6751.065430
3.880000 6.080000 -5.960000 72.582092 38.970280 6786.842773
3.880000 6.080000 -5.920000 25.007368 69.524582 5459.036133
3.880000 6.080000 -5.880000 -25.932903 54.333553 3624.650391
3.880000 6.080000 -5.840000 -44.815243 11.205950 2133.979248
3.880000 6.080000 -5.800000 -27.077337 -23.710289 1295.359985
3.880000 6.120000 -6.200000 4.232440 17.817949 335.392853
3.880000 6.120000 -6.160000 -12.943027 0.529498 167.802307
3.880000 6.120000 -6.120000 -5.310469 -25.440308 675.410339
3.880000 6.120000 -6.080000 25.456614 -33.562267 1774.464966
3.880000 6.120000 -6.040000 54.107506 -9.470141 3017.305664
3.880000 6.120000 -6.000000 52.805370 32.874962 3869.170410
3.880000 6.120000 -5.960000 17.220581 61.105537 4030.435059
3.880000 6.120000 -5.920000 -27.994814 52.761810 3567.518066
3.880000 6.120000 -5.880000 -50.613667 15.083796 2789.264160
3.880000 6.120000 -5.840000 -38.617794 -22.706247 2006.907715
3.880000 6.120000 -5.800000 -7.823881 -36.216724 1372.864258
3.880000 6.160000 -6.200000 -7.634764 1.085797 59.468571
3.880000 6.160000 -6.160000 -3.958034 -15.755527 263.902649
3.880000 6.160000 -6.120000 15.319278 -22.267273 730.511719
3.880000 6.160000 -6.080000 35.135197 -7.400017 1289.242310
3.880000 6.160000 -6.040000 35.712830 22.103558 1763.973511
3.880000 6.160000 -6.000000 10.590248 44.334839 2077.731201
3.880000 6.160000 -5.960000 -25.328304 40.089832 2248.717773
3.880000 6.160000 -5.920000 -46.928764 10.062556 2303.563965
3.880000 6.160000 -5.880000 -39.836411 -25.166285 2220.281494
3.880000 6.160000 -5.840000 -11.669312 -42.686794 1958.335205
3.880000 6.160000 -5.800000 16.435837 -35.573547 1535.614014
3.880000 6.200000 -6.200000 0.808353 -17.293034 299.702454
3.880000 6.200000 -6.160000 15.818479 -20.428230 667.536865
3.880000 6.200000 -6.120000 29.999882 -8.817913 977.748535
3.880000 6.200000 -6.080000 30.599630 12.884941 1102.359131
3.880000 6.200000 -6.040000 12.612301 30.191841 1070.617432
3.880000 6.200000 -6.000000 -14.985779 28.796513 1053.812744
3.880000 6.200000 -5.960000 -34.235592 6.543839 1214.897583
3.880000 6.200000 -5.920000 -31.618210 -23.497250 1551.831909
3.880000 6.200000 -5.880000 -8.685943 -42.505890 1882.196289
3.880000 6.200000 -5.840000 19.560349 -40.038254 1985.668945
3.880000 6.200000 -5.800000 36.761845 -20.601761 1775.865723
3.920000 5.800000 -6.200000 34.780968 68.381538 5885.750488
3.920000 5.800000 -6.160000 1.367914 79.083176 6256.019531
3.920000 5.800000 -6.120000 -29.647379 62.804413 4823.361328
3.920000 5.800000 -6.080000 -37.968067 32.738865 2513.407227
3.920000 5.800000 -6.040000 -24.081978 12.689365 740.961670
3.920000 5.800000 -6.000000 -7.763226 13.703732 248.059921
3.920000 5.800000 -5.960000 -6.867866 24.411293 643.078857
3.920000 5.800000 -5.920000 -19.201160 25.072029 997.291199
3.920000 5.800000 -5.880000 -26.664652 9.650108 804.128235
3.920000 5.800000 -5.840000 -16.350586 -8.137774 333.565033
3.920000 5.800000 -5.800000 5.017665 -10.680986 139.260437
3.920000 5.840000 -6.200000 -13.703197 67.441216 4736.095215
3.920000 5.840000 -6.160000 -32.214394 61.463211 4815.493652
3.920000 5.840000 -6.120000 -43.223774 49.844231 4352.742188
3.920000 5.840000 -6.080000 -48.408989 39.645061 3915.161133
3.920000 5.840000 -6.040000 -53.978092 31.311731 3894.059082
3.920000 5.840000 -6.000000 -61.287964 18.490143 4098.100098
3.920000 5.840000 -5.960000 -62.656605 -2.693260 3933.103760
3.920000 5.840000 -5.920000 -48.894806 -25.194939 3025.487061
3.920000 5.840000 -5.880000 -21.465492 -34.588142 1657.106934
3.920000 5.840000 -5.840000 4.808878 -22.865377 545.950806
3.920000 5.840000 -5.800000 13.570969 1.687490 187.018814
3.920000 5.880000 -6.200000 -45.200935 30.301699 2961.317383
3.920000 5.880000 -6.160000 -43.275661 29.054893 2716.969727
3.920000 5.880000 -6.120000 -51.062359 36.110497 3911.332520
3.920000 5.880000 -6.080000 -74.622765 35.203926 6807.873535
3.920000 5.880000 -6.040000 -100.677437 10.346375 10242.994141
3.920000 5.880000 -6.000000 -104.781036 -35.603081 12246.644531
3.920000 5.880000 -5.960000 -73.410469 -77.869194 11452.708984
3.920000 5.880000 -5.920000 -19.597771 -88.215652 8166.074219
3.920000 5.880000 -5.880000 24.575668 -59.584450 4154.270020
3.920000 5.880000 -5.840000 33.750870 -13.592567 1323.879150
3.920000 5.880000 -5.800000 10.107420 17.304962 401.621643
3.920000 5.920000 -6.200000 -37.417778 -15.518463 1640.912842
3.920000 5.920000 -6.160000 -30.600042 3.912945 951.673767
3.920000 5.920000 -6.120000 -55.965229 21.854128 3609.709961
3.920000 5.920000 -6.080000 -99.181595 5.040104 9862.390625
3.920000 5.920000 -6.040000 -119.798233 -52.708759 17129.830078
3.920000 5.920000 -6.000000 -87.187080 -117.852554 21490.812500
3.920000 5.920000 -5.960000 -12.014732 -142.487762 20447.115234
3.920000 5.920000 -5.920000 58.571743 -106.290184 14728.252930
3.920000 5.920000 -5.880000 79.878365 -35.574432 7646.093750
3.920000 5.920000 -5.840000 46.963676 19.339653 2579.609131
3.920000 5.920000 -5.800000 -4.293064 27.115486 753.679993
3.920000 5.960000 -6.200000 -0.116192 -35.959740 1293.116455
3.920000 5.960000 -6.160000 -10.486124 -0.865036 110.707085
3.920000 5.960000 -6.120000 -57.499859 5.216217 3333.442871
3.920000 5.960000 -6.080000 -98.010056 -42.779778 11436.080078
3.920000 5.960000 -6.040000 -82.932236 -119.492737 21156.269531
3.920000 5.960000 -6.000000 -5.530357 -165.287262 27350.462891
3.920000 5.960000 -5.960000 86.396744 -138.331970 26600.132812
3.920000 5.960000 -5.920000 129.418610 -53.796715 19643.261719
3.920000 5.960000 -5.880000 99.109154 28.301418 10623.594727
3.920000 5.960000 -5.840000 28.838617 55.422737 3903.345459
3.920000 5.960000 -5.800000 -23.652292 25.146633 1191.784058
3.920000 6.000000 -6.200000 34.047489 -20.098766 1563.192017
3.920000 6.000000 -6.160000 -1.316868 8.956051 81.944984
3.920000 6.000000 -6.120000 -52.321201 -13.277003 2913.786865
3.920000 6.000000 -6.080000 -63.385227 -81.984688 10739.175781
3.920000 6.000000 -6.040000 -5.882762 -143.035065 20493.636719
3.920000 6.000000 -6.000000 88.935989 -138.454620 27079.292969
3.920000 6.000000 -5.960000 152.432800 -60.736717 26924.707031
3.920000 6.000000 -5.920000 138.182892 37.336754 20488.544922
3.920000 6.000000 -5.880000 62.257767 88.321945 11676.795898
3.920000 6.000000 -5.840000 -13.893953 67.796776 4789.444824
3.920000 6.000000 -5.800000 -39.657166 9.690815 1666.602661
3.920000 6.040000 -6.200000 39.297165 12.080580 1690.207642
3.920000 6.040000 -6.160000 -7.394320 16.371098 322.688812
3.920000 6.040000 -6.120000 -38.237923 -29.092978 2308.540039
3.920000 6.040000 -6.080000 -12.110344 -90.139923 8271.866211
3.920000 6.040000 -6.040000 64.212906 -108.626053 15922.916016
3.920000 6.040000 -6.000000 134.961517 -55.859261 21334.869141
3.920000 6.040000 -5.960000 142.405060 37.142300 21658.751953
3.920000 6.040000 -5.920000 78.752068 104.294151 17079.158203
3.920000 6.040000 -5.880000 -7.237240 101.882744 10432.471680
3.920000 6.040000 -5.840000 -54.891354 44.075333 4955.695801
3.920000 6.040000 -5.800000 -43.425575 -15.841782 2136.742676
3.920000 6.080000 -6.200000 18.278893 30.439585 1260.686279
3.920000 6.080000 -6.160000 -17.092445 10.247637 397.165771
3.920000 6.080000 -6.120000 -17.523485 -36.451389 1635.776245
3.920000 6.080000 -6.080000 28.741648 -66.791359 5287.167969
3.920000 6.080000 -6.040000 89.487907 -44.074219 9950.622070
3.920000 6.080000 -6.000000 112.671936 25.085855 13324.264648
3.920000 6.080000 -5.960000 73.040741 91.875458 13776.048828
3.920000 6.080000 -5.920000 -3.486811 106.692001 11395.341797
3.920000 6.080000 -5.880000 -62.155144 62.160042 7727.132812
3.920000 6.080000 -5.840000 -67.123184 -3.111429 4515.203125
3.920000 6.080000 -5.800000 -28.727505 -41.856621 2577.246094
3.920000 6.120000 -6.200000 -4.311234 22.595419 529.139709
3.920000 6.120000 -6.160000 -16.025951 -4.790060 279.775787
3.920000 6.120000 -6.120000 3.617393 -32.545235 1072.277832
3.920000 6.120000 -6.080000 43.690758 -30.995041 2869.574951
3.920000 6.120000 -6.040000 69.941162 8.166924 4958.464844
3.920000 6.120000 -6.000000 53.860302 59.289948 6416.229980
3.920000 6.120000 -5.960000 0.438942 82.022682 6727.913086
3.920000 6.120000 -5.920000 -53.448555 56.459839 6044.461426
3.920000 6.120000 -5.880000 -70.175148 0.869204 4925.306641
3.920000 6.120000 -5.840000 -42.752914 -45.052956 3857.580566
3.920000 6.120000 -5.800000 2.758716 -54.604397 2989.250732
3.920000 6.160000 -6.200000 -7.516924 2.088813 60.867287
3.920000 6.160000 -6.160000 -1.471174 -14.480839 211.859039
3.920000 6.160000 -6.120000 18.664852 -19.467398 727.356323
3.920000 6.160000 -6.080000 37.435783 -2.925652 1409.997314
3.920000 6.160000 -6.040000 35.086426 27.036190 1962.012817
3.920000 6.160000 -6.000000 6.219761 46.946144 2242.625977
3.920000 6.160000 -5.960000 -31.773319 36.995369 2378.201172
3.920000 6.160000 -5.920000 -51.022682 -0.407246 2603.479980
3.920000 6.160000 -5.880000 -36.349190 -40.871803 2991.767822
3.920000 6.160000 -5.840000 2.125793 -57.835129 3349.421143
3.920000 6.160000 -5.800000 38.529938 -43.575089 3383.344482
3.920000 6.200000 -6.200000 7.307784 -8.741090 129.810364
3.920000 6.200000 -6.160000 15.872902 -9.669281 345.444031
3.920000 6.200000 -6.120000 24.194490 -2.725368 592.800964
3.920000 6.200000 -6.080000 24.666365 11.033209 730.161255
3.920000 6.200000 -6.040000 12.083349 22.813931 666.482727
3.920000 6.200000 -6.000000 -8.862616 20.776445 510.206635
3.920000 6.200000 -5.960000 -23.663708 0.717140 560.485352
3.920000 6.200000 -5.920000 -18.378780 -27.338924 1085.196411
3.920000 6.200000 -5.880000 7.946217 -44.650909 2056.846191
3.920000 6.200000 -5.840000 40.660088 -38.030037 3099.526367
3.920000 6.200000 -5.800000 60.123318 -10.377269 3722.500977
3.960000 5.800000 -6.200000 -21.619844 87.155060 8063.421875
3.960000 5.800000 -6.160000 -61.554150 70.153519 8710.429688
3.960000 5.800000 -6.120000 -78.421555 29.204006 7002.814453
3.960000 5.800000 -6.080000 -62.417995 -8.118089 3961.909424
3.960000 5.800000 -6.040000 -31.168678 -18.806755 1325.180542
3.960000 5.800000 -6.000000 -12.144871 -5.643761 179.349915
3.960000 5.800000 -5.960000 -15.701365 7.926208 309.357635
3.960000 5.800000 -5.920000 -26.986385 3.526030 740.697876
3.960000 5.800000 -5.880000 -24.479019 -13.592867 783.988403
3.960000 5.800000 -5.840000 -4.185314 -22.395210 519.062317
3.960000 5.800000 -5.800000 16.739643 -10.504523 390.560638
3.960000 5.840000 -6.200000 -66.406128 47.809216 6695.495117
3.960000 5.840000 -6.160000 -78.458359 24.374317 6749.821289
3.960000 5.840000 -6.120000 -76.763519 1.877975 5896.164551
3.960000 5.840000 -6.080000 -68.760818 -12.662748 4888.395508
3.960000 5.840000 -6.040000 -62.417942 -22.350342 4395.537109
3.960000 5.840000 -6.000000 -56.757717 -34.640896 4421.430176
3.960000 5.840000 -5.960000 -43.273354 -49.860516 4358.654297
3.960000 5.840000 -5.920000 -17.788433 -57.601685 3634.382324
3.960000 5.840000 -5.880000 10.529400 -46.817726 2302.767578
3.960000 5.840000 -5.840000 24.719803 -19.616068 995.858765
3.960000 5.840000 -5.800000 16.172298 7.062322 311.419617
3.960000 5.880000 -6.200000 -66.864204 -11.546066 4604.133301
3.960000 5.880000 -6.160000 -60.363522 -15.542139 3885.312744
3.960000 5.880000 -6.120000 -66.572388 -15.565577 4674.169922
3.960000 5.880000 -6.080000 -82.233063 -30.261232 7678.018555
3.960000 5.880000 -6.040000 -86.163498 -66.309021 11821.035156
3.960000 5.880000 -6.000000 -58.681358 -106.355446 14754.982422
3.960000 5.880000 -5.960000 -3.672943 -120.424599 14515.574219
3.960000 5.880000 -5.920000 49.396416 -92.569168 11009.056641
3.960000 5.880000 -5.880000 68.225494 -37.766956 6081.061523
3.960000 5.880000 -5.840000 45.285984 8.466389 2122.500000
3.960000 5.880000 -5.800000 4.222431 19.476683 397.170074
3.960000 5.920000 -6.200000 -24.576538 -48.695286 2975.237305
3.960000 5.920000 -6.160000 -26.177536 -27.532099 1443.279785
3.960000 5.920000 -6.120000 -56.938175 -25.912075 3913.391357
3.960000 5.920000 -6.080000 -83.299332 -66.423073 11350.802734
3.960000 5.920000 -6.040000 -64.011887 -129.759827 20935.134766
3.960000 5.920000 -6.000000 7.807652 -165.827469 27559.708984
3.960000 5.920000 -5.960000 91.636032 -137.800522 27386.146484
3.960000 5.920000 -5.920000 131.385818 -57.910507 20615.859375
3.960000 5.920000 -5.880000 103.791779 20.577444 11196.165039
3.960000 5.920000 -5.840000 37.719971 48.754128 3799.760986
3.960000 5.920000 -5.800000 -13.397889 22.125303 669.032471
3.960000 5.960000 -6.200000 25.923744 -40.710594 2329.393066
3.960000 5.960000 -6.160000 -2.576103 -13.761127 196.004929
3.960000 5.960000 -6.120000 -48.361637 -35.729656 3615.456055
3.960000 5.960000 -6.080000 -55.192787 -104.195557 13902.957031
3.960000 5.960000 -6.040000 7.645910 -164.832993 27228.375000
3.960000 5.960000 -6.000000 109.147400 -157.211121 36628.492188
3.960000 5.960000 -5.960000 177.839752 -72.200562 36839.898438
3.960000 5.960000 -5.920000 163.711288 35.495602 28061.324219
3.960000 5.960000 -5.880000 82.246002 93.767982 15556.839844
3.960000 5.960000 -5.840000 -1.371271 74.694839 5581.199219
3.960000 5.960000 -5.800000 -31.290033 13.270706 1155.177856
3.960000 6.000000 -6.200000 47.840080 -1.768805 2291.802002
3.960000 6.000000 -6.160000 -1.548077 5.062626 28.026722
3.960000 6.000000 -6.120000 -35.588169 -46.028992 3385.185791
3.960000 6.000000 -6.080000 -3.631325 -117.385864 13792.627930
3.960000 6.000000 -6.040000 89.330551 -139.603317 27469.033203
3.960000 6.000000 -6.000000 177.910400 -75.679718 37379.531250
3.960000 6.000000 -5.960000 191.101196 39.740505 38098.976562
3.960000 6.000000 -5.920000 116.205780 127.042587 29643.601562
3.960000 6.000000 -5.880000 10.185253 130.586853 17156.666016
3.960000 6.000000 -5.840000 -52.264179 64.304649 6866.632324
3.960000 6.000000 -5.800000 -42.711689 -7.802427 1885.166260
3.960000 6.040000 -6.200000 32.605106 32.684395 2131.362793
3.960000 6.040000 -6.160000 -13.588362 10.262075 289.953766
3.960000 6.040000 -6.120000 -16.386663 -51.107246 2880.473389
3.960000 6.040000 -6.080000 45.224888 -94.865631 11044.779297
3.960000 6.040000 -6.040000 131.509979 -67.645325 21870.765625
3.960000 6.040000 -6.000000 170.824188 27.038258 29911.968750
3.960000 6.040000 -5.960000 123.501602 125.197739 30927.119141
3.960000 6.040000 -5.920000 19.627810 156.295425 24813.509766
3.960000 6.040000 -5.880000 -66.905563 104.347397 15364.733398
3.960000 6.040000 -5.840000 -83.122055 18.094774 7236.696777
3.960000 6.040000 -5.800000 -38.205364 -37.008461 2829.276123
3.960000 6.080000 -6.200000 2.511529 38.536007 1491.331543
3.960000 6.080000 -6.160000 -20.557594 0.528557 422.894043
3.960000 6.080000 -6.120000 4.202384 -45.546707 2092.162354
3.960000 6.080000 -6.080000 66.986145 -50.994915 7087.625000
3.960000 6.080000 -6.040000 116.619827 4.791859 13623.146484
3.960000 6.080000 -6.000000 103.514503 88.415749 18532.597656
3.960000 6.080000 -5.960000 26.768974 136.834167 19440.167969
3.960000 6.080000 -5.920000 -61.461033 112.033035 16328.859375
3.960000 6.080000 -5.880000 -100.510117 34.168655 11269.780273
3.960000 6.080000 -5.840000 -72.368851 -38.352348 6708.153320
3.960000 6.080000 -5.800000 -11.427959 -61.059856 3858.904297
3.960000 6.120000 -6.200000 -13.995925 20.993225 636.601440
3.960000 6.120000 -6.160000 -13.668163 -10.919325 306.050354
3.960000 6.120000 -6.120000 18.168106 -30.637318 1268.725342
3.960000 6.120000 -6.080000 58.846344 -12.016068 3607.278076
3.960000 6.120000 -6.040000 69.511566 39.926395 6425.975098
3.960000 6.120000 -6.000000 30.609589 86.690697 8452.223633
3.960000 6.120000 -5.960000 -36.041992 87.474716 8950.851562
3.960000 6.120000 -5.920000 -82.724861 36.095753 8146.306152
3.960000 6.120000 -5.880000 -76.223946 -32.194145 6846.552734
3.960000 6.120000 -5.840000 -25.156754 -71.171936 5698.306641
3.960000 6.120000 -5.800000 30.903305 -61.925911 4789.832520
3.960000 6.160000 -6.200000 -8.190952 3.499245 79.336411
3.960000 6.160000 -6.160000 0.564152 -11.660568 136.287125
3.960000 6.160000 -6.120000 21.754940 -13.383760 652.402466
3.960000 6.160000 -6.080000 37.897495 6.763113 1481.959839
3.960000 6.160000 -6.040000 29.255024 36.747898 2206.264404
3.960000 6.160000 -6.000000 -5.293995 50.027615 2530.788574
3.960000 6.160000 -5.960000 -42.124947 28.745243 2600.800049
3.960000 6.160000 -5.920000 -50.724266 -17.488583 2878.801758
3.960000 6.160000 -5.880000 -20.381327 -56.995506 3663.886230
3.960000 6.160000 -5.840000 29.771782 -61.997810 4730.087402
3.960000 6.160000 -5.800000 67.088997 -30.994429 5461.588379
3.960000 6.200000 -6.200000 5.979821 2.323198 41.155514
3.960000 6.200000 -6.160000 9.601840 -1.467208 94.348038
3.960000 6.200000 -6.120000 17.670197 -0.168668 312.264282
3.960000 6.200000 -6.080000 22.012711 9.996992 584.499268
3.960000 6.200000 -6.040000 13.696487 21.617331 654.902771
3.960000 6.200000 -6.000000 -4.589741 20.507504 441.623413
3.960000 6.200000 -5.960000 -16.639124 0.556446 277.170074
3.960000 6.200000 -5.920000 -6.206074 -26.411617 736.088867
3.960000 6.200000 -5.880000 26.226448 -37.897144 2124.020264
3.960000 6.200000 -5.840000 60.744888 -20.014004 4090.501709
3.960000 6.200000 -5.800000 73.413719 19.475876 5768.883789
4.000000 5.800000 -6.200000 -72.560974 59.992043 8864.139648
4.000000 5.800000 -6.160000 -97.534683 18.481407 9854.577148
4.000000 5.800000 -6.120000 -86.449104 -30.660135 8413.491211
4.000000 5.800000 -6.080000 -46.603848 -56.363792 5348.795898
4.000000 5.800000 -6.040000 -7.613914 -47.266220 2292.067139
4.000000 5.800000 -6.000000 6.078770 -21.055840 480.299835
4.000000 5.800000 -5.960000 -3.294281 -5.331366 39.275745
4.000000 5.800000 -5.920000 -12.995934 -10.267048 274.306549
4.000000 5.800000 -5.880000 -5.786211 -21.442150 493.246033
4.000000 5.800000 -5.840000 12.621791 -18.798590 512.696533
4.000000 5.800000 -5.800000 22.348087 0.350050 499.559540
4.000000 5.840000 -6.200000 -87.195190 -2.787264 7610.770508
4.000000 5.840000 -6.160000 -82.242798 -34.072670 7924.824707
4.000000 5.840000 -6.120000 -63.022976 -55.609283 7064.288086
4.000000 5.840000 -6.080000 -40.916176 -63.331322 5684.989746
4.000000 5.840000 -6.040000 -23.804283 -63.265396 4569.154297
4.000000 5.840000 -6.000000 -9.883949 -62.610855 4017.811523
4.000000 5.840000 -5.960000 6.873070 -60.491940 3706.513672
4.000000 5.840000 -5.920000 25.940422 -49.429317 3116.162842
4.000000 5.840000 -5.880000 37.314491 -26.418938 2090.331543
4.000000 5.840000 -5.840000 31.267193 -0.687143 978.109497
4.000000 5.840000 -5.800000 10.662172 12.289272 264.708130
4.000000 5.880000 -6.200000 -50.441105 -54.850922 5552.928711
4.000000 5.880000 -6.160000 -38.838474 -57.341728 4796.500977
4.000000 5.880000 -6.120000 -38.247295 -61.091957 5195.083008
4.000000 5.880000 -6.080000 -37.503044 -78.687576 7598.212891
4.000000 5.880000 -6.040000 -17.863499 -104.389946 11216.365234
4.000000 5.880000 -6.000000 25.559357 -115.282501 13943.334961
4.000000 5.880000 -5.960000 73.316452 -92.022888 13843.513672
4.000000 5.880000 -5.920000 95.037491 -39.971302 10629.830078
4.000000 5.880000 -5.880000 76.040520 11.132847 5906.101074
4.000000 5.880000 -5.840000 31.910433 30.874958 1971.538818
4.000000 5.880000 -5.800000 -3.906901 13.875316 207.788269
4.000000 5.920000 -6.200000 9.213441 -61.105881 3818.816162
4.000000 5.920000 -6.160000 0.010475 -44.411507 1972.382080
4.000000 5.920000 -6.120000 -22.805714 -57.881283 3870.343506
4.000000 5.920000 -6.080000 -20.169996 -102.030853 10817.124023
4.000000 5.920000 -6.040000 30.406996 -139.117157 20278.169922
4.000000 5.920000 -6.000000 106.667290 -125.583099 27149.027344
4.000000 5.920000 -5.960000 155.803879 -55.154934 27316.916016
4.000000 5.920000 -5.920000 140.542877 30.378357 20675.144531
4.000000 5.920000 -5.880000 73.470398 75.499336 11098.048828
4.000000 5.920000 -5.840000 6.132942 58.609383 3472.672852
4.000000 5.920000 -5.800000 -16.593634 8.022388 339.707397
4.000000 5.960000 -6.200000 48.335159 -23.996630 2912.125977
4.000000 5.960000 -6.160000 12.082291 -15.626778 390.177917
4.000000 5.960000 -6.120000 -13.001379 -56.604168 3373.067627
4.000000 5.960000 -6.080000 18.580311 -114.955566 13560.009766
4.000000 5.960000 -6.040000 102.900177 -129.090698 27252.855469
4.000000 5.960000 -6.000000 181.252487 -66.086151 37219.843750
4.000000 5.960000 -5.960000 189.669540 41.983597 37737.156250
4.000000 5.960000 -5.920000 117.608826 122.111176 28742.976562
4.000000 5.960000 -5.880000 18.537254 123.769600 15662.543945
4.000000 5.960000 -5.840000 -38.077003 61.218632 5197.579102
4.000000 5.960000 -5.800000 -26.555176 -4.580830 726.161377
4.000000 6.000000 -6.200000 45.255760 22.229757 2542.245850
4.000000 6.000000 -6.160000 1.015312 3.055841 10.369026
4.000000 6.000000 -6.120000 -0.391800 -56.767445 3222.696289
4.000000 6.000000 -6.080000 64.272354 -98.883057 13908.794922
4.000000 6.000000 -6.040000 154.076797 -67.162598 28250.474609
4.000000 6.000000 -6.000000 193.908676 34.822395 38813.171875
4.000000 6.000000 -5.960000 142.263153 139.542847 39711.011719
4.000000 6.000000 -5.920000 31.484829 172.711761 30820.648438
4.000000 6.000000 -5.880000 -59.922028 118.231468 17569.328125
4.000000 6.000000 -5.840000 -76.382507 28.813873 6664.526855
4.000000 6.000000 -5.800000 -29.172245 -25.710064 1512.027344
4.000000 6.040000 -6.200000 14.133635 43.885963 2125.737305
4.000000 6.040000 -6.160000 -13.157539 2.312828 178.470016
4.000000 6.040000 -6.120000 15.800797 -50.643196 2814.398682
4.000000 6.040000 -6.080000 90.803368 -55.878227 11367.627930
4.000000 6.040000 -6.040000 150.580688 12.481997 22830.343750
4.000000 6.040000 -6.000000 135.019958 114.805756 31410.750000
4.000000 6.040000 -5.960000 42.627743 175.277557 32539.347656
4.000000 6.040000 -5.920000 -64.093262 148.181671 26065.753906
4.000000 6.040000 -5.880000 -112.626732 57.857521 16032.273438
4.000000 6.040000 -5.840000 -82.171646 -25.795660 7417.595215
4.000000 6.040000 -5.800000 -14.782717 -50.573521 2776.209717
4.000000 6.080000 -6.200000 -13.690536 34.867485 1403.172241
4.000000 6.080000 -6.160000 -15.405325 -7.622602 295.428101
4.000000 6.080000 -6.120000 27.592501 -35.053856 1990.118896
4.000000 6.080000 -6.080000 84.411041 -9.400181 7213.587402
4.000000 6.080000 -6.040000 100.500946 63.499557 14132.634766
4.000000 6.080000 -6.000000 47.899124 130.705933 19378.367188
4.000000 6.080000 -5.960000 -44.113174 135.860870 20404.148438
4.000000 6.080000 -5.920000 -110.833168 70.086319 17196.083984
4.000000 6.080000 -5.880000 -107.659210 -19.427704 11967.941406
4.000000 6.080000 -5.840000 -46.500912 -71.568733 7284.417969
4.000000 6.080000 -5.800000 20.288963 -62.811958 4356.983887
4.000000 6.120000 -6.200000 -19.665474 14.885613 608.312378
4.000000 6.120000 -6.160000 -7.239574 -12.043625 197.460342
4.000000 6.120000 -6.120000 28.088802 -16.465305 1060.087158
4.000000 6.120000 -6.080000 56.033546 16.496819 3411.903320
4.000000 6.120000 -6.040000 43.475075 66.886246 6363.852051
4.000000 6.120000 -6.000000 -11.613976 91.687401 8541.463867
4.000000 6.120000 -5.960000 -72.194214 62.650757 9137.122070
4.000000 6.120000 -5.920000 -91.615318 -5.665100 8425.459961
4.000000 6.120000 -5.880000 -54.135334 -66.252060 7319.969727
4.000000 6.120000 -5.840000 12.210440 -79.554993 6478.091797
4.000000 6.120000 -5.800000 61.931339 -44.890282 5850.627930
4.000000 6.160000 -6.200000 -10.214537 5.388636 133.374161
4.000000 6.160000 -6.160000 0.005966 -6.797593 46.207306
4.000000 6.160000 -6.120000 19.563129 -4.202742 400.379059
4.000000 6.160000 -6.080000 29.354851 17.733942 1176.199951
4.000000 6.160000 -6.040000 13.236557 42.123085 1949.560669
4.000000 6.160000 -6.000000 -22.068048 42.812305 2319.892334
4.000000 6.160000 -5.960000 -47.815548 10.034180 2387.011475
4.000000 6.160000 -5.920000 -37.508247 -36.319237 2725.955566
4.000000 6.160000 -5.880000 7.898663 -61.225739 3810.979980
4.000000 6.160000 -5.840000 58.971943 -44.389206 5448.091797
4.000000 6.160000 -5.800000 82.507965 2.998192 6816.553711
4.000000 6.200000 -6.200000 -3.333937 9.726234 105.714775
4.000000 6.200000 -6.160000 -0.657799 0.956665 1.347907
4.000000 6.200000 -6.120000 10.529627 -0.775766 111.474854
4.000000 6.200000 -6.080000 18.041142 9.641466 418.440674
4.000000 6.200000 -6.040000 10.990257 21.929245 601.677551
4.000000 6.200000 -6.000000 -5.467740 19.760509 420.373901
4.000000 6.200000 -5.960000 -12.055070 -0.416119 145.497864
4.000000 6.200000 -5.920000 5.695206 -21.727074 504.501099
4.000000 6.200000 -5.880000 40.503468 -20.534084 2062.179443
4.000000 6.200000 -5.840000 66.800407 10.957230 4582.355469
4.000000 6.200000 -5.800000 62.471397 55.811119 7017.556641
4.040000 5.800000 -6.200000 -87.006966 9.781984 7665.898926
4.040000 5.800000 -6.160000 -85.463501 -38.655781 8798.279297
4.040000 5.800000 -6.120000 -49.171841 -75.106400 8058.840820
4.040000 5.800000 -6.080000 0.617513 -76.480888 5849.707520
4.040000 5.800000 -6.040000 32.752537 -46.642838 3248.282715
4.040000 5.800000 -6.000000 33.279610 -12.076189 1253.366821
4.040000 5.800000 -5.960000 15.365242 3.276826 246.828262
4.040000 5.800000 -5.920000 3.063557 -1.561817 11.824653
4.040000 5.800000 -5.880000 6.886183 -8.657398 122.370056
4.040000 5.800000 -5.840000 16.459412 -3.171394 280.969971
4.040000 5.800000 -5.800000 15.794546 11.248307 375.992096
4.040000 5.840000 -6.200000 -66.934494 -47.931999 6777.703125
4.040000 5.840000 -6.160000 -45.035645 -73.462257 7424.912109
4.040000 5.840000 -6.120000 -13.549921 -82.374306 6969.126953
4.040000 5.840000 -6.080000 14.448269 -74.311539 5730.957031
4.040000 5.840000 -6.040000 31.493954 -57.708038 4322.086914
4.040000 5.840000 -6.000000 39.184685 -40.928207 3210.557617
4.040000 5.840000 -5.960000 42.418564 -25.754616 2462.634766
4.040000 5.840000 -5.920000 41.890297 -9.883598 1852.482544
4.040000 5.840000 -5.880000 34.028332 5.646549 1189.810913
4.040000 5.840000 -5.840000 18.233101 14.092297 531.038757
4.040000 5.840000 -5.800000 2.030350 9.688118 97.981949
4.040000 5.880000 -6.200000 -11.398710 -70.666969 5123.750977
4.040000 5.880000 -6.160000 2.935555 -68.850128 4748.958008
4.040000 5.880000 -6.120000 11.242352 -69.699860 4984.460938
4.040000 5.880000 -6.080000 24.580954 -76.350929 6433.687500
4.040000 5.880000 -6.040000 50.820709 -77.724083 8623.777344
4.040000 5.880000 -6.000000 81.919037 -58.868507 10176.229492
4.040000 5.880000 -5.960000 97.208420 -18.522076 9792.543945
4.040000 5.880000 -5.920000 81.829330 24.472183 7294.927246
4.040000 5.880000 -5.880000 42.851208 44.667801 3831.438477
4.040000 5.880000 -5.840000 6.174421 32.081898 1067.371704
4.040000 5.880000 -5.800000 -4.575948 1.830921 24.291571
4.040000 5.920000 -6.200000 38.791386 -45.846851 3606.705566
4.040000 5.920000 -6.160000 27.674454 -37.171150 2147.569824
4.040000 5.920000 -6.120000 20.271832 -54.576637 3389.556641
4.040000 5.920000 -6.080000 43.593685 -80.672440 8408.452148
4.040000 5.920000 -6.040000 95.249535 -79.253357 15353.568359
4.040000 5.920000 -6.000000 139.127289 -31.505524 20349.000000
4.040000 5.920000 -5.960000 136.296417 40.742428 20236.658203
4.040000 5.920000 -5.920000 82.488846 90.285240 14955.833984
4.040000 5.920000 -5.880000 14.837410 85.744904 7572.337402
4.040000 5.920000 -5.840000 -20.074034 39.366760 1952.708618
4.040000 5.920000 -5.800000 -6.491756 -5.350462 70.770348
4.040000 5.960000 -6.200000 51.550297 2.149881 2662.055176
4.040000 5.960000 -6.160000 22.577688 -6.975449 558.408875
4.040000 5.960000 -6.120000 23.723850 -46.347118 2710.876465
4.040000 5.960000 -6.080000 73.183670 -72.002579 10540.220703
4.040000 5.960000 -6.040000 139.384399 -41.399910 21141.964844
4.040000 5.960000 -6.000000 164.468109 41.299126 28755.376953
4.040000 5.960000 -5.960000 117.880333 122.248917 28840.570312
4.040000 5.960000 -5.920000 27.688204 143.816238 21449.748047
4.040000 5.960000 -5.880000 -42.627384 96.176872 11067.084961
4.040000 5.960000 -5.840000 -50.264900 24.586155 3131.039307
4.040000 5.960000 -5.800000 -7.989774 -13.792147 254.059799
4.040000 6.000000 -6.200000 28.080534 36.658875 2132.389404
4.040000 6.000000 -6.160000 4.594080 3.666328 34.547535
4.040000 6.000000 -6.120000 30.571875 -39.967415 2532.033691
4.040000 6.000000 -6.080000 96.946274 -40.618595 11048.450195
4.040000 6.000000 -6.040000 147.804565 24.587635 22450.742188
4.040000 6.000000 -6.000000 129.144150 118.289879 30670.707031
4.040000 6.000000 -5.960000 41.745728 171.038757 30996.960938
4.040000 6.000000 -5.920000 -55.326263 143.009140 23512.609375
4.040000 6.000000 -5.880000 -96.146805 59.753445 12814.681641
4.040000 6.000000 -5.840000 -64.976402 -12.728276 4383.941406
4.040000 6.000000 -5.800000 -4.501186 -28.089809 809.298096
4.040000 6.040000 -6.200000 -4.580570 40.277557 1643.263184
4.040000 6.040000 -6.160000 -6.641768 -1.338835 45.905563
4.040000 6.040000 -6.120000 37.722755 -27.221668 2164.025391
4.040000 6.040000 -6.080000 95.375633 2.541894 9102.972656
4.040000 6.040000 -6.040000 108.899338 80.538025 18345.439453
4.040000 6.040000 -6.000000 50.560944 150.147842 25100.783203
4.040000 6.040000 -5.960000 -46.696552 153.360260 25699.937500
4.040000 6.040000 -5.920000 -114.765335 83.866577 20204.683594
4.040000 6.040000 -5.880000 -109.714325 -6.670372 12081.727539
4.040000 6.040000 -5.840000 -48.020866 -55.486221 5384.724609
4.040000 6.040000 -5.800000 13.897074 -42.484383 1998.051392
4.040000 6.080000 -6.200000 -21.677498 23.966314 1044.298096
4.040000 6.080000 -6.160000 -6.449108 -7.219367 93.710251
4.040000 6.080000 -6.120000 35.935234 -9.700050 1385.432007
4.040000 6.080000 -6.080000 67.007591 33.068012 5583.510742
4.040000 6.080000 -6.040000 47.655670 94.378754 11178.412109
4.040000 6.080000 -6.000000 -21.427700 122.102631 15368.199219
4.040000 6.080000 -5.960000 -93.863258 85.321121 16090.005859
4.040000 6.080000 -5.920000 -115.855515 4.922421 13446.730469
4.040000 6.080000 -5.880000 -73.226791 -63.146488 9349.642578
4.040000 6.080000 -5.840000 -1.946836 -76.480087 5852.993652
4.040000 6.080000 -5.800000 46.716602 -39.725067 3760.521973
4.040000 6.120000 -6.200000 -20.419744 9.457065 506.402039
4.040000 6.120000 -6.160000 -3.564267 -6.201100 51.157646
4.040000 6.120000 -6.120000 23.312706 2.120039 547.976807
4.040000 6.120000 -6.080000 31.832174 35.945110 2305.338135
4.040000 6.120000 -6.040000 3.342300 68.139053 4654.101562
4.040000 6.120000 -6.000000 -47.840874 64.439545 6441.204102
4.040000 6.120000 -5.960000 -81.840576 16.884499 6982.966309
4.040000 6.120000 -5.920000 -67.531143 -44.648651 6553.957031
4.040000 6.120000 -5.880000 -11.266058 -76.401566 5964.123047
4.040000 6.120000 -5.840000 48.353878 -58.061241 5709.205078
4.040000 6.120000 -5.800000 74.297699 -7.783652 5580.733398
4.040000 6.160000 -6.200000 -14.850605 6.603034 264.140533
4.040000 6.160000 -6.160000 -5.760225 -2.844056 41.268852
4.040000 6.160000 -6.120000 9.200158 1.475439 86.819824
4.040000 6.160000 -6.080000 12.419914 19.466692 533.206360
4.040000 6.160000 -6.040000 -5.396910 32.818962 1106.210815
4.040000 6.160000 -6.000000 -31.096031 21.874825 1445.471069
4.040000 6.160000 -5.960000 -37.951744 -12.163822 1588.293457
4.040000 6.160000 -5.920000 -11.073524 -43.796761 2040.779175
4.040000 6.160000 -5.880000 35.979298 -44.452782 3270.559570
4.040000 6.160000 -5.840000 71.043686 -8.401102 5117.783691
4.040000 6.160000 -5.800000 70.631332 42.072731 6758.899902
4.040000 6.200000 -6.200000 -16.265934 8.272980 333.022797
4.040000 6.200000 -6.160000 -10.781216 -4.476804 136.276382
4.040000 6.200000 -6.120000 4.025177 -6.344732 56.457676
4.040000 6.200000 -6.080000 12.951599 5.168417 194.456467
4.040000 6.200000 -6.040000 7.015388 16.746799 329.670959
4.040000 6.200000 -6.000000 -4.896279 13.808884 214.658829
4.040000 6.200000 -5.960000 -4.289181 -1.763247 21.506111
4.040000 6.200000 -5.920000 16.454376 -10.843804 388.334595
4.040000 6.200000 -5.880000 43.215034 4.454859 1887.385010
4.040000 6.200000 -5.840000 51.391731 41.622726 4373.561523
4.040000 6.200000 -5.800000 28.519007 77.902985 6882.208984
4.080000 5.800000 -6.200000 -65.235641 -28.134363 5047.231445
4.080000 5.800000 -6.160000 -42.200565 -64.503876 5941.637695
4.080000 5.800000 -6.120000 3.076865 -76.820496 5910.855957
4.080000 5.800000 -6.080000 44.778419 -54.973572 5027.200195
4.080000 5.800000 -6.040000 58.866402 -13.723143 3653.577881
4.080000 5.800000 -6.000000 42.834900 19.696386 2222.776367
4.080000 5.800000 -5.960000 15.699730 28.636192 1066.513062
4.080000 5.800000 -5.920000 -0.921423 18.594982 346.622375
4.080000 5.800000 -5.880000 -1.243108 7.555571 58.631966
4.080000 5.800000 -5.840000 4.061208 6.757726 62.160267
4.080000 5.800000 -5.800000 3.016489 11.968576 152.346039
4.080000 5.840000 -6.200000 -28.066704 -61.580845 4579.940430
4.080000 5.840000 -6.160000 1.473150 -72.881462 5313.877930
4.080000 5.840000 -6.120000 33.461067 -65.060074 5352.456055
4.080000 5.840000 -6.080000 54.660118 -41.298065 4693.258789
4.080000 5.840000 -6.040000 58.606064 -12.896493 3600.990234
4.080000 5.840000 -6.000000 48.573944 9.075634 2441.795166
4.080000 5.840000 -5.960000 32.834785 20.189613 1485.743652
4.080000 5.840000 -5.920000 17.928032 22.202665 814.372681
4.080000 5.840000 -5.880000 6.424692 18.299866 376.161743
4.080000 5.840000 -5.840000 -0.510458 10.331693 107.004440
4.080000 5.840000 -5.800000 -0.874088 0.487893 1.002070
4.080000 5.880000 -6.200000 20.250114 -55.874382 3532.013672
4.080000 5.880000 -6.160000 34.230721 -49.391037 3611.216797
4.080000 5.880000 -6.120000 45.464622 -42.243752 3851.566406
4.080000 5.880000 -6.080000 57.997284 -32.948730 4449.303711
4.080000 5.880000 -6.040000 70.168030 -15.696326 5169.926758
4.080000 5.880000 -6.000000 72.955460 10.819199 5439.554199
4.080000 5.880000 -5.960000 58.152210 37.318317 4774.336426
4.080000 5.880000 -5.920000 28.953703 48.830357 3222.720703
4.080000 5.880000 -5.880000 1.228863 37.768005 1427.932373
4.080000 5.880000 -5.840000 -7.913331 12.737732 224.870621
4.080000 5.880000 -5.800000 5.218596 -6.641469 71.342865
4.080000 5.920000 -6.200000 46.011330 -19.197769 2485.596924
4.080000 5.920000 -6.160000 39.259506 -16.174229 1802.914551
4.080000 5.920000 -6.120000 43.216892 -25.371275 2511.401367
4.080000 5.920000 -6.080000 66.184006 -27.361603 5128.979980
4.080000 5.920000 -6.040000 92.764297 -3.389471 8616.703125
4.080000 5.920000 -6.000000 95.515900 42.147827 10899.726562
4.080000 5.920000 -5.960000 62.092175 80.728485 10372.526367
4.080000 5.920000 -5.920000 10.657539 84.045288 7177.193359
4.080000 5.920000 -5.880000 -23.665388 50.942451 3155.183838
4.080000 5.920000 -5.840000 -19.726227 9.970253 488.529968
4.080000 5.920000 -5.800000 11.021723 -5.902312 156.315659
4.080000 5.960000 -6.200000 37.463284 18.825159 1757.884155
4.080000 5.960000 -6.160000 24.225170 4.203196 604.525757
4.080000 5.960000 -6.120000 39.717812 -17.222160 1874.107300
4.080000 5.960000 -6.080000 78.528999 -12.218244 6316.089355
4.080000 5.960000 -6.040000 105.310181 32.802536 12166.240234
4.080000 5.960000 -6.000000 86.634254 92.605164 16081.210938
4.080000 5.960000 -5.960000 25.543583 122.137390 15570.016602
4.080000 5.960000 -5.920000 -37.105545 97.724556 10926.910156
4.080000 5.960000 -5.880000 -58.184532 40.090305 4992.672363
4.080000 5.960000 -5.840000 -30.844828 -4.238893 969.371582
4.080000 5.960000 -5.800000 11.405754 -5.265909 157.821030
4.080000 6.000000 -6.200000 10.059152 34.744530 1308.368896
4.080000 6.000000 -6.160000 7.828465 7.123589 112.030380
4.080000 6.000000 -6.120000 39.637875 -9.181184 1655.455322
4.080000 6.000000 -6.080000 80.405190 16.030085 6721.958008
4.080000 6.000000 -6.040000 86.523743 76.336105 13313.558594
4.080000 6.000000 -6.000000 38.089767 127.655945 17746.871094
4.080000 6.000000 -5.960000 -37.511703 126.250465 17346.308594
4.080000 6.000000 -5.920000 -86.964035 70.091034 12475.496094
4.080000 6.000000 -5.880000 -78.437508 2.082268 6156.778320
4.080000 6.000000 -5.840000 -29.098747 -28.908943 1682.464111
4.080000 6.000000 -5.800000 13.771263 -11.069189 312.174622
4.080000 6.040000 -6.200000 -12.640601 28.290304 960.126099
4.080000 6.040000 -6.160000 0.066438 3.115533 9.710958
4.080000 6.040000 -6.120000 35.951180 3.398524 1304.037231
4.080000 6.040000 -6.080000 60.392624 43.068882 5502.197754
4.080000 6.040000 -6.040000 39.406197 97.065483 10974.556641
4.080000 6.040000 -6.000000 -24.238794 118.936340 14733.373047
4.080000 6.040000 -5.960000 -87.666473 83.403069 14641.482422
4.080000 6.040000 -5.920000 -104.167496 12.207235 10999.883789
4.080000 6.040000 -5.880000 -65.007217 -43.853207 6149.041992
4.080000 6.040000 -5.840000 -5.848404 -50.034302 2537.635254
4.080000 6.040000 -5.800000 27.865921 -15.941278 1030.633911
4.080000 6.080000 -6.200000 -20.508770 15.172506 650.814575
4.080000 6.080000 -6.160000 -3.071066 1.535059 11.787852
4.080000 6.080000 -6.120000 22.361612 13.337750 677.937317
4.080000 6.080000 -6.080000 26.356218 49.375820 3132.622070
4.080000 6.080000 -6.040000 -7.457458 79.937363 6445.595703
4.080000 6.080000 -6.000000 -60.983677 71.616379 8847.914062
4.080000 6.080000 -5.960000 -93.155914 20.540480 9099.935547
4.080000 6.080000 -5.920000 -76.145294 -40.123444 7407.996582
4.080000 6.080000 -5.880000 -21.241467 -68.026810 5078.846680
4.080000 6.080000 -5.840000 31.477966 -48.426865 3336.023438
4.080000 6.080000 -5.800000 49.318489 -4.267595 2450.525879
4.080000 6.120000 -6.200000 -20.282810 7.585566 468.933197
4.080000 6.120000 -6.160000 -8.600215 0.839005 74.667625
4.080000 6.120000 -6.120000 4.640273 10.537817 132.577728
4.080000 6.120000 -6.080000 0.708832 31.240198 976.452393
4.080000 6.120000 -6.040000 -25.281954 40.568974 2285.018799
4.080000 6.120000 -6.000000 -54.067513 20.565395 3346.231445
4.080000 6.120000 -5.960000 -57.129230 -21.378719 3720.798584
4.080000 6.120000 -5.920000 -23.909439 -55.146576 3612.806152
4.080000 6.120000 -5.880000 26.112194 -53.708549 3566.455078
4.080000 6.120000 -5.840000 59.538132 -17.191717 3840.344238
4.080000 6.120000 -5.800000 57.762230 28.403290 4143.222168
4.080000 6.160000 -6.200000 -21.807915 4.112086 492.494385
4.080000 6.160000 -6.160000 -15.156134 -5.405453 258.927307
4.080000 6.160000 -6.120000 -3.806330 -4.028912 30.720274
4.080000 6.160000 -6.080000 -1.336384 6.135639 39.431992
4.080000 6.160000 -6.040000 -11.464931 10.546726 242.678101
4.080000 6.160000 -6.000000 -21.168543 -1.436718 450.171356
4.080000 6.160000 -5.960000 -12.939772 -22.246929 662.363525
4.080000 6.160000 -5.920000 15.724823 -30.604792 1183.923340
4.080000 6.160000 -5.880000 46.639954 -11.651515 2311.042969
4.080000 6.160000 -5.840000 56.018280 27.652367 3902.700928
4.080000 6.160000 -5.800000 35.505226 63.779961 5328.504395
4.080000 6.200000 -6.200000 -25.255875 -2.927802 646.431213
4.080000 6.200000 -6.160000 -14.905931 -16.879658 507.109650
4.080000 6.200000 -6.120000 2.927493 -17.054508 299.426483
4.080000 6.200000 -6.080000 13.199190 -4.501141 194.478897
4.080000 6.200000 -6.040000 10.326171 7.387161 161.199951
4.080000 6.200000 -6.000000 3.863136 8.352058 84.680702
4.080000 6.200000 -5.960000 7.002045 3.273353 59.743465
4.080000 6.200000 -5.920000 20.518509 7.088764 471.259796
4.080000 6.200000 -5.880000 29.984818 27.876377 1676.181641
4.080000 6.200000 -5.840000 19.711517 56.334141 3562.079346
4.080000 6.200000 -5.800000 -11.242459 73.001328 5455.586914
4.120000 5.800000 -6.200000 -32.690334 -35.844299 2353.471680
4.120000 5.800000 -6.160000 -3.966515 -52.169861 2737.427490
4.120000 5.800000 -6.120000 32.718781 -44.194756 3023.694824
4.120000 5.800000 -6.080000 55.541428 -11.808922 3224.300781
4.120000 5.800000 -6.040000 50.046391 26.931099 3229.925293
4.120000 5.800000 -6.000000 21.444386 49.221310 2882.598877
4.120000 5.800000 -5.960000 -9.831934 45.402893 2158.089600
4.120000 5.800000 -5.920000 -25.215149 25.037870 1262.698730
4.120000 5.800000 -5.880000 -21.832661 6.332694 516.768066
4.120000 5.800000 -5.840000 -10.992062 -0.083128 120.832329
4.120000 5.800000 -5.800000 -4.748990 2.409082 28.356579
4.120000 5.840000 -6.200000 -0.672462 -46.942097 2204.012695
4.120000 5.840000 -6.160000 25.242670 -44.996490 2661.876465
4.120000 5.840000 -6.120000 47.284973 -25.936779 2908.585205
4.120000 5.840000 -6.080000 53.367783 3.870538 2863.101074
4.120000 5.840000 -6.040000 39.880760 30.421598 2515.948730
4.120000 5.840000 -6.000000 14.734720 41.512218 1940.376221
4.120000 5.840000 -5.960000 -8.355229 34.767403 1278.582153
4.120000 5.840000 -5.920000 -19.267704 17.826199 689.017761
4.120000 5.840000 -5.880000 -16.775370 1.592308 283.948456
4.120000 5.840000 -5.840000 -6.529504 -7.001735 91.658714
4.120000 5.840000 -5.800000 4.737640 -7.113979 73.053932
4.120000 5.880000 -6.200000 27.617485 -31.140720 1732.469971
4.120000 5.880000 -6.160000 38.977150 -21.406822 1977.470337
4.120000 5.880000 -6.120000 46.077385 -6.999236 2172.114746
4.120000 5.880000 -6.080000 46.544487 10.386662 2274.271973
4.120000 5.880000 -6.040000 38.279667 27.208517 2205.636230
4.120000 5.880000 -6.000000 21.630848 37.754608 1893.303955
4.120000 5.880000 -5.960000 1.724657 36.627190 1344.525513
4.120000 5.880000 -5.920000 -12.379297 23.341818 698.087463
4.120000 5.880000 -5.880000 -12.959062 4.967065 192.609009
4.120000 5.880000 -5.840000 0.103058 -6.923982 47.952141
4.120000 5.880000 -5.800000 17.701355 -3.992202 329.275665
4.120000 5.920000 -6.200000 34.738106 -2.794007 1214.542480
4.120000 5.920000 -6.160000 33.904091 0.730684 1150.021362
4.120000 5.920000 -6.120000 38.078178 3.247036 1460.490845
4.120000 5.920000 -6.080000 45.289474 13.093275 2222.570312
4.120000 5.920000 -6.040000 45.052246 32.282860 3071.887695
4.120000 5.920000 -6.000000 28.916576 50.676956 3404.322266
4.120000 5.920000 -5.960000 1.784372 53.346043 2848.984375
4.120000 5.920000 -5.920000 -19.075584 35.473492 1622.246582
4.120000 5.920000 -5.880000 -18.588196 9.683823 439.297455
4.120000 5.920000 -5.840000 1.346516 -3.243263 12.331863
4.120000 5.920000 -5.800000 21.937443 7.277135 534.208069
4.120000 5.960000 -6.200000 22.137466 18.437653 830.014404
4.120000 5.960000 -6.160000 20.519442 11.384916 550.663818
4.120000 5.960000 -6.120000 32.104553 8.352443 1100.465698
4.120000 5.960000 -6.080000 46.515778 22.583569 2673.735107
4.120000 5.960000 -6.040000 44.373714 50.939297 4563.838379
4.120000 5.960000 -6.000000 17.358051 72.567039 5567.276855
4.120000 5.960000 -5.960000 -19.897604 67.258842 4919.666504
4.120000 5.960000 -5.920000 -40.572693 36.310158 2964.571045
4.120000 5.960000 -5.880000 -30.383343 3.850830 937.976440
4.120000 5.960000 -5.840000 -1.914004 -4.528680 24.172354
4.120000 5.960000 -5.800000 16.633694 14.424753 484.753296
4.120000 6.000000 -6.200000 3.713392 24.305758 604.559143
4.120000 6.000000 -6.160000 8.855930 13.358101 256.866364
4.120000 6.000000 -6.120000 26.451567 15.087051 927.304504
4.120000 6.000000 -6.080000 37.831867 38.157459 2887.241699
4.120000 6.000000 -6.040000 23.414539 68.812141 5283.351562
4.120000 6.000000 -6.000000 -15.209641 80.031921 6636.441406
4.120000 6.000000 -5.960000 -52.238205 57.230068 6004.110840
4.120000 6.000000 -5.920000 -59.723137 14.716273 3783.421631
4.120000 6.000000 -5.880000 -34.081203 -15.496074 1401.656738
4.120000 6.000000 -5.840000 -0.085116 -12.996214 168.908829
4.120000 6.000000 -5.800000 12.605029 12.514400 315.496948
4.120000 6.040000 -6.200000 -9.591238 20.086872 495.474274
4.120000 6.040000 -6.160000 -0.332501 12.908309 166.734985
4.120000 6.040000 -6.120000 14.306890 21.355129 660.728638
4.120000 6.040000 -6.080000 14.909611 45.459084 2288.824707
4.120000 6.040000 -6.040000 -9.843150 65.342155 4366.484863
4.120000 6.040000 -6.000000 -47.366249 58.125702 5622.158691
4.120000 6.040000 -5.960000 -68.941017 21.793842 5227.835449
4.120000 6.040000 -5.920000 -55.893127 -19.380846 3499.658936
4.120000 6.040000 -5.880000 -18.269518 -35.620262 1602.578369
4.120000 6.040000 -5.840000 13.810166 -18.924011 548.838867
4.120000 6.040000 -5.800000 18.244663 10.543265 444.028198
4.120000 6.080000 -6.200000 -17.244610 13.745731 486.321686
4.120000 6.080000 -6.160000 -10.612104 9.927803 211.178040
4.120000 6.080000 -6.120000 -3.242338 17.637342 321.588593
4.120000 6.080000 -6.080000 -9.169102 32.442642 1136.597412
4.120000 6.080000 -6.040000 -31.218079 36.945526 2339.540283
4.120000 6.080000 -6.000000 -53.351402 18.205856 3177.825195
4.120000 6.080000 -5.960000 -53.593452 -16.040569 3129.557861
4.120000 6.080000 -5.920000 -25.944496 -41.164989 2367.673340
4.120000 6.080000 -5.880000 11.709389 -37.598942 1550.790161
4.120000 6.080000 -5.840000 33.052986 -9.219239 1177.494263
4.120000 6.080000 -5.800000 27.159227 20.857578 1172.662231
4.120000 6.120000 -6.200000 -23.296223 6.626001 586.617859
4.120000 6.120000 -6.160000 -20.123669 -0.225461 405.012878
4.120000 6.120000 -6.120000 -14.207229 0.306633 201.939377
4.120000 6.120000 -6.080000 -15.310765 5.419106 263.786255
4.120000 6.120000 -6.040000 -24.155697 3.740732 597.490784
4.120000 6.120000 -6.000000 -28.886124 -10.754780 950.073425
4.120000 6.120000 -5.960000 -16.891327 -28.940235 1122.854126
4.120000 6.120000 -5.920000 10.144852 -33.176918 1203.625854
4.120000 6.120000 -5.880000 34.997246 -14.578147 1437.329590
4.120000 6.120000 -5.840000 39.942436 17.189835 1890.888672
4.120000 6.120000 -5.800000 22.847576 42.348026 2315.367188
4.120000 6.160000 -6.200000 -27.244625 -4.445639 762.033325
4.120000 6.160000 -6.160000 -20.838537 -16.932377 720.950012
4.120000 6.160000 -6.120000 -7.856055 -20.095406 465.542908
4.120000 6.160000 -6.080000 1.068546 -14.463284 210.328354
4.120000 6.160000 -6.040000 2.607994 -9.065353 88.982262
4.120000 6.160000 -6.000000 3.767677 -9.565010 105.684814
4.120000 6.160000 -5.960000 12.333599 -10.744725 267.566772
4.120000 6.160000 -5.920000 25.928745 -2.170344 677.010193
4.120000 6.160000 -5.880000 32.517960 19.188984 1425.634766
4.120000 6.160000 -5.840000 22.170471 43.674511 2398.992676
4.120000 6.160000 -5.800000 -2.687770 56.979168 3253.849609
4.120000 6.200000 -6.200000 -23.589277 -18.571669 901.360840
4.120000 6.200000 -6.160000 -8.311426 -30.394339 992.895630
4.120000 6.200000 -6.120000 11.791052 -27.250759 881.632812
4.120000 6.200000 -6.080000 23.658318 -12.021438 704.230957
4.120000 6.200000 -6.040000 23.301044 4.023956 559.130859
4.120000 6.200000 -6.000000 17.369432 13.313931 478.957916
4.120000 6.200000 -5.960000 13.663210 18.371670 524.201538
4.120000 6.200000 -5.920000 11.885696 26.305946 833.272583
4.120000 6.200000 -5.880000 4.733332 38.650536 1516.268311
4.120000 6.200000 -5.840000 -12.711369 48.211334 2485.911621
4.120000 6.200000 -5.800000 -36.258934 45.976860 3428.582031
4.160000 5.800000 -6.200000 -14.005493 -22.309769 693.879639
4.160000 5.800000 -6.160000 6.094296 -24.454643 635.170044
4.160000 5.800000 -6.120000 26.454401 -9.864897 797.151489
4.160000 5.800000 -6.080000 31.995094 18.375738 1361.353760
4.160000 5.800000 -6.040000 14.949644 44.415886 2196.262695
4.160000 5.800000 -6.000000 -16.293804 50.911697 2857.489014
4.160000 5.800000 -5.960000 -42.120632 33.609238 2903.728516
4.160000 5.800000 -5.920000 -47.224510 5.367699 2258.966553
4.160000 5.800000 -5.880000 -32.612675 -14.768459 1281.693970
4.160000 5.800000 -5.840000 -12.912816 -17.389341 469.130005
4.160000 5.800000 -5.800000 -2.042702 -8.533508 76.993393
4.160000 5.840000 -6.200000 3.455122 -26.622425 720.691406
4.160000 5.840000 -6.160000 19.692287 -19.339912 761.818420
4.160000 5.840000 -6.120000 29.112370 0.374606 847.670410
4.160000 5.840000 -6.080000 22.110859 24.068409 1068.178467
4.160000 5.840000 -6.040000 -0.561493 37.260834 1388.685059
4.160000 5.840000 -6.000000 -26.236626 30.737873 1633.177368
4.160000 5.840000 -5.960000 -39.260296 8.590582 1615.168945
4.160000 5.840000 -5.920000 -32.934505 -14.641317 1299.049805
4.160000 5.840000 -5.880000 -13.897555 -25.340027 835.258972
4.160000 5.840000 -5.840000 4.532087 -20.429052 437.886017
4.160000 5.840000 -5.800000 13.247796 -7.179071 227.043167
4.160000 5.880000 -6.200000 18.033535 -17.935083 646.875610
4.160000 5.880000 -6.160000 25.823483 -7.270972 719.719299
4.160000 5.880000 -6.120000 25.341351 8.259424 710.402100
4.160000 5.880000 -6.080000 14.230320 20.950411 641.421753
4.160000 5.880000 -6.040000 -2.876077 23.290768 550.731689
4.160000 5.880000 -6.000000 -16.799593 13.558006 466.045837
4.160000 5.880000 -5.960000 -19.813400 -2.594912 399.304382
4.160000 5.880000 -5.920000 -10.637477 -15.689576 359.318726
4.160000 5.880000 -5.880000 5.040744 -18.338478 361.708862
4.160000 5.880000 -5.840000 18.397284 -9.280516 424.588013
4.160000 5.880000 -5.800000 22.583277 6.661776 554.383667
4.160000 5.920000 -6.200000 23.004137 -3.183725 539.326416
4.160000 5.920000 -6.160000 24.053814 4.989197 603.478027
4.160000 5.920000 -6.120000 20.506392 12.705580 581.943848
4.160000 5.920000 -6.080000 13.644323 17.498501 492.365112
4.160000 5.920000 -6.040000 5.495911 18.089781 357.445221
4.160000 5.920000 -6.000000 -1.446413 14.027696 198.868362
4.160000 5.920000 -5.960000 -3.992933 6.373268 56.562057
4.160000 5.920000 -5.920000 0.354493 -0.974298 1.074921
4.160000 5.920000 -5.880000 10.282583 -2.058533 109.969078
4.160000 5.920000 -5.840000 19.139217 6.886829 413.738037
4.160000 5.920000 -5.800000 18.330868 22.724531 852.425049
4.160000 5.960000 -6.200000 18.781355 10.392141 460.735901
4.160000 5.960000 -6.160000 16.995365 14.613729 502.403503
4.160000 5.960000 -6.120000 15.244852 17.270561 530.677795
4.160000 5.960000 -6.080000 13.652637 20.833950 620.447998
4.160000 5.960000 -6.040000 9.207666 25.311543 725.455322
4.160000 5.960000 -6.000000 0.887921 26.483009 702.138184
4.160000 5.960000 -5.960000 -6.566534 20.796721 475.622925
4.160000 5.960000 -5.920000 -6.368217 11.527843 173.445343
4.160000 5.960000 -5.880000 2.006154 7.804340 64.932381
4.160000 5.960000 -5.840000 9.583977 15.536594 333.238373
4.160000 5.960000 -5.800000 5.250787 29.370201 890.179443
4.160000 6.000000 -6.200000 8.581808 19.274675 445.160553
4.160000 6.000000 -6.160000 5.456450 20.660358 456.623260
4.160000 6.000000 -6.120000 5.208699 21.400875 485.128021
4.160000 6.000000 -6.080000 4.910625 25.844772 692.066528
4.160000 6.000000 -6.040000 -1.158753 31.700977 1006.294678
4.160000 6.000000 -6.000000 -12.693232 31.318304 1141.954346
4.160000 6.000000 -5.960000 -21.120560 21.152672 893.513550
4.160000 6.000000 -5.920000 -18.193012 8.174920 397.815002
4.160000 6.000000 -5.880000 -6.398080 4.259505 59.078812
4.160000 6.000000 -5.840000 1.525537 13.266208 178.319534
4.160000 6.000000 -5.800000 -4.713997 25.120117 653.242065
4.160000 6.040000 -6.200000 -5.116185 21.870514 504.494720
4.160000 6.040000 -6.160000 -10.024509 19.842274 494.206604
4.160000 6.040000 -6.120000 -10.117474 17.861010 421.378937
4.160000 6.040000 -6.080000 -10.433279 20.155342 515.091125
4.160000 6.040000 -6.040000 -16.437943 22.507442 776.790894
4.160000 6.040000 -6.000000 -25.241550 17.407694 940.163696
4.160000 6.040000 -5.960000 -27.284473 4.663033 766.186401
4.160000 6.040000 -5.920000 -17.504614 -5.852600 340.664429
4.160000 6.040000 -5.880000 -3.013348 -3.974860 24.879774
4.160000 6.040000 -5.840000 2.852711 8.826552 86.045990
4.160000 6.040000 -5.800000 -5.287075 19.483044 407.542145
4.160000 6.080000 -6.200000 -19.335115 16.141804 634.404541
4.160000 6.080000 -6.160000 -24.273701 8.079563 654.491882
4.160000 6.080000 -6.120000 -21.630550 1.334632 469.661957
4.160000 6.080000 -6.080000 -17.811502 0.100319 317.259705
4.160000 6.080000 -6.040000 -17.853428 0.083797 318.751892
4.160000 6.080000 -6.000000 -18.675386 -4.320171 367.433929
4.160000 6.080000 -5.960000 -13.367486 -11.245153 305.143158
4.160000 6.080000 -5.920000 -1.187480 -12.213766 150.586197
4.160000 6.080000 -5.880000 9.302089 -2.218059 91.448639
4.160000 6.080000 -5.840000 8.684877 12.978151 243.859512
4.160000 6.080000 -5.800000 -2.555661 21.693314 477.131256
4.160000 6.120000 -6.200000 -28.278194 1.553350 802.069153
4.160000 6.120000 -6.160000 -27.830130 -12.729471 936.555542
4.160000 6.120000 -6.120000 -17.372545 -21.674099 771.571899
4.160000 6.120000 -6.080000 -5.532902 -21.302090 484.392029
4.160000 6.120000 -6.040000 1.576008 -16.169357 263.931915
4.160000 6.120000 -6.000000 5.363545 -11.741323 166.626282
4.160000 6.120000 -5.960000 10.048339 -7.605042 158.805771
4.160000 6.120000 -5.920000 15.214090 0.575189 231.799393
4.160000 6.120000 -5.880000 15.266006 13.567450 417.126648
4.160000 6.120000 -5.840000 6.403362 25.491703 690.829956
4.160000 6.120000 -5.800000 -7.757836 29.379875 923.361084
4.160000 6.160000 -6.200000 -25.550064 -16.889601 938.064392
4.160000 6.160000 -6.160000 -15.111589 -31.678732 1231.902222
4.160000 6.160000 -6.120000 3.944431 -35.063667 1245.019409
4.160000 6.160000 -6.080000 20.340216 -25.433832 1060.604248
4.160000 6.160000 -6.040000 27.219149 -9.720104 835.362488
4.160000 6.160000 -6.000000 25.734463 4.585264 683.287231
4.160000 6.160000 -5.960000 20.433186 15.253660 650.189209
4.160000 6.160000 -5.920000 13.320911 23.851442 746.338013
4.160000 6.160000 -5.880000 3.289848 30.748884 956.317017
4.160000 6.160000 -5.840000 -9.911375 33.489677 1219.793823
4.160000 6.160000 -5.800000 -23.338713 29.983631 1443.713623
4.160000 6.200000 -6.200000 -10.442998 -29.152479 958.923279
4.160000 6.200000 -6.160000 7.777303 -35.918678 1350.637939
4.160000 6.200000 -6.120000 28.206707 -27.691784 1562.453247
4.160000 6.200000 -6.080000 39.353355 -7.518334 1605.211914
4.160000 6.200000 -6.040000 36.530003 14.760319 1552.308105
4.160000 6.200000 -6.000000 23.324543 30.503120 1474.474609
4.160000 6.200000 -5.960000 6.642406 37.034081 1415.644653
4.160000 6.200000 -5.920000 -8.649040 36.403015 1399.985474
4.160000 6.200000 -5.880000 -21.062363 31.507687 1436.357422
4.160000 6.200000 -5.840000 -30.690153 23.979897 1516.920898
4.160000 6.200000 -5.800000 -37.605919 14.534536 1625.457764
4.200000 5.800000 -6.200000 -14.201843 -7.990602 265.542084
4.200000 5.800000 -6.160000 -6.732922 -8.544836 118.346451
4.200000 5.800000 -6.120000 1.782182 0.120415 3.190673
4.200000 5.800000 -6.080000 0.251143 16.740751 280.315826
4.200000 5.800000 -6.040000 -16.808182 28.828691 1113.608398
4.200000 5.800000 -6.000000 -40.597385 23.146751 2183.919922
4.200000 5.800000 -5.960000 -53.454781 -0.430158 2857.598633
4.200000 5.800000 -5.920000 -44.642387 -26.578222 2699.344727
4.200000 5.800000 -5.880000 -20.728411 -37.543079 1839.149780
4.200000 5.800000 -5.840000 0.507401 -28.971849 839.625488
4.200000 5.800000 -5.800000 6.806951 -12.522961 203.159119
4.200000 5.840000 -6.200000 -5.309962 -18.318945 363.779449
4.200000 5.840000 -6.160000 2.876637 -14.267277 211.830231
4.200000 5.840000 -6.120000 5.455814 -2.003457 33.779751
4.200000 5.840000 -6.080000 -4.441476 10.055871 120.847252
4.200000 5.840000 -6.040000 -22.803516 9.966867 619.338806
4.200000 5.840000 -6.000000 -36.028061 -6.018714 1334.246094
4.200000 5.840000 -5.960000 -32.384621 -28.244041 1846.489502
4.200000 5.840000 -5.920000 -12.872339 -41.006615 1847.239624
4.200000 5.840000 -5.880000 9.324010 -35.937496 1378.440796
4.200000 5.840000 -5.840000 20.467485 -18.513016 761.649719
4.200000 5.840000 -5.800000 17.485130 -1.680234 308.552948
4.200000 5.880000 -6.200000 9.700901 -19.744410 483.949188
4.200000 5.880000 -6.160000 14.652451 -10.702789 329.244019
4.200000 5.880000 -6.120000 9.821098 -0.167902 96.482162
4.200000 5.880000 -6.080000 -2.505414 2.306708 11.598000
4.200000 5.880000 -6.040000 -12.471648 -6.955925 203.926895
4.200000 5.880000 -6.000000 -10.978588 -21.757500 593.918213
4.200000 5.880000 -5.960000 2.411594 -30.879818 959.378967
4.200000 5.880000 -5.920000 19.206596 -27.227970 1110.255737
4.200000 5.880000 -5.880000 29.113394 -12.878716 1013.451050
4.200000 5.880000 -5.840000 27.641407 3.821472 778.651001
4.200000 5.880000 -5.800000 17.660471 15.369499 548.113770
4.200000 5.920000 -6.200000 22.850756 -9.283400 608.338562
4.200000 5.920000 -6.160000 20.836998 2.052399 438.392822
4.200000 5.920000 -6.120000 11.091687 6.283510 162.508026
4.200000 5.920000 -6.080000 3.249086 0.376471 10.698293
4.200000 5.920000 -6.040000 4.804009 -9.338621 110.288353
4.200000 5.920000 -6.000000 14.669108 -13.576781 399.511719
4.200000 5.920000 -5.960000 25.239960 -8.251806 705.147827
4.200000 5.920000 -5.920000 29.629011 3.441803 889.724304
4.200000 5.920000 -5.880000 26.279152 15.529727 931.766235
4.200000 5.920000 -5.840000 17.490192 24.225128 892.763672
4.200000 5.920000 -5.800000 5.583507 28.401394 837.814697
4.200000 5.960000 -6.200000 25.221115 9.205972 720.854614
4.200000 5.960000 -6.160000 14.958637 17.605879 533.727783
4.200000 5.960000 -6.120000 4.717218 13.603506 207.307526
4.200000 5.960000 -6.080000 4.579074 4.078802 37.604546
4.200000 5.960000 -6.040000 13.580263 0.426085 184.605103
4.200000 5.960000 -6.000000 22.170412 7.066189 541.458191
4.200000 5.960000 -5.960000 22.663168 18.622049 860.399902
4.200000 5.960000 -5.920000 15.697599 27.253300 989.156982
4.200000 5.960000 -5.880000 6.661698 30.521053 975.912903
4.200000 5.960000 -5.840000 -1.811309 30.951746 961.291382
4.200000 5.960000 -5.800000 -11.462616 29.563927 1005.417358
4.200000 6.000000 -6.200000 12.875441 25.430920 812.508667
4.200000 6.000000 -6.160000 -2.816908 25.297215 647.884033
4.200000 6.000000 -6.120000 -8.988851 13.661613 267.439117
4.200000 6.000000 -6.080000 -1.715827 4.637052 24.446308
4.200000 6.000000 -6.040000 9.319927 7.715119 146.384109
4.200000 6.000000 -6.000000 12.316633 19.307171 524.466309
4.200000 6.000000 -5.960000 5.097740 28.720829 850.872986
4.200000 6.000000 -5.920000 -5.202229 30.166538 937.083191
4.200000 6.000000 -5.880000 -12.160827 26.839050 868.220337
4.200000 6.000000 -5.840000 -16.737089 23.794632 846.314697
4.200000 6.000000 -5.800000 -22.963348 20.058113 929.643311
4.200000 6.040000 -6.200000 -8.774677 28.370476 881.878906
4.200000 6.040000 -6.160000 -23.232773 17.006153 828.970947
4.200000 6.040000 -6.120000 -21.327181 0.585960 455.191986
4.200000 6.040000 -6.080000 -7.672469 -5.417045 88.211151
4.200000 6.040000 -6.040000 3.417611 2.506245 17.961330
4.200000 6.040000 -6.000000 2.915853 14.886658 230.114777
4.200000 6.040000 -5.960000 -5.864962 21.048084 477.419617
4.200000 6.040000 -5.920000 -14.022232 19.374741 572.003540
4.200000 6.040000 -5.880000 -17.772541 15.502182 556.180847
4.200000 6.040000 -5.840000 -20.317066 12.895553 579.078430
4.200000 6.040000 -5.800000 -24.214260 8.685033 661.760193
4.200000 6.080000 -6.200000 -26.833317 14.398755 927.351074
4.200000 6.080000 -6.160000 -32.520813 -5.383006 1086.580078
4.200000 6.080000 -6.120000 -20.236549 -21.304939 863.418396
4.200000 6.080000 -6.080000 -1.222881 -21.476227 462.723785
4.200000 6.080000 -6.040000 9.946915 -8.481478 170.876572
4.200000 6.080000 -6.000000 8.229439 5.910753 102.660667
4.200000 6.080000 -5.960000 -0.549117 13.029327 170.064896
4.200000 6.080000 -5.920000 -8.551796 13.170582 246.597443
4.200000 6.080000 -5.880000 -13.482139 10.933180 301.302490
4.200000 6.080000 -5.840000 -17.206539 8.113815 361.898987
4.200000 6.080000 -5.800000 -19.761314 3.293823 401.358826
4.200000 6.120000 -6.200000 -29.386780 -8.646973 938.352966
4.200000 6.120000 -6.160000 -22.520002 -28.992048 1347.689453
4.200000 6.120000 -6.120000 -1.427164 -37.700897 1423.394409
4.200000 6.120000 -6.080000 19.706930 -28.595222 1206.049805
4.200000 6.120000 -6.040000 28.494278 -8.582130 885.576843
4.200000 6.120000 -6.000000 22.944643 10.112342 628.716125
4.200000 6.120000 -5.960000 9.759409 19.820463 488.096832
4.200000 6.120000 -5.920000 -3.310854 20.516376 431.883453
4.200000 6.120000 -5.880000 -12.462067 15.971825 410.402283
4.200000 6.120000 -5.840000 -17.142126 9.509970 384.291992
4.200000 6.120000 -5.800000 -17.683836 3.502859 324.988068
4.200000 6.160000 -6.200000 -14.665211 -26.074589 894.952576
4.200000 6.160000 -6.160000 1.696541 -38.362965 1474.595337
4.200000 6.160000 -6.120000 25.093456 -35.248531 1872.140503
4.200000 6.160000 -6.080000 41.801079 -16.015808 2003.836304
4.200000 6.160000 -6.040000 42.609962 9.835177 1912.339600
4.200000 6.160000 -6.000000 28.170736 30.031651 1695.490479
4.200000 6.160000 -5.960000 6.751462 37.249420 1433.101562
4.200000 6.160000 -5.920000 -11.987793 31.903616 1161.547852
4.200000 6.160000 -5.880000 -22.191402 19.909718 888.855225
4.200000 6.160000 -5.840000 -23.601202 8.463890 628.654175
4.200000 6.160000 -5.800000 -20.491165 2.283529 425.102356
4.200000 6.200000 -6.200000 6.998829 -27.049992 780.685608
4.200000 6.200000 -6.160000 24.371946 -27.578619 1354.572021
4.200000 6.200000 -6.120000 41.427628 -14.106192 1915.232910
4.200000 6.200000 -6.080000 47.316044 10.264257 2344.163086
4.200000 6.200000 -6.040000 36.555397 35.140339 2571.140381
4.200000 6.200000 -6.000000 12.689447 49.072617 2569.143555
4.200000 6.200000 -5.960000 -13.753863 46.398842 2342.021240
4.200000 6.200000 -5.920000 -31.567320 30.437128 1922.914429
4.200000 6.200000 -5.880000 -35.580097 11.101811 1389.193604
4.200000 6.200000 -5.840000 -29.438812 -1.801970 869.890747
4.200000 6.200000 -5.800000 -22.275078 -5.183526 523.048035
