#kx 	ky 	kz 	real 	imag 	intensity
7.800000 1.800000 1.983333 1.568905 -41.903320 1758.349731
7.800000 1.800000 1.991667 -56.280399 21.201817 3617.000488
7.800000 1.800000 2.000000 -23.943710 -148.380966 22590.210938
7.800000 1.800000 2.008333 111.036224 -47.847698 14618.445312
7.800000 1.800000 2.016667 47.961262 20.318733 2713.133545
7.800000 1.900000 1.983333 -55.500420 39.327614 4626.958008
7.800000 1.900000 1.991667 -45.379986 -25.170540 2692.899170
7.800000 1.900000 2.000000 54.801876 18.340523 3339.620361
7.800000 1.900000 2.008333 -59.190956 84.522690 10647.654297
7.800000 1.900000 2.016667 -61.536629 -66.238632 8174.312500
7.800000 2.000000 1.983333 -46.181709 -84.041115 9195.659180
7.800000 2.000000 1.991667 51.356110 -45.443054 4702.521484
7.800000 2.000000 2.000000 -27.178600 68.414436 5419.211426
7.800000 2.000000 2.008333 -85.866219 -95.021744 16402.138672
7.800000 2.000000 2.016667 119.880386 -37.342590 15765.775391
7.800000 2.100000 1.983333 33.513714 -14.454983 1332.115601
7.800000 2.100000 1.991667 79.288651 111.915344 18811.734375
7.800000 2.100000 2.000000 -159.958694 67.036499 30080.675781
7.800000 2.100000 2.008333 3.802006 -80.274010 6458.371582
7.800000 2.100000 2.016667 -81.509026 69.584923 11485.783203
7.800000 2.200000 1.983333 -2.566349 -11.584908 140.796234
7.800000 2.200000 1.991667 -74.518669 122.331070 20517.921875
7.800000 2.200000 2.000000 -138.598663 -132.841156 36856.363281
7.800000 2.200000 2.008333 36.765900 -68.753075 6078.716797
7.800000 2.200000 2.016667 7.811649 -152.057892 23182.623047
7.900000 1.800000 1.983333 -37.340286 84.934052 8608.089844
7.900000 1.800000 1.991667 -88.580482 -183.344360 41461.656250
7.900000 1.800000 2.000000 156.092178 20.960836 24804.125000
7.900000 1.800000 2.008333 -94.463097 11.459968 9054.607422
7.900000 1.800000 2.016667 62.202477 -46.274879 6010.512695
7.900000 1.900000 1.983333 37.338047 -711.940125 508252.875000
7.900000 1.900000 1.991667 162.984558 277.366028 103495.882812
7.900000 1.900000 2.000000 -569.270874 -228.187073 376138.656250
7.900000 1.900000 2.008333 -36.279343 -646.176025 418859.656250
7.900000 1.900000 2.016667 424.489319 -496.298492 426503.375000
7.900000 2.000000 1.983333 1051.498047 -28.837620 1106479.750000
7.900000 2.000000 1.991667 -516.047241 226.628311 317665.125000
7.900000 2.000000 2.000000 267.021942 -900.039429 881371.750000
7.900000 2.000000 2.008333 816.553284 -235.129852 722045.312500
7.900000 2.000000 2.016667 913.281860 433.668549 1022152.125000
7.900000 2.100000 1.983333 154.046082 594.102844 376688.375000
7.900000 2.100000 1.991667 -231.076752 -242.564346 112233.921875
7.900000 2.100000 2.000000 491.021301 -10.962372 241222.093750
7.900000 2.100000 2.008333 288.234894 378.090149 226031.500000
7.900000 2.100000 2.016667 -131.304657 614.678467 395070.531250
7.900000 2.200000 1.983333 107.773972 131.426132 28888.056641
7.900000 2.200000 1.991667 -202.040924 -21.916569 41300.871094
7.900000 2.200000 2.000000 117.577660 -153.136017 37275.148438
7.900000 2.200000 2.008333 80.124580 92.739929 15020.642578
7.900000 2.200000 2.016667 6.769215 30.587830 981.437561
8.000000 1.800000 1.983333 -160.705612 -70.882614 30850.638672
8.000000 1.800000 1.991667 167.145706 -154.517136 51813.234375
8.000000 1.800000 2.000000 -10.795958 98.762764 9870.636719
8.000000 1.800000 2.008333 7.883320 -185.333923 34410.812500
8.000000 1.800000 2.016667 180.415405 31.153004 33520.226562
8.000000 1.900000 1.983333 1044.831177 -98.842331 1101442.000000
8.000000 1.900000 1.991667 -418.615509 275.926392 251374.312500
8.000000 1.900000 2.000000 277.385742 -916.576538 917055.437500
8.000000 1.900000 2.008333 954.021606 -139.532440 929626.562500
8.000000 1.900000 2.016667 820.502991 520.042969 943669.875000
8.000000 2.000000 1.983333 243.482849 1508.447998 2334699.250000
8.000000 2.000000 1.991667 -441.571411 -759.659546 772067.937500
8.000000 2.000000 2.000000 1421.363892 242.471375 2079067.625000
8.000000 2.000000 2.008333 439.211761 1141.782837 1496575.000000
8.000000 2.000000 2.016667 -367.669891 1396.391357 2085090.000000
8.000000 2.100000 1.983333 -845.270142 337.947052 828689.812500
8.000000 2.100000 1.991667 378.064117 -359.424561 272118.500000
8.000000 2.100000 2.000000 19.563705 788.171753 621597.437500
8.000000 2.100000 2.008333 -501.532562 408.163513 418132.375000
8.000000 2.100000 2.016667 -961.242004 4.580475 924007.187500
8.000000 2.200000 1.983333 -167.102264 150.297012 50512.359375
8.000000 2.200000 1.991667 -27.414936 -208.451874 44203.761719
8.000000 2.200000 2.000000 184.560028 28.271458 34861.675781
8.000000 2.200000 2.008333 -42.654243 127.553589 18089.302734
8.000000 2.200000 2.016667 -45.358059 -97.926147 11646.883789
8.100000 1.800000 1.983333 35.590984 -116.832245 14916.491211
8.100000 1.800000 1.991667 106.870117 51.882202 14112.984375
8.100000 1.800000 2.000000 -62.087509 57.318775 7140.300781
8.100000 1.800000 2.008333 72.577827 -86.498886 12749.597656
8.100000 1.800000 2.016667 97.440948 169.321777 38164.601562
8.100000 1.900000 1.983333 152.687408 614.364441 400757.093750
8.100000 1.900000 1.991667 -180.889145 -272.763641 107120.890625
8.100000 1.900000 2.000000 609.378540 71.783188 376495.031250
8.100000 1.900000 2.008333 232.101654 581.455566 391961.750000
8.100000 1.900000 2.016667 -280.055786 600.605774 439158.531250
8.100000 2.000000 1.983333 -892.292786 241.362244 854442.187500
8.100000 2.000000 1.991667 456.407074 -364.873901 341440.375000
8.100000 2.000000 2.000000 15.919731 919.872681 846419.187500
8.100000 2.000000 2.008333 -681.649658 373.737762 604326.187500
8.100000 2.000000 2.016667 -855.064941 -108.216003 742846.750000
8.100000 2.100000 1.983333 -244.340500 -534.384888 345269.500000
8.100000 2.100000 1.991667 303.393372 170.865112 121242.421875
8.100000 2.100000 2.000000 -426.702148 69.615700 186921.062500
8.100000 2.100000 2.008333 -221.370651 -249.116974 111064.234375
8.100000 2.100000 2.016667 -82.915901 -541.305847 299887.062500
8.100000 2.200000 1.983333 -30.205215 -89.733383 8964.435547
8.100000 2.200000 1.991667 169.610962 -17.543650 29075.658203
8.100000 2.200000 2.000000 90.571671 210.789581 52635.472656
8.100000 2.200000 2.008333 -134.841385 86.830704 25721.769531
8.100000 2.200000 2.016667 69.155411 -6.594460 4825.957520
8.200000 1.800000 1.983333 35.930611 25.287910 1930.487183
8.200000 1.800000 1.991667 0.370254 2.257084 5.231516
8.200000 1.800000 2.000000 -80.501839 -63.638008 10530.341797
8.200000 1.800000 2.008333 135.634628 -83.990166 25451.099609
8.200000 1.800000 2.016667 -30.489216 134.458191 19008.597656
8.200000 1.900000 1.983333 9.320744 -32.958382 1173.131104
8.200000 1.900000 1.991667 87.710632 25.914314 8364.706055
8.200000 1.900000 2.000000 57.610657 51.049515 5925.041016
8.200000 1.900000 2.008333 -22.498075 117.301376 14265.776367
8.200000 1.900000 2.016667 -62.330013 -58.508102 7308.228516
8.200000 2.000000 1.983333 104.378403 -28.404480 11701.665039
8.200000 2.000000 1.991667 53.513939 74.048569 8346.931641
8.200000 2.000000 2.000000 -50.257664 64.138588 6639.590820
8.200000 2.000000 2.008333 -23.009575 -51.795376 3212.201660
8.200000 2.000000 2.016667 60.557205 42.042580 5434.753418
8.200000 2.100000 1.983333 112.182411 54.422760 15546.730469
8.200000 2.100000 1.991667 69.834358 104.157143 15725.546875
8.200000 2.100000 2.000000 15.304013 103.406189 10927.052734
8.200000 2.100000 2.008333 -24.705627 108.512947 12385.427734
8.200000 2.100000 2.016667 -74.176003 42.916855 7343.936035
8.200000 2.200000 1.983333 43.747795 128.787262 18500.027344
8.200000 2.200000 1.991667 -39.289028 126.047302 17431.550781
8.200000 2.200000 2.000000 -164.824112 131.352631 44420.500000
8.200000 2.200000 2.008333 -156.121796 -74.815529 29971.378906
8.200000 2.200000 2.016667 -44.412773 -13.314648 2149.774170
