#kx 	ky 	kz 	real 	imag 	intensity
1.800000 5.800000 -4.200000 2.945022 -41.248055 1710.075073
1.800000 5.800000 -4.160000 19.605024 -35.235275 1625.881592
1.800000 5.800000 -4.120000 26.285841 -21.441296 1150.674561
1.800000 5.800000 -4.080000 22.569180 -10.523486 620.111633
1.800000 5.800000 -4.040000 16.004316 -7.769156 316.497925
1.800000 5.800000 -4.000000 13.636258 -10.139011 288.747101
1.800000 5.800000 -3.960000 16.226252 -11.486603 395.233276
1.800000 5.800000 -3.920000 19.856750 -8.976277 474.864075
1.800000 5.800000 -3.880000 21.315681 -4.205943 472.048218
1.800000 5.800000 -3.840000 20.653196 0.411970 426.724213
1.800000 5.800000 -3.800000 19.136440 4.555617 386.957001
1.800000 5.840000 -4.200000 20.071072 -32.964966 1489.536865
1.800000 5.840000 -4.160000 30.753811 -24.758774 1558.793701
1.800000 5.840000 -4.120000 33.122101 -14.408316 1304.673218
1.800000 5.840000 -4.080000 30.701567 -8.262304 1010.851868
1.800000 5.840000 -4.040000 29.308722 -6.156012 896.897644
1.800000 5.840000 -4.000000 30.645590 -3.828360 953.808472
1.800000 5.840000 -3.960000 31.899769 1.164222 1018.950684
1.800000 5.840000 -3.920000 30.349297 7.177511 972.596436
1.800000 5.840000 -3.880000 26.588837 11.531625 839.944580
1.800000 5.840000 -3.840000 22.876009 14.055212 720.860718
1.800000 5.840000 -3.800000 19.601774 16.538811 657.761841
1.800000 5.880000 -4.200000 26.524826 -17.452944 1008.171631
1.800000 5.880000 -4.160000 33.439064 -11.350864 1247.013184
1.800000 5.880000 -4.120000 36.242802 -4.501518 1333.804321
1.800000 5.880000 -4.080000 37.357925 1.296249 1397.294922
1.800000 5.880000 -4.040000 38.114975 7.298280 1506.016235
1.800000 5.880000 -4.000000 37.240860 14.445443 1595.552368
1.800000 5.880000 -3.960000 33.336578 21.233814 1562.202393
1.800000 5.880000 -3.920000 27.401159 25.485806 1400.349854
1.800000 5.880000 -3.880000 21.826782 27.181940 1215.266235
1.800000 5.880000 -3.840000 17.331369 28.300129 1101.273682
1.800000 5.880000 -3.800000 12.215656 29.736300 1033.469727
1.800000 5.920000 -4.200000 22.344450 -4.847527 522.772949
1.800000 5.920000 -4.160000 29.384624 -0.807940 864.108948
1.800000 5.920000 -4.120000 34.227501 6.310604 1211.345581
1.800000 5.920000 -4.080000 35.812122 15.268158 1515.624756
1.800000 5.920000 -4.040000 33.476509 24.307236 1711.518311
1.800000 5.920000 -4.000000 27.808144 31.243435 1749.445068
1.800000 5.920000 -3.960000 20.947090 34.903038 1657.002686
1.800000 5.920000 -3.920000 14.966648 36.293869 1541.245361
1.800000 5.920000 -3.880000 9.803337 37.418076 1496.217896
1.800000 5.920000 -3.840000 3.542929 38.557640 1499.244019
1.800000 5.920000 -3.800000 -4.636592 37.357071 1417.048706
1.800000 5.960000 -4.200000 14.859190 0.036309 220.796844
1.800000 5.960000 -4.160000 22.890614 5.274843 551.804138
1.800000 5.960000 -4.120000 26.558655 15.177025 935.704224
1.800000 5.960000 -4.080000 23.996326 25.438356 1222.933594
1.800000 5.960000 -4.040000 17.262543 32.006477 1322.409912
1.800000 5.960000 -4.000000 10.469548 34.236214 1281.729736
1.800000 5.960000 -3.960000 5.916435 34.999550 1259.972656
1.800000 5.960000 -3.920000 1.941186 37.214851 1388.713379
1.800000 5.960000 -3.880000 -4.953833 40.106865 1633.101074
1.800000 5.960000 -3.840000 -15.452337 39.367897 1788.606079
1.800000 5.960000 -3.800000 -25.261810 31.718311 1644.210327
1.800000 6.000000 -4.200000 10.405579 0.480206 108.506668
1.800000 6.000000 -4.160000 16.065935 8.629488 332.582336
1.800000 6.000000 -4.120000 14.486567 18.584398 555.240479
1.800000 6.000000 -4.080000 7.676379 24.198631 644.500549
1.800000 6.000000 -4.040000 1.669868 24.245581 590.636658
1.800000 6.000000 -4.000000 0.004980 23.395153 547.333191
1.800000 6.000000 -3.960000 -0.330097 26.716049 713.856262
1.800000 6.000000 -3.920000 -5.722729 33.241402 1137.740479
1.800000 6.000000 -3.880000 -18.347151 35.822563 1619.873901
1.800000 6.000000 -3.840000 -32.248894 28.198639 1835.154297
1.800000 6.000000 -3.800000 -37.909805 12.258774 1587.430908
1.800000 6.040000 -4.200000 8.430332 2.122514 75.575569
1.800000 6.040000 -4.160000 8.038177 9.970520 164.023560
1.800000 6.040000 -4.120000 2.016800 13.791805 194.281372
1.800000 6.040000 -4.080000 -2.699203 11.147655 131.555908
1.800000 6.040000 -4.040000 -0.802755 7.629390 58.852005
1.800000 6.040000 -4.000000 4.474997 11.017021 141.400345
1.800000 6.040000 -3.960000 3.611997 21.801855 488.367401
1.800000 6.040000 -3.920000 -9.022732 30.659525 1021.416138
1.800000 6.040000 -3.880000 -27.621132 26.767826 1479.443481
1.800000 6.040000 -3.840000 -38.769840 9.138988 1586.621582
1.800000 6.040000 -3.800000 -33.756645 -10.956948 1259.565796
1.800000 6.080000 -4.200000 4.019707 5.589501 47.400566
1.800000 6.080000 -4.160000 -1.311645 7.040820 51.293560
1.800000 6.080000 -4.120000 -4.824610 1.490287 25.497814
1.800000 6.080000 -4.080000 0.316383 -5.414910 29.421347
1.800000 6.080000 -4.040000 11.807156 -3.534958 151.904846
1.800000 6.080000 -4.000000 17.977135 10.480679 433.021973
1.800000 6.080000 -3.960000 8.686182 27.088810 809.253418
1.800000 6.080000 -3.920000 -13.081738 31.009254 1132.705688
1.800000 6.080000 -3.880000 -31.709709 15.879190 1257.654297
1.800000 6.080000 -3.840000 -32.526279 -8.407393 1128.643066
1.800000 6.080000 -3.800000 -15.530683 -23.878208 811.370911
1.800000 6.120000 -4.200000 -4.650714 5.875458 56.150146
1.800000 6.120000 -4.160000 -8.249489 -2.177248 72.794479
1.800000 6.120000 -4.120000 -1.467468 -12.729376 164.190460
1.800000 6.120000 -4.080000 15.028125 -13.993698 421.668121
1.800000 6.120000 -4.040000 28.982597 0.805929 840.640503
1.800000 6.120000 -4.000000 26.148550 24.159555 1267.430786
1.800000 6.120000 -3.960000 4.569086 38.229565 1482.376221
1.800000 6.120000 -3.920000 -21.101431 30.406946 1369.852783
1.800000 6.120000 -3.880000 -31.352062 5.768628 1016.228882
1.800000 6.120000 -3.840000 -19.196365 -16.522736 641.501221
1.800000 6.120000 -3.800000 3.704644 -20.223309 422.706604
1.800000 6.160000 -4.200000 -12.824310 -1.142784 165.768890
1.800000 6.160000 -4.160000 -7.418785 -14.931309 277.982361
1.800000 6.160000 -4.120000 11.058722 -20.751991 552.940491
1.800000 6.160000 -4.080000 31.315821 -8.466202 1052.357178
1.800000 6.160000 -4.040000 36.473454 18.142113 1659.449097
1.800000 6.160000 -4.000000 19.035614 41.495174 2084.204102
1.800000 6.160000 -3.960000 -10.473568 44.042305 2049.420166
1.800000 6.160000 -3.920000 -30.880960 23.972569 1528.317749
1.800000 6.160000 -3.880000 -28.312555 -2.455629 807.630859
1.800000 6.160000 -3.840000 -7.919627 -15.001320 287.760101
1.800000 6.160000 -3.800000 11.709616 -6.783516 183.131180
1.800000 6.200000 -4.200000 -13.771938 -12.806631 353.676086
1.800000 6.200000 -4.160000 2.329551 -23.940895 578.593262
1.800000 6.200000 -4.120000 25.454422 -17.553234 956.043640
1.800000 6.200000 -4.080000 38.048485 7.245416 1500.183350
1.800000 6.200000 -4.040000 27.883020 35.793552 2058.641113
1.800000 6.200000 -4.000000 -0.462194 48.411995 2343.934814
1.800000 6.200000 -3.960000 -27.968222 36.676773 2127.407227
1.800000 6.200000 -3.920000 -36.513992 10.781311 1449.508301
1.800000 6.200000 -3.880000 -23.631310 -9.244703 643.903320
1.800000 6.200000 -3.840000 -3.273644 -10.459378 120.115341
1.800000 6.200000 -3.800000 7.530896 3.536981 69.224632
1.840000 5.800000 -4.200000 44.307579 -26.464962 2663.555908
1.840000 5.800000 -4.160000 49.098141 -6.475670 2452.561768
1.840000 5.800000 -4.120000 39.681515 9.094707 1657.336304
1.840000 5.800000 -4.080000 26.226191 12.262024 838.170288
1.840000 5.800000 -4.040000 19.451511 7.214481 430.410034
1.840000 5.800000 -4.000000 20.579084 3.754160 437.592438
1.840000 5.800000 -3.960000 22.611673 6.311996 551.129089
1.840000 5.800000 -3.920000 19.920372 10.760552 512.610718
1.840000 5.800000 -3.880000 14.411634 11.271992 334.752991
1.840000 5.800000 -3.840000 11.824630 7.986887 203.612244
1.840000 5.800000 -3.800000 13.717154 6.371394 228.754974
1.840000 5.840000 -4.200000 44.462517 0.864747 1977.663208
1.840000 5.840000 -4.160000 43.640045 12.148065 2052.029053
1.840000 5.840000 -4.120000 39.021553 20.089100 1926.253540
1.840000 5.840000 -4.080000 34.267838 25.582104 1828.728760
1.840000 5.840000 -4.040000 28.857304 31.284542 1811.466553
1.840000 5.840000 -4.000000 19.800287 36.117741 1696.542603
1.840000 5.840000 -3.960000 7.643576 35.350861 1308.107544
1.840000 5.840000 -3.920000 -1.541788 26.819645 721.670471
1.840000 5.840000 -3.880000 -1.765991 15.567533 245.466797
1.840000 5.840000 -3.840000 5.623845 10.266336 137.025299
1.840000 5.840000 -3.800000 12.018238 14.417220 352.294281
1.840000 5.880000 -4.200000 26.415434 17.672623 1010.096741
1.840000 5.880000 -4.160000 30.334337 21.880081 1398.909912
1.840000 5.880000 -4.120000 33.251125 32.287117 2148.095215
1.840000 5.880000 -4.080000 28.093050 47.507236 3046.156982
1.840000 5.880000 -4.040000 11.033480 58.892170 3590.025391
1.840000 5.880000 -4.000000 -12.102090 56.415203 3329.135742
1.840000 5.880000 -3.960000 -27.986624 38.632927 2275.754150
1.840000 5.880000 -3.920000 -26.717878 16.410187 983.139282
1.840000 5.880000 -3.880000 -11.500259 4.811357 155.405121
1.840000 5.880000 -3.840000 3.323735 9.812813 107.338516
1.840000 5.880000 -3.800000 5.178481 22.918137 552.057617
1.840000 5.920000 -4.200000 6.198439 15.238039 270.618469
1.840000 5.920000 -4.160000 18.085649 22.150063 817.716003
1.840000 5.920000 -4.120000 20.355175 42.111328 2187.697266
1.840000 5.920000 -4.080000 3.098072 61.839821 3833.761475
1.840000 5.920000 -4.040000 -27.647865 63.509735 4797.891113
1.840000 5.920000 -4.000000 -52.017067 41.261822 4408.312988
1.840000 5.920000 -3.960000 -52.659737 8.719868 2849.083984
1.840000 5.920000 -3.920000 -30.708782 -11.429548 1073.663818
1.840000 5.920000 -3.880000 -5.386803 -7.186070 80.657257
1.840000 5.920000 -3.840000 3.246826 12.502745 166.860489
1.840000 5.920000 -3.800000 -8.000568 27.105621 798.723816
1.840000 5.960000 -4.200000 -1.066636 1.884778 4.690101
1.840000 5.960000 -4.160000 11.224386 19.042471 488.602539
1.840000 5.960000 -4.120000 1.798091 44.141224 1951.680786
1.840000 5.960000 -4.080000 -29.023563 53.980492 3756.260742
1.840000 5.960000 -4.040000 -59.933575 34.842434 4806.028809
1.840000 5.960000 -4.000000 -66.119965 -2.656961 4378.909180
1.840000 5.960000 -3.960000 -42.194370 -31.033596 2743.448975
1.840000 5.960000 -3.920000 -8.036017 -30.213219 977.416138
1.840000 5.960000 -3.880000 9.086168 -5.447612 112.234932
1.840000 5.960000 -3.840000 -0.891213 18.617264 347.396759
1.840000 5.960000 -3.800000 -23.411522 21.683044 1018.253784
1.840000 6.000000 -4.200000 5.118657 -6.465909 68.008629
1.840000 6.000000 -4.160000 6.738638 17.661663 357.343597
1.840000 6.000000 -4.120000 -16.456924 34.704754 1475.250244
1.840000 6.000000 -4.080000 -48.203392 24.425787 2920.186035
1.840000 6.000000 -4.040000 -60.681789 -10.182537 3785.963623
1.840000 6.000000 -4.000000 -40.544315 -42.799294 3475.621094
1.840000 6.000000 -3.960000 -2.930290 -47.025932 2220.024902
1.840000 6.000000 -3.920000 21.556667 -21.042227 907.465210
1.840000 6.000000 -3.880000 15.026042 10.894353 344.468872
1.840000 6.000000 -3.840000 -12.087145 21.733028 618.423584
1.840000 6.000000 -3.800000 -32.944740 6.451796 1126.981567
1.840000 6.040000 -4.200000 12.099565 -2.495944 152.629196
1.840000 6.040000 -4.160000 -0.205806 16.464615 271.125916
1.840000 6.040000 -4.120000 -26.358089 15.450464 933.465759
1.840000 6.040000 -4.080000 -41.939415 -10.285040 1864.696533
1.840000 6.040000 -4.040000 -28.694820 -41.011772 2505.358154
1.840000 6.040000 -4.000000 5.983504 -49.176338 2454.114502
1.840000 6.040000 -3.960000 33.805107 -25.843105 1810.651367
1.840000 6.040000 -3.920000 31.564358 9.672152 1089.859131
1.840000 6.040000 -3.880000 2.974192 27.560307 768.416321
1.840000 6.040000 -3.840000 -25.548441 15.364819 888.800476
1.840000 6.040000 -3.800000 -30.707651 -11.805724 1082.334961
1.840000 6.080000 -4.200000 8.553622 6.213024 111.766121
1.840000 6.080000 -4.160000 -8.894406 9.918396 177.485046
1.840000 6.080000 -4.120000 -22.630434 -6.097960 549.321655
1.840000 6.080000 -4.080000 -15.075756 -30.128254 1134.990112
1.840000 6.080000 -4.040000 12.842430 -38.864132 1675.348755
1.840000 6.080000 -4.000000 39.149712 -19.754814 1922.952637
1.840000 6.080000 -3.960000 40.047394 14.711245 1820.214355
1.840000 6.080000 -3.920000 12.974606 36.774605 1520.711914
1.840000 6.080000 -3.880000 -19.976208 28.932604 1236.144531
1.840000 6.080000 -3.840000 -32.504887 0.059769 1056.571167
1.840000 6.080000 -3.800000 -18.214680 -24.008678 908.191162
1.840000 6.120000 -4.200000 -3.567903 6.709852 57.752045
1.840000 6.120000 -4.160000 -12.477897 -3.543106 168.251511
1.840000 6.120000 -4.120000 -6.810115 -20.194891 454.211273
1.840000 6.120000 -4.080000 14.709569 -26.409243 913.819519
1.840000 6.120000 -4.040000 36.639610 -10.510221 1452.925781
1.840000 6.120000 -4.000000 38.574944 20.298685 1900.062866
1.840000 6.120000 -3.960000 14.580675 43.269489 2084.844727
1.840000 6.120000 -3.920000 -19.096081 39.677582 1938.970825
1.840000 6.120000 -3.880000 -37.279785 12.329575 1541.800781
1.840000 6.120000 -3.840000 -28.162914 -16.613297 1069.151367
1.840000 6.120000 -3.800000 -3.071972 -25.865177 678.444397
1.840000 6.160000 -4.200000 -11.904845 -4.856375 165.309723
1.840000 6.160000 -4.160000 -5.294130 -17.453781 332.662292
1.840000 6.160000 -4.120000 12.867542 -20.785515 597.611267
1.840000 6.160000 -4.080000 30.822811 -6.432391 991.421387
1.840000 6.160000 -4.040000 32.620140 20.573215 1487.330688
1.840000 6.160000 -4.000000 12.032851 42.520973 1952.822754
1.840000 6.160000 -3.960000 -19.636240 42.425858 2185.535156
1.840000 6.160000 -3.920000 -40.972687 19.045881 2041.506714
1.840000 6.160000 -3.880000 -37.908535 -10.943369 1556.814331
1.840000 6.160000 -3.840000 -15.401455 -26.671597 948.578918
1.840000 6.160000 -3.800000 7.718474 -20.298918 471.620880
1.840000 6.200000 -4.200000 -7.430809 -19.286373 427.181122
1.840000 6.200000 -4.160000 9.864395 -22.395252 598.853638
1.840000 6.200000 -4.120000 26.289183 -9.544561 782.219788
1.840000 6.200000 -4.080000 28.716263 14.381163 1031.441650
1.840000 6.200000 -4.040000 11.851463 34.971825 1363.485718
1.840000 6.200000 -4.000000 -16.166292 37.878922 1696.161743
1.840000 6.200000 -3.960000 -38.299950 19.944380 1864.664429
1.840000 6.200000 -3.920000 -40.933800 -7.505096 1731.902344
1.840000 6.200000 -3.880000 -24.156961 -26.900427 1307.191772
1.840000 6.200000 -3.840000 -1.122457 -27.638422 765.142273
1.840000 6.200000 -3.800000 12.815254 -13.075451 335.198181
1.880000 5.800000 -4.200000 62.815315 22.483425 4451.268555
1.880000 5.800000 -4.160000 46.036419 43.144180 3980.771973
1.880000 5.800000 -4.120000 21.920977 45.995525 2596.117676
1.880000 5.800000 -4.080000 7.025196 33.995735 1205.063354
1.880000 5.800000 -4.040000 6.740398 21.696903 516.188599
1.880000 5.800000 -4.000000 11.912506 19.435907 519.662292
1.880000 5.800000 -3.960000 10.946075 23.715919 682.261414
1.880000 5.800000 -3.920000 2.998287 23.695904 570.485596
1.880000 5.800000 -3.880000 -2.465740 15.203699 237.232346
1.880000 5.800000 -3.840000 1.778803 5.736393 36.070343
1.880000 5.800000 -3.800000 11.398911 5.123645 156.186920
1.880000 5.840000 -4.200000 30.846933 47.917370 3247.607422
1.880000 5.840000 -4.160000 19.579382 51.486694 3034.231934
1.880000 5.840000 -4.120000 11.600896 52.267990 2866.523682
1.880000 5.840000 -4.080000 4.229866 55.241295 3069.492432
1.880000 5.840000 -4.040000 -8.772217 58.393208 3486.718506
1.880000 5.840000 -4.000000 -27.515369 53.012436 3567.414062
1.880000 5.840000 -3.960000 -41.885624 33.769905 2894.812012
1.880000 5.840000 -3.920000 -39.818661 7.821056 1646.694702
1.880000 5.840000 -3.880000 -20.487711 -8.745329 496.227081
1.880000 5.840000 -3.840000 2.159320 -5.413434 33.967930
1.880000 5.840000 -3.800000 11.112169 11.879392 264.600250
1.880000 5.880000 -4.200000 -7.139112 40.847427 1719.479248
1.880000 5.880000 -4.160000 -1.697838 42.239555 1787.062744
1.880000 5.880000 -4.120000 -2.552742 57.526081 3315.766602
1.880000 5.880000 -4.080000 -23.618082 74.092377 6047.494141
1.880000 5.880000 -4.040000 -60.578201 70.125328 8587.280273
1.880000 5.880000 -4.000000 -89.580475 35.993896 9320.222656
1.880000 5.880000 -3.960000 -86.594955 -12.534355 7655.796387
1.880000 5.880000 -3.920000 -50.396458 -44.582504 4527.402832
1.880000 5.880000 -3.880000 -6.132935 -40.485359 1676.677246
1.880000 5.880000 -3.840000 15.752023 -9.284538 334.328857
1.880000 5.880000 -3.800000 5.765298 20.010469 433.657532
1.880000 5.920000 -4.200000 -23.503330 10.495281 662.557495
1.880000 5.920000 -4.160000 -8.836517 27.062716 810.474609
1.880000 5.920000 -4.120000 -22.370007 56.836189 3730.769531
1.880000 5.920000 -4.080000 -67.121002 65.961006 8856.083984
1.880000 5.920000 -4.040000 -112.752739 31.169668 13684.727539
1.880000 5.920000 -4.000000 -119.444275 -33.999130 15422.875000
1.880000 5.920000 -3.960000 -74.839378 -86.324829 13052.908203
1.880000 5.920000 -3.920000 -8.077488 -89.579567 8089.744629
1.880000 5.920000 -3.880000 34.460114 -46.597645 3358.839844
1.880000 5.920000 -3.840000 29.348133 4.312126 879.907349
1.880000 5.920000 -3.800000 -6.027221 24.872412 654.964233
1.880000 5.960000 -4.200000 -10.732182 -15.847783 366.331940
1.880000 5.960000 -4.160000 -6.242057 18.229626 371.282532
1.880000 5.960000 -4.120000 -43.179680 44.071945 3806.821045
1.880000 5.960000 -4.080000 -97.728500 24.087156 10131.050781
1.880000 5.960000 -4.040000 -120.748596 -41.953213 16340.295898
1.880000 5.960000 -4.000000 -82.592026 -110.004471 18922.425781
1.880000 5.960000 -3.960000 -3.809383 -128.196335 16448.812500
1.880000 5.960000 -3.920000 60.241096 -83.505188 10602.105469
1.880000 5.960000 -3.880000 67.769661 -13.429658 4773.083008
1.880000 5.960000 -3.840000 25.736605 28.817875 1492.842773
1.880000 5.960000 -3.800000 -21.231844 21.285906 903.880981
1.880000 6.000000 -4.200000 13.269131 -18.200043 507.311371
1.880000 6.000000 -4.160000 -5.097502 17.472780 331.282562
1.880000 6.000000 -4.120000 -55.065308 18.966448 3391.914062
1.880000 6.000000 -4.080000 -91.553818 -31.118738 9350.477539
1.880000 6.000000 -4.040000 -71.808968 -101.434639 15445.513672
1.880000 6.000000 -4.000000 1.500362 -135.158890 18270.177734
1.880000 6.000000 -3.960000 77.686272 -101.241776 16285.054688
1.880000 6.000000 -3.920000 101.652283 -24.196661 10918.665039
1.880000 6.000000 -3.880000 62.556362 37.663574 5331.843262
1.880000 6.000000 -3.840000 0.618511 44.600807 1989.614624
1.880000 6.000000 -3.800000 -33.041653 7.507308 1148.110596
1.880000 6.040000 -4.200000 23.908875 -1.073629 572.786987
1.880000 6.040000 -4.160000 -10.833057 16.266224 381.945160
1.880000 6.040000 -4.120000 -50.098618 -9.984020 2609.552246
1.880000 6.040000 -4.080000 -50.342472 -67.492264 7089.570312
1.880000 6.040000 -4.040000 2.843367 -108.662125 11815.541992
1.880000 6.040000 -4.000000 75.329079 -92.413162 14214.662109
1.880000 6.040000 -3.960000 111.518463 -24.303413 13027.023438
1.880000 6.040000 -3.920000 84.193481 45.819046 9187.927734
1.880000 6.040000 -3.880000 18.810274 68.059174 4985.877930
1.880000 6.040000 -3.840000 -31.478468 35.939743 2282.559082
1.880000 6.040000 -3.800000 -34.650799 -12.617653 1359.883057
1.880000 6.080000 -4.200000 13.382623 13.750935 368.182800
1.880000 6.080000 -4.160000 -17.639971 6.680873 355.802643
1.880000 6.080000 -4.120000 -29.235245 -30.171459 1765.016479
1.880000 6.080000 -4.080000 0.083181 -66.968506 4484.787598
1.880000 6.080000 -4.040000 55.356716 -65.701813 7381.093750
1.880000 6.080000 -4.000000 93.275162 -17.142521 8994.122070
1.880000 6.080000 -3.960000 80.157028 46.280342 8567.019531
1.880000 6.080000 -3.920000 23.932503 77.275093 6544.204590
1.880000 6.080000 -3.880000 -32.132477 55.735161 4138.904297
1.880000 6.080000 -3.840000 -48.581528 5.290812 2388.157471
1.880000 6.080000 -3.800000 -23.476196 -31.164608 1522.364502
1.880000 6.120000 -4.200000 -4.177168 10.177257 121.025284
1.880000 6.120000 -4.160000 -15.401240 -8.956527 317.417572
1.880000 6.120000 -4.120000 -2.538229 -33.473053 1126.887939
1.880000 6.120000 -4.080000 31.569212 -38.001343 2440.717285
1.880000 6.120000 -4.040000 60.982872 -9.243095 3804.345459
1.880000 6.120000 -4.000000 57.349709 37.270630 4678.088867
1.880000 6.120000 -3.960000 17.038628 66.915237 4767.963867
1.880000 6.120000 -3.920000 -32.508236 55.837425 4174.603516
1.880000 6.120000 -3.880000 -55.608200 12.847336 3257.325928
1.880000 6.120000 -3.840000 -39.332355 -28.513298 2360.042480
1.880000 6.120000 -3.800000 -2.897918 -40.258408 1629.137329
1.880000 6.160000 -4.200000 -9.339469 -7.325658 140.890945
1.880000 6.160000 -4.160000 -1.319052 -19.766396 392.450287
1.880000 6.160000 -4.120000 17.559048 -21.576931 773.884155
1.880000 6.160000 -4.080000 34.597794 -4.848656 1220.516846
1.880000 6.160000 -4.040000 33.062485 23.975494 1667.952271
1.880000 6.160000 -4.000000 7.320753 44.980820 2076.867676
1.880000 6.160000 -3.960000 -28.688309 39.839958 2410.241211
1.880000 6.160000 -3.920000 -50.237144 8.645458 2598.514648
1.880000 6.160000 -3.880000 -41.967125 -28.099125 2550.800293
1.880000 6.160000 -3.840000 -11.041813 -45.824169 2221.776123
1.880000 6.160000 -3.800000 19.447374 -35.996437 1673.943848
1.880000 6.200000 -4.200000 2.762967 -20.806683 440.552002
1.880000 6.200000 -4.160000 16.195446 -17.333832 562.754211
1.880000 6.200000 -4.120000 24.317358 -3.893281 606.491577
1.880000 6.200000 -4.080000 20.434959 13.742733 606.450256
1.880000 6.200000 -4.040000 3.321899 25.366474 654.493042
1.880000 6.200000 -4.000000 -19.664307 21.567099 851.824707
1.880000 6.200000 -3.960000 -34.969330 1.071180 1224.001465
1.880000 6.200000 -3.920000 -31.473778 -25.941896 1663.580688
1.880000 6.200000 -3.880000 -9.476320 -43.346001 1968.676392
1.880000 6.200000 -3.840000 18.221546 -40.446770 1967.965942
1.880000 6.200000 -3.800000 35.242657 -20.046261 1643.897339
1.920000 5.800000 -4.200000 36.388611 75.123199 6967.625977
1.920000 5.800000 -4.160000 1.866732 78.988869 6242.726074
1.920000 5.800000 -4.120000 -24.096422 59.441799 4113.964844
1.920000 5.800000 -4.080000 -27.944710 33.132149 1878.645996
1.920000 5.800000 -4.040000 -16.365944 19.103813 632.799805
1.920000 5.800000 -4.000000 -7.304005 20.471069 472.413147
1.920000 5.800000 -3.960000 -10.150528 24.131935 685.383484
1.920000 5.800000 -3.920000 -17.153049 17.779396 610.334045
1.920000 5.800000 -3.880000 -14.731609 4.352732 235.966583
1.920000 5.800000 -3.840000 -0.792690 -2.229837 5.600533
1.920000 5.800000 -3.800000 12.188079 5.681332 180.826797
1.920000 5.840000 -4.200000 -19.143764 70.885788 5391.278809
1.920000 5.840000 -4.160000 -31.874414 60.508507 4677.257812
1.920000 5.840000 -4.120000 -37.334480 52.941296 4196.644043
1.920000 5.840000 -4.080000 -45.186806 50.346252 4576.592773
1.920000 5.840000 -4.040000 -60.819572 43.181259 5563.641602
1.920000 5.840000 -4.000000 -75.638817 20.953995 6160.300293
1.920000 5.840000 -3.960000 -73.050171 -12.871696 5502.008301
1.920000 5.840000 -3.920000 -46.127361 -39.204445 3664.721924
1.920000 5.840000 -3.880000 -8.475601 -39.479599 1630.474609
1.920000 5.840000 -3.840000 15.170519 -14.424690 438.216309
1.920000 5.840000 -3.800000 11.091197 14.582428 335.661865
1.920000 5.880000 -4.200000 -51.199669 27.373154 3370.695557
1.920000 5.880000 -4.160000 -41.878281 29.486683 2623.254883
1.920000 5.880000 -4.120000 -51.048328 45.709217 4695.264648
1.920000 5.880000 -4.080000 -86.248123 48.104248 9752.757812
1.920000 5.880000 -4.040000 -123.760582 13.155945 15489.760742
1.920000 5.880000 -4.000000 -126.484482 -50.465160 18545.056641
1.920000 5.880000 -3.960000 -79.404205 -103.221786 16959.765625
1.920000 5.880000 -3.920000 -7.913666 -107.627953 11646.402344
1.920000 5.880000 -3.880000 41.334435 -62.493443 5613.965820
1.920000 5.880000 -3.840000 40.527626 -4.845814 1665.970459
1.920000 5.880000 -3.800000 3.554626 23.181541 550.019226
1.920000 5.920000 -4.200000 -38.910751 -21.019688 1955.873901
1.920000 5.920000 -4.160000 -30.736732 7.762726 1005.006592
1.920000 5.920000 -4.120000 -66.835815 31.784351 5477.271484
1.920000 5.920000 -4.080000 -124.266479 6.907818 15489.875977
1.920000 5.920000 -4.040000 -147.416107 -70.815353 26746.322266
1.920000 5.920000 -4.000000 -99.207138 -152.521500 33104.867188
1.920000 5.920000 -3.960000 -0.433113 -175.919357 30947.808594
1.920000 5.920000 -3.920000 83.706947 -121.571732 21786.539062
1.920000 5.920000 -3.880000 99.636139 -31.461185 10917.166992
1.920000 5.920000 -3.840000 50.807472 28.736361 3407.177734
1.920000 5.920000 -3.800000 -10.295339 27.045294 837.441956
1.920000 5.960000 -4.200000 1.698935 -38.469498 1482.788574
1.920000 5.960000 -4.160000 -16.052208 4.288223 276.062225
1.920000 5.960000 -4.120000 -77.275642 6.258949 6010.699219
1.920000 5.960000 -4.080000 -124.179138 -60.052952 19026.814453
1.920000 5.960000 -4.040000 -96.902290 -156.671478 33936.003906
1.920000 5.960000 -4.000000 5.970623 -206.724091 42770.500000
1.920000 5.960000 -3.960000 118.345901 -163.154205 40625.046875
1.920000 5.960000 -3.920000 162.089142 -53.800819 29167.417969
1.920000 5.960000 -3.880000 115.333076 42.317108 15092.456055
1.920000 5.960000 -3.840000 28.171480 64.980011 5016.034180
1.920000 5.960000 -3.800000 -27.357388 21.439243 1208.067749
1.920000 6.000000 -4.200000 33.887348 -18.596584 1494.185303
1.920000 6.000000 -4.160000 -12.526379 9.874836 254.422546
1.920000 6.000000 -4.120000 -71.603241 -25.859253 5795.725098
1.920000 6.000000 -4.080000 -75.604736 -113.602829 18621.679688
1.920000 6.000000 -4.040000 4.319020 -183.119080 33551.250000
1.920000 6.000000 -4.000000 122.312408 -166.563354 42703.675781
1.920000 6.000000 -3.960000 192.473602 -63.395607 41065.089844
1.920000 6.000000 -3.920000 164.409073 55.012768 30056.748047
1.920000 6.000000 -3.880000 67.282166 107.809441 16149.764648
1.920000 6.000000 -3.840000 -19.855978 74.135544 5890.338867
1.920000 6.000000 -3.800000 -40.571365 3.710711 1659.805054
1.920000 6.040000 -4.200000 34.095371 13.176144 1336.105103
1.920000 6.040000 -4.160000 -19.051418 9.278547 449.047974
1.920000 6.040000 -4.120000 -46.878010 -50.626667 4760.607422
1.920000 6.040000 -4.080000 -4.569956 -121.025162 14667.974609
1.920000 6.040000 -4.040000 92.448288 -133.032379 26244.298828
1.920000 6.040000 -4.000000 173.176514 -59.184181 33492.871094
1.920000 6.040000 -3.960000 171.705246 55.423241 32554.427734
1.920000 6.040000 -3.920000 87.355507 129.563095 24417.580078
1.920000 6.040000 -3.880000 -14.706951 116.906113 13883.333008
1.920000 6.040000 -3.840000 -62.981415 43.455944 5855.077637
1.920000 6.040000 -3.800000 -40.675667 -22.863956 2177.270508
1.920000 6.080000 -4.200000 10.693205 26.296610 805.856323
1.920000 6.080000 -4.160000 -22.606918 -2.587537 517.768127
1.920000 6.080000 -4.120000 -12.914146 -55.905888 3292.243408
1.920000 6.080000 -4.080000 47.912464 -83.246307 9225.551758
1.920000 6.080000 -4.040000 117.785568 -46.269730 16014.328125
1.920000 6.080000 -4.000000 136.613556 40.392448 20294.814453
1.920000 6.080000 -3.960000 81.061142 115.756538 19970.484375
1.920000 6.080000 -3.920000 -11.433128 124.445740 15617.458984
1.920000 6.080000 -3.880000 -74.659409 65.279915 9835.494141
1.920000 6.080000 -3.840000 -71.482376 -10.368996 5217.246094
1.920000 6.080000 -3.800000 -21.886454 -47.432785 2728.885986
1.920000 6.120000 -4.200000 -8.688852 13.183966 249.313110
1.920000 6.120000 -4.160000 -13.405277 -16.500095 451.954590
1.920000 6.120000 -4.120000 14.436079 -41.381355 1920.817017
1.920000 6.120000 -4.080000 59.438187 -31.233688 4508.441406
1.920000 6.120000 -4.040000 83.111366 18.492477 7249.470703
1.920000 6.120000 -4.000000 57.162548 75.455055 8961.022461
1.920000 6.120000 -3.960000 -7.395058 94.784546 9038.796875
1.920000 6.120000 -3.920000 -65.825134 58.740208 7783.360352
1.920000 6.120000 -3.880000 -77.391228 -6.419268 6030.609375
1.920000 6.120000 -3.840000 -39.885925 -53.624187 4466.440430
1.920000 6.120000 -3.800000 11.762138 -55.874851 3260.346924
1.920000 6.160000 -4.200000 -5.848900 -7.914169 96.843704
1.920000 6.160000 -4.160000 4.864950 -19.632490 409.102386
1.920000 6.160000 -4.120000 25.265911 -18.303503 973.384521
1.920000 6.160000 -4.080000 40.184280 2.850857 1622.903809
1.920000 6.160000 -4.040000 31.989408 33.499691 2145.551514
1.920000 6.160000 -4.000000 -1.600361 49.747776 2477.402344
1.920000 6.160000 -3.960000 -40.341091 33.591499 2755.792480
1.920000 6.160000 -3.920000 -55.398285 -8.928101 3148.680908
1.920000 6.160000 -3.880000 -33.768143 -49.824959 3622.813965
1.920000 6.160000 -3.840000 9.832478 -61.683098 3901.481934
1.920000 6.160000 -3.800000 45.587196 -40.028923 3680.507080
1.920000 6.200000 -4.200000 12.686243 -14.795672 379.852692
1.920000 6.200000 -4.160000 19.360535 -8.903587 454.104156
1.920000 6.200000 -4.120000 21.571119 0.258396 465.379974
1.920000 6.200000 -4.080000 16.950005 10.503283 397.621582
1.920000 6.200000 -4.040000 3.986279 16.213144 278.756470
1.920000 6.200000 -4.000000 -12.793640 9.846881 260.638306
1.920000 6.200000 -3.960000 -21.758064 -10.527260 584.236572
1.920000 6.200000 -3.920000 -11.934767 -35.277893 1386.968506
1.920000 6.200000 -3.880000 15.995062 -47.428780 2505.331055
1.920000 6.200000 -3.840000 46.987148 -35.769669 3487.261230
1.920000 6.200000 -3.800000 61.922131 -5.173813 3861.118652
1.960000 5.800000 -4.200000 -23.141697 93.827744 9339.183594
1.960000 5.800000 -4.160000 -59.106590 71.360870 8585.962891
1.960000 5.800000 -4.120000 -69.849022 32.263603 5919.825684
1.960000 5.800000 -4.080000 -53.576073 2.028827 2874.511719
1.960000 5.800000 -4.040000 -29.652267 -4.860649 902.882874
1.960000 5.800000 -4.000000 -18.220306 3.209839 342.282623
1.960000 5.800000 -3.960000 -20.837532 7.212761 486.226654
1.960000 5.800000 -3.920000 -22.638336 -0.686045 512.964905
1.960000 5.800000 -3.880000 -12.117428 -9.979345 246.419403
1.960000 5.800000 -3.840000 4.703499 -6.339512 62.312313
1.960000 5.800000 -3.800000 11.639172 9.959667 234.665283
1.960000 5.840000 -4.200000 -73.100746 48.497028 7695.680664
1.960000 5.840000 -4.160000 -76.767220 26.616020 6601.618652
1.960000 5.840000 -4.120000 -74.219482 13.604071 5693.602539
1.960000 5.840000 -4.080000 -76.957436 4.958241 5947.030762
1.960000 5.840000 -4.040000 -83.968163 -12.231155 7200.253418
1.960000 5.840000 -4.000000 -80.259628 -42.058487 8210.524414
1.960000 5.840000 -3.960000 -53.009933 -70.051521 7717.268555
1.960000 5.840000 -3.920000 -9.160889 -74.009811 5561.374023
1.960000 5.840000 -3.880000 25.819937 -46.539841 2832.625977
1.960000 5.840000 -3.840000 29.744772 -5.780380 918.164246
1.960000 5.840000 -3.800000 5.074673 18.795795 379.034210
1.960000 5.880000 -4.200000 -71.425278 -17.726503 5415.799316
1.960000 5.880000 -4.160000 -60.438660 -11.461477 3784.197021
1.960000 5.880000 -4.120000 -77.032295 -1.922774 5937.671875
1.960000 5.880000 -4.080000 -110.497749 -22.480812 12715.139648
1.960000 5.880000 -4.040000 -121.487656 -80.740570 21278.289062
1.960000 5.880000 -4.000000 -79.334183 -142.952820 26729.419922
1.960000 5.880000 -3.960000 3.409523 -160.065033 25632.439453
1.960000 5.880000 -3.920000 75.828056 -113.192657 18562.472656
1.960000 5.880000 -3.880000 91.635796 -33.948318 9549.607422
1.960000 5.880000 -3.840000 49.879589 21.947367 2969.660400
1.960000 5.880000 -3.800000 -6.024178 23.266582 577.624573
1.960000 5.920000 -4.200000 -22.812197 -56.301727 3690.280762
1.960000 5.920000 -4.160000 -30.369358 -22.646637 1435.168091
1.960000 5.920000 -4.120000 -79.621567 -21.709049 6810.876465
1.960000 5.920000 -4.080000 -118.467758 -83.308098 20974.847656
1.960000 5.920000 -4.040000 -88.282372 -174.641968 38293.593750
1.960000 5.920000 -4.000000 15.450134 -221.870911 49465.406250
1.960000 5.920000 -3.960000 129.832886 -176.671844 48069.519531
1.960000 5.920000 -3.920000 176.414093 -63.928711 35208.812500
1.960000 5.920000 -3.880000 130.276093 37.746799 18396.679688
1.960000 5.920000 -3.840000 39.910297 65.006042 5818.617188
1.960000 5.920000 -3.800000 -20.184977 21.923365 888.067200
1.960000 5.960000 -4.200000 31.465895 -43.848175 2912.765137
1.960000 5.960000 -4.160000 -11.763718 -11.809826 277.857056
1.960000 5.960000 -4.120000 -73.033646 -48.554382 7691.441406
1.960000 5.960000 -4.080000 -75.788139 -144.797546 26710.171875
1.960000 5.960000 -4.040000 16.066914 -223.002243 49988.144531
1.960000 5.960000 -4.000000 153.575333 -204.200714 65283.316406
1.960000 5.960000 -3.960000 238.626968 -84.141068 64022.546875
1.960000 5.960000 -3.920000 210.204132 57.297974 47468.835938
1.960000 5.960000 -3.880000 98.283844 125.310951 25362.548828
1.960000 5.960000 -3.840000 -6.403772 91.736847 8456.658203
1.960000 5.960000 -3.800000 -35.373875 11.449594 1382.404297
1.960000 6.000000 -4.200000 51.067265 0.007860 2607.865479
1.960000 6.000000 -4.160000 -12.685221 0.141226 160.934769
1.960000 6.000000 -4.120000 -48.984257 -72.875526 7710.299805
1.960000 6.000000 -4.080000 3.789671 -163.778183 26837.654297
1.960000 6.000000 -4.040000 130.563187 -182.329819 50290.910156
1.960000 6.000000 -4.000000 241.113770 -88.173965 65910.500000
1.960000 6.000000 -3.960000 246.870743 64.508095 65106.457031
1.960000 6.000000 -3.920000 141.387894 170.268311 48981.835938
1.960000 6.000000 -3.880000 5.903097 164.329086 27038.894531
1.960000 6.000000 -3.840000 -65.033348 75.011795 9856.105469
1.960000 6.000000 -3.800000 -44.468708 -11.218868 2103.328857
1.960000 6.040000 -4.200000 30.404638 34.288734 2100.159180
1.960000 6.040000 -4.160000 -20.844316 -1.760744 437.585754
1.960000 6.040000 -4.120000 -12.014084 -79.685211 6494.071289
1.960000 6.040000 -4.080000 75.337234 -125.288467 21372.898438
1.960000 6.040000 -4.040000 183.256836 -76.880920 39493.742188
1.960000 6.040000 -4.000000 221.520889 50.676537 51639.617188
1.960000 6.040000 -3.960000 149.151566 170.597870 51349.820312
1.960000 6.040000 -3.920000 14.426172 198.060104 39435.917969
1.960000 6.040000 -3.880000 -87.176926 123.820511 22931.335938
1.960000 6.040000 -3.840000 -96.645271 17.180555 9635.480469
1.960000 6.040000 -3.800000 -36.161400 -41.527588 3032.187500
1.960000 6.080000 -4.200000 -2.123483 34.798962 1215.476929
1.960000 6.080000 -4.160000 -19.638327 -13.899734 578.866516
1.960000 6.080000 -4.120000 21.265846 -63.259193 4453.961914
1.960000 6.080000 -4.080000 100.375946 -56.271999 13241.868164
1.960000 6.080000 -4.040000 152.070663 23.053848 23656.966797
1.960000 6.080000 -4.000000 121.909225 125.439491 30596.925781
1.960000 6.080000 -3.960000 19.731274 173.973846 30656.220703
1.960000 6.080000 -3.920000 -84.454941 131.423706 24404.828125
1.960000 6.080000 -3.880000 -120.549416 32.835503 15610.331055
1.960000 6.080000 -3.840000 -77.283936 -47.910156 8268.189453
1.960000 6.080000 -3.800000 -4.622777 -63.747040 4085.055176
1.960000 6.120000 -4.200000 -15.063658 11.869600 367.801208
1.960000 6.120000 -4.160000 -5.420973 -21.328449 484.289673
1.960000 6.120000 -4.120000 35.827801 -33.668777 2417.217773
1.960000 6.120000 -4.080000 77.827148 -0.931862 6057.933105
1.960000 6.120000 -4.040000 77.968887 62.835213 10027.411133
1.960000 6.120000 -4.000000 22.321396 109.835373 12562.054688
1.960000 6.120000 -3.960000 -55.729301 98.210205 12750.999023
1.960000 6.120000 -3.920000 -100.510361 30.801376 11051.057617
1.960000 6.120000 -3.880000 -81.498611 -45.375706 8700.978516
1.960000 6.120000 -3.840000 -18.264929 -79.611946 6671.669434
1.960000 6.120000 -3.800000 40.134254 -59.253635 5121.751953
1.960000 6.160000 -4.200000 -2.450308 -6.060964 42.739288
1.960000 6.160000 -4.160000 10.863899 -14.772102 336.239319
1.960000 6.160000 -4.120000 30.643723 -8.101189 1004.666992
1.960000 6.160000 -4.080000 39.252556 17.077959 1832.419922
1.960000 6.160000 -4.040000 21.332306 44.717834 2454.751953
1.960000 6.160000 -4.000000 -17.804455 49.063488 2724.224365
1.960000 6.160000 -3.960000 -50.803024 18.082050 2907.907715
1.960000 6.160000 -3.920000 -49.393673 -31.742920 3447.347900
1.960000 6.160000 -3.880000 -9.801187 -66.120712 4468.012207
1.960000 6.160000 -3.840000 42.440598 -61.108192 5535.415527
1.960000 6.160000 -3.800000 73.773102 -22.544285 5950.715332
1.960000 6.200000 -4.200000 16.421091 -2.506290 275.933716
1.960000 6.200000 -4.160000 16.725264 0.825310 280.415588
1.960000 6.200000 -4.120000 17.410013 3.744931 317.133057
1.960000 6.200000 -4.080000 16.066887 8.907973 337.496857
1.960000 6.200000 -4.040000 8.262196 12.594791 226.892639
1.960000 6.200000 -4.000000 -3.238415 6.352783 50.845184
1.960000 6.200000 -3.960000 -6.385503 -12.198822 189.585907
1.960000 6.200000 -3.920000 9.693333 -31.801533 1105.298218
1.960000 6.200000 -3.880000 41.381752 -34.081257 2873.981445
1.960000 6.200000 -3.840000 69.493141 -10.039061 4930.079590
1.960000 6.200000 -3.800000 73.866241 29.761034 6341.940918
2.000000 5.800000 -4.200000 -78.166336 65.079834 10345.361328
2.000000 5.800000 -4.160000 -97.019623 21.660919 9882.002930
2.000000 5.800000 -4.120000 -82.259354 -22.159302 7257.635742
2.000000 5.800000 -4.080000 -46.723053 -41.567879 3910.932129
2.000000 5.800000 -4.040000 -16.716074 -33.444214 1397.942505
2.000000 5.800000 -4.000000 -7.249950 -16.251907 316.686279
2.000000 5.800000 -3.960000 -10.790741 -8.987591 197.216888
2.000000 5.800000 -3.920000 -10.137024 -12.572935 260.837952
2.000000 5.800000 -3.880000 0.495079 -13.139328 172.887039
2.000000 5.800000 -3.840000 10.084187 -1.527534 104.024178
2.000000 5.800000 -3.800000 5.950108 14.514676 246.079605
2.000000 5.840000 -4.200000 -94.479553 -5.691929 8958.784180
2.000000 5.840000 -4.160000 -83.724754 -30.135735 7917.997070
2.000000 5.840000 -4.120000 -70.567520 -42.490669 6785.231934
2.000000 5.840000 -4.080000 -63.054951 -51.833981 6662.688477
2.000000 5.840000 -4.040000 -54.636974 -67.960114 7603.776367
2.000000 5.840000 -4.000000 -32.110336 -86.468369 8507.852539
2.000000 5.840000 -3.960000 6.114243 -89.656281 8075.632324
2.000000 5.840000 -3.920000 42.044594 -64.869286 5975.772461
2.000000 5.840000 -3.880000 51.851845 -21.577614 3154.207275
2.000000 5.840000 -3.840000 29.300648 12.716637 1020.240784
2.000000 5.840000 -3.800000 -5.600018 16.325974 297.897614
2.000000 5.880000 -4.200000 -52.154320 -63.475037 6749.153320
2.000000 5.880000 -4.160000 -43.376976 -53.562622 4750.516602
2.000000 5.880000 -4.120000 -59.571117 -55.001003 6573.828125
2.000000 5.880000 -4.080000 -73.273064 -90.256737 13515.220703
2.000000 5.880000 -4.040000 -47.145008 -143.530029 22823.521484
2.000000 5.880000 -4.000000 24.973923 -168.937225 29163.482422
2.000000 5.880000 -3.960000 103.800446 -132.892014 28434.820312
2.000000 5.880000 -3.920000 135.539215 -49.927212 20863.605469
2.000000 5.880000 -3.880000 100.466393 25.595497 10748.625977
2.000000 5.880000 -3.840000 31.702477 46.330151 3151.529785
2.000000 5.880000 -3.800000 -15.003893 12.665447 385.530365
2.000000 5.920000 -4.200000 15.031616 -68.216400 4879.426758
2.000000 5.920000 -4.160000 -8.027130 -43.046669 1917.450562
2.000000 5.920000 -4.120000 -49.240128 -68.986542 7183.733398
2.000000 5.920000 -4.080000 -46.501709 -142.764938 22544.236328
2.000000 5.920000 -4.040000 32.385796 -202.625824 42106.062500
2.000000 5.920000 -4.000000 148.892715 -182.094330 55327.382812
2.000000 5.920000 -3.960000 220.634338 -75.884819 54438.015625
2.000000 5.920000 -3.920000 194.362366 48.633602 40141.957031
2.000000 5.920000 -3.880000 94.847107 108.851654 20844.656250
2.000000 5.920000 -3.840000 1.580425 78.773743 6207.800293
2.000000 5.920000 -3.800000 -23.412807 6.459499 589.884705
2.000000 5.960000 -4.200000 56.653748 -24.287388 3799.524414
2.000000 5.960000 -4.160000 2.220671 -19.461605 383.685425
2.000000 5.960000 -4.120000 -30.024446 -84.932343 8114.970215
2.000000 5.960000 -4.080000 22.264034 -169.704620 29295.345703
2.000000 5.960000 -4.040000 147.193970 -185.170898 55954.328125
2.000000 5.960000 -4.000000 256.926422 -89.599655 74039.289062
2.000000 5.960000 -3.960000 262.764893 64.867355 73253.164062
2.000000 5.960000 -3.920000 156.735382 173.114532 54534.621094
2.000000 5.960000 -3.880000 19.578632 169.041138 28958.228516
2.000000 5.960000 -3.840000 -52.803253 80.141953 9210.916016
2.000000 5.960000 -3.800000 -32.017937 -5.799253 1058.779663
2.000000 6.000000 -4.200000 49.122299 27.125967 3148.818359
2.000000 6.000000 -4.160000 -6.659027 -7.090221 94.613884
2.000000 6.000000 -4.120000 1.975163 -90.972694 8279.932617
2.000000 6.000000 -4.080000 99.375160 -141.404449 29870.640625
2.000000 6.000000 -4.040000 222.161789 -86.495026 56837.250000
2.000000 6.000000 -4.000000 267.694885 59.518517 75203.007812
2.000000 6.000000 -3.960000 187.357941 199.190353 74779.796875
2.000000 6.000000 -3.920000 34.093636 235.185928 56474.796875
2.000000 6.000000 -3.880000 -83.881165 155.120529 31098.429688
2.000000 6.000000 -3.840000 -98.362488 36.684780 11020.952148
2.000000 6.000000 -3.800000 -33.486866 -28.490303 1933.067627
2.000000 6.040000 -4.200000 11.565564 47.207237 2362.285400
2.000000 6.040000 -4.160000 -14.337040 -11.763733 343.936127
2.000000 6.040000 -4.120000 35.684258 -75.808884 7020.353027
2.000000 6.040000 -4.080000 138.308380 -68.643936 23841.199219
2.000000 6.040000 -4.040000 208.446213 33.745342 44588.574219
2.000000 6.040000 -4.000000 173.301559 169.432953 58740.953125
2.000000 6.040000 -3.960000 42.853531 238.593246 58763.164062
2.000000 6.040000 -3.920000 -94.112381 191.092224 45373.378906
2.000000 6.040000 -3.880000 -147.098434 69.648216 26488.824219
2.000000 6.040000 -3.840000 -100.079407 -32.362381 11063.210938
2.000000 6.040000 -3.800000 -15.247904 -54.871902 3243.424316
2.000000 6.080000 -4.200000 -17.818409 31.495970 1309.491821
2.000000 6.080000 -4.160000 -8.568367 -20.433538 490.946411
2.000000 6.080000 -4.120000 53.206963 -43.158096 4693.602539
2.000000 6.080000 -4.080000 120.231560 4.225937 14473.486328
2.000000 6.080000 -4.040000 125.319885 102.471458 26205.472656
2.000000 6.080000 -4.000000 44.733620 179.331268 34160.800781
2.000000 6.080000 -3.960000 -73.361641 170.544983 34467.523438
2.000000 6.080000 -3.920000 -146.919479 78.101212 27685.132812
2.000000 6.080000 -3.880000 -130.339096 -31.057917 17952.873047
2.000000 6.080000 -3.840000 -50.258717 -84.675797 9695.929688
2.000000 6.080000 -3.800000 25.207556 -64.888672 4845.960449
2.000000 6.120000 -4.200000 -18.377703 6.338953 377.922302
2.000000 6.120000 -4.160000 4.914000 -18.687046 373.353088
2.000000 6.120000 -4.120000 47.024822 -10.805542 2328.093750
2.000000 6.120000 -4.080000 69.039948 37.750732 6191.631836
2.000000 6.120000 -4.040000 39.024513 94.631653 10478.062500
2.000000 6.120000 -4.000000 -33.389160 110.228554 13265.169922
2.000000 6.120000 -3.960000 -98.564362 62.205891 13584.505859
2.000000 6.120000 -3.920000 -107.351501 -21.115280 11970.200195
2.000000 6.120000 -3.880000 -53.545494 -83.000320 9756.172852
2.000000 6.120000 -3.840000 22.119144 -86.082504 7899.454102
2.000000 6.120000 -3.800000 69.295486 -40.504005 6442.438477
2.000000 6.160000 -4.200000 -0.942307 -1.664928 3.659928
2.000000 6.160000 -4.160000 12.283630 -5.818348 184.740753
2.000000 6.160000 -4.120000 27.222332 5.303204 769.179321
2.000000 6.160000 -4.080000 26.584129 29.346270 1567.919434
2.000000 6.160000 -4.040000 1.618210 46.509003 2165.706055
2.000000 6.160000 -4.000000 -33.716591 35.159184 2372.976562
2.000000 6.160000 -3.960000 -49.962566 -5.590309 2527.509521
2.000000 6.160000 -3.920000 -27.428886 -49.884068 3240.763916
2.000000 6.160000 -3.880000 24.194824 -64.574921 4755.310059
2.000000 6.160000 -3.840000 71.908379 -37.197273 6554.452148
2.000000 6.160000 -3.800000 86.422318 14.000086 7664.819336
2.000000 6.200000 -4.200000 10.089415 9.952339 200.845337
2.000000 6.200000 -4.160000 7.581115 7.132776 108.349792
2.000000 6.200000 -4.120000 10.959768 4.828382 143.429810
2.000000 6.200000 -4.080000 14.353279 8.293591 274.800262
2.000000 6.200000 -4.040000 10.821215 12.559124 274.830292
2.000000 6.200000 -4.000000 3.720906 7.877975 75.907639
2.000000 6.200000 -3.960000 5.974506 -6.582794 79.027908
2.000000 6.200000 -3.920000 25.978020 -17.137936 968.566284
2.000000 6.200000 -3.880000 55.074364 -6.672980 3077.714111
2.000000 6.200000 -3.840000 71.542740 27.642111 5882.450195
2.000000 6.200000 -3.800000 59.027939 68.555489 8184.152344
2.040000 5.800000 -4.200000 -95.809105 9.982414 9279.033203
2.040000 5.800000 -4.160000 -88.631653 -37.493961 9261.367188
2.040000 5.800000 -4.120000 -51.737099 -68.160583 7322.592773
2.040000 5.800000 -4.080000 -8.264780 -66.421677 4480.145996
2.040000 5.800000 -4.040000 16.879971 -41.512268 2008.201904
2.040000 5.800000 -4.000000 17.902542 -16.534025 593.875000
2.040000 5.800000 -3.960000 8.752228 -6.014849 112.779900
2.040000 5.800000 -3.920000 4.980064 -5.499592 55.046551
2.040000 5.800000 -3.880000 7.777254 -2.265850 65.619759
2.040000 5.800000 -3.840000 6.847818 7.297953 100.152725
2.040000 5.800000 -3.800000 -3.533736 13.928272 206.484055
2.040000 5.840000 -4.200000 -72.635040 -55.343246 8338.724609
2.040000 5.840000 -4.160000 -49.747601 -72.809174 7775.999512
2.040000 5.840000 -4.120000 -28.074022 -77.647781 6817.328613
2.040000 5.840000 -4.080000 -11.519196 -78.799500 6342.053223
2.040000 5.840000 -4.040000 6.444664 -80.812668 6572.221191
2.040000 5.840000 -4.000000 31.489578 -76.631538 6863.986328
2.040000 5.840000 -3.960000 56.609215 -55.696003 6306.647949
2.040000 5.840000 -3.920000 64.936913 -19.462395 4595.587402
2.040000 5.840000 -3.880000 46.680138 13.780014 2368.923828
2.040000 5.840000 -3.840000 12.612211 23.031139 689.501282
2.040000 5.840000 -3.800000 -12.133459 4.894777 171.179672
2.040000 5.880000 -4.200000 -9.052767 -80.151070 6506.146484
2.040000 5.880000 -4.160000 -3.623886 -69.992432 4912.072754
2.040000 5.880000 -4.120000 -10.705576 -78.211655 6231.672363
2.040000 5.880000 -4.080000 -0.337166 -108.078056 11680.979492
2.040000 5.880000 -4.040000 46.236050 -130.454620 19156.179688
2.040000 5.880000 -4.000000 110.532753 -109.814171 24276.640625
2.040000 5.880000 -3.960000 147.491104 -42.307541 23543.552734
2.040000 5.880000 -3.920000 126.157623 33.716476 17052.546875
2.040000 5.880000 -3.880000 61.015938 68.706573 8443.538086
2.040000 5.880000 -3.840000 1.410027 46.075184 2124.910889
2.040000 5.880000 -3.800000 -12.164022 -3.621265 161.076996
2.040000 5.920000 -4.200000 47.359154 -50.051559 4748.047852
2.040000 5.920000 -4.160000 20.118542 -41.800453 2152.033447
2.040000 5.920000 -4.120000 3.655436 -80.020798 6416.690430
2.040000 5.920000 -4.080000 42.969913 -132.179016 19317.707031
2.040000 5.920000 -4.040000 131.822723 -136.192902 35925.734375
2.040000 5.920000 -4.000000 208.248047 -61.467312 47145.480469
2.040000 5.920000 -3.960000 207.826843 54.484295 46160.535156
2.040000 5.920000 -3.920000 124.855331 134.021042 33550.492188
2.040000 5.920000 -3.880000 20.382736 127.801529 16748.685547
2.040000 5.920000 -3.840000 -32.284695 57.543320 4353.535156
2.040000 5.920000 -3.800000 -11.613264 -7.895882 197.212860
2.040000 5.960000 -4.200000 59.171650 5.695356 3533.721191
2.040000 5.960000 -4.160000 16.360266 -16.146008 528.351868
2.040000 5.960000 -4.120000 24.279604 -80.844879 7125.393555
2.040000 5.960000 -4.080000 106.043091 -119.029190 25413.085938
2.040000 5.960000 -4.040000 209.196838 -68.554893 48463.089844
2.040000 5.960000 -4.000000 245.832275 59.352444 63956.218750
2.040000 5.960000 -3.960000 173.719925 180.790665 62863.875000
2.040000 5.960000 -3.920000 39.062275 211.185638 46125.234375
2.040000 5.960000 -3.880000 -63.160202 140.277527 23666.996094
2.040000 5.960000 -3.840000 -73.319977 37.488304 6781.191895
2.040000 5.960000 -3.800000 -14.293724 -15.473160 443.729218
2.040000 6.000000 -4.200000 28.937654 43.192978 2703.020996
2.040000 6.000000 -4.160000 2.872543 -9.194859 92.796928
2.040000 6.000000 -4.120000 50.264378 -69.082237 7298.863281
2.040000 6.000000 -4.080000 150.145508 -60.266479 26175.722656
2.040000 6.000000 -4.040000 218.639633 42.503357 49609.824219
2.040000 6.000000 -4.000000 182.928619 178.482330 65318.820312
2.040000 6.000000 -3.960000 52.539932 248.404999 64465.488281
2.040000 6.000000 -3.920000 -84.106720 202.449432 48059.714844
2.040000 6.000000 -3.880000 -137.040955 83.732407 25791.337891
2.040000 6.000000 -3.840000 -91.381721 -14.257574 8553.897461
2.040000 6.000000 -3.800000 -10.729897 -32.468143 1169.311035
2.040000 6.040000 -4.200000 -9.382984 42.382195 1884.290771
2.040000 6.040000 -4.160000 -1.616480 -14.661989 217.586929
2.040000 6.040000 -4.120000 67.381447 -40.099327 6148.215332
2.040000 6.040000 -4.080000 143.644669 14.678909 20849.261719
2.040000 6.040000 -4.040000 149.426514 128.320923 38794.542969
2.040000 6.040000 -4.000000 57.105125 218.056061 50809.441406
2.040000 6.040000 -3.960000 -78.326973 210.570068 50474.867188
2.040000 6.040000 -3.920000 -163.800262 108.611450 38626.972656
2.040000 6.040000 -3.880000 -148.746338 -11.794117 22264.574219
2.040000 6.040000 -3.840000 -64.563736 -70.237488 9101.781250
2.040000 6.040000 -3.800000 12.134787 -49.113209 2559.360352
2.040000 6.080000 -4.200000 -25.134050 18.781403 984.461548
2.040000 6.080000 -4.160000 4.861917 -16.549679 297.530121
2.040000 6.080000 -4.120000 62.435684 -5.859694 3932.550537
2.040000 6.080000 -4.080000 92.337357 61.577881 12318.023438
2.040000 6.080000 -4.040000 50.819771 140.357971 22283.007812
2.040000 6.080000 -4.000000 -47.882645 163.233124 28937.800781
2.040000 6.080000 -3.960000 -136.882751 101.764191 29092.835938
2.040000 6.080000 -3.920000 -152.757507 -5.319435 23363.152344
2.040000 6.080000 -3.880000 -89.881424 -84.938858 15293.279297
2.040000 6.080000 -3.840000 -1.461323 -92.271866 8516.233398
2.040000 6.080000 -3.800000 51.196388 -43.423092 4506.634766
2.040000 6.120000 -4.200000 -16.310665 1.514612 268.331848
2.040000 6.120000 -4.160000 10.508791 -8.275283 178.914993
2.040000 6.120000 -4.120000 38.703636 14.474924 1707.494873
2.040000 6.120000 -4.080000 34.892227 60.074062 4826.360352
2.040000 6.120000 -4.040000 -12.352501 90.226753 8293.451172
2.040000 6.120000 -4.000000 -74.777374 70.390495 10546.477539
2.040000 6.120000 -3.960000 -104.229942 4.060112 10880.365234
2.040000 6.120000 -3.920000 -74.132904 -65.824974 9828.615234
2.040000 6.120000 -3.880000 -3.403431 -91.978867 8471.695312
2.040000 6.120000 -3.840000 60.232594 -61.715614 7436.782227
2.040000 6.120000 -3.800000 80.917618 -3.550508 6560.266602
2.040000 6.160000 -4.200000 -3.534100 3.676018 26.002966
2.040000 6.160000 -4.160000 6.239654 2.427202 44.824589
2.040000 6.160000 -4.120000 14.263592 13.131575 375.888306
2.040000 6.160000 -4.080000 7.276329 29.318874 912.541321
2.040000 6.160000 -4.040000 -15.617325 32.807148 1320.209839
2.040000 6.160000 -4.000000 -36.403446 11.335510 1453.704712
2.040000 6.160000 -3.960000 -31.743891 -25.508110 1658.338379
2.040000 6.160000 -3.920000 4.529953 -50.202805 2540.842041
2.040000 6.160000 -3.880000 52.468803 -39.897263 4344.766602
2.040000 6.160000 -3.840000 80.816635 3.274473 6542.050781
2.040000 6.160000 -3.800000 72.283386 53.694382 8107.974609
2.040000 6.200000 -4.200000 -4.199515 14.506702 228.080338
2.040000 6.200000 -4.160000 -4.299248 5.186145 45.379635
2.040000 6.200000 -4.120000 4.443644 0.805723 20.395157
2.040000 6.200000 -4.080000 12.188713 5.601055 179.936554
2.040000 6.200000 -4.040000 11.789709 12.035057 283.839844
2.040000 6.200000 -4.000000 8.350985 10.654572 183.258850
2.040000 6.200000 -3.960000 13.840015 3.339058 202.695328
2.040000 6.200000 -3.920000 31.954716 4.039298 1037.419800
2.040000 6.200000 -3.880000 50.209690 24.607553 3126.544678
2.040000 6.200000 -3.840000 49.314678 60.270897 6064.518555
2.040000 6.200000 -3.800000 21.280539 90.668808 8673.694336
2.080000 5.800000 -4.200000 -72.919991 -34.815857 6529.469238
2.080000 5.800000 -4.160000 -45.371731 -68.949600 6812.641602
2.080000 5.800000 -4.120000 -1.049921 -76.584137 5866.232422
2.080000 5.800000 -4.080000 35.009342 -54.293083 4173.392578
2.080000 5.800000 -4.040000 45.541073 -19.186317 2442.104004
2.080000 5.800000 -4.000000 33.524532 6.923826 1171.833618
2.080000 5.800000 -3.960000 15.444279 15.287346 472.228699
2.080000 5.800000 -3.920000 4.172455 12.944160 184.960663
2.080000 5.800000 -3.880000 -0.337496 10.472198 109.780846
2.080000 5.800000 -3.840000 -4.863525 10.020359 124.061470
2.080000 5.800000 -3.800000 -11.164926 6.363695 165.152176
2.080000 5.840000 -4.200000 -28.905804 -72.127220 6037.881348
2.080000 5.840000 -4.160000 -1.446281 -77.638168 6029.776855
2.080000 5.840000 -4.120000 22.127758 -70.995010 5529.929199
2.080000 5.840000 -4.080000 38.986393 -58.833244 4981.289551
2.080000 5.840000 -4.040000 51.709526 -44.046230 4613.945312
2.080000 5.840000 -4.000000 60.569111 -24.322109 4260.182129
2.080000 5.840000 -3.960000 59.734055 0.701286 3568.648926
2.080000 5.840000 -3.920000 43.554634 22.873230 2420.190674
2.080000 5.840000 -3.880000 16.531303 29.394819 1137.339355
2.080000 5.840000 -3.840000 -5.632442 15.364666 267.797363
2.080000 5.840000 -3.800000 -8.017366 -8.291256 133.023102
2.080000 5.880000 -4.200000 26.785925 -63.668137 4771.117188
2.080000 5.880000 -4.160000 31.158611 -55.376236 4037.386719
2.080000 5.880000 -4.120000 34.797142 -60.603142 4883.582031
2.080000 5.880000 -4.080000 55.823360 -69.969841 8012.026367
2.080000 5.880000 -4.040000 93.034920 -59.511925 12197.165039
2.080000 5.880000 -4.000000 120.757172 -16.823627 14865.329102
2.080000 5.880000 -3.960000 111.086967 40.435848 13975.372070
2.080000 5.880000 -3.920000 63.103058 75.563828 9691.887695
2.080000 5.880000 -3.880000 8.431534 65.511414 4362.835938
2.080000 5.880000 -3.840000 -15.039339 23.462412 776.666443
2.080000 5.880000 -3.800000 3.057849 -12.179335 157.686630
2.080000 5.920000 -4.200000 54.765350 -19.751617 3389.370117
2.080000 5.920000 -4.160000 36.846783 -24.503860 1958.124512
2.080000 5.920000 -4.120000 44.032211 -53.361580 4786.293945
2.080000 5.920000 -4.080000 91.333588 -67.602036 12911.859375
2.080000 5.920000 -4.040000 148.993500 -30.750368 23144.648438
2.080000 5.920000 -4.000000 164.871201 50.282425 29710.835938
2.080000 5.920000 -3.960000 114.175316 123.961128 28402.363281
2.080000 5.920000 -3.920000 27.127914 138.267105 19853.716797
2.080000 5.920000 -3.880000 -35.343037 88.614243 9101.614258
2.080000 5.920000 -3.840000 -35.845657 21.932575 1765.948975
2.080000 5.920000 -3.800000 8.023144 -7.325893 118.039551
2.080000 5.960000 -4.200000 41.792381 23.801907 2313.133789
2.080000 5.960000 -4.160000 24.398804 -6.717945 640.432434
2.080000 5.960000 -4.120000 57.085896 -44.063141 5200.359863
2.080000 5.960000 -4.080000 126.567383 -33.563396 17145.804688
2.080000 5.960000 -4.040000 172.836823 43.722382 31784.212891
2.080000 5.960000 -4.000000 142.933868 143.731613 41088.867188
2.080000 5.960000 -3.960000 44.408970 193.570145 39441.558594
2.080000 5.960000 -3.920000 -56.471981 157.184174 27895.949219
2.080000 5.960000 -3.880000 -92.784492 68.483131 13298.901367
2.080000 5.960000 -3.840000 -55.300503 -0.959965 3059.067139
2.080000 5.960000 -3.800000 4.936869 -7.230400 76.651360
2.080000 6.000000 -4.200000 7.823690 38.784103 1565.416748
2.080000 6.000000 -4.160000 12.731112 -4.921082 186.298248
2.080000 6.000000 -4.120000 68.766792 -23.768280 5293.802734
2.080000 6.000000 -4.080000 131.263840 24.280006 17819.714844
2.080000 6.000000 -4.040000 134.163895 121.815109 32838.871094
2.080000 6.000000 -4.000000 53.842438 198.486267 42295.804688
2.080000 6.000000 -3.960000 -62.446815 191.952637 40745.421875
2.080000 6.000000 -3.920000 -135.028625 105.508698 29364.816406
2.080000 6.000000 -3.880000 -121.737442 5.351145 14848.639648
2.080000 6.000000 -3.840000 -51.765938 -39.876244 4269.827148
2.080000 6.000000 -3.800000 7.469755 -17.638365 366.909149
2.080000 6.040000 -4.200000 -17.023014 26.205334 976.502563
2.080000 6.040000 -4.160000 10.559125 -6.908446 159.221741
2.080000 6.040000 -4.120000 65.889130 4.893682 4365.325684
2.080000 6.040000 -4.080000 93.893387 72.732384 14105.966797
2.080000 6.040000 -4.040000 51.137154 151.408997 25539.691406
2.080000 6.040000 -4.000000 -47.732613 174.421356 32701.210938
2.080000 6.040000 -3.960000 -136.337952 114.642982 31731.050781
2.080000 6.040000 -3.920000 -153.210907 11.393198 23603.386719
2.080000 6.040000 -3.880000 -94.985847 -63.807465 13093.704102
2.080000 6.040000 -3.840000 -15.216017 -69.566971 5071.090820
2.080000 6.040000 -3.800000 27.519926 -25.043404 1384.518311
2.080000 6.080000 -4.200000 -20.226439 8.095928 474.652893
2.080000 6.080000 -4.160000 11.392269 -2.945286 138.458511
2.080000 6.080000 -4.120000 43.840565 26.098738 2603.139160
2.080000 6.080000 -4.080000 36.530647 81.686150 8007.115234
2.080000 6.080000 -4.040000 -22.291191 117.025475 14191.859375
2.080000 6.080000 -4.000000 -97.240089 92.796188 18066.767578
2.080000 6.080000 -3.960000 -132.555328 15.897667 17823.652344
2.080000 6.080000 -3.920000 -100.692261 -63.040928 14113.089844
2.080000 6.080000 -3.880000 -26.188622 -92.625610 9265.347656
2.080000 6.080000 -3.840000 37.760208 -63.126564 5410.796387
2.080000 6.080000 -3.800000 55.914902 -8.866867 3205.097656
2.080000 6.120000 -4.200000 -12.631585 2.064779 163.820251
2.080000 6.120000 -4.160000 5.901746 3.719420 48.664692
2.080000 6.120000 -4.120000 15.247026 26.182346 917.987061
2.080000 6.120000 -4.080000 -3.167938 52.266586 2741.832031
2.080000 6.120000 -4.040000 -43.682930 53.154125 4733.559570
2.080000 6.120000 -4.000000 -75.620369 16.269482 5983.136719
2.080000 6.120000 -3.960000 -68.537781 -38.704876 6195.494629
2.080000 6.120000 -3.920000 -20.433834 -73.537155 5825.254883
2.080000 6.120000 -3.880000 38.726730 -63.412548 5520.911133
2.080000 6.120000 -3.840000 72.049446 -17.025238 5480.981445
2.080000 6.120000 -3.800000 65.202484 33.438892 5369.523438
2.080000 6.160000 -4.200000 -10.837220 6.139585 155.139847
2.080000 6.160000 -4.160000 -4.995374 3.585484 37.809456
2.080000 6.160000 -4.120000 -0.671881 8.819811 78.240486
2.080000 6.160000 -4.080000 -6.001932 15.238216 268.226410
2.080000 6.160000 -4.040000 -17.675671 10.764847 428.311249
2.080000 6.160000 -4.000000 -20.956818 -7.808479 500.160553
2.080000 6.160000 -3.960000 -3.608311 -27.475079 767.899841
2.080000 6.160000 -3.920000 29.770031 -28.279087 1685.961548
2.080000 6.160000 -3.880000 58.371513 -1.446039 3409.324707
2.080000 6.160000 -3.840000 61.532238 41.235554 5486.586914
2.080000 6.160000 -3.800000 35.562931 76.212242 7073.027832
2.080000 6.200000 -4.200000 -18.154476 6.812688 375.997711
2.080000 6.200000 -4.160000 -11.542700 -5.538766 163.911850
2.080000 6.200000 -4.120000 2.860147 -7.789838 68.862015
2.080000 6.200000 -4.080000 13.326214 0.783180 178.201355
2.080000 6.200000 -4.040000 14.528458 10.890072 329.669739
2.080000 6.200000 -4.000000 12.521702 14.868586 377.867859
2.080000 6.200000 -3.960000 16.275650 16.107832 524.359009
2.080000 6.200000 -3.920000 25.380619 25.290367 1283.778564
2.080000 6.200000 -3.880000 27.989162 47.239815 3014.993164
2.080000 6.200000 -3.840000 12.055976 72.765930 5440.227051
2.080000 6.200000 -3.800000 -21.645243 84.784386 7656.908691
2.120000 5.800000 -4.200000 -34.137806 -46.863689 3361.595215
2.120000 5.800000 -4.160000 -1.495692 -60.225803 3629.384521
2.120000 5.800000 -4.120000 33.907169 -48.269184 3479.610352
2.120000 5.800000 -4.080000 52.478439 -16.365047 3021.801270
2.120000 5.800000 -4.040000 45.977379 17.159883 2408.381104
2.120000 5.800000 -4.000000 22.662388 35.407795 1767.295654
2.120000 5.800000 -3.960000 -1.323351 34.460354 1189.267212
2.120000 5.800000 -3.920000 -15.031208 22.568943 735.294373
2.120000 5.800000 -3.880000 -18.152802 10.107451 431.684784
2.120000 5.800000 -3.840000 -16.054964 1.428159 259.801514
2.120000 5.800000 -3.800000 -12.142828 -4.529756 167.966965
2.120000 5.840000 -4.200000 4.755742 -56.389999 3202.449219
2.120000 5.840000 -4.160000 28.606873 -51.228516 3442.713867
2.120000 5.840000 -4.120000 46.171936 -35.004402 3357.155762
2.120000 5.840000 -4.080000 53.346291 -13.634404 3031.723633
2.120000 5.840000 -4.040000 50.231682 7.206306 2575.152832
2.120000 5.840000 -4.000000 38.597679 23.580860 2045.837891
2.120000 5.840000 -3.960000 20.841066 31.984978 1457.388916
2.120000 5.840000 -3.920000 1.702246 29.145422 852.353271
2.120000 5.840000 -3.880000 -10.991707 15.220335 352.476227
2.120000 5.840000 -3.840000 -10.232410 -2.915208 113.200661
2.120000 5.840000 -3.800000 3.635991 -13.830486 204.502777
2.120000 5.880000 -4.200000 36.407608 -34.887871 2542.677490
2.120000 5.880000 -4.160000 42.055470 -27.219736 2509.576660
2.120000 5.880000 -4.120000 49.355186 -22.858479 2958.444336
2.120000 5.880000 -4.080000 62.242432 -13.822453 4065.180664
2.120000 5.880000 -4.040000 72.705597 8.139339 5352.353027
2.120000 5.880000 -4.000000 66.452347 38.714722 5914.744141
2.120000 5.880000 -3.960000 38.654148 60.147049 5111.810547
2.120000 5.880000 -3.920000 3.245472 56.173279 3165.970459
2.120000 5.880000 -3.880000 -16.213360 29.091793 1109.205444
2.120000 5.880000 -3.840000 -7.365252 0.733988 54.785667
2.120000 5.880000 -3.800000 18.605761 -5.771240 379.481537
2.120000 5.920000 -4.200000 41.499573 -0.977875 1723.170898
2.120000 5.920000 -4.160000 37.392929 -6.239523 1437.162842
2.120000 5.920000 -4.120000 51.629890 -14.419424 2873.565186
2.120000 5.920000 -4.080000 79.295364 -2.555384 6294.284668
2.120000 5.920000 -4.040000 94.216187 37.192711 10259.987305
2.120000 5.920000 -4.000000 73.201866 83.894272 12396.761719
2.120000 5.920000 -3.960000 21.733788 103.364906 11156.661133
2.120000 5.920000 -3.920000 -26.581400 80.088387 7120.720215
2.120000 5.920000 -3.880000 -39.018642 33.794132 2664.497803
2.120000 5.920000 -3.840000 -13.744950 2.654309 195.969025
2.120000 5.920000 -3.800000 19.071545 8.519209 436.300720
2.120000 5.960000 -4.200000 23.876263 21.495451 1032.130371
2.120000 5.960000 -4.160000 26.419624 3.057301 707.343628
2.120000 5.960000 -4.120000 55.710724 -2.858224 3111.854248
2.120000 5.960000 -4.080000 87.895409 27.525366 8483.249023
2.120000 5.960000 -4.040000 85.844208 84.803696 14560.894531
2.120000 5.960000 -4.000000 36.168095 128.631760 17854.259766
2.120000 5.960000 -3.960000 -33.037323 122.983604 16216.431641
2.120000 5.960000 -3.920000 -74.445389 70.917465 10571.402344
2.120000 5.960000 -3.880000 -63.864487 13.413630 4258.598145
2.120000 5.960000 -3.840000 -21.365278 -7.849984 518.097351
2.120000 5.960000 -3.800000 9.606421 12.555056 249.912750
2.120000 6.000000 -4.200000 2.359877 23.855419 574.650024
2.120000 6.000000 -4.160000 18.925772 5.503288 388.471039
2.120000 6.000000 -4.120000 53.714020 15.703234 3131.787354
2.120000 6.000000 -4.080000 70.424133 62.913387 8917.652344
2.120000 6.000000 -4.040000 39.345108 117.249001 15295.365234
2.120000 6.000000 -4.000000 -29.938000 133.402191 18692.427734
2.120000 6.000000 -3.960000 -91.875198 92.722443 17038.503906
2.120000 6.000000 -3.920000 -104.145721 22.762037 11364.441406
2.120000 6.000000 -3.880000 -65.387573 -26.512104 4978.426270
2.120000 6.000000 -3.840000 -14.441584 -27.220070 949.491516
2.120000 6.000000 -3.800000 7.353942 4.574659 75.007973
2.120000 6.040000 -4.200000 -9.001571 15.326715 315.936462
2.120000 6.040000 -4.160000 13.792295 8.652236 265.088562
2.120000 6.040000 -4.120000 37.387989 32.933464 2482.474609
2.120000 6.040000 -4.080000 29.508717 78.007202 6955.887695
2.120000 6.040000 -4.040000 -19.448057 106.705284 11764.244141
2.120000 6.040000 -4.000000 -81.221664 87.631927 14276.313477
2.120000 6.040000 -3.960000 -111.276237 26.603346 13090.139648
2.120000 6.040000 -3.920000 -88.232323 -35.619488 9053.690430
2.120000 6.040000 -3.880000 -32.800018 -58.592915 4508.970703
2.120000 6.040000 -3.840000 12.257080 -36.525703 1484.362915
2.120000 6.040000 -3.800000 20.686617 1.076187 429.094299
2.120000 6.080000 -4.200000 -11.364401 8.682915 204.542618
2.120000 6.080000 -4.160000 4.950269 11.863645 165.251221
2.120000 6.080000 -4.120000 11.322411 34.826794 1341.102539
2.120000 6.080000 -4.080000 -9.695202 59.893356 3681.210938
2.120000 6.080000 -4.040000 -51.215927 59.320381 6141.979004
2.120000 6.080000 -4.000000 -83.121902 22.522106 7416.495605
2.120000 6.080000 -3.960000 -77.554939 -30.269388 6931.004395
2.120000 6.080000 -3.920000 -34.811996 -63.301308 5218.930664
2.120000 6.080000 -3.880000 16.068676 -55.868721 3379.516357
2.120000 6.080000 -3.840000 42.757248 -18.795582 2181.456055
2.120000 6.080000 -3.800000 36.130722 18.149929 1634.848999
2.120000 6.120000 -4.200000 -13.823935 6.433154 232.486633
2.120000 6.120000 -4.160000 -7.230283 8.089165 117.711578
2.120000 6.120000 -4.120000 -7.769840 17.652617 371.985291
2.120000 6.120000 -4.080000 -21.451889 23.089670 993.316406
2.120000 6.120000 -4.040000 -39.018063 11.381882 1651.956421
2.120000 6.120000 -4.000000 -41.914936 -16.098965 2016.038452
2.120000 6.120000 -3.960000 -19.846100 -41.064148 2080.131836
2.120000 6.120000 -3.920000 17.478680 -42.916771 2147.353516
2.120000 6.120000 -3.880000 46.877373 -16.968721 2485.425537
2.120000 6.120000 -3.840000 50.678497 21.390223 3025.851562
2.120000 6.120000 -3.800000 30.049831 50.194176 3422.447754
2.120000 6.160000 -4.200000 -19.592607 1.761238 386.972229
2.120000 6.160000 -4.160000 -13.961876 -4.976400 219.698532
2.120000 6.160000 -4.120000 -6.868147 -5.284636 75.098816
2.120000 6.160000 -4.080000 -3.938768 -2.894711 23.893242
2.120000 6.160000 -4.040000 -3.280020 -4.091911 27.502268
2.120000 6.160000 -4.000000 2.448753 -8.869858 84.670769
2.120000 6.160000 -3.960000 16.705750 -8.923344 358.708130
2.120000 6.160000 -3.920000 32.720375 4.437887 1090.317749
2.120000 6.160000 -3.880000 37.624321 30.396042 2339.508789
2.120000 6.160000 -3.840000 23.492710 57.126114 3815.300293
2.120000 6.160000 -3.800000 -5.450241 70.509750 5001.330078
2.120000 6.200000 -4.200000 -22.179428 -9.486448 581.919739
2.120000 6.200000 -4.160000 -8.116775 -19.026264 427.880737
2.120000 6.200000 -4.120000 9.396053 -15.364966 324.368011
2.120000 6.200000 -4.080000 19.573626 -1.546570 385.518707
2.120000 6.200000 -4.040000 19.513948 13.034101 550.682007
2.120000 6.200000 -4.000000 14.766724 22.534369 725.853882
2.120000 6.200000 -3.960000 11.220715 29.370190 988.512451
2.120000 6.200000 -3.920000 7.747547 39.167992 1594.156128
2.120000 6.200000 -3.880000 -2.413611 52.166454 2727.164307
2.120000 6.200000 -3.840000 -23.246342 60.744820 4230.325684
2.120000 6.200000 -3.800000 -49.852081 55.815811 5600.634766
2.160000 5.800000 -4.200000 -7.983708 -31.522638 1057.416260
2.160000 5.800000 -4.160000 15.347214 -29.541744 1108.251587
2.160000 5.800000 -4.120000 33.815948 -11.025433 1265.078613
2.160000 5.800000 -4.080000 35.749454 16.564276 1552.398682
2.160000 5.800000 -4.040000 18.855522 38.739674 1856.292969
2.160000 5.800000 -4.000000 -7.491138 43.988853 1991.136475
2.160000 5.800000 -3.960000 -28.938240 31.609871 1836.605713
2.160000 5.800000 -3.920000 -36.130280 11.034700 1427.161743
2.160000 5.800000 -3.880000 -29.740156 -6.060120 921.201904
2.160000 5.800000 -3.840000 -17.405235 -13.631259 488.753448
2.160000 5.800000 -3.800000 -6.558562 -13.016396 212.441299
2.160000 5.840000 -4.200000 12.441654 -30.737389 1099.581787
2.160000 5.840000 -4.160000 27.891581 -20.836361 1212.094238
2.160000 5.840000 -4.120000 35.341637 -2.352701 1254.566406
2.160000 5.840000 -4.080000 30.255234 17.545212 1223.213623
2.160000 5.840000 -4.040000 14.373868 30.198673 1118.567871
2.160000 5.840000 -4.000000 -5.088808 30.366095 947.995605
2.160000 5.840000 -3.960000 -19.385220 18.937122 734.401367
2.160000 5.840000 -3.920000 -22.643106 2.152184 517.342163
2.160000 5.840000 -3.880000 -14.471735 -11.666660 345.542053
2.160000 5.840000 -3.840000 0.143380 -16.146349 260.725159
2.160000 5.840000 -3.800000 13.448421 -9.793036 276.763611
2.160000 5.880000 -4.200000 25.721378 -17.420965 965.079346
2.160000 5.880000 -4.160000 31.979572 -8.159325 1089.267578
2.160000 5.880000 -4.120000 34.248367 3.382925 1184.394897
2.160000 5.880000 -4.080000 31.369022 15.745462 1231.935181
2.160000 5.880000 -4.040000 22.240822 26.139193 1177.911499
2.160000 5.880000 -4.000000 8.033481 30.012148 965.265808
2.160000 5.880000 -3.960000 -5.718601 23.929983 605.346497
2.160000 5.880000 -3.920000 -11.043179 10.105191 224.066681
2.160000 5.880000 -3.880000 -3.753497 -2.544760 20.564541
2.160000 5.880000 -3.840000 11.322214 -3.931931 143.652618
2.160000 5.880000 -3.800000 22.255630 8.637446 569.918579
2.160000 5.920000 -4.200000 27.323154 -1.277757 748.187439
2.160000 5.920000 -4.160000 29.963861 2.586164 904.521240
2.160000 5.920000 -4.120000 34.676506 8.938019 1282.348267
2.160000 5.920000 -4.080000 37.217709 21.509602 1847.820801
2.160000 5.920000 -4.040000 30.346306 37.347984 2315.770264
2.160000 5.920000 -4.000000 12.473597 46.504341 2318.244385
2.160000 5.920000 -3.960000 -7.446390 40.801292 1720.194214
2.160000 5.920000 -3.920000 -15.955766 23.492876 806.501709
2.160000 5.920000 -3.880000 -7.798740 8.814338 138.512909
2.160000 5.920000 -3.840000 7.458226 9.775002 151.175812
2.160000 5.920000 -3.800000 13.009438 25.393396 814.070068
2.160000 5.960000 -4.200000 21.046570 10.488667 552.970215
2.160000 5.960000 -4.160000 25.364431 11.176554 768.269714
2.160000 5.960000 -4.120000 33.515358 18.928310 1481.560059
2.160000 5.960000 -4.080000 35.570095 37.013702 2635.245850
2.160000 5.960000 -4.040000 21.890207 56.654831 3688.950928
2.160000 5.960000 -4.000000 -4.803419 62.646988 3947.717773
2.160000 5.960000 -3.960000 -28.538109 48.099388 3127.974609
2.160000 5.960000 -3.920000 -33.578045 23.206999 1666.049927
2.160000 5.960000 -3.880000 -19.798462 7.426133 447.126556
2.160000 5.960000 -3.840000 -3.720992 11.431425 144.523254
2.160000 5.960000 -3.800000 -2.989120 26.744305 724.192627
2.160000 6.000000 -4.200000 11.988651 17.076000 435.317535
2.160000 6.000000 -4.160000 17.515644 18.922359 664.853516
2.160000 6.000000 -4.120000 23.523502 30.538195 1485.936523
2.160000 6.000000 -4.080000 17.935541 50.078056 2829.495361
2.160000 6.000000 -4.040000 -4.655922 63.593498 4065.810547
2.160000 6.000000 -4.000000 -33.948601 57.026455 4404.523926
2.160000 6.000000 -3.960000 -50.638626 31.201462 3537.801758
2.160000 6.000000 -3.920000 -43.979958 3.501306 1946.495850
2.160000 6.000000 -3.880000 -22.580563 -7.160416 561.153381
2.160000 6.000000 -3.840000 -6.659233 2.208819 49.224270
2.160000 6.000000 -3.800000 -8.854506 16.548573 352.257507
2.160000 6.040000 -4.200000 1.433159 19.920870 398.895020
2.160000 6.040000 -4.160000 4.237437 22.818901 538.658142
2.160000 6.040000 -4.120000 4.128657 33.244228 1122.224487
2.160000 6.040000 -4.080000 -7.821661 45.241165 2107.941406
2.160000 6.040000 -4.040000 -30.376717 45.640831 3005.830322
2.160000 6.040000 -4.000000 -49.616329 27.534042 3219.903564
2.160000 6.040000 -3.960000 -50.501225 -0.414045 2550.545166
2.160000 6.040000 -3.920000 -31.589504 -19.782486 1389.243530
2.160000 6.040000 -3.880000 -7.497130 -18.758377 408.083679
2.160000 6.040000 -3.840000 4.243784 -2.747492 25.558418
2.160000 6.040000 -3.800000 -1.012466 11.601759 135.625900
2.160000 6.080000 -4.200000 -10.881851 17.637718 429.503784
2.160000 6.080000 -4.160000 -11.332062 16.858994 412.641296
2.160000 6.080000 -4.120000 -13.562210 19.872112 578.834412
2.160000 6.080000 -4.080000 -22.204901 21.348927 948.834290
2.160000 6.080000 -4.040000 -33.317726 13.510013 1292.591309
2.160000 6.080000 -4.000000 -36.291481 -3.888069 1332.188721
2.160000 6.080000 -3.960000 -24.373812 -20.520647 1015.179688
2.160000 6.080000 -3.920000 -2.844044 -23.844936 576.669556
2.160000 6.080000 -3.880000 14.380739 -10.845667 324.434143
2.160000 6.080000 -3.840000 16.841860 8.953587 363.814972
2.160000 6.080000 -3.800000 6.235741 22.333105 537.652039
2.160000 6.120000 -4.200000 -21.518902 7.280264 516.065369
2.160000 6.120000 -4.160000 -19.670397 0.088875 386.932404
2.160000 6.120000 -4.120000 -15.541919 -3.026714 250.712234
2.160000 6.120000 -4.080000 -13.133848 -4.228266 190.376205
2.160000 6.120000 -4.040000 -11.186292 -7.375986 179.538300
2.160000 6.120000 -4.000000 -5.092473 -11.834923 165.998688
2.160000 6.120000 -3.960000 6.504843 -11.786824 181.242218
2.160000 6.120000 -3.920000 18.168253 -2.195915 334.907471
2.160000 6.120000 -3.880000 21.557661 15.063236 691.633850
2.160000 6.120000 -3.840000 12.888021 31.673260 1169.296509
2.160000 6.120000 -3.800000 -3.744303 39.588581 1581.275513
2.160000 6.160000 -4.200000 -23.359333 -9.528717 636.454895
2.160000 6.160000 -4.160000 -13.047342 -18.505194 512.675354
2.160000 6.160000 -4.120000 0.515524 -18.531254 343.673157
2.160000 6.160000 -4.080000 10.594626 -11.243729 238.667542
2.160000 6.160000 -4.040000 15.148777 -1.644062 232.188385
2.160000 6.160000 -4.000000 16.320795 7.365047 320.612244
2.160000 6.160000 -3.960000 15.956329 16.614849 530.657654
2.160000 6.160000 -3.920000 12.641512 27.541576 918.346313
2.160000 6.160000 -3.880000 3.435175 38.497253 1493.838989
2.160000 6.160000 -3.840000 -12.144305 44.843735 2158.444824
2.160000 6.160000 -3.800000 -30.401363 42.557526 2735.385742
2.160000 6.200000 -4.200000 -12.471434 -24.038288 733.375977
2.160000 6.200000 -4.160000 5.222297 -25.794127 692.609375
2.160000 6.200000 -4.120000 20.951435 -14.885452 660.539307
2.160000 6.200000 -4.080000 26.885855 3.391037 734.348328
2.160000 6.200000 -4.040000 22.043394 20.769287 917.274536
2.160000 6.200000 -4.000000 10.884516 32.237640 1157.738159
2.160000 6.200000 -3.960000 -1.838632 37.863647 1437.036377
2.160000 6.200000 -3.920000 -14.549604 39.779659 1794.112305
2.160000 6.200000 -3.880000 -27.937670 38.541183 2265.936279
2.160000 6.200000 -3.840000 -41.844398 32.564941 2811.429199
2.160000 6.200000 -3.800000 -53.711166 20.453386 3303.230469
2.200000 5.800000 -4.200000 -5.009689 -10.610407 137.677719
2.200000 5.800000 -4.160000 3.875414 -6.025802 51.329124
2.200000 5.800000 -4.120000 9.212091 5.853862 119.130325
2.200000 5.800000 -4.080000 4.430519 21.113544 465.411255
2.200000 5.800000 -4.040000 -11.754406 30.337080 1058.504517
2.200000 5.800000 -4.000000 -31.791840 25.479216 1659.911499
2.200000 5.800000 -3.960000 -43.637711 7.387863 1958.830322
2.200000 5.800000 -3.920000 -40.090073 -13.696617 1794.811157
2.200000 5.800000 -3.880000 -24.575550 -25.910397 1275.306274
2.200000 5.800000 -3.840000 -7.798774 -24.946175 683.132507
2.200000 5.800000 -3.800000 1.519507 -16.112621 261.925476
2.200000 5.840000 -4.200000 2.003168 -16.678223 282.175812
2.200000 5.840000 -4.160000 9.572308 -9.222826 176.689590
2.200000 5.840000 -4.120000 9.916524 3.553015 110.961365
2.200000 5.840000 -4.080000 -0.094893 13.992780 195.806885
2.200000 5.840000 -4.040000 -15.832121 13.973345 445.910400
2.200000 5.840000 -4.000000 -27.283150 1.894151 747.958069
2.200000 5.840000 -3.960000 -26.533463 -15.253742 936.701294
2.200000 5.840000 -3.920000 -13.866499 -26.873322 914.455200
2.200000 5.840000 -3.880000 2.726024 -26.577316 713.784973
2.200000 5.840000 -3.840000 13.958069 -16.159786 455.966370
2.200000 5.840000 -3.800000 15.720470 -2.866229 255.348465
2.200000 5.880000 -4.200000 13.907646 -17.495991 499.532288
2.200000 5.880000 -4.160000 18.444492 -7.069244 390.173523
2.200000 5.880000 -4.120000 13.889716 3.600714 205.889359
2.200000 5.880000 -4.080000 3.270894 7.096999 61.066143
2.200000 5.880000 -4.040000 -5.571031 1.314473 32.764221
2.200000 5.880000 -4.000000 -6.215703 -8.953429 118.798859
2.200000 5.880000 -3.960000 1.704780 -15.989799 258.579956
2.200000 5.880000 -3.920000 12.929769 -14.759517 385.022247
2.200000 5.880000 -3.880000 20.780838 -5.651401 463.781555
2.200000 5.880000 -3.840000 21.224934 6.883710 497.883270
2.200000 5.880000 -3.800000 14.191883 17.532032 508.781677
2.200000 5.920000 -4.200000 26.095764 -8.908435 760.349121
2.200000 5.920000 -4.160000 25.193541 3.144163 644.600220
2.200000 5.920000 -4.120000 17.292267 9.499713 389.267029
2.200000 5.920000 -4.080000 9.988149 7.830512 161.080032
2.200000 5.920000 -4.040000 8.882465 2.738256 86.396240
2.200000 5.920000 -4.000000 13.335280 0.684196 178.297821
2.200000 5.920000 -3.960000 18.417152 4.426385 358.784393
2.200000 5.920000 -3.920000 19.816048 12.109304 539.311035
2.200000 5.920000 -3.880000 16.322849 20.312504 679.033203
2.200000 5.920000 -3.840000 8.656092 26.615904 783.334229
2.200000 5.920000 -3.800000 -2.252888 29.286379 862.767517
2.200000 5.960000 -4.200000 30.383070 8.431940 994.228516
2.200000 5.960000 -4.160000 22.528156 18.404312 846.236572
2.200000 5.960000 -4.120000 13.491860 19.051785 545.000793
2.200000 5.960000 -4.080000 10.638686 15.064362 340.116638
2.200000 5.960000 -4.040000 13.503593 14.199346 383.968445
2.200000 5.960000 -4.000000 15.799589 19.336948 623.544556
2.200000 5.960000 -3.960000 12.657986 26.788273 877.836182
2.200000 5.960000 -3.920000 4.789433 31.409805 1009.514526
2.200000 5.960000 -3.880000 -4.100571 31.692947 1021.257629
2.200000 5.960000 -3.840000 -12.142405 29.251453 1003.085510
2.200000 5.960000 -3.800000 -20.017756 24.662910 1008.969727
2.200000 6.000000 -4.200000 20.588024 26.422340 1122.006836
2.200000 6.000000 -4.160000 7.562760 29.275799 914.267700
2.200000 6.000000 -4.120000 0.478857 23.578962 556.196777
2.200000 6.000000 -4.080000 1.961072 18.933235 362.313202
2.200000 6.000000 -4.040000 5.515171 21.496149 492.501526
2.200000 6.000000 -4.000000 3.482312 28.585480 829.256104
2.200000 6.000000 -3.960000 -5.157691 32.889183 1108.300171
2.200000 6.000000 -3.920000 -15.100698 30.557562 1161.795654
2.200000 6.000000 -3.880000 -21.415550 23.981115 1033.719727
2.200000 6.000000 -3.840000 -24.153337 17.264771 881.456055
2.200000 6.000000 -3.800000 -25.925592 10.973562 792.555420
2.200000 6.040000 -4.200000 -0.872155 33.270340 1107.676147
2.200000 6.040000 -4.160000 -13.120580 26.013969 848.876221
2.200000 6.040000 -4.120000 -14.193139 15.332043 436.516724
2.200000 6.040000 -4.080000 -7.817723 11.416451 191.452133
2.200000 6.040000 -4.040000 -3.627028 15.992293 268.908783
2.200000 6.040000 -4.000000 -7.170181 22.269072 547.323059
2.200000 6.040000 -3.960000 -15.518221 23.027678 771.089111
2.200000 6.040000 -3.920000 -21.916025 17.514925 787.084717
2.200000 6.040000 -3.880000 -23.153477 10.422720 644.716614
2.200000 6.040000 -3.840000 -21.425426 5.604404 490.458252
2.200000 6.040000 -3.800000 -19.812965 2.486589 398.736725
2.200000 6.080000 -4.200000 -22.082600 22.386477 988.795532
2.200000 6.080000 -4.160000 -26.126644 7.524932 739.226196
2.200000 6.080000 -4.120000 -18.111355 -3.396784 339.559326
2.200000 6.080000 -4.080000 -6.624476 -3.449686 55.784023
2.200000 6.080000 -4.040000 -1.157808 4.425661 20.926996
2.200000 6.080000 -4.000000 -4.093088 11.879705 157.880768
2.200000 6.080000 -3.960000 -10.524281 13.453523 291.757751
2.200000 6.080000 -3.920000 -14.567379 10.297893 318.255127
2.200000 6.080000 -3.880000 -14.787381 6.889717 266.134827
2.200000 6.080000 -3.840000 -13.713804 5.666086 220.172958
2.200000 6.080000 -3.800000 -13.600418 5.607357 216.413834
2.200000 6.120000 -4.200000 -29.190340 -0.900910 852.887573
2.200000 6.120000 -4.160000 -21.345219 -15.377882 692.097595
2.200000 6.120000 -4.120000 -5.522683 -19.641590 416.292084
2.200000 6.120000 -4.080000 8.025034 -11.897108 205.942352
2.200000 6.120000 -4.040000 12.216616 1.599482 151.804031
2.200000 6.120000 -4.000000 7.429173 12.664691 215.587006
2.200000 6.120000 -3.960000 -0.911009 17.336826 301.395477
2.200000 6.120000 -3.920000 -7.825098 17.020979 350.945862
2.200000 6.120000 -3.880000 -11.993390 15.173255 374.069061
2.200000 6.120000 -3.840000 -14.850904 13.779032 410.411072
2.200000 6.120000 -3.800000 -17.934387 12.646273 481.570435
2.200000 6.160000 -4.200000 -17.220577 -21.771091 770.528687
2.200000 6.160000 -4.160000 -1.202358 -27.122398 737.070190
2.200000 6.160000 -4.120000 15.559259 -20.262417 652.656067
2.200000 6.160000 -4.080000 24.566914 -4.158493 620.826355
2.200000 6.160000 -4.040000 22.328852 13.609968 683.808838
2.200000 6.160000 -4.000000 11.377893 26.055656 808.353699
2.200000 6.160000 -3.960000 -2.634677 30.339443 927.423340
2.200000 6.160000 -3.920000 -14.726283 27.861897 993.148682
2.200000 6.160000 -3.880000 -22.746511 22.059919 1004.043823
2.200000 6.160000 -3.840000 -27.326040 15.941744 1000.851685
2.200000 6.160000 -3.800000 -30.469559 10.585549 1040.447876
2.200000 6.200000 -4.200000 5.260614 -26.711000 741.151611
2.200000 6.200000 -4.160000 20.033016 -19.876986 796.416260
2.200000 6.200000 -4.120000 28.992987 -4.327051 859.316650
2.200000 6.200000 -4.080000 27.852066 14.544018 987.266052
2.200000 6.200000 -4.040000 16.738953 30.208754 1192.761353
2.200000 6.200000 -4.000000 -0.528925 37.882957 1435.398193
2.200000 6.200000 -3.960000 -18.395224 36.059956 1638.704712
2.200000 6.200000 -3.920000 -31.818314 26.768911 1728.979736
2.200000 6.200000 -3.880000 -38.385120 14.456958 1682.421143
2.200000 6.200000 -3.840000 -39.297394 3.493812 1556.491821
2.200000 6.200000 -3.800000 -38.052818 -4.543524 1468.660522
