#kx 	ky 	kz 	real 	imag 	intensity
5.800000 1.800000 5.800000 -27.284344 2.661788 751.520569
5.800000 1.800000 5.840000 -25.098057 -5.596063 661.228394
5.800000 1.800000 5.880000 -19.924520 -12.774181 560.166199
5.800000 1.800000 5.920000 -11.464621 -17.623852 442.037689
5.800000 1.800000 5.960000 -0.688562 -17.764601 316.055176
5.800000 1.800000 6.000000 9.024406 -11.714423 218.667618
5.800000 1.800000 6.040000 13.605318 -1.211163 186.571594
5.800000 1.800000 6.080000 11.535635 9.332441 220.165344
5.800000 1.800000 6.120000 5.022358 16.137779 285.652008
5.800000 1.800000 6.160000 -2.431288 18.709332 355.950256
5.800000 1.800000 6.200000 -9.387455 18.787006 441.075928
5.800000 1.840000 5.800000 -21.923967 -17.988926 804.261841
5.800000 1.840000 5.840000 -15.834872 -19.935787 648.178772
5.800000 1.840000 5.880000 -9.769192 -21.146387 542.606812
5.800000 1.840000 5.920000 -2.440358 -19.907030 402.245209
5.800000 1.840000 5.960000 3.515728 -14.063667 210.147079
5.800000 1.840000 6.000000 3.823849 -5.854596 48.898117
5.800000 1.840000 6.040000 -1.540037 -1.222203 3.865495
5.800000 1.840000 6.080000 -6.641653 -3.375326 55.504383
5.800000 1.840000 6.120000 -5.415268 -8.107441 95.055725
5.800000 1.840000 6.160000 0.849957 -7.458483 56.351391
5.800000 1.840000 6.200000 3.523165 1.103928 13.631350
5.800000 1.880000 5.800000 -2.722360 -29.842392 897.979614
5.800000 1.880000 5.840000 2.130679 -24.709610 615.104614
5.800000 1.880000 5.880000 4.950872 -20.576077 447.886078
5.800000 1.880000 5.920000 6.498125 -15.383829 278.887817
5.800000 1.880000 5.960000 3.671713 -9.784306 109.214111
5.800000 1.880000 6.000000 -3.690929 -9.408721 102.146996
5.800000 1.880000 6.040000 -8.294825 -18.003357 392.924957
5.800000 1.880000 6.080000 -1.240559 -29.566090 875.692688
5.800000 1.880000 6.120000 16.627728 -30.879990 1230.055054
5.800000 1.880000 6.160000 31.444107 -14.648817 1203.319702
5.800000 1.880000 6.200000 27.658245 10.199026 868.998657
5.800000 1.920000 5.800000 19.779255 -24.593346 996.051575
5.800000 1.920000 5.840000 18.986252 -15.092965 588.275330
5.800000 1.920000 5.880000 15.472966 -9.287651 325.673157
5.800000 1.920000 5.920000 9.687494 -6.073681 130.737152
5.800000 1.920000 5.960000 1.508856 -8.480005 74.187141
5.800000 1.920000 6.000000 -2.930776 -20.065334 411.207092
5.800000 1.920000 6.040000 6.254170 -35.617378 1307.712280
5.800000 1.920000 6.080000 30.525438 -39.981167 2530.295898
5.800000 1.920000 6.120000 55.125145 -20.957935 3478.016602
5.800000 1.920000 6.160000 58.166111 15.296153 3617.268799
5.800000 1.920000 6.200000 31.042126 44.452690 2939.655273
5.800000 1.960000 5.800000 31.716028 -4.927403 1030.185791
5.800000 1.960000 5.840000 23.597252 3.943895 572.384644
5.800000 1.960000 5.880000 14.148196 5.989297 236.043152
5.800000 1.960000 5.920000 5.242467 1.613630 30.087269
5.800000 1.960000 5.960000 1.048238 -10.542514 112.243401
5.800000 1.960000 6.000000 9.702565 -26.643234 804.001709
5.800000 1.960000 6.040000 34.368984 -33.202545 2283.636230
5.800000 1.960000 6.080000 63.028900 -15.860827 4224.208008
5.800000 1.960000 6.120000 72.338326 24.023626 5809.968262
5.800000 1.960000 6.160000 47.137577 63.429768 6245.286621
5.800000 1.960000 6.200000 -2.073357 73.218498 5365.247070
5.800000 2.000000 5.800000 26.042645 16.681408 956.488770
5.800000 2.000000 5.840000 12.601737 19.854111 552.989502
5.800000 2.000000 5.880000 1.868098 14.264342 206.961258
5.800000 2.000000 5.920000 -2.365866 2.131141 10.139084
5.800000 2.000000 5.960000 4.857344 -12.494389 179.703522
5.800000 2.000000 6.000000 26.021545 -19.369394 1052.294312
5.800000 2.000000 6.040000 52.656242 -5.770409 2805.977539
5.800000 2.000000 6.080000 64.696182 30.405384 5110.083496
5.800000 2.000000 6.120000 44.692558 71.430702 7099.770020
5.800000 2.000000 6.160000 -3.691115 88.504135 7846.606445
5.800000 2.000000 6.200000 -52.698570 65.057297 7009.590820
5.800000 2.040000 5.800000 7.647296 27.152451 795.736694
5.800000 2.040000 5.840000 -6.108053 21.989517 520.847168
5.800000 2.040000 5.880000 -11.610929 9.576118 226.515732
5.800000 2.040000 5.920000 -5.833624 -3.820185 48.624981
5.800000 2.040000 5.960000 11.137287 -9.888102 221.813721
5.800000 2.040000 6.000000 32.415573 0.374448 1050.909668
5.800000 2.040000 6.040000 42.986824 29.148861 2697.523193
5.800000 2.040000 6.080000 27.966869 64.124664 4894.118164
5.800000 2.040000 6.120000 -13.020384 81.952362 6885.719727
5.800000 2.040000 6.160000 -59.565132 65.092682 7785.062012
5.800000 2.040000 6.200000 -82.452118 18.678596 7147.241699
5.800000 2.080000 5.800000 -11.142308 22.195465 616.789673
5.800000 2.080000 5.840000 -19.583618 10.042573 484.371368
5.800000 2.080000 5.880000 -15.838443 -3.604736 263.850403
5.800000 2.080000 5.920000 -1.865745 -9.653776 96.676399
5.800000 2.080000 5.960000 14.574279 -1.687195 215.256226
5.800000 2.080000 6.000000 21.697657 20.138536 876.348938
5.800000 2.080000 6.040000 9.332315 45.929062 2196.570801
5.800000 2.080000 6.080000 -22.513374 58.754860 3958.985596
5.800000 2.080000 6.120000 -59.362888 45.298256 5575.884277
5.800000 2.080000 6.160000 -79.232101 7.767996 6338.067871
5.800000 2.080000 6.200000 -68.357330 -34.287399 5848.350586
5.800000 2.120000 5.800000 -20.459888 7.921783 481.361694
5.800000 2.120000 5.840000 -20.314220 -6.535335 455.378143
5.800000 2.120000 5.880000 -8.684378 -14.647299 289.961792
5.800000 2.120000 5.920000 5.604924 -9.283861 117.605255
5.800000 2.120000 5.960000 10.797447 7.849149 178.194016
5.800000 2.120000 6.000000 -0.418465 26.331051 693.499329
5.800000 2.120000 6.040000 -25.304096 32.628506 1704.916748
5.800000 2.120000 6.080000 -51.156174 18.808022 2970.695801
5.800000 2.120000 6.120000 -62.419395 -11.028767 4017.814697
5.800000 2.120000 6.160000 -51.126854 -41.910816 4370.471680
5.800000 2.120000 6.200000 -23.174488 -57.440636 3836.483398
5.800000 2.160000 5.800000 -19.283298 -6.043597 408.370667
5.800000 2.160000 5.840000 -11.169342 -17.500494 431.021515
5.800000 2.160000 5.880000 2.788324 -16.634295 284.474518
5.800000 2.160000 5.920000 9.567890 -3.181013 101.663368
5.800000 2.160000 5.960000 0.796432 12.001390 144.667679
5.800000 2.160000 6.000000 -19.759809 15.019196 616.026306
5.800000 2.160000 6.040000 -38.293140 0.032428 1466.365723
5.800000 2.160000 6.080000 -41.261703 -25.680870 2362.035156
5.800000 2.160000 6.120000 -25.686535 -46.946556 2863.777344
5.800000 2.160000 6.160000 -1.195467 -52.021278 2707.642578
5.800000 2.160000 6.200000 17.654158 -40.887947 1983.493530
5.800000 2.200000 5.800000 -13.165899 -14.802769 392.462860
5.800000 2.200000 5.840000 -0.489060 -20.158352 406.598328
5.800000 2.200000 5.880000 10.268514 -11.794160 244.544586
5.800000 2.200000 5.920000 7.314607 2.391876 59.224552
5.800000 2.200000 5.960000 -8.916553 7.254737 132.136124
5.800000 2.200000 6.000000 -24.680738 -5.577751 640.250183
5.800000 2.200000 6.040000 -24.625141 -28.989775 1446.804688
5.800000 2.200000 6.080000 -5.825017 -45.735126 2125.632812
5.800000 2.200000 6.120000 19.092541 -43.351894 2243.911865
5.800000 2.200000 6.160000 32.772923 -24.979149 1698.022339
5.800000 2.200000 6.200000 28.018204 -6.252658 824.115417
5.840000 1.800000 5.800000 -33.685081 -1.657162 1137.430908
5.840000 1.800000 5.840000 -29.375072 -12.356586 1015.580139
5.840000 1.800000 5.880000 -20.051321 -20.217613 810.807373
5.840000 1.800000 5.920000 -7.660482 -22.470427 563.603088
5.840000 1.800000 5.960000 4.095526 -17.933140 338.370850
5.840000 1.800000 6.000000 11.324276 -8.153361 194.716522
5.840000 1.800000 6.040000 12.078852 3.140259 155.759872
5.840000 1.800000 6.080000 7.282692 12.167169 201.077591
5.840000 1.800000 6.120000 -0.417402 17.070955 291.591736
5.840000 1.800000 6.160000 -8.777666 17.981394 400.377960
5.840000 1.800000 6.200000 -16.813839 15.373791 519.058594
5.840000 1.840000 5.800000 -18.941931 -23.510738 911.551575
5.840000 1.840000 5.840000 -7.678832 -24.601404 664.193542
5.840000 1.840000 5.880000 2.381469 -19.256166 376.471344
5.840000 1.840000 5.920000 6.637205 -9.176940 128.268707
5.840000 1.840000 5.960000 2.870258 -0.006011 8.238420
5.840000 1.840000 6.000000 -5.427896 2.234465 34.454880
5.840000 1.840000 6.040000 -10.704436 -3.210091 124.889633
5.840000 1.840000 6.080000 -7.839226 -10.080730 163.074585
5.840000 1.840000 6.120000 0.387257 -10.282104 105.871643
5.840000 1.840000 6.160000 5.041070 -1.932869 29.148365
5.840000 1.840000 6.200000 -0.569674 7.726723 60.026772
5.840000 1.880000 5.800000 8.554905 -27.061823 805.528687
5.840000 1.880000 5.840000 17.870571 -14.225037 521.708984
5.840000 1.880000 5.880000 16.487450 2.893594 280.208893
5.840000 1.880000 5.920000 2.078939 14.740073 221.591751
5.840000 1.880000 5.960000 -18.033243 11.111523 448.663788
5.840000 1.880000 6.000000 -28.792061 -8.791779 906.278137
5.840000 1.880000 6.040000 -18.952179 -31.800789 1370.475220
5.840000 1.880000 6.080000 7.223154 -39.158970 1585.598877
5.840000 1.880000 6.120000 30.650848 -22.631042 1451.638550
5.840000 1.880000 6.160000 32.491352 6.534580 1098.388672
5.840000 1.880000 6.200000 10.878073 25.738703 780.813293
5.840000 1.920000 5.800000 29.420013 -7.970804 929.070862
5.840000 1.920000 5.840000 25.833256 14.394904 874.570374
5.840000 1.920000 5.880000 5.290098 30.678469 969.153564
5.840000 1.920000 5.920000 -24.789204 26.747177 1329.916138
5.840000 1.920000 5.960000 -44.675140 -1.866152 1999.350708
5.840000 1.920000 6.000000 -35.321697 -40.152718 2859.863037
5.840000 1.920000 6.040000 3.251659 -60.292328 3645.738037
5.840000 1.920000 6.080000 46.660393 -43.474499 4067.224121
5.840000 1.920000 6.120000 63.009472 1.719191 3973.149170
5.840000 1.920000 6.160000 39.430649 43.357910 3434.684570
5.840000 1.920000 6.200000 -5.887936 51.616623 2698.943604
5.840000 1.960000 5.800000 27.895195 20.237301 1187.690186
5.840000 1.960000 5.840000 6.949708 39.484913 1607.356812
5.840000 1.960000 5.880000 -26.952583 39.166847 2260.483643
5.840000 1.960000 5.920000 -54.713909 10.365686 3101.059326
5.840000 1.960000 5.960000 -52.342674 -35.898270 4028.441406
5.840000 1.960000 6.000000 -11.984272 -69.196053 4931.716309
5.840000 1.960000 6.040000 44.769844 -60.875198 5710.128906
5.840000 1.960000 6.080000 78.389961 -10.199276 6249.011230
5.840000 1.960000 6.120000 62.443275 49.975739 6396.737305
5.840000 1.960000 6.160000 7.285196 77.242325 6019.451172
5.840000 1.960000 6.200000 -46.784782 54.144810 5120.476562
5.840000 2.000000 5.800000 5.462857 36.604095 1369.702637
5.840000 2.000000 5.840000 -25.597635 40.144825 2266.845947
5.840000 2.000000 5.880000 -55.589645 17.511948 3396.876953
5.840000 2.000000 5.920000 -61.471893 -26.572998 4484.917969
5.840000 2.000000 5.960000 -29.165028 -66.600990 5286.290527
5.840000 2.000000 6.000000 28.571867 -70.556068 5794.510254
5.840000 2.000000 6.040000 74.243324 -26.945705 6238.142578
5.840000 2.000000 6.080000 72.392334 39.752602 6820.918945
5.840000 2.000000 6.120000 20.287218 83.754707 7426.422363
5.840000 2.000000 6.160000 -46.422081 73.895851 7615.606445
5.840000 2.000000 6.200000 -81.182007 19.573715 6973.648438
5.840000 2.040000 5.800000 -20.497051 30.135109 1328.253906
5.840000 2.040000 5.840000 -46.852730 15.242729 2427.519043
5.840000 2.040000 5.880000 -57.206909 -19.384289 3648.381104
5.840000 2.040000 5.920000 -36.830086 -56.675117 4568.523926
5.840000 2.040000 5.960000 10.361452 -69.313133 4911.670410
5.840000 2.040000 6.000000 56.734863 -40.258957 4839.628418
5.840000 2.040000 6.040000 67.487015 18.380842 4892.352539
5.840000 2.040000 6.080000 29.103100 68.444359 5531.620605
5.840000 2.040000 6.120000 -35.473125 73.435989 6651.187500
5.840000 2.040000 6.160000 -81.927902 28.776777 7540.284180
5.840000 2.040000 6.200000 -79.412651 -33.172272 7406.768555
5.840000 2.080000 5.800000 -31.916794 8.009071 1082.826904
5.840000 2.080000 5.840000 -42.074112 -15.777883 2019.172363
5.840000 2.080000 5.880000 -31.182804 -43.887619 2898.490234
5.840000 2.080000 5.920000 0.720281 -57.719917 3332.107666
5.840000 2.080000 5.960000 37.066635 -42.338383 3166.474121
5.840000 2.080000 6.000000 52.052971 -1.013594 2710.539062
5.840000 2.080000 6.040000 29.789284 41.460823 2606.401367
5.840000 2.080000 6.080000 -19.698853 54.301517 3336.699707
5.840000 2.080000 6.120000 -64.094902 25.204704 4743.433594
5.840000 2.080000 6.160000 -72.537117 -27.569164 6021.692383
5.840000 2.080000 6.200000 -40.253807 -68.223038 6274.751953
5.840000 2.120000 5.800000 -24.639214 -12.579181 765.326599
5.840000 2.120000 5.840000 -18.680176 -31.179344 1321.100464
5.840000 2.120000 5.880000 0.606485 -40.906242 1673.688477
5.840000 2.120000 5.920000 23.105145 -32.978939 1621.458252
5.840000 2.120000 5.960000 33.613659 -8.854343 1208.277466
5.840000 2.120000 6.000000 21.762329 17.613586 783.837402
5.840000 2.120000 6.040000 -8.474525 27.514591 828.870300
5.840000 2.120000 6.080000 -38.549416 10.683314 1600.190674
5.840000 2.120000 6.120000 -47.400696 -24.701530 2856.991455
5.840000 2.120000 6.160000 -27.610531 -56.336456 3936.137695
5.840000 2.120000 6.200000 8.069893 -64.165741 4182.365234
5.840000 2.160000 5.800000 -9.072160 -20.264423 492.950928
5.840000 2.160000 5.840000 3.126203 -25.958397 683.611511
5.840000 2.160000 5.880000 15.480276 -20.156614 645.928040
5.840000 2.160000 5.920000 18.780041 -6.601711 396.272522
5.840000 2.160000 5.960000 9.732852 5.019522 119.924011
5.840000 2.160000 6.000000 -6.387392 5.484321 70.876549
5.840000 2.160000 6.040000 -18.784004 -7.499660 409.083710
5.840000 2.160000 6.080000 -18.207253 -27.223598 1072.628418
5.840000 2.160000 6.120000 -3.437690 -42.044060 1779.520752
5.840000 2.160000 6.160000 17.601645 -43.251987 2180.552246
5.840000 2.160000 6.200000 33.315865 -31.065311 2075.000488
5.840000 2.200000 5.800000 2.191851 -17.516729 311.640015
5.840000 2.200000 5.840000 10.620819 -13.099386 284.395721
5.840000 2.200000 5.880000 10.664949 -3.689583 127.354164
5.840000 2.200000 5.920000 1.466579 0.859430 2.889476
5.840000 2.200000 5.960000 -8.829212 -5.870474 112.417450
5.840000 2.200000 6.000000 -9.890293 -20.652679 524.351074
5.840000 2.200000 6.040000 1.757336 -32.884129 1084.454224
5.840000 2.200000 6.080000 19.546984 -33.393547 1497.213623
5.840000 2.200000 6.120000 32.340637 -21.960587 1528.184204
5.840000 2.200000 6.160000 33.543053 -7.062296 1175.012329
5.840000 2.200000 6.200000 25.912907 1.527157 673.810974
5.880000 1.800000 5.800000 -36.261478 -13.700565 1502.600220
5.880000 1.800000 5.840000 -27.429905 -24.670546 1361.035400
5.880000 1.800000 5.880000 -13.620703 -29.668346 1065.734253
5.880000 1.800000 5.920000 0.578514 -26.682476 712.289185
5.880000 1.800000 5.960000 10.427124 -17.253036 406.392181
5.880000 1.800000 6.000000 13.545406 -5.390472 212.535217
5.880000 1.800000 6.040000 10.625212 4.859699 136.511810
5.880000 1.800000 6.080000 4.185650 11.309960 145.434875
5.880000 1.800000 6.120000 -3.381456 13.755141 200.638168
5.880000 1.800000 6.160000 -10.718027 12.691782 275.957428
5.880000 1.800000 6.200000 -16.857426 8.252356 352.274170
5.880000 1.840000 5.800000 -10.632849 -29.092785 959.447632
5.880000 1.840000 5.840000 3.899759 -23.015175 544.906433
5.880000 1.840000 5.880000 9.904797 -8.409510 168.824860
5.880000 1.840000 5.920000 3.096336 4.900908 33.606194
5.880000 1.840000 5.960000 -10.629593 6.966183 161.515945
5.880000 1.840000 6.000000 -19.195480 -3.169964 378.515137
5.880000 1.840000 6.040000 -14.812729 -15.821375 469.732849
5.880000 1.840000 6.080000 -1.284637 -18.993443 362.401154
5.880000 1.840000 6.120000 9.186216 -9.301758 170.909271
5.880000 1.840000 6.160000 7.096579 4.812227 73.518967
5.880000 1.840000 6.200000 -5.629463 10.751439 147.284302
5.880000 1.880000 5.800000 18.266323 -17.528034 640.890564
5.880000 1.880000 5.840000 21.589743 7.956147 529.417236
5.880000 1.880000 5.880000 1.749630 30.502687 933.475159
5.880000 1.880000 5.920000 -32.290287 29.776552 1929.305664
5.880000 1.880000 5.960000 -55.801254 0.395435 3113.936279
5.880000 1.880000 6.000000 -47.949104 -39.253227 3839.932617
5.880000 1.880000 6.040000 -11.358532 -59.722198 3695.757324
5.880000 1.880000 6.080000 27.803211 -45.204063 2816.425781
5.880000 1.880000 6.120000 41.157387 -7.651747 1752.479736
5.880000 1.880000 6.160000 21.971657 23.410292 1030.795410
5.880000 1.880000 6.200000 -10.295643 26.322132 798.854858
5.880000 1.920000 5.800000 26.126049 13.319401 859.976868
5.880000 1.920000 5.840000 3.712017 44.105888 1959.108398
5.880000 1.920000 5.880000 -43.283527 49.102993 4284.567871
5.880000 1.920000 5.920000 -84.879654 11.855022 7345.097168
5.880000 1.920000 5.960000 -85.308395 -51.125118 9891.300781
5.880000 1.920000 6.000000 -35.468662 -97.151131 10696.368164
5.880000 1.920000 6.040000 34.014706 -90.989067 9436.010742
5.880000 1.920000 6.080000 74.927422 -36.080772 6915.940918
5.880000 1.920000 6.120000 61.093674 26.674486 4443.965332
5.880000 1.920000 6.160000 9.551020 53.035500 2903.986084
5.880000 1.920000 6.200000 -36.112015 31.542870 2299.030273
5.880000 1.960000 5.800000 5.296268 38.049690 1475.829346
5.880000 1.960000 5.840000 -40.515030 51.508553 4294.598633
5.880000 1.960000 5.880000 -92.582001 20.550280 8993.741211
5.880000 1.960000 5.920000 -108.137161 -50.196030 14213.287109
5.880000 1.960000 5.960000 -61.885246 -117.921616 17735.291016
5.880000 1.960000 6.000000 25.218946 -131.507919 17930.328125
5.880000 1.960000 6.040000 95.983925 -75.643166 14934.802734
5.880000 1.960000 6.080000 101.931084 12.084115 10535.971680
5.880000 1.960000 6.120000 43.902390 70.092148 6840.329102
5.880000 1.960000 6.160000 -29.432583 63.248291 4866.623535
5.880000 1.960000 6.200000 -64.035454 9.259600 4186.279785
5.880000 2.000000 5.800000 -27.293875 35.711716 2020.282227
5.880000 2.000000 5.840000 -75.971909 18.771803 6124.111328
5.880000 2.000000 5.880000 -103.066154 -41.344608 12332.008789
5.880000 2.000000 5.920000 -73.483353 -114.783249 18574.998047
5.880000 2.000000 5.960000 9.716204 -148.292511 22085.072266
5.880000 2.000000 6.000000 97.376572 -108.540260 21263.183594
5.880000 2.000000 6.040000 128.965012 -15.568375 16874.349609
5.880000 2.000000 6.080000 82.758713 68.096085 11486.081055
5.880000 2.000000 6.120000 -4.395325 87.010651 7590.172363
5.880000 2.000000 6.160000 -67.650276 37.521824 5984.447266
5.880000 2.000000 6.200000 -67.826683 -32.853104 5679.785156
5.880000 2.040000 5.800000 -45.070072 8.485493 2103.314941
5.880000 2.040000 5.840000 -73.151016 -30.678686 6292.252930
5.880000 2.040000 5.880000 -62.039200 -91.410431 12204.729492
5.880000 2.040000 5.920000 -0.544567 -132.903564 17663.654297
5.880000 2.040000 5.960000 81.748032 -115.982002 20134.566406
5.880000 2.040000 6.000000 130.037689 -39.914162 18502.941406
5.880000 2.040000 6.040000 107.451950 49.178917 13964.488281
5.880000 2.040000 6.080000 28.447401 91.496490 9180.862305
5.880000 2.040000 6.120000 -50.193192 61.851864 6345.009766
5.880000 2.040000 6.160000 -75.222717 -10.288173 5764.303711
5.880000 2.040000 6.200000 -38.954742 -67.504974 6074.393555
5.880000 2.080000 5.800000 -35.414650 -21.235094 1705.126587
5.880000 2.080000 5.840000 -35.135483 -59.689262 4797.310547
5.880000 2.080000 5.880000 -0.074999 -93.944611 8825.595703
5.880000 2.080000 5.920000 58.664242 -93.370163 12159.480469
5.880000 2.080000 5.960000 105.141426 -45.892765 13160.865234
5.880000 2.080000 6.000000 103.650726 25.358021 11386.501953
5.880000 2.080000 6.040000 49.799908 74.480011 8027.302734
5.880000 2.080000 6.080000 -21.439596 68.053764 5090.971191
5.880000 2.080000 6.120000 -61.385925 13.228191 3943.217041
5.880000 2.080000 6.160000 -46.345299 -47.580505 4411.791016
5.880000 2.080000 6.200000 4.894372 -71.723663 5168.238770
5.880000 2.120000 5.800000 -9.251454 -32.011612 1110.332642
5.880000 2.120000 5.840000 6.754995 -51.157021 2662.670654
5.880000 2.120000 5.880000 37.744576 -54.553894 4400.780273
5.880000 2.120000 5.920000 67.091843 -32.163780 5535.824219
5.880000 2.120000 5.960000 73.287163 8.865608 5449.607422
5.880000 2.120000 6.000000 46.899212 44.677818 4195.643555
5.880000 2.120000 6.040000 1.500294 50.643166 2566.981201
5.880000 2.120000 6.080000 -33.487659 21.401705 1579.456299
5.880000 2.120000 6.120000 -34.740433 -22.857758 1729.374756
5.880000 2.120000 6.160000 -3.610052 -51.256035 2640.213623
5.880000 2.120000 6.200000 35.367954 -46.388947 3402.826660
5.880000 2.160000 5.800000 11.710278 -21.681908 607.235718
5.880000 2.160000 5.840000 23.597685 -21.001888 997.930054
5.880000 2.160000 5.880000 33.139481 -11.473148 1229.858398
5.880000 2.160000 5.920000 34.202648 3.287842 1180.631104
5.880000 2.160000 5.960000 24.542965 15.823135 852.728760
5.880000 2.160000 6.000000 8.116978 18.421913 405.252197
5.880000 2.160000 6.040000 -5.878239 8.190315 101.634949
5.880000 2.160000 6.080000 -8.220762 -9.719963 162.058624
5.880000 2.160000 6.120000 3.634592 -24.274675 602.470154
5.880000 2.160000 6.160000 22.807507 -25.905319 1191.267944
5.880000 2.160000 6.200000 37.438377 -13.625441 1587.284668
5.880000 2.200000 5.800000 16.003582 -5.634706 287.864532
5.880000 2.200000 5.840000 14.298680 1.182697 205.851028
5.880000 2.200000 5.880000 7.153975 3.298683 62.060669
5.880000 2.200000 5.920000 1.211159 -2.124264 5.979402
5.880000 2.200000 5.960000 2.446930 -10.904741 124.900848
5.880000 2.200000 6.000000 10.624622 -15.848745 364.065308
5.880000 2.200000 6.040000 19.902298 -13.299992 572.991211
5.880000 2.200000 6.080000 24.446619 -5.853245 631.897705
5.880000 2.200000 6.120000 23.346540 0.858424 545.797852
5.880000 2.200000 6.160000 20.354567 3.587307 427.177155
5.880000 2.200000 6.200000 19.506260 3.786570 394.832275
5.920000 1.800000 5.800000 -27.831221 -26.382174 1470.595947
5.920000 1.800000 5.840000 -15.408801 -33.532661 1361.870483
5.920000 1.800000 5.880000 -0.645908 -33.072384 1094.199829
5.920000 1.800000 5.920000 11.397781 -25.254337 767.690979
5.920000 1.800000 5.960000 17.305447 -13.382481 478.569275
5.920000 1.800000 6.000000 16.630526 -1.704533 279.479797
5.920000 1.800000 6.040000 11.382349 6.696056 174.395050
5.920000 1.800000 6.080000 4.383770 10.854642 137.040695
5.920000 1.800000 6.120000 -2.234577 11.440245 135.872528
5.920000 1.800000 6.160000 -7.517946 9.541464 147.559052
5.920000 1.800000 6.200000 -11.042593 5.834907 155.984985
5.920000 1.840000 5.800000 1.863951 -27.274345 747.364197
5.920000 1.840000 5.840000 11.383205 -12.309881 281.110535
5.920000 1.840000 5.880000 5.380894 4.740124 51.422791
5.920000 1.840000 5.920000 -11.902039 9.554050 232.938400
5.920000 1.840000 5.960000 -25.391443 -2.469673 650.824707
5.920000 1.840000 6.000000 -22.493336 -21.018482 947.726746
5.920000 1.840000 6.040000 -4.791103 -29.647011 901.899902
5.920000 1.840000 6.080000 13.202724 -20.527037 595.671143
5.920000 1.840000 6.120000 17.160603 -1.193367 295.910400
5.920000 1.840000 6.160000 5.408005 12.792912 192.905106
5.920000 1.840000 6.200000 -10.641860 11.886566 254.539642
5.920000 1.880000 5.800000 19.427502 -1.983633 381.362640
5.920000 1.880000 5.840000 4.672371 27.686123 788.352478
5.920000 1.880000 5.880000 -34.923607 35.913338 2509.426270
5.920000 1.880000 5.920000 -71.551109 6.334167 5159.682617
5.920000 1.880000 5.960000 -72.842590 -45.990704 7421.187500
5.920000 1.880000 6.000000 -31.919067 -83.480087 7987.751465
5.920000 1.880000 6.040000 23.736351 -77.566849 6580.030762
5.920000 1.880000 6.080000 54.651093 -33.833942 4131.477539
5.920000 1.880000 6.120000 42.772354 13.239880 2004.768677
5.920000 1.880000 6.160000 4.925896 30.789097 972.232971
5.920000 1.880000 6.200000 -25.070206 14.392216 835.651062
5.920000 1.920000 5.800000 6.988520 27.578676 809.422791
5.920000 1.920000 5.840000 -39.824471 46.510139 3749.181641
5.920000 1.920000 5.880000 -96.977585 16.292618 9670.101562
5.920000 1.920000 5.920000 -115.350609 -58.681095 16749.234375
5.920000 1.920000 5.960000 -67.330109 -130.632782 21598.267578
5.920000 1.920000 6.000000 22.804569 -145.173615 21595.427734
5.920000 1.920000 6.040000 94.409348 -89.137123 16858.550781
5.920000 1.920000 6.080000 100.596878 -3.842464 10134.496094
5.920000 1.920000 6.120000 46.952171 50.057236 4710.233398
5.920000 1.920000 6.160000 -16.851303 43.515915 2177.601318
5.920000 1.920000 6.200000 -42.951134 -1.213379 1846.272217
5.920000 1.960000 5.800000 -26.225636 33.445320 1806.373413
5.920000 1.960000 5.840000 -87.627365 17.569641 7987.247559
5.920000 1.960000 5.880000 -124.796913 -56.239922 18737.199219
5.920000 1.960000 5.920000 -89.939148 -149.418549 30414.953125
5.920000 1.960000 5.960000 12.863331 -193.042450 37430.851562
5.920000 1.960000 6.000000 120.804985 -146.510071 36059.046875
5.920000 1.960000 6.040000 160.726715 -37.164040 27214.242188
5.920000 1.960000 6.080000 110.719734 59.342384 15780.377930
5.920000 1.960000 6.120000 17.509691 82.082840 7044.182129
5.920000 1.960000 6.160000 -46.445591 33.197182 3259.245605
5.920000 1.960000 6.200000 -44.741280 -31.751829 3009.960693
5.920000 2.000000 5.800000 -51.012192 8.078537 2667.506348
5.920000 2.000000 5.840000 -95.358551 -43.458580 10981.901367
5.920000 2.000000 5.880000 -83.932770 -132.123779 24501.402344
5.920000 2.000000 5.920000 3.376379 -195.900818 38388.527344
5.920000 2.000000 5.960000 123.172981 -175.418701 45943.304688
5.920000 2.000000 6.000000 195.594849 -70.099464 43171.277344
5.920000 2.000000 6.040000 169.950531 53.571457 31753.083984
5.920000 2.000000 6.080000 69.207031 114.297043 17853.427734
5.920000 2.000000 6.120000 -29.523376 82.736771 7717.002930
5.920000 2.000000 6.160000 -60.918827 1.527568 3713.437012
5.920000 2.000000 6.200000 -22.424784 -57.807571 3844.586182
5.920000 2.040000 5.800000 -45.041397 -28.028280 2814.312012
5.920000 2.040000 5.840000 -52.049103 -90.305664 10864.221680
5.920000 2.040000 5.880000 2.408025 -152.911163 23387.623047
5.920000 2.040000 5.920000 103.059372 -158.393372 35709.695312
5.920000 2.040000 5.960000 187.278046 -82.179794 41826.585938
5.920000 2.040000 6.000000 192.636368 37.288357 38499.191406
5.920000 2.040000 6.040000 111.590492 123.373322 27673.414062
5.920000 2.040000 6.080000 1.382315 122.978897 15125.720703
5.920000 2.040000 6.120000 -62.689178 49.666897 6396.733398
5.920000 2.040000 6.160000 -48.605103 -31.401455 3348.507324
5.920000 2.040000 6.200000 11.999116 -61.383865 3911.957764
5.920000 2.080000 5.800000 -13.206116 -45.480911 2242.914551
5.920000 2.080000 5.840000 9.797163 -88.280151 7889.369629
5.920000 2.080000 5.880000 72.442657 -105.162430 16307.075195
5.920000 2.080000 5.920000 141.172394 -65.552002 24226.708984
5.920000 2.080000 5.960000 165.236389 20.975563 27743.039062
5.920000 2.080000 6.000000 119.076950 103.912086 24977.042969
5.920000 2.080000 6.040000 28.353809 129.227264 17503.625000
5.920000 2.080000 6.080000 -47.325027 83.890045 9277.197266
5.920000 2.080000 6.120000 -62.010540 6.753771 3890.920654
5.920000 2.080000 6.160000 -18.992224 -44.825256 2370.008057
5.920000 2.080000 6.200000 37.096825 -41.938591 3135.020020
5.920000 2.120000 5.800000 18.317226 -32.874382 1416.245728
5.920000 2.120000 5.840000 44.868538 -45.103394 4047.501953
5.920000 2.120000 5.880000 82.065247 -31.357615 7718.004395
5.920000 2.120000 5.920000 103.826202 12.639740 10939.642578
5.920000 2.120000 5.960000 87.656136 66.390472 12091.292969
5.920000 2.120000 6.000000 35.728355 96.172226 10525.612305
5.920000 2.120000 6.040000 -22.353695 81.182152 7090.229492
5.920000 2.120000 6.080000 -50.656208 31.846497 3580.250977
5.920000 2.120000 6.120000 -35.013481 -17.211266 1522.171509
5.920000 2.120000 6.160000 6.614048 -34.576065 1239.249878
5.920000 2.120000 6.200000 40.598423 -15.741730 1896.033936
5.920000 2.160000 5.800000 27.459579 -5.071442 779.748047
5.920000 2.160000 5.840000 36.257999 -0.285227 1314.723877
5.920000 2.160000 5.880000 42.008652 12.355396 1917.382568
5.920000 2.160000 5.920000 38.353821 29.565777 2345.150879
5.920000 2.160000 5.960000 22.633865 43.024891 2363.433105
5.920000 2.160000 6.000000 -0.174881 43.631760 1903.761108
5.920000 2.160000 6.040000 -18.516733 28.521683 1156.355835
5.920000 2.160000 6.080000 -21.533634 5.111343 489.823212
5.920000 2.160000 6.120000 -7.553368 -12.720245 218.858002
5.920000 2.160000 6.160000 13.740077 -14.400511 396.164429
5.920000 2.160000 6.200000 28.147846 -0.498531 792.549805
5.920000 2.200000 5.800000 15.294509 13.847038 425.662476
5.920000 2.200000 5.840000 6.415958 14.412395 248.881668
5.920000 2.200000 5.880000 0.442051 7.548182 57.170452
5.920000 2.200000 5.920000 2.851662 -0.823366 8.809906
5.920000 2.200000 5.960000 11.012436 -2.658859 128.343277
5.920000 2.200000 6.000000 16.399132 3.729858 282.843353
5.920000 2.200000 6.040000 13.307192 11.613037 311.943970
5.920000 2.200000 6.080000 4.956669 12.646824 184.510712
5.920000 2.200000 6.120000 0.384010 5.652542 32.098698
5.920000 2.200000 6.160000 5.155921 -1.824635 29.912811
5.920000 2.200000 6.200000 15.387964 -0.894409 237.589417
5.960000 1.800000 5.800000 -11.713208 -28.511709 950.116821
5.960000 1.800000 5.840000 -0.498524 -30.349674 921.351257
5.960000 1.800000 5.880000 10.687241 -26.405636 811.474731
5.960000 1.800000 5.920000 18.834322 -17.552601 662.825500
5.960000 1.800000 5.960000 21.784389 -6.072716 511.437500
5.960000 1.800000 6.000000 18.976263 4.754204 382.701019
5.960000 1.800000 6.040000 12.074619 11.863287 286.533997
5.960000 1.800000 6.080000 4.358543 14.159575 219.490479
5.960000 1.800000 6.120000 -1.383969 13.144560 174.694824
5.960000 1.800000 6.160000 -4.709494 11.405083 152.255249
5.960000 1.800000 6.200000 -7.110168 10.173384 154.052216
5.960000 1.840000 5.800000 9.207893 -15.428873 322.835419
5.960000 1.840000 5.840000 6.690605 0.934950 45.638329
5.960000 1.840000 5.880000 -9.581509 8.253036 159.917908
5.960000 1.840000 5.920000 -25.672150 -2.240807 664.080505
5.960000 1.840000 5.960000 -25.907345 -23.126602 1206.030273
5.960000 1.840000 6.000000 -7.777946 -36.646278 1403.446167
5.960000 1.840000 6.040000 15.269333 -30.604424 1169.783203
5.960000 1.840000 6.080000 25.748037 -9.041840 744.716309
5.960000 1.840000 6.120000 17.148151 12.023960 438.634705
5.960000 1.840000 6.160000 -1.793877 18.953743 362.462372
5.960000 1.840000 6.200000 -16.360374 11.139714 391.755096
5.960000 1.880000 5.800000 7.245300 10.446175 161.616943
5.960000 1.880000 5.840000 -24.970394 26.632116 1332.790161
5.960000 1.880000 5.880000 -66.109955 6.433022 4411.910156
5.960000 1.880000 5.920000 -78.852806 -46.556801 8385.300781
5.960000 1.880000 5.960000 -43.644516 -96.262131 11171.241211
5.960000 1.880000 6.000000 20.040665 -103.738312 11163.265625
5.960000 1.880000 6.040000 68.096237 -61.994759 8480.447266
5.960000 1.880000 6.080000 69.298393 -2.460541 4808.321289
5.960000 1.880000 6.120000 30.695227 32.950073 2027.904297
5.960000 1.880000 6.160000 -12.127515 27.205822 887.233337
5.960000 1.880000 6.200000 -28.512550 -1.831233 816.318909
5.960000 1.920000 5.800000 -18.740801 22.174416 842.922363
5.960000 1.920000 5.840000 -73.730042 10.387463 5544.018555
5.960000 1.920000 5.880000 -107.608063 -55.317116 14639.478516
5.960000 1.920000 5.920000 -75.702988 -138.582214 24935.972656
5.960000 1.920000 5.960000 16.821663 -175.911316 31227.759766
5.960000 1.920000 6.000000 111.566299 -132.460663 29992.867188
5.960000 1.920000 6.040000 144.180099 -35.814308 22070.564453
5.960000 1.920000 6.080000 99.168457 46.238701 11972.400391
5.960000 1.920000 6.120000 20.599943 63.643524 4474.855469
5.960000 1.920000 6.160000 -30.085880 23.151251 1441.140625
5.960000 1.920000 6.200000 -27.065067 -26.076752 1412.514893
5.960000 1.960000 5.800000 -45.083160 4.144669 2049.669678
5.960000 1.960000 5.840000 -93.171814 -47.820793 10967.815430
5.960000 1.960000 5.880000 -82.045547 -141.508316 26756.074219
5.960000 1.960000 5.920000 10.600365 -208.755737 43691.324219
5.960000 1.960000 5.960000 136.756927 -185.971512 53287.859375
5.960000 1.960000 6.000000 211.127914 -75.066223 50209.933594
5.960000 1.960000 6.040000 183.316528 51.808060 36289.023438
5.960000 1.960000 6.080000 81.542244 111.818970 19152.621094
5.960000 1.960000 6.120000 -13.946390 80.300858 6642.729492
5.960000 1.960000 6.160000 -41.610931 4.923414 1755.709595
5.960000 1.960000 6.200000 -6.053681 -44.514454 2018.183716
5.960000 2.000000 5.800000 -45.042007 -31.163845 2999.967773
5.960000 2.000000 5.840000 -56.768471 -105.924446 14442.647461
5.960000 2.000000 5.880000 8.668999 -183.869995 33883.328125
5.960000 2.000000 5.920000 132.562759 -191.182007 54123.445312
5.960000 2.000000 5.960000 235.659424 -97.581177 65057.449219
5.960000 2.000000 6.000000 241.654648 47.272583 60631.664062
5.960000 2.000000 6.040000 144.974243 149.471756 43359.335938
5.960000 2.000000 6.080000 17.506691 148.984070 22502.738281
5.960000 2.000000 6.120000 -53.488312 67.635948 7435.621094
5.960000 2.000000 6.160000 -37.700630 -16.802006 1703.644897
5.960000 2.000000 6.200000 22.326996 -42.505081 2305.176758
5.960000 2.040000 5.800000 -14.823793 -53.740601 3107.797119
5.960000 2.040000 5.840000 13.924440 -116.821640 13841.185547
5.960000 2.040000 5.880000 103.974442 -144.378006 31655.691406
5.960000 2.040000 5.920000 205.066895 -88.301712 49849.621094
5.960000 2.040000 5.960000 240.858749 36.896595 59374.296875
5.960000 2.040000 6.000000 175.253586 155.833740 54997.976562
5.960000 2.040000 6.040000 48.405853 191.838196 39145.019531
5.960000 2.040000 6.080000 -54.445496 131.205444 20179.181641
5.960000 2.040000 6.120000 -74.010223 32.097076 6507.735352
5.960000 2.040000 6.160000 -22.048706 -29.221495 1340.041260
5.960000 2.040000 6.200000 38.949188 -22.527975 2024.548950
5.960000 2.080000 5.800000 22.286482 -44.103462 2441.802734
5.960000 2.080000 5.840000 67.325851 -72.235619 9750.754883
5.960000 2.080000 5.880000 137.814362 -51.984436 21695.179688
5.960000 2.080000 5.920000 181.507629 27.911350 33724.062500
5.960000 2.080000 5.960000 153.789383 127.496834 39906.617188
5.960000 2.080000 6.000000 60.281334 182.373749 36894.023438
5.960000 2.080000 6.040000 -42.211899 156.658356 26323.683594
5.960000 2.080000 6.080000 -90.659569 73.807388 13666.687500
5.960000 2.080000 6.120000 -66.546478 -3.999180 4444.427246
5.960000 2.080000 6.160000 -6.287615 -28.564510 855.465393
5.960000 2.080000 6.200000 35.761101 -1.519501 1281.165161
5.960000 2.120000 5.800000 37.930111 -10.974569 1559.134521
5.960000 2.120000 5.840000 68.819984 -9.448490 4825.464355
5.960000 2.120000 5.880000 97.429230 24.510365 10093.212891
5.960000 2.120000 5.920000 93.786308 80.944443 15347.875000
5.960000 2.120000 5.960000 46.495323 126.049873 18050.384766
5.960000 2.120000 6.000000 -23.004715 127.455826 16774.205078
5.960000 2.120000 6.040000 -74.145096 81.754333 12181.265625
5.960000 2.120000 6.080000 -78.771706 18.874832 6561.240723
5.960000 2.120000 6.120000 -42.781162 -21.677546 2300.143799
5.960000 2.120000 6.160000 1.199194 -21.571920 466.785828
5.960000 2.120000 6.200000 22.164831 5.646631 523.164185
5.960000 2.160000 5.800000 24.494953 18.531168 943.406921
5.960000 2.160000 5.840000 29.827560 25.120047 1520.700073
5.960000 2.160000 5.880000 29.752859 39.666615 2458.672852
5.960000 2.160000 5.920000 17.432068 55.941948 3433.378418
5.960000 2.160000 5.960000 -6.905609 62.959846 4011.629883
5.960000 2.160000 6.000000 -33.610359 52.518162 3887.813477
5.960000 2.160000 6.040000 -48.738602 26.513229 3078.402832
5.960000 2.160000 6.080000 -43.778690 -2.595303 1923.309326
5.960000 2.160000 6.120000 -22.410221 -19.652756 888.448853
5.960000 2.160000 6.160000 1.634776 -17.289082 301.584839
5.960000 2.160000 6.200000 14.216970 -0.706841 202.621872
5.960000 2.200000 5.800000 -0.579945 25.260212 638.414673
5.960000 2.200000 5.840000 -8.483313 17.783251 388.210602
5.960000 2.200000 5.880000 -8.075729 7.291107 118.377655
5.960000 2.200000 5.920000 -0.119263 2.778011 7.731570
5.960000 2.200000 5.960000 6.250828 8.334076 108.529678
5.960000 2.200000 6.000000 2.278001 17.421318 308.691620
5.960000 2.200000 6.040000 -10.501438 18.254799 443.517883
5.960000 2.200000 6.080000 -20.150887 5.898916 440.855438
5.960000 2.200000 6.120000 -15.478739 -11.270016 366.604614
5.960000 2.200000 6.160000 2.211037 -18.307356 340.047943
5.960000 2.200000 6.200000 18.844456 -7.851748 416.763489
6.000000 1.800000 5.800000 -0.687489 -16.979227 288.766785
6.000000 1.800000 5.840000 5.071411 -17.442568 329.962372
6.000000 1.800000 5.880000 12.234501 -15.376205 386.110718
6.000000 1.800000 5.920000 19.146835 -8.751411 443.188477
6.000000 1.800000 5.960000 21.801010 2.216122 480.195251
6.000000 1.800000 6.000000 17.413666 13.305838 480.281067
6.000000 1.800000 6.040000 7.993408 19.224728 433.484711
6.000000 1.800000 6.080000 -0.849066 18.626266 347.658722
6.000000 1.800000 6.120000 -5.246566 15.383862 264.189636
6.000000 1.800000 6.160000 -6.743771 14.212694 247.479111
6.000000 1.800000 6.200000 -9.899240 15.362928 334.014496
6.000000 1.840000 5.800000 3.104195 -1.983753 13.571301
6.000000 1.840000 5.840000 -8.624281 4.272068 92.628784
6.000000 1.840000 5.880000 -22.645716 -4.065727 529.358582
6.000000 1.840000 5.920000 -24.067142 -23.330284 1123.529541
6.000000 1.840000 5.960000 -7.770828 -38.055168 1508.581543
6.000000 1.840000 6.000000 15.894547 -34.874847 1468.891602
6.000000 1.840000 6.040000 29.918625 -14.533665 1106.351562
6.000000 1.840000 6.080000 25.086380 9.185852 713.706360
6.000000 1.840000 6.120000 6.554976 21.627907 510.734070
6.000000 1.840000 6.160000 -12.387300 18.522678 496.534821
6.000000 1.840000 6.200000 -21.958586 6.760820 527.888184
6.000000 1.880000 5.800000 -12.155930 7.989450 211.597931
6.000000 1.880000 5.840000 -44.979603 -0.049389 2023.167114
6.000000 1.880000 5.880000 -63.295349 -41.184959 5702.501953
6.000000 1.880000 5.920000 -40.100899 -90.660583 9827.423828
6.000000 1.880000 5.960000 18.452682 -108.880219 12195.404297
6.000000 1.880000 6.000000 74.288010 -77.156601 11471.849609
6.000000 1.880000 6.040000 89.213921 -15.897568 8211.856445
6.000000 1.880000 6.080000 57.361336 32.688698 4358.874023
6.000000 1.880000 6.120000 7.869823 40.634853 1713.125366
6.000000 1.880000 6.160000 -23.039640 14.885481 752.402588
6.000000 1.880000 6.200000 -22.504723 -14.752432 724.096802
6.000000 1.920000 5.800000 -32.169029 -3.552681 1047.468018
6.000000 1.920000 5.840000 -67.760735 -43.447182 6479.174805
6.000000 1.920000 5.880000 -56.699036 -115.170532 16479.033203
6.000000 1.920000 5.920000 17.225105 -164.204315 27259.761719
6.000000 1.920000 5.960000 114.203705 -142.029053 33214.738281
6.000000 1.920000 6.000000 167.620651 -53.457649 30954.404297
6.000000 1.920000 6.040000 141.498932 43.266834 21893.966797
6.000000 1.920000 6.080000 61.520279 85.670654 11124.205078
6.000000 1.920000 6.120000 -9.837908 59.015846 3579.654541
6.000000 1.920000 6.160000 -28.788774 2.602297 835.565491
6.000000 1.920000 6.200000 -2.985156 -31.976933 1031.435425
6.000000 1.960000 5.800000 -33.796539 -31.949963 2163.006104
6.000000 1.960000 5.840000 -43.889435 -98.519836 11632.440430
6.000000 1.960000 5.880000 16.891113 -168.023590 28517.238281
6.000000 1.960000 5.920000 130.263138 -171.663757 46436.929688
6.000000 1.960000 5.960000 221.894180 -83.221992 56162.925781
6.000000 1.960000 6.000000 223.052887 48.848740 52138.789062
6.000000 1.960000 6.040000 132.617859 138.238647 36697.421875
6.000000 1.960000 6.080000 18.947079 133.983780 18310.644531
6.000000 1.960000 6.120000 -40.711418 60.803780 5354.519043
6.000000 1.960000 6.160000 -24.706757 -10.069804 711.824768
6.000000 1.960000 6.200000 24.562256 -27.847502 1378.787842
6.000000 2.000000 5.800000 -8.580725 -53.304241 2914.970947
6.000000 2.000000 5.840000 20.644119 -118.902374 14563.954102
6.000000 2.000000 5.880000 115.929733 -147.161819 35096.304688
6.000000 2.000000 5.920000 222.248138 -85.738129 56745.261719
6.000000 2.000000 5.960000 257.180847 47.975433 68443.625000
6.000000 2.000000 6.000000 184.646957 171.571365 63531.234375
6.000000 2.000000 6.040000 51.262589 205.254547 44757.281250
6.000000 2.000000 6.080000 -52.118050 139.825317 22267.410156
6.000000 2.000000 6.120000 -68.045044 40.458641 6267.029297
6.000000 2.000000 6.160000 -15.677365 -15.443890 484.293518
6.000000 2.000000 6.200000 38.109474 -4.395596 1471.653320
6.000000 2.040000 5.800000 26.897305 -46.649002 2899.594238
6.000000 2.040000 5.840000 81.582802 -82.905807 13529.126953
6.000000 2.040000 5.880000 170.011322 -57.871780 32252.992188
6.000000 2.040000 5.920000 223.882202 43.117241 51982.339844
6.000000 2.040000 5.960000 186.604065 167.079315 62736.578125
6.000000 2.040000 6.000000 68.719604 231.843475 58473.781250
6.000000 2.040000 6.040000 -55.304073 196.159042 41536.910156
6.000000 2.040000 6.080000 -109.063110 95.172714 20952.607422
6.000000 2.040000 6.120000 -77.070129 7.320717 5993.397461
6.000000 2.040000 6.160000 -10.104733 -14.574932 314.534271
6.000000 2.040000 6.200000 27.925117 17.826834 1097.608154
6.000000 2.080000 5.800000 45.301067 -14.496408 2262.332520
6.000000 2.080000 5.840000 95.402336 -15.425482 9339.550781
6.000000 2.080000 5.880000 143.073761 38.103409 21921.970703
6.000000 2.080000 5.920000 136.983780 128.423370 35257.117188
6.000000 2.080000 5.960000 60.347477 197.696671 42725.789062
6.000000 2.080000 6.000000 -47.557396 194.919556 40255.339844
6.000000 2.080000 6.040000 -120.586861 121.072044 29199.630859
6.000000 2.080000 6.080000 -120.381546 28.992916 15332.305664
6.000000 2.080000 6.120000 -65.635941 -22.254246 4803.328125
6.000000 2.080000 6.160000 -10.114840 -15.142907 331.617615
6.000000 2.080000 6.200000 6.759134 19.911434 442.151123
6.000000 2.120000 5.800000 33.693878 19.131918 1501.307739
6.000000 2.120000 5.840000 58.256882 34.600906 4591.086914
6.000000 2.120000 5.880000 64.628983 77.794693 10228.919922
6.000000 2.120000 5.920000 31.274544 123.844269 16315.500000
6.000000 2.120000 5.960000 -33.557487 137.233765 19959.210938
6.000000 2.120000 6.000000 -94.277985 102.046837 19301.894531
6.000000 2.120000 6.040000 -115.522919 37.112446 14722.878906
6.000000 2.120000 6.080000 -90.350677 -18.671585 8511.873047
6.000000 2.120000 6.120000 -43.695080 -37.472076 3313.416504
6.000000 2.120000 6.160000 -9.332258 -21.856184 564.783813
6.000000 2.120000 6.200000 -2.963377 3.273106 19.494823
6.000000 2.160000 5.800000 4.454622 31.178486 991.941650
6.000000 2.160000 5.840000 6.386810 38.471504 1520.848022
6.000000 2.160000 5.880000 -1.190670 51.084515 2611.045410
6.000000 2.160000 5.920000 -21.292267 58.724861 3901.969971
6.000000 2.160000 5.960000 -47.284328 51.472359 4885.211426
6.000000 2.160000 6.000000 -66.291504 27.558380 5154.027832
6.000000 2.160000 6.040000 -67.671364 -4.307602 4597.969238
6.000000 2.160000 6.080000 -50.287586 -30.061037 3432.507324
6.000000 2.160000 6.120000 -23.353046 -39.057991 2070.891357
6.000000 2.160000 6.160000 -0.493153 -30.355253 921.684631
6.000000 2.160000 6.200000 8.510167 -12.470969 227.948013
6.000000 2.200000 5.800000 -18.297424 19.760151 725.259277
6.000000 2.200000 5.840000 -20.533373 9.673610 515.198120
6.000000 2.200000 5.880000 -15.455765 1.336317 240.666397
6.000000 2.200000 5.920000 -7.727699 1.122627 60.977627
6.000000 2.200000 5.960000 -6.598631 7.729309 103.284149
6.000000 2.200000 6.000000 -15.889170 11.008453 373.651764
6.000000 2.200000 6.040000 -27.567848 1.390175 761.918823
6.000000 2.200000 6.080000 -27.543427 -18.765776 1110.794678
6.000000 2.200000 6.120000 -9.718856 -34.530670 1286.823364
6.000000 2.200000 6.160000 15.680090 -31.313618 1226.407837
6.000000 2.200000 6.200000 29.435823 -9.634915 959.299316
6.040000 1.800000 5.800000 -4.946670 -1.930878 28.197828
6.040000 1.800000 5.840000 -3.211061 -7.420835 65.379707
6.040000 1.800000 5.880000 4.918974 -10.360367 131.533508
6.040000 1.800000 5.920000 14.845608 -4.730301 242.767822
6.040000 1.800000 5.960000 17.902733 8.328876 389.878021
6.040000 1.800000 6.000000 10.326950 20.162088 513.155701
6.040000 1.800000 6.040000 -2.307884 22.948441 531.957275
6.040000 1.800000 6.080000 -10.772484 17.606007 426.017883
6.040000 1.800000 6.120000 -11.893029 12.169046 289.529846
6.040000 1.800000 6.160000 -11.333899 12.299757 279.741272
6.040000 1.800000 6.200000 -16.148573 14.760317 478.643372
6.040000 1.840000 5.800000 -13.079803 -0.166275 171.108902
6.040000 1.840000 5.840000 -21.720627 -8.511658 544.233948
6.040000 1.840000 5.880000 -20.548365 -24.860275 1040.268555
6.040000 1.840000 5.920000 -4.961929 -37.025894 1395.537598
6.040000 1.840000 5.960000 16.742172 -33.706379 1416.420288
6.040000 1.840000 6.000000 30.091125 -15.159397 1135.283203
6.040000 1.840000 6.040000 26.742897 7.063026 765.068909
6.040000 1.840000 6.080000 10.420179 20.165134 515.212769
6.040000 1.840000 6.120000 -8.007017 19.635845 449.678711
6.040000 1.840000 6.160000 -19.986958 10.044245 500.365356
6.040000 1.840000 6.200000 -24.025764 -1.453169 579.349060
6.040000 1.880000 5.800000 -23.124191 -11.395281 664.580627
6.040000 1.880000 5.840000 -36.722023 -35.477779 2607.179688
6.040000 1.880000 5.880000 -23.679302 -72.053810 5752.460938
6.040000 1.880000 5.920000 20.164062 -91.316940 8745.373047
6.040000 1.880000 5.960000 70.020233 -71.191383 9971.045898
6.040000 1.880000 6.000000 91.530807 -19.586754 8761.529297
6.040000 1.880000 6.040000 70.467781 30.466476 5893.914062
6.040000 1.880000 6.080000 24.470282 48.498409 2950.890381
6.040000 1.880000 6.120000 -13.642572 30.803274 1134.961426
6.040000 1.880000 6.160000 -23.873226 -0.675570 570.387329
6.040000 1.880000 6.200000 -11.989771 -21.048855 586.808899
6.040000 1.920000 5.800000 -19.572498 -32.838287 1461.435791
6.040000 1.920000 5.840000 -21.099543 -75.579651 6157.474609
6.040000 1.920000 5.880000 23.462479 -117.064148 14254.502930
6.040000 1.920000 5.920000 99.195442 -112.499092 22495.781250
6.040000 1.920000 5.960000 155.522614 -48.012558 26492.488281
6.040000 1.920000 6.000000 149.196167 40.709095 23916.726562
6.040000 1.920000 6.040000 83.898636 96.208511 16295.058594
6.040000 1.920000 6.080000 7.597172 88.106644 7820.497559
6.040000 1.920000 6.120000 -29.847210 36.551361 2226.857910
6.040000 1.920000 6.160000 -17.614998 -10.670662 424.151184
6.040000 1.920000 6.200000 14.364207 -22.591007 716.684082
6.040000 1.960000 5.800000 3.731458 -47.314602 2252.595459
6.040000 1.960000 5.840000 28.581381 -94.468719 9741.234375
6.040000 1.960000 5.880000 103.293869 -111.602249 23124.685547
6.040000 1.960000 5.920000 183.657623 -58.685112 37174.062500
6.040000 1.960000 5.960000 205.298309 48.129608 44463.855469
6.040000 1.960000 6.000000 142.795654 142.465942 40687.144531
6.040000 1.960000 6.040000 36.349373 163.274902 27979.970703
6.040000 1.960000 6.080000 -41.905937 107.563019 13325.910156
6.040000 1.960000 6.120000 -50.102192 29.590363 3385.819336
6.040000 1.960000 6.160000 -7.703367 -11.071741 181.925323
6.040000 1.960000 6.200000 31.604168 -0.502550 999.075989
6.040000 2.000000 5.800000 34.127480 -38.600792 2654.706055
6.040000 2.000000 5.840000 82.321655 -68.130463 11418.615234
6.040000 2.000000 5.880000 160.386490 -42.581406 27537.001953
6.040000 2.000000 5.920000 205.444550 51.014179 44809.910156
6.040000 2.000000 5.960000 166.600113 162.557938 54180.679688
6.040000 2.000000 6.000000 56.485073 216.652710 50128.960938
6.040000 2.000000 6.040000 -54.355282 178.701080 34888.574219
6.040000 2.000000 6.080000 -97.593773 85.354767 16809.980469
6.040000 2.000000 6.120000 -64.353973 9.625477 4234.083984
6.040000 2.000000 6.160000 -5.372482 -4.399940 48.223042
6.040000 2.000000 6.200000 22.334757 26.209761 1185.792969
6.040000 2.040000 5.800000 49.296146 -8.278269 2498.639893
6.040000 2.040000 5.840000 100.816788 -8.609753 10238.152344
6.040000 2.040000 5.880000 149.892456 49.326576 24900.859375
6.040000 2.040000 5.920000 140.189667 145.786804 40906.937500
6.040000 2.040000 5.960000 55.000435 216.669357 49970.656250
6.040000 2.040000 6.000000 -59.970009 207.968750 46847.402344
6.040000 2.040000 6.040000 -132.391785 125.377380 33247.070312
6.040000 2.040000 6.080000 -125.213844 29.909580 16573.089844
6.040000 2.040000 6.120000 -65.331512 -16.574684 4542.926758
6.040000 2.040000 6.160000 -13.051125 -2.776451 178.040527
6.040000 2.040000 6.200000 -5.180988 31.769201 1036.124756
6.040000 2.080000 5.800000 37.326687 23.584534 1949.511719
6.040000 2.080000 5.840000 71.092598 43.986721 6988.989258
6.040000 2.080000 5.880000 79.418427 102.923203 16900.472656
6.040000 2.080000 5.920000 32.316513 164.026779 27949.142578
6.040000 2.080000 5.960000 -55.635063 177.366699 34554.207031
6.040000 2.080000 6.000000 -132.228165 124.760208 33049.398438
6.040000 2.080000 6.040000 -151.087952 38.299324 24294.406250
6.040000 2.080000 6.080000 -110.751312 -26.916515 12990.352539
6.040000 2.080000 6.120000 -52.313515 -39.645164 4308.442871
6.040000 2.080000 6.160000 -19.866325 -14.333245 600.112793
6.040000 2.080000 6.200000 -23.576700 10.156748 659.020325
6.040000 2.120000 5.800000 7.847535 35.743431 1339.176758
6.040000 2.120000 5.840000 18.080832 56.588242 3529.145508
6.040000 2.120000 5.880000 2.043365 89.864929 8079.880859
6.040000 2.120000 5.920000 -44.404488 106.444183 13302.123047
6.040000 2.120000 5.960000 -97.872322 84.420158 16705.753906
6.040000 2.120000 6.000000 -125.261253 29.894978 16584.091797
6.040000 2.120000 6.040000 -111.243469 -26.890247 13098.194336
6.040000 2.120000 6.080000 -69.843956 -56.493908 8069.739746
6.040000 2.120000 6.120000 -30.299389 -52.675774 3692.790039
6.040000 2.120000 6.160000 -12.216049 -32.591362 1211.428711
6.040000 2.120000 6.200000 -13.393780 -17.660275 491.278625
6.040000 2.160000 5.800000 -17.187510 24.299503 885.876343
6.040000 2.160000 5.840000 -19.311699 30.821705 1322.919189
6.040000 2.160000 5.880000 -32.217442 35.848789 2323.099121
6.040000 2.160000 5.920000 -51.404221 29.822403 3531.769531
6.040000 2.160000 5.960000 -66.331779 10.150352 4502.934570
6.040000 2.160000 6.000000 -68.019020 -17.051506 4917.340820
6.040000 2.160000 6.040000 -54.539654 -41.438240 4691.701172
6.040000 2.160000 6.080000 -31.116753 -54.586754 3947.965820
6.040000 2.160000 6.120000 -6.457731 -53.545872 2908.862793
6.040000 2.160000 6.160000 11.258654 -41.063946 1813.005005
6.040000 2.160000 6.200000 17.275902 -24.020378 875.435364
6.040000 2.200000 5.800000 -23.758595 4.099812 581.279297
6.040000 2.200000 5.840000 -22.949436 -3.306974 537.612732
6.040000 2.200000 5.880000 -17.699814 -9.115185 396.369995
6.040000 2.200000 5.920000 -11.774363 -9.145973 222.284454
6.040000 2.200000 5.960000 -11.801476 -5.897972 174.060898
6.040000 2.200000 6.000000 -18.319153 -8.149368 402.003571
6.040000 2.200000 6.040000 -21.926826 -21.302431 934.579285
6.040000 2.200000 6.080000 -11.397970 -38.511444 1613.045044
6.040000 2.200000 6.120000 13.106915 -44.221153 2127.301514
6.040000 2.200000 6.160000 36.430481 -29.096195 2173.768555
6.040000 2.200000 6.200000 40.764336 -1.572321 1664.203247
6.080000 1.800000 5.800000 -21.181149 1.744132 451.683044
6.080000 1.800000 5.840000 -16.503410 -11.100967 395.594025
6.080000 1.800000 5.880000 -1.713936 -15.842669 253.927719
6.080000 1.800000 5.920000 11.900936 -6.297404 181.289581
6.080000 1.800000 5.960000 12.543430 10.605846 269.821625
6.080000 1.800000 6.000000 0.090626 20.972748 439.864349
6.080000 1.800000 6.040000 -13.823080 17.905685 511.691101
6.080000 1.800000 6.080000 -18.271721 7.906963 396.375854
6.080000 1.800000 6.120000 -14.225323 2.671024 209.494171
6.080000 1.800000 6.160000 -12.073716 5.628372 177.453201
6.080000 1.800000 6.200000 -18.599468 8.503307 418.246460
6.080000 1.840000 5.800000 -25.030596 -14.614204 840.105652
6.080000 1.840000 5.840000 -19.276234 -29.469894 1240.047852
6.080000 1.840000 5.880000 -1.857422 -38.144421 1458.446899
6.080000 1.840000 5.920000 18.618603 -31.931358 1366.264038
6.080000 1.840000 5.960000 29.283344 -13.008507 1026.735474
6.080000 1.840000 6.000000 24.253452 6.984264 637.009888
6.080000 1.840000 6.040000 8.891646 17.090149 371.134552
6.080000 1.840000 6.080000 -6.408331 15.257681 273.863525
6.080000 1.840000 6.120000 -15.425250 7.099534 288.341736
6.080000 1.840000 6.160000 -18.877211 -1.641509 359.043640
6.080000 1.840000 6.200000 -19.681805 -9.868683 484.764343
6.080000 1.880000 5.800000 -13.750925 -34.583702 1385.120361
6.080000 1.880000 5.840000 -3.341080 -53.238335 2845.483154
6.080000 1.880000 5.880000 25.102045 -63.308372 4638.062500
6.080000 1.880000 5.920000 59.095757 -49.110054 5904.105469
6.080000 1.880000 5.960000 76.075500 -12.112938 5934.205078
6.080000 1.880000 6.000000 62.879272 27.311981 4699.747070
6.080000 1.880000 6.040000 27.820007 45.847408 2875.937744
6.080000 1.880000 6.080000 -6.256561 35.940559 1330.868286
6.080000 1.880000 6.120000 -20.874537 10.025498 536.256897
6.080000 1.880000 6.160000 -14.953382 -12.339169 375.858704
6.080000 1.880000 6.200000 -1.185259 -20.922241 439.145020
6.080000 1.920000 5.800000 13.215639 -42.592926 1988.810425
6.080000 1.920000 5.840000 33.477264 -61.476486 4900.085449
6.080000 1.920000 5.880000 75.715591 -60.875488 9438.675781
6.080000 1.920000 5.920000 114.509064 -23.254196 13653.083008
6.080000 1.920000 5.960000 117.194717 38.299572 15201.458984
6.080000 1.920000 6.000000 74.845375 86.515839 13086.820312
6.080000 1.920000 6.040000 13.261303 91.026657 8461.714844
6.080000 1.920000 6.080000 -28.047770 54.561592 3763.644531
6.080000 1.920000 6.120000 -29.099636 9.038067 928.475464
6.080000 1.920000 6.160000 -3.254338 -13.938541 204.873657
6.080000 1.920000 6.200000 19.922737 -8.938648 476.814880
6.080000 1.960000 5.800000 41.332451 -27.456642 2462.238770
6.080000 1.960000 5.840000 71.709717 -38.077412 6592.172852
6.080000 1.960000 5.880000 117.210426 -14.968197 13962.331055
6.080000 1.960000 5.920000 138.782532 48.254536 21589.091797
6.080000 1.960000 5.960000 106.205429 118.254967 25263.830078
6.080000 1.960000 6.000000 30.677988 147.286957 22634.585938
6.080000 1.960000 6.040000 -40.490295 116.009995 15097.782227
6.080000 1.960000 6.080000 -64.158470 51.569637 6775.736328
6.080000 1.960000 6.120000 -37.854656 2.627119 1439.876709
6.080000 1.960000 6.160000 2.604018 -3.959635 22.459618
6.080000 1.960000 6.200000 20.077820 17.545980 710.980225
6.080000 2.000000 5.800000 50.873718 5.194939 2615.122559
6.080000 2.000000 5.840000 83.620888 9.521118 7083.104492
6.080000 2.000000 5.880000 113.832436 53.969864 15870.569336
6.080000 2.000000 5.920000 100.642227 124.172440 25547.652344
6.080000 2.000000 5.960000 32.836868 172.449677 30817.150391
6.080000 2.000000 6.000000 -53.631149 159.605927 28350.353516
6.080000 2.000000 6.040000 -103.954712 92.828194 19423.656250
6.080000 2.000000 6.080000 -92.592590 20.828899 9007.230469
6.080000 2.000000 6.120000 -43.979752 -9.969004 2033.599487
6.080000 2.000000 6.160000 -6.060875 5.120052 62.949139
6.080000 2.000000 6.200000 -4.622156 31.791452 1032.060791
6.080000 2.040000 5.800000 34.017235 34.934315 2377.578613
6.080000 2.040000 5.840000 57.994114 52.473740 6116.810547
6.080000 2.040000 5.880000 61.103363 101.821442 14101.227539
6.080000 2.040000 5.920000 16.899233 151.649734 23283.226562
6.080000 2.040000 5.960000 -60.952404 158.092438 28708.414062
6.080000 2.040000 6.000000 -125.035431 106.787445 27037.417969
6.080000 2.040000 6.040000 -135.166977 29.401661 19134.568359
6.080000 2.040000 6.080000 -94.214821 -23.631021 9434.857422
6.080000 2.040000 6.120000 -43.111832 -27.594185 2620.069092
6.080000 2.040000 6.160000 -21.022142 -1.521284 444.244781
6.080000 2.040000 6.200000 -31.227144 16.251858 1239.257446
6.080000 2.080000 5.800000 2.684849 42.919296 1849.274414
6.080000 2.080000 5.840000 11.754045 63.917496 4223.604004
6.080000 2.080000 5.880000 -7.087366 98.195663 9692.619141
6.080000 2.080000 5.920000 -58.475170 113.017792 16192.367188
6.080000 2.080000 5.960000 -114.755768 84.490707 20307.566406
6.080000 2.080000 6.000000 -138.339722 22.568279 19647.207031
6.080000 2.080000 6.040000 -115.463303 -35.617058 14600.349609
6.080000 2.080000 6.080000 -67.894485 -58.298912 8008.424316
6.080000 2.080000 6.120000 -31.397564 -45.399372 3046.910156
6.080000 2.080000 6.160000 -23.348902 -23.566290 1100.541260
6.080000 2.080000 6.200000 -31.561939 -17.287354 1295.008545
6.080000 2.120000 5.800000 -21.430168 27.742359 1228.890625
6.080000 2.120000 5.840000 -24.162849 41.644875 2318.138916
6.080000 2.120000 5.880000 -47.130249 52.370056 4963.882812
6.080000 2.120000 5.920000 -80.493591 40.930859 8154.553711
6.080000 2.120000 5.960000 -101.471222 4.809635 10319.541992
6.080000 2.120000 6.000000 -94.350281 -38.311722 10369.763672
6.080000 2.120000 6.040000 -63.985577 -65.683846 8408.521484
6.080000 2.120000 6.080000 -30.088736 -68.293915 5569.390625
6.080000 2.120000 6.120000 -9.246958 -55.455910 3160.864258
6.080000 2.120000 6.160000 -2.857097 -42.757206 1836.341675
6.080000 2.120000 6.200000 -1.230675 -37.293530 1392.321899
6.080000 2.160000 5.800000 -25.669647 5.304684 687.070435
6.080000 2.160000 5.840000 -31.356907 7.864279 1045.102539
6.080000 2.160000 5.880000 -42.315491 2.527504 1796.989014
6.080000 2.160000 5.920000 -49.604393 -12.540474 2617.859131
6.080000 2.160000 5.960000 -46.947601 -31.509727 3196.939941
6.080000 2.160000 6.000000 -34.932346 -46.923138 3422.049561
6.080000 2.160000 6.040000 -18.163433 -55.223862 3379.585205
6.080000 2.160000 6.080000 -0.389416 -56.550301 3198.088135
6.080000 2.160000 6.120000 16.427086 -51.309303 2902.493652
6.080000 2.160000 6.160000 29.481617 -39.380241 2419.969238
6.080000 2.160000 6.200000 34.483555 -23.139927 1724.571777
6.080000 2.200000 5.800000 -15.928988 -7.076834 303.814209
6.080000 2.200000 5.840000 -16.975554 -12.903051 454.658142
6.080000 2.200000 5.880000 -12.217630 -19.735640 538.765991
6.080000 2.200000 5.920000 -4.446484 -21.271185 472.234528
6.080000 2.200000 5.960000 -0.805336 -18.519730 343.628937
6.080000 2.200000 6.000000 -2.427219 -19.422009 383.105804
6.080000 2.200000 6.040000 -0.818909 -28.261337 799.373779
6.080000 2.200000 6.080000 12.833648 -37.470863 1568.768066
6.080000 2.200000 6.120000 35.107388 -33.433197 2350.307373
6.080000 2.200000 6.160000 50.137474 -11.841489 2653.987305
6.080000 2.200000 6.200000 44.625938 14.467862 2200.793457
6.120000 1.800000 5.800000 -34.646420 -11.416021 1330.699951
6.120000 1.800000 5.840000 -20.786695 -26.579948 1138.580322
6.120000 1.800000 5.880000 0.814960 -25.948530 673.990417
6.120000 1.800000 5.920000 13.581209 -9.202233 269.130341
6.120000 1.800000 5.960000 8.280197 9.362545 156.218918
6.120000 1.800000 6.000000 -7.740546 14.656996 274.743591
6.120000 1.800000 6.040000 -18.522203 5.541910 373.784790
6.120000 1.800000 6.080000 -16.114376 -5.411991 288.962769
6.120000 1.800000 6.120000 -7.734211 -6.538909 102.575363
6.120000 1.800000 6.160000 -6.109352 0.338711 37.438908
6.120000 1.800000 6.200000 -14.296655 3.081080 213.887390
6.120000 1.840000 5.800000 -20.446735 -35.274323 1662.346802
6.120000 1.840000 5.840000 -0.580107 -42.451843 1802.495483
6.120000 1.840000 5.880000 20.682629 -33.663044 1560.971680
6.120000 1.840000 5.920000 29.997646 -12.665140 1060.264526
6.120000 1.840000 5.960000 22.465904 7.174261 556.186890
6.120000 1.840000 6.000000 5.811145 14.478022 243.382523
6.120000 1.840000 6.040000 -7.494459 9.085340 138.710327
6.120000 1.840000 6.080000 -11.560825 -0.203936 133.694275
6.120000 1.840000 6.120000 -10.170227 -5.911123 138.374893
6.120000 1.840000 6.160000 -9.595711 -8.559486 165.342468
6.120000 1.840000 6.200000 -10.368948 -13.177896 281.172028
6.120000 1.880000 5.800000 11.576028 -43.096561 1991.317993
6.120000 1.880000 5.840000 31.219048 -40.484756 2613.644531
6.120000 1.880000 5.880000 48.806343 -24.612263 2987.822510
6.120000 1.880000 5.920000 53.642906 1.007866 2878.577148
6.120000 1.880000 5.960000 41.006416 24.496229 2281.591309
6.120000 1.880000 6.000000 17.217533 33.887268 1444.790405
6.120000 1.880000 6.040000 -4.593601 26.178419 706.410828
6.120000 1.880000 6.080000 -14.261482 8.873053 282.120941
6.120000 1.880000 6.120000 -11.013676 -6.895633 168.850800
6.120000 1.880000 6.160000 -1.525037 -14.778421 220.727478
6.120000 1.880000 6.200000 7.284956 -15.781329 302.120941
6.120000 1.920000 5.800000 42.727139 -23.501486 2377.928223
6.120000 1.920000 5.840000 56.742615 -13.813346 3410.532959
6.120000 1.920000 5.880000 67.919373 7.336588 4666.866699
6.120000 1.920000 5.920000 64.426758 37.110279 5527.979980
6.120000 1.920000 5.960000 40.533970 61.224724 5391.469727
6.120000 1.920000 6.000000 5.406050 64.290344 4162.474121
6.120000 1.920000 6.040000 -21.650713 43.822323 2389.149414
6.120000 1.920000 6.080000 -26.421028 13.814047 888.898621
6.120000 1.920000 6.120000 -11.284165 -6.512751 169.748306
6.120000 1.920000 6.160000 8.164062 -8.396613 137.155029
6.120000 1.920000 6.200000 17.762640 1.170267 316.880920
6.120000 1.960000 5.800000 50.526264 14.654621 2767.661133
6.120000 1.960000 5.840000 56.986916 26.433691 3946.248535
6.120000 1.960000 5.880000 59.333038 49.793655 5999.817383
6.120000 1.960000 5.920000 43.296032 78.569069 8047.645020
6.120000 1.960000 5.960000 6.469187 93.429153 8770.857422
6.120000 1.960000 6.000000 -33.890282 79.412811 7454.945801
6.120000 1.960000 6.040000 -53.380066 42.501461 4655.805664
6.120000 1.960000 6.080000 -42.285130 6.922346 1835.951050
6.120000 1.960000 6.120000 -14.632885 -5.722526 246.868622
6.120000 1.960000 6.160000 5.271582 4.946870 52.261093
6.120000 1.960000 6.200000 5.458253 20.314718 442.480286
6.120000 2.000000 5.800000 27.996517 46.700558 2964.747070
6.120000 2.000000 5.840000 28.451662 56.462311 3997.489502
6.120000 2.000000 5.880000 21.146021 77.170593 6402.454590
6.120000 2.000000 5.920000 -6.445453 95.931221 9244.342773
6.120000 2.000000 5.960000 -47.842529 91.942322 10742.298828
6.120000 2.000000 6.000000 -78.747948 58.813568 9660.275391
6.120000 2.000000 6.040000 -78.644066 14.693743 6400.795410
6.120000 2.000000 6.080000 -51.129795 -12.343810 2766.625488
6.120000 2.000000 6.120000 -21.144638 -9.936733 545.834412
6.120000 2.000000 6.160000 -11.138405 8.240614 191.971771
6.120000 2.000000 6.200000 -20.575991 18.059855 749.529785
6.120000 2.040000 5.800000 -9.051918 51.766273 2761.684326
6.120000 2.040000 5.840000 -11.758265 57.993366 3501.487305
6.120000 2.040000 5.880000 -26.164093 70.757935 5691.245117
6.120000 2.040000 5.920000 -56.709625 72.839264 8521.540039
6.120000 2.040000 5.960000 -88.025009 50.112595 10259.674805
6.120000 2.040000 6.000000 -97.465347 9.083062 9581.996094
6.120000 2.040000 6.040000 -77.650505 -26.107058 6711.179688
6.120000 2.040000 6.080000 -44.942253 -35.674568 3292.480957
6.120000 2.040000 6.120000 -24.051216 -22.603874 1089.396118
6.120000 2.040000 6.160000 -24.458706 -8.109538 663.992859
6.120000 2.040000 6.200000 -33.217304 -9.042909 1185.163452
6.120000 2.080000 5.800000 -34.831017 30.175335 2123.750488
6.120000 2.080000 5.840000 -38.872128 33.226379 2615.034668
6.120000 2.080000 5.880000 -54.521423 35.189011 4210.852051
6.120000 2.080000 5.920000 -76.211807 22.341434 6307.379395
6.120000 2.080000 5.960000 -87.244148 -7.271503 7664.416504
6.120000 2.080000 6.000000 -76.215378 -39.219299 7346.937012
6.120000 2.080000 6.040000 -49.255943 -55.394226 5494.667969
6.120000 2.080000 6.080000 -24.578447 -51.117649 3217.114258
6.120000 2.080000 6.120000 -14.911057 -38.542202 1707.840942
6.120000 2.080000 6.160000 -16.330242 -33.044121 1358.590820
6.120000 2.080000 6.200000 -14.926258 -37.443760 1624.828369
6.120000 2.120000 5.800000 -35.406441 2.118120 1258.102539
6.120000 2.120000 5.840000 -40.373192 2.135038 1634.552979
6.120000 2.120000 5.880000 -50.670143 -5.136955 2593.851807
6.120000 2.120000 5.920000 -56.453972 -22.934425 3713.038818
6.120000 2.120000 5.960000 -49.420982 -43.944683 4373.568848
6.120000 2.120000 6.000000 -31.309488 -57.018288 4231.369141
6.120000 2.120000 6.040000 -11.962172 -57.689316 3471.150635
6.120000 2.120000 6.080000 0.558466 -51.256767 2627.567871
6.120000 2.120000 6.120000 6.861280 -45.728912 2138.210693
6.120000 2.120000 6.160000 13.098013 -43.082069 2027.622681
6.120000 2.120000 6.200000 22.237808 -38.514816 1977.911255
6.120000 2.160000 5.800000 -19.151892 -11.370052 496.073059
6.120000 2.160000 5.840000 -24.310091 -15.554859 832.934204
6.120000 2.160000 5.880000 -25.197124 -26.740118 1349.928955
6.120000 2.160000 5.920000 -17.359999 -37.935200 1740.448975
6.120000 2.160000 5.960000 -4.734688 -42.353180 1816.209106
6.120000 2.160000 6.000000 5.662508 -40.504436 1672.673340
6.120000 2.160000 6.040000 12.061718 -38.145123 1600.535400
6.120000 2.160000 6.080000 19.113503 -37.991314 1808.666016
6.120000 2.160000 6.120000 30.540506 -35.632374 2202.388672
6.120000 2.160000 6.160000 42.513908 -25.089376 2436.909180
6.120000 2.160000 6.200000 46.444740 -7.521728 2213.690430
6.120000 2.200000 5.800000 -6.223049 -6.859520 85.779358
6.120000 2.200000 5.840000 -8.708611 -16.283543 340.993652
6.120000 2.200000 5.880000 -0.300800 -25.001814 625.181152
6.120000 2.200000 5.920000 12.061298 -23.831404 713.410706
6.120000 2.200000 5.960000 17.548965 -15.605364 551.493530
6.120000 2.200000 6.000000 15.019627 -11.304336 353.377197
6.120000 2.200000 6.040000 14.740027 -15.769967 465.960266
6.120000 2.200000 6.080000 25.463829 -20.321049 1061.351562
6.120000 2.200000 6.120000 41.956551 -12.111588 1907.042725
6.120000 2.200000 6.160000 48.651199 9.789641 2462.776367
6.120000 2.200000 6.200000 36.678146 30.719536 2288.976318
6.160000 1.800000 5.800000 -32.745411 -32.088001 2101.901855
6.160000 1.800000 5.840000 -10.455196 -41.182583 1805.316284
6.160000 1.800000 5.880000 11.671423 -30.978519 1095.890747
6.160000 1.800000 5.920000 18.004145 -9.397301 412.458496
6.160000 1.800000 5.960000 6.810591 6.056430 83.064491
6.160000 1.800000 6.000000 -8.343992 5.078618 95.414566
6.160000 1.800000 6.040000 -12.661337 -6.155643 198.201385
6.160000 1.800000 6.080000 -4.695601 -12.856054 187.326797
6.160000 1.800000 6.120000 3.854005 -7.755461 75.000526
6.160000 1.800000 6.160000 2.160183 1.950798 8.472004
6.160000 1.800000 6.200000 -7.651277 3.846349 73.336433
6.160000 1.840000 5.800000 -1.134741 -46.163746 2132.379150
6.160000 1.840000 5.840000 21.193913 -38.094402 1900.365356
6.160000 1.840000 5.880000 31.790279 -16.496559 1282.758301
6.160000 1.840000 5.920000 24.307117 4.661635 612.566772
6.160000 1.840000 5.960000 6.427182 12.129639 188.436798
6.160000 1.840000 6.000000 -7.294394 4.771602 75.976379
6.160000 1.840000 6.040000 -8.732439 -6.872291 123.483879
6.160000 1.840000 6.080000 -2.152312 -11.929489 146.945160
6.160000 1.840000 6.120000 2.513613 -9.304690 92.895515
6.160000 1.840000 6.160000 1.005881 -6.436596 42.441563
6.160000 1.840000 6.200000 -1.656652 -9.225964 87.862900
6.160000 1.880000 5.800000 34.531246 -30.089748 2097.799805
6.160000 1.880000 5.840000 43.162632 -9.657944 1956.288696
6.160000 1.880000 5.880000 36.797596 11.491592 1486.119873
6.160000 1.880000 5.920000 19.448833 22.535427 886.102600
6.160000 1.880000 5.960000 1.735490 19.565805 385.832672
6.160000 1.880000 6.000000 -7.207217 7.829081 113.238495
6.160000 1.880000 6.040000 -5.893612 -3.509085 47.048336
6.160000 1.880000 6.080000 0.407244 -8.842407 78.354012
6.160000 1.880000 6.120000 5.820265 -9.016753 115.177322
6.160000 1.880000 6.160000 8.805392 -7.946741 140.685623
6.160000 1.880000 6.200000 11.515311 -7.471200 188.421204
6.160000 1.920000 5.800000 47.261917 10.207869 2337.889404
6.160000 1.920000 5.840000 37.096897 28.790926 2205.097168
6.160000 1.920000 5.880000 19.234505 37.558655 1780.618774
6.160000 1.920000 5.920000 1.560571 34.879448 1219.011353
6.160000 1.920000 5.960000 -9.758018 24.257717 683.655762
6.160000 1.920000 6.000000 -12.529341 11.362247 286.085022
6.160000 1.920000 6.040000 -8.156116 1.144576 67.832291
6.160000 1.920000 6.080000 -0.093547 -3.622939 13.134439
6.160000 1.920000 6.120000 7.755319 -2.728056 67.587257
6.160000 1.920000 6.160000 12.489618 1.804790 159.247833
6.160000 1.920000 6.200000 13.422007 6.862354 227.242172
6.160000 1.960000 5.800000 24.952200 47.771053 2904.685791
6.160000 1.960000 5.840000 3.807536 51.694317 2686.799805
6.160000 1.960000 5.880000 -13.421533 44.568680 2166.504639
6.160000 1.960000 5.920000 -22.924952 32.311882 1569.611084
6.160000 1.960000 5.960000 -25.427200 19.607563 1030.999023
6.160000 1.960000 6.000000 -22.477966 8.652657 580.127441
6.160000 1.960000 6.040000 -15.120046 1.294244 230.290848
6.160000 1.960000 6.080000 -5.669798 -0.168687 32.175060
6.160000 1.960000 6.120000 1.356777 4.549496 22.538754
6.160000 1.960000 6.160000 2.220647 11.575490 138.923248
6.160000 1.960000 6.200000 -1.972602 15.134447 232.942642
6.160000 2.000000 5.800000 -17.421871 55.925560 3431.189941
6.160000 2.000000 5.840000 -35.406067 43.488041 3144.799316
6.160000 2.000000 5.880000 -42.409988 26.831305 2518.525879
6.160000 2.000000 5.920000 -41.272926 12.822586 1867.873169
6.160000 2.000000 5.960000 -36.405716 2.877618 1333.656738
6.160000 2.000000 6.000000 -29.432873 -3.794352 880.691101
6.160000 2.000000 6.040000 -20.814737 -6.351608 473.596222
6.160000 2.000000 6.080000 -13.337481 -3.460488 189.863388
6.160000 2.000000 6.120000 -11.234341 2.687145 133.431168
6.160000 2.000000 6.160000 -15.097365 6.130577 265.514404
6.160000 2.000000 6.200000 -19.352238 2.812289 382.418060
6.160000 2.040000 5.800000 -49.391449 31.019806 3401.743408
6.160000 2.040000 5.840000 -55.338417 11.491616 3194.397461
6.160000 2.040000 5.880000 -51.143936 -4.938851 2640.094482
6.160000 2.040000 5.920000 -42.481258 -14.968223 2028.705078
6.160000 2.040000 5.960000 -33.324177 -19.780262 1501.759521
6.160000 2.040000 6.000000 -24.849407 -20.785931 1049.547974
6.160000 2.040000 6.040000 -18.282131 -18.262589 667.758423
6.160000 2.040000 6.080000 -15.925863 -13.803596 444.172394
6.160000 2.040000 6.120000 -18.157589 -11.680661 466.135864
6.160000 2.040000 6.160000 -20.637663 -15.337182 661.142273
6.160000 2.040000 6.200000 -17.055859 -22.408592 793.047363
6.160000 2.080000 5.800000 -50.871048 -4.840307 2611.291992
6.160000 2.080000 5.840000 -47.045937 -20.747841 2643.792969
6.160000 2.080000 5.880000 -37.278126 -31.779869 2399.618652
6.160000 2.080000 5.920000 -25.420189 -36.584656 1984.623047
6.160000 2.080000 5.960000 -14.727210 -35.709778 1492.078979
6.160000 2.080000 6.000000 -7.873476 -30.964968 1020.820862
6.160000 2.080000 6.040000 -6.301659 -25.820147 706.390869
6.160000 2.080000 6.080000 -8.417356 -24.492680 670.743225
6.160000 2.080000 6.120000 -9.165883 -28.723911 909.076477
6.160000 2.080000 6.160000 -3.421903 -34.940651 1232.558594
6.160000 2.080000 6.200000 8.823063 -35.903564 1366.912354
6.160000 2.120000 5.800000 -28.413069 -24.129726 1389.546143
6.160000 2.120000 5.840000 -23.327698 -33.747776 1683.093750
6.160000 2.120000 5.880000 -13.048196 -40.895439 1842.692261
6.160000 2.120000 5.920000 -0.029427 -41.503414 1722.534302
6.160000 2.120000 5.960000 9.850911 -34.917076 1316.242554
6.160000 2.120000 6.000000 12.017065 -26.190315 830.342468
6.160000 2.120000 6.040000 8.264823 -22.603127 579.208618
6.160000 2.120000 6.080000 6.231891 -26.732510 753.463562
6.160000 2.120000 6.120000 12.542308 -33.068954 1250.865234
6.160000 2.120000 6.160000 25.933786 -32.499252 1728.762695
6.160000 2.120000 6.200000 37.585487 -20.913952 1850.062256
6.160000 2.160000 5.800000 -6.758659 -18.134296 374.532166
6.160000 2.160000 5.840000 -5.028002 -27.184589 764.282715
6.160000 2.160000 5.880000 5.967461 -33.786003 1177.104614
6.160000 2.160000 5.920000 19.826757 -30.131704 1301.019897
6.160000 2.160000 5.960000 26.120302 -18.449862 1022.667603
6.160000 2.160000 6.000000 21.951284 -9.440820 570.987976
6.160000 2.160000 6.040000 15.814861 -10.704494 364.696045
6.160000 2.160000 6.080000 18.635719 -17.868931 666.588745
6.160000 2.160000 6.120000 31.453596 -18.709732 1339.382812
6.160000 2.160000 6.160000 43.483791 -6.324358 1930.837646
6.160000 2.160000 6.200000 43.112015 13.035906 2028.580688
6.160000 2.200000 5.800000 -4.404499 -2.209098 24.279726
6.160000 2.200000 5.840000 -1.898096 -16.348917 270.889862
6.160000 2.200000 5.880000 13.006957 -21.715914 640.761841
6.160000 2.200000 5.920000 26.073553 -12.325395 831.745544
6.160000 2.200000 5.960000 25.926937 1.885212 675.760071
6.160000 2.200000 6.000000 16.691925 6.790883 324.736450
6.160000 2.200000 6.040000 12.729246 0.542706 162.328232
6.160000 2.200000 6.080000 21.414186 -4.268933 476.791168
6.160000 2.200000 6.120000 33.900169 4.528409 1169.727905
6.160000 2.200000 6.160000 34.787201 23.929615 1782.775757
6.160000 2.200000 6.200000 19.812227 38.306923 1859.944580
6.200000 1.800000 5.800000 -16.348412 -45.262054 2315.924072
6.200000 1.800000 5.840000 7.045893 -44.226868 2005.660522
6.200000 1.800000 5.880000 22.804462 -27.405571 1271.108887
6.200000 1.800000 5.920000 21.770956 -7.022977 523.296753
6.200000 1.800000 5.960000 8.991960 2.738382 88.354080
6.200000 1.800000 6.000000 -1.529271 -1.259086 3.923969
6.200000 1.800000 6.040000 -0.672264 -9.225973 85.570526
6.200000 1.800000 6.080000 7.589705 -9.418639 146.314392
6.200000 1.800000 6.120000 11.757541 -0.238539 138.296661
6.200000 1.800000 6.160000 5.681494 9.076250 114.657692
6.200000 1.800000 6.200000 -5.141623 9.221044 111.463928
6.200000 1.840000 5.800000 18.865419 -40.487644 1995.153442
6.200000 1.840000 5.840000 31.755587 -22.441704 1512.047363
6.200000 1.840000 5.880000 28.093136 -1.638454 791.908813
6.200000 1.840000 5.920000 12.415121 8.198214 221.345947
6.200000 1.840000 5.960000 -1.758303 3.042352 12.347532
6.200000 1.840000 6.000000 -4.149152 -8.603016 91.227341
6.200000 1.840000 6.040000 3.716435 -14.550423 225.526688
6.200000 1.840000 6.080000 11.665569 -10.342731 243.057602
6.200000 1.840000 6.120000 11.812533 -2.029966 143.656708
6.200000 1.840000 6.160000 5.794359 1.650395 36.298405
6.200000 1.840000 6.200000 1.407564 -1.319137 3.721358
6.200000 1.880000 5.800000 39.561581 -7.190791 1616.826172
6.200000 1.880000 5.840000 30.087074 13.594379 1090.039185
6.200000 1.880000 5.880000 9.418749 20.181477 496.004822
6.200000 1.880000 5.920000 -7.173189 9.788689 147.273071
6.200000 1.880000 5.960000 -8.945179 -7.246071 132.521774
6.200000 1.880000 6.000000 2.022438 -17.205311 300.112976
6.200000 1.880000 6.040000 14.455531 -14.640903 423.318420
6.200000 1.880000 6.080000 18.981064 -5.205532 387.378357
6.200000 1.880000 6.120000 15.568399 1.804140 245.629974
6.200000 1.880000 6.160000 10.988798 2.658041 127.818871
6.200000 1.880000 6.200000 10.434304 1.143257 110.181740
6.200000 1.920000 5.800000 26.423523 32.604591 1761.261963
6.200000 1.920000 5.840000 -0.943374 36.734650 1350.324463
6.200000 1.920000 5.880000 -21.695833 19.365198 845.720093
6.200000 1.920000 5.920000 -22.143600 -5.974056 526.028381
6.200000 1.920000 5.960000 -5.010196 -21.172604 473.381195
6.200000 1.920000 6.000000 14.780720 -18.481625 560.040100
6.200000 1.920000 6.040000 23.980328 -4.650635 596.684509
6.200000 1.920000 6.080000 20.907812 7.787953 497.788818
6.200000 1.920000 6.120000 13.373028 12.108271 325.448090
6.200000 1.920000 6.160000 9.029875 10.886250 200.049072
6.200000 1.920000 6.200000 8.759168 10.189409 180.547073
6.200000 1.960000 5.800000 -13.698139 48.748558 2564.060791
6.200000 1.960000 5.840000 -40.305401 27.667845 2390.035156
6.200000 1.960000 5.880000 -42.615833 -6.133341 1853.727173
6.200000 1.960000 5.920000 -20.373013 -29.366879 1277.473145
6.200000 1.960000 5.960000 8.772739 -28.669788 898.917725
6.200000 1.960000 6.000000 25.375744 -9.699532 738.009338
6.200000 1.960000 6.040000 23.272156 10.832814 658.943115
6.200000 1.960000 6.080000 10.813566 20.450750 535.166382
6.200000 1.960000 6.120000 0.065001 18.891750 356.902435
6.200000 1.960000 6.160000 -3.686609 13.696112 201.174561
6.200000 1.960000 6.200000 -3.034587 10.939363 128.878387
6.200000 2.000000 5.800000 -51.613449 28.840618 3495.729492
6.200000 2.000000 5.840000 -59.520660 -8.028882 3607.171875
6.200000 2.000000 5.880000 -37.988987 -39.419060 2997.025391
6.200000 2.000000 5.920000 -2.101339 -45.161686 2043.993530
6.200000 2.000000 5.960000 24.069485 -25.101511 1209.426025
6.200000 2.000000 6.000000 26.937035 3.266095 736.271179
6.200000 2.000000 6.040000 11.452338 20.953327 570.197998
6.200000 2.000000 6.080000 -6.993192 21.470665 509.894165
6.200000 2.000000 6.120000 -16.579514 11.582121 409.025818
6.200000 2.000000 6.160000 -15.891472 1.777562 255.698608
6.200000 2.000000 6.200000 -10.348270 -2.358358 112.648552
6.200000 2.040000 5.800000 -60.344818 -10.564005 3753.095215
6.200000 2.040000 5.840000 -46.453129 -44.401756 4129.409180
6.200000 2.040000 5.880000 -11.864315 -58.651276 3580.734131
6.200000 2.040000 5.920000 21.306393 -44.581383 2441.461914
6.200000 2.040000 5.960000 33.185585 -13.867249 1293.583740
6.200000 2.040000 6.000000 20.769033 12.093365 577.602234
6.200000 2.040000 6.040000 -2.500329 19.050484 369.172577
6.200000 2.040000 6.080000 -19.460234 8.338981 448.239288
6.200000 2.040000 6.120000 -21.746624 -7.989508 536.747864
6.200000 2.040000 6.160000 -12.593424 -18.213104 490.311493
6.200000 2.040000 6.200000 -0.836044 -18.079342 327.561584
6.200000 2.080000 5.800000 -38.156143 -38.744125 2956.998535
6.200000 2.080000 5.840000 -14.513235 -57.507011 3517.690430
6.200000 2.080000 5.880000 17.082577 -54.478218 3259.690674
6.200000 2.080000 5.920000 37.237343 -30.577909 2321.628418
6.200000 2.080000 5.960000 34.491085 -1.568480 1192.094971
6.200000 2.080000 6.000000 13.755653 14.165810 389.888184
6.200000 2.080000 6.040000 -8.441271 9.222784 156.314789
6.200000 2.080000 6.080000 -17.050766 -8.815065 368.433990
6.200000 2.080000 6.120000 -8.782833 -24.910816 697.686951
6.200000 2.080000 6.160000 7.780090 -28.236465 857.827759
6.200000 2.080000 6.200000 20.416054 -18.526558 760.048584
6.200000 2.120000 5.800000 -8.380827 -38.103069 1522.082153
6.200000 2.120000 5.840000 10.866930 -44.857903 2130.321533
6.200000 2.120000 5.880000 31.947353 -35.430576 2275.958984
6.200000 2.120000 5.920000 40.729408 -13.075471 1829.852539
6.200000 2.120000 5.960000 30.877758 8.007223 1017.551514
6.200000 2.120000 6.000000 10.222266 13.642889 290.623138
6.200000 2.120000 6.040000 -4.949997 1.578336 26.993614
6.200000 2.120000 6.080000 -3.228744 -16.516382 283.215668
6.200000 2.120000 6.120000 12.760603 -24.965191 786.093750
6.200000 2.120000 6.160000 29.423214 -17.014065 1155.203857
6.200000 2.120000 6.200000 34.187923 0.718169 1169.329834
6.200000 2.160000 5.800000 3.431026 -18.204605 343.179596
6.200000 2.160000 5.840000 15.085474 -24.438646 824.818970
6.200000 2.160000 5.880000 30.175663 -17.812130 1227.842529
6.200000 2.160000 5.920000 35.280060 -0.288540 1244.765869
6.200000 2.160000 5.960000 24.854206 14.657678 832.579102
6.200000 2.160000 6.000000 8.022452 14.725664 281.204926
6.200000 2.160000 6.040000 0.521568 1.404316 2.244137
6.200000 2.160000 6.080000 9.322996 -10.859232 204.841187
6.200000 2.160000 6.120000 25.672096 -8.635483 733.628052
6.200000 2.160000 6.160000 33.845184 7.575020 1202.877441
6.200000 2.160000 6.200000 26.393698 24.623697 1302.953735
6.200000 2.200000 5.800000 -7.245627 -3.880257 67.555504
6.200000 2.200000 5.840000 4.936256 -15.697308 270.772095
6.200000 2.200000 5.880000 21.913271 -11.069001 602.714233
6.200000 2.200000 5.920000 27.204313 5.693349 772.488892
6.200000 2.200000 5.960000 16.856527 18.263493 617.697693
6.200000 2.200000 6.000000 3.248227 15.851451 261.819458
6.200000 2.200000 6.040000 1.192662 4.519652 21.849699
6.200000 2.200000 6.080000 11.767384 -0.088711 138.479187
6.200000 2.200000 6.120000 21.617949 9.760315 562.599426
6.200000 2.200000 6.160000 18.079201 25.716785 988.210571
6.200000 2.200000 6.200000 2.835560 33.146587 1106.736694
