#kx 	ky 	kz 	real 	imag 	intensity
6.800000 2.800000 2.800000 -27.039822 4.567834 752.017090
6.800000 2.800000 2.840000 -25.323195 -4.221001 659.080994
6.800000 2.800000 2.880000 -21.830551 -10.474586 586.289917
6.800000 2.800000 2.920000 -17.265451 -16.128515 558.224854
6.800000 2.800000 2.960000 -9.385702 -20.948948 526.949829
6.800000 2.800000 3.000000 2.228039 -20.947620 443.766937
6.800000 2.800000 3.040000 12.885275 -12.747733 328.535004
6.800000 2.800000 3.080000 15.893310 1.267544 254.203964
6.800000 2.800000 3.120000 9.034290 13.609110 266.826263
6.800000 2.800000 3.160000 -2.982944 18.110216 336.877869
6.800000 2.800000 3.200000 -13.191618 15.037357 400.140900
6.800000 2.840000 2.800000 -23.006432 -18.812351 883.200439
6.800000 2.840000 2.840000 -15.613818 -23.202543 782.149353
6.800000 2.840000 2.880000 -8.540591 -25.170198 706.480591
6.800000 2.840000 2.920000 -0.816521 -25.031441 627.239685
6.800000 2.840000 2.960000 6.803627 -20.881844 482.340729
6.800000 2.840000 3.000000 10.605257 -12.655434 272.631470
6.800000 2.840000 3.040000 7.980708 -4.643706 85.255714
6.800000 2.840000 3.080000 1.706795 -2.023017 7.005746
6.800000 2.840000 3.120000 -1.854511 -4.827711 26.746008
6.800000 2.840000 3.160000 0.195601 -7.018295 49.294731
6.800000 2.840000 3.200000 3.084608 -3.177647 19.612242
6.800000 2.880000 2.800000 -2.817575 -32.871090 1088.447266
6.800000 2.880000 2.840000 6.245929 -30.160130 948.645081
6.800000 2.880000 2.880000 13.286220 -25.552086 829.432739
6.800000 2.880000 2.920000 18.091381 -18.000391 651.312134
6.800000 2.880000 2.960000 17.180946 -8.487065 367.215179
6.800000 2.880000 3.000000 9.228583 -3.066866 94.572418
6.800000 2.880000 3.040000 0.506813 -7.513630 56.711494
6.800000 2.880000 3.080000 1.217730 -18.761673 353.483246
6.800000 2.880000 3.120000 14.367152 -24.463408 804.873413
6.800000 2.880000 3.160000 29.417442 -14.319401 1070.431152
6.800000 2.880000 3.200000 30.138050 7.487022 964.357544
6.800000 2.920000 2.800000 21.448996 -28.023693 1245.386841
6.800000 2.920000 2.840000 26.814768 -18.617931 1065.659180
6.800000 2.920000 2.880000 28.428518 -8.924543 887.828125
6.800000 2.920000 2.920000 24.690252 0.957542 610.525452
6.800000 2.920000 2.960000 14.037672 5.825511 230.992813
6.800000 2.920000 3.000000 2.623300 -1.102924 8.098145
6.800000 2.920000 3.040000 3.012204 -17.597017 318.728394
6.800000 2.920000 3.080000 21.398550 -28.615191 1276.727051
6.800000 2.920000 3.120000 46.578461 -18.023088 2494.384766
6.800000 2.920000 3.160000 55.747574 13.620529 3293.310791
6.800000 2.920000 3.200000 35.132607 44.713963 3233.638672
6.800000 2.960000 2.800000 34.294617 -7.288930 1229.249268
6.800000 2.960000 2.840000 31.662529 4.389706 1021.785278
6.800000 2.960000 2.880000 25.050737 12.926823 794.642151
6.800000 2.960000 2.920000 14.075844 16.491116 470.086243
6.800000 2.960000 2.960000 2.414515 9.887712 103.596748
6.800000 2.960000 3.000000 0.938267 -6.831217 47.545868
6.800000 2.960000 3.040000 18.218128 -20.896042 768.544800
6.800000 2.960000 3.080000 46.848534 -13.931757 2388.878906
6.800000 2.960000 3.120000 63.333847 19.315369 4384.259766
6.800000 2.960000 3.160000 47.025551 59.997299 5811.078125
6.800000 2.960000 3.200000 1.701351 77.162430 5956.935059
6.800000 3.000000 2.800000 27.912668 15.632464 1023.491028
6.800000 3.000000 2.840000 17.283674 22.527914 806.232300
6.800000 3.000000 2.880000 6.113626 22.808649 557.610901
6.800000 3.000000 2.920000 -3.245068 15.868483 262.339203
6.800000 3.000000 2.960000 -4.611239 1.915506 24.932693
6.800000 3.000000 3.000000 8.966814 -10.831386 197.722672
6.800000 3.000000 3.040000 34.184196 -7.198028 1220.370972
6.800000 3.000000 3.080000 52.509457 21.138754 3204.089844
6.800000 3.000000 3.120000 42.239128 61.937744 5620.428223
6.800000 3.000000 3.160000 -0.249675 86.417130 7467.982910
6.800000 3.000000 3.200000 -51.740978 72.130432 7879.928223
6.800000 3.040000 2.800000 7.422360 26.282354 745.853577
6.800000 3.040000 2.840000 -5.520842 22.876621 553.819458
6.800000 3.040000 2.880000 -12.410549 13.186579 327.907593
6.800000 3.040000 2.920000 -10.886512 1.096839 119.719193
6.800000 3.040000 2.960000 0.929760 -7.646624 59.335312
6.800000 3.040000 3.000000 20.159580 -3.962067 422.106628
6.800000 3.040000 3.040000 34.527870 18.234377 1524.666260
6.800000 3.040000 3.080000 27.400105 51.830837 3437.201660
6.800000 3.040000 3.120000 -7.429246 75.368011 5735.530762
6.800000 3.040000 3.160000 -54.974976 67.466736 7574.008301
6.800000 3.040000 3.200000 -86.270462 26.274134 8132.922852
6.800000 3.080000 2.800000 -13.675552 19.332035 560.748291
6.800000 3.080000 2.840000 -20.311487 6.014862 448.735077
6.800000 3.080000 2.880000 -15.482555 -7.317549 293.256042
6.800000 3.080000 2.920000 -1.958174 -13.229020 178.841415
6.800000 3.080000 2.960000 13.860146 -6.854897 239.093262
6.800000 3.080000 3.000000 22.511265 12.391877 660.315674
6.800000 3.080000 3.040000 14.274026 37.594124 1617.065918
6.800000 3.080000 3.080000 -13.749759 54.123772 3118.438477
6.800000 3.080000 3.120000 -51.300251 47.242821 4863.599609
6.800000 3.080000 3.160000 -77.890678 14.204539 6268.727051
6.800000 3.080000 3.200000 -76.318176 -30.127819 6732.149414
6.800000 3.120000 2.800000 -23.566698 0.889761 556.180969
6.800000 3.120000 2.840000 -18.059862 -15.469513 565.464478
6.800000 3.120000 2.880000 -1.713147 -22.273869 499.060089
6.800000 3.120000 2.920000 15.182287 -14.139093 430.415802
6.800000 3.120000 2.960000 21.396761 5.590629 489.076508
6.800000 3.120000 3.000000 10.745381 26.500303 817.729248
6.800000 3.120000 3.040000 -14.245996 36.036118 1501.550171
6.800000 3.120000 3.080000 -42.543648 26.045326 2488.320801
6.800000 3.120000 3.120000 -59.532078 -1.814926 3547.362305
6.800000 3.120000 3.160000 -55.274155 -35.566792 4320.229004
6.800000 3.120000 3.200000 -31.249073 -59.197495 4480.847656
6.800000 3.160000 2.800000 -19.436192 -17.662910 689.743896
6.800000 3.160000 2.840000 -2.852477 -28.180521 802.278381
6.800000 3.160000 2.880000 17.165037 -22.180576 786.616455
6.800000 3.160000 2.920000 26.165039 -1.981020 688.533691
6.800000 3.160000 2.960000 16.285963 19.417767 642.282227
6.800000 3.160000 3.000000 -7.732893 27.200445 799.661804
6.800000 3.160000 3.040000 -31.593538 14.975166 1222.407227
6.800000 3.160000 3.080000 -41.105309 -11.104929 1812.965820
6.800000 3.160000 3.120000 -31.277046 -36.942577 2343.007568
6.800000 3.160000 3.160000 -8.581831 -50.002884 2573.936035
6.800000 3.160000 3.200000 14.526331 -46.746319 2396.232666
6.800000 3.200000 2.800000 -6.947853 -28.247406 846.188599
6.800000 3.200000 2.840000 13.980181 -28.081642 984.024048
6.800000 3.200000 2.880000 28.540318 -11.078108 937.274231
6.800000 3.200000 2.920000 24.646103 11.879820 748.560486
6.800000 3.200000 2.960000 3.703764 23.661591 573.588745
6.800000 3.200000 3.000000 -19.403458 14.595030 589.509033
6.800000 3.200000 3.040000 -27.751108 -9.464857 859.707520
6.800000 3.200000 3.080000 -15.603174 -31.848522 1257.787354
6.800000 3.200000 3.120000 7.823047 -38.373428 1533.720093
6.800000 3.200000 3.160000 26.780968 -27.719074 1485.567383
6.800000 3.200000 3.200000 31.635267 -10.560576 1112.315918
6.840000 2.800000 2.800000 -29.828499 6.104871 927.008789
6.840000 2.800000 2.840000 -31.366356 -6.283541 1023.331177
6.840000 2.800000 2.880000 -25.816048 -19.029613 1028.594482
6.840000 2.800000 2.920000 -13.236668 -27.379894 924.867981
6.840000 2.800000 2.960000 2.576439 -26.925861 731.640076
6.840000 2.800000 3.000000 14.930435 -16.961676 510.616333
6.840000 2.800000 3.040000 18.189421 -2.125172 335.371368
6.840000 2.800000 3.080000 11.899433 10.186310 245.357422
6.840000 2.800000 3.120000 1.015232 15.043387 227.334198
6.840000 2.800000 3.160000 -8.487535 13.034220 241.929138
6.840000 2.800000 3.200000 -14.289914 8.072224 269.362427
6.840000 2.840000 2.800000 -21.124416 -16.998552 735.191772
6.840000 2.840000 2.840000 -11.136007 -24.413044 720.007385
6.840000 2.840000 2.880000 2.370811 -24.265331 594.427002
6.840000 2.840000 2.920000 12.646927 -15.131451 388.905579
6.840000 2.840000 2.960000 13.439306 -2.021358 184.700851
6.840000 2.840000 3.000000 4.906429 6.253685 63.181625
6.840000 2.840000 3.040000 -5.295606 4.361078 47.062443
6.840000 2.840000 3.080000 -8.229465 -4.191525 85.292984
6.840000 2.840000 3.120000 -2.171324 -9.795792 100.672180
6.840000 2.840000 3.160000 5.207283 -6.053108 63.755909
6.840000 2.840000 3.200000 4.181904 3.193626 27.687569
6.840000 2.880000 2.800000 2.460066 -25.357639 649.061829
6.840000 2.880000 2.840000 17.104092 -18.774887 645.046387
6.840000 2.880000 2.880000 24.394156 -1.605079 597.651123
6.840000 2.880000 2.920000 15.947824 17.422192 557.865845
6.840000 2.880000 2.960000 -5.839226 23.689281 595.278625
6.840000 2.880000 3.000000 -25.586189 9.375206 742.547546
6.840000 2.880000 3.040000 -26.109777 -16.626751 958.169312
6.840000 2.880000 3.080000 -4.540821 -33.439812 1138.839966
6.840000 2.880000 3.120000 22.591719 -25.898815 1181.134277
6.840000 2.880000 3.160000 32.472748 0.649193 1054.900879
6.840000 2.880000 3.200000 16.554026 23.657410 833.708801
6.840000 2.920000 2.800000 23.465834 -12.299540 701.924011
6.840000 2.920000 2.840000 29.495287 8.485858 941.981689
6.840000 2.920000 2.880000 17.159901 32.052959 1321.854370
6.840000 2.920000 2.920000 -13.221184 40.496273 1814.747803
6.840000 2.920000 2.960000 -43.571728 20.698811 2326.936279
6.840000 2.920000 3.000000 -48.675041 -19.483288 2748.857910
6.840000 2.920000 3.040000 -18.692198 -51.731186 3025.513672
6.840000 2.920000 3.080000 27.712521 -48.973721 3166.409180
6.840000 2.920000 3.120000 55.502304 -10.354225 3187.715820
6.840000 2.920000 3.160000 42.750774 35.119122 3060.981445
6.840000 2.920000 3.200000 0.552521 52.320450 2737.734619
6.840000 2.960000 2.800000 25.721092 11.907014 803.351562
6.840000 2.960000 2.840000 13.835505 35.287994 1436.663818
6.840000 2.960000 2.880000 -17.313187 46.241138 2437.989258
6.840000 2.960000 2.920000 -53.058628 28.260178 3613.855713
6.840000 2.960000 2.960000 -65.754120 -16.690517 4602.177734
6.840000 2.960000 3.000000 -37.357121 -61.032066 5120.467773
6.840000 2.960000 3.040000 19.437786 -69.402336 5194.511719
6.840000 2.960000 3.080000 65.153641 -29.640320 5123.545898
6.840000 2.960000 3.120000 64.289391 32.285633 5175.488281
6.840000 2.960000 3.160000 16.640038 70.895950 5303.126465
6.840000 2.960000 3.200000 -40.998016 59.053360 5168.136719
6.840000 3.000000 2.800000 7.776532 28.094133 849.754761
6.840000 3.000000 2.840000 -18.240080 38.437977 1810.178467
6.840000 3.000000 2.880000 -51.260139 25.417635 3273.657959
6.840000 3.000000 2.920000 -68.336929 -14.420839 4877.896484
6.840000 3.000000 2.960000 -48.080521 -61.107777 6045.896973
6.840000 3.000000 3.000000 6.388067 -79.802231 6409.203613
6.840000 3.000000 3.040000 61.289394 -48.969849 6154.436035
6.840000 3.000000 3.080000 75.104507 16.260487 5905.090332
6.840000 3.000000 3.120000 33.844906 70.859009 6166.476562
6.840000 3.000000 3.160000 -34.058369 75.229111 6819.391602
6.840000 3.000000 3.200000 -79.744141 28.423862 7167.043945
6.840000 3.040000 2.800000 -16.167364 23.822746 828.906921
6.840000 3.040000 2.840000 -40.959610 14.300513 1882.194336
6.840000 3.040000 2.880000 -55.973045 -15.621789 3377.021973
6.840000 3.040000 2.920000 -43.630272 -54.555191 4879.869141
6.840000 3.040000 2.960000 -0.736375 -76.138016 5797.540039
6.840000 3.040000 3.000000 50.445423 -57.414131 5841.123047
6.840000 3.040000 3.040000 73.198959 -2.004090 5362.104492
6.840000 3.040000 3.080000 45.469883 55.570683 5155.611328
6.840000 3.040000 3.120000 -18.136351 73.874817 5786.416016
6.840000 3.040000 3.160000 -74.364044 38.553677 7016.397461
6.840000 3.040000 3.200000 -85.336746 -24.741911 7894.522461
6.840000 3.080000 2.800000 -28.378559 2.754632 812.930603
6.840000 3.080000 2.840000 -37.029030 -18.530340 1714.522583
6.840000 3.080000 2.880000 -27.856575 -45.238731 2822.531738
6.840000 3.080000 2.920000 2.013955 -61.351742 3768.092041
6.840000 3.080000 2.960000 40.112522 -50.427788 4151.976074
6.840000 3.080000 3.000000 61.450539 -10.815958 3893.153564
6.840000 3.080000 3.040000 45.828674 36.442616 3428.331543
6.840000 3.080000 3.080000 -2.963455 58.851322 3472.260010
6.840000 3.080000 3.120000 -55.081139 37.397888 4432.534180
6.840000 3.080000 3.160000 -75.503204 -16.110147 5960.270508
6.840000 3.080000 3.200000 -51.514530 -66.634163 7093.858398
6.840000 3.120000 2.800000 -21.549932 -19.864271 858.988892
6.840000 3.120000 2.840000 -11.529533 -36.597046 1472.273926
6.840000 3.120000 2.880000 9.869328 -43.856186 2020.768677
6.840000 3.120000 2.920000 33.779903 -33.984688 2296.041016
6.840000 3.120000 2.960000 46.120880 -7.447103 2182.594727
6.840000 3.120000 3.000000 35.405060 23.490913 1805.341309
6.840000 3.120000 3.040000 2.849407 39.329803 1554.952637
6.840000 3.120000 3.080000 -34.363594 26.299442 1872.517212
6.840000 3.120000 3.120000 -52.571152 -11.493504 2895.826660
6.840000 3.120000 3.160000 -38.741142 -52.396557 4246.275391
6.840000 3.120000 3.200000 -1.056459 -72.105476 5200.315918
6.840000 3.160000 2.800000 -2.635705 -30.445541 933.877930
6.840000 3.160000 2.840000 15.312180 -31.611115 1233.725464
6.840000 3.160000 2.880000 30.441786 -19.514988 1307.537109
6.840000 3.160000 2.920000 33.632614 0.660019 1131.588379
6.840000 3.160000 2.960000 21.666277 18.470541 810.588440
6.840000 3.160000 3.000000 -0.480595 23.508881 552.898438
6.840000 3.160000 3.040000 -21.423580 11.246569 585.455078
6.840000 3.160000 3.080000 -29.079288 -13.537039 1028.856445
6.840000 3.160000 3.120000 -17.835140 -38.429085 1794.886719
6.840000 3.160000 3.160000 7.380562 -50.330090 2587.590576
6.840000 3.160000 3.200000 33.740723 -43.663933 3044.975586
6.840000 3.200000 2.800000 15.319506 -26.718302 948.554932
6.840000 3.200000 2.840000 27.691269 -14.319734 971.861145
6.840000 3.200000 2.880000 27.385620 3.872720 764.970154
6.840000 3.200000 2.920000 13.825115 16.168947 452.568665
6.840000 3.200000 2.960000 -4.372031 14.480635 228.803436
6.840000 3.200000 3.000000 -15.575207 -0.080986 242.593628
6.840000 3.200000 3.040000 -13.053268 -18.461027 511.197327
6.840000 3.200000 3.080000 1.256024 -30.213318 914.422180
6.840000 3.200000 3.120000 19.164499 -30.024618 1268.755737
6.840000 3.200000 3.160000 32.186600 -19.876209 1431.040894
6.840000 3.200000 3.200000 36.444767 -6.244429 1367.213989
6.880000 2.800000 2.800000 -35.547783 3.862901 1278.566895
6.880000 2.800000 2.840000 -35.509701 -14.890831 1482.675659
6.880000 2.800000 2.880000 -22.014807 -30.798323 1433.188354
6.880000 2.800000 2.920000 -0.678448 -34.220604 1171.510010
6.880000 2.800000 2.960000 17.058426 -23.121181 825.578979
6.880000 2.800000 3.000000 22.317783 -4.926582 522.354675
6.880000 2.800000 3.040000 15.218323 9.364006 319.281952
6.880000 2.800000 3.080000 3.644306 13.733829 201.899048
6.880000 2.800000 3.120000 -4.368013 10.615521 131.768829
6.880000 2.800000 3.160000 -7.118772 6.421541 91.913101
6.880000 2.800000 3.200000 -8.507607 4.195471 89.981361
6.880000 2.840000 2.800000 -21.555769 -16.688082 743.143250
6.880000 2.840000 2.840000 -6.374094 -22.498421 546.807983
6.880000 2.840000 2.880000 8.782326 -14.146155 277.242950
6.880000 2.840000 2.920000 11.537109 3.035570 142.319580
6.880000 2.840000 2.960000 -0.630589 14.918747 222.966660
6.880000 2.840000 3.000000 -16.858669 11.227776 410.277649
6.880000 2.840000 3.040000 -22.284134 -4.384331 515.804993
6.880000 2.840000 3.080000 -12.020435 -17.260839 442.427429
6.880000 2.840000 3.120000 3.971500 -15.551683 257.627686
6.880000 2.840000 3.160000 10.424736 -1.733944 111.681679
6.880000 2.840000 3.200000 1.754925 9.720954 97.576706
6.880000 2.880000 2.800000 1.978576 -17.413353 307.139618
6.880000 2.880000 2.840000 15.634060 -0.195669 244.462112
6.880000 2.880000 2.880000 8.383869 26.242140 758.939148
6.880000 2.880000 2.920000 -22.049921 38.582882 1974.837769
6.880000 2.880000 2.960000 -55.036163 20.026585 3430.043457
6.880000 2.880000 3.000000 -62.417210 -21.113049 4341.668945
6.880000 2.880000 3.040000 -34.267120 -54.976181 4196.616211
6.880000 2.880000 3.080000 9.843391 -55.234879 3147.784180
6.880000 2.880000 3.120000 36.591125 -22.913210 1863.925781
6.880000 2.880000 3.160000 28.099091 14.146940 989.694824
6.880000 2.880000 3.200000 -2.858494 26.388412 704.519287
6.880000 2.920000 2.800000 14.402088 0.754824 207.989914
6.880000 2.920000 2.840000 6.536720 32.263783 1083.680420
6.880000 2.920000 2.880000 -32.619644 50.441170 3608.352539
6.880000 2.920000 2.920000 -81.408058 28.166203 7420.606934
6.880000 2.920000 2.960000 -99.768372 -31.745548 10961.507812
6.880000 2.920000 3.000000 -64.318970 -91.042221 12425.615234
6.880000 2.920000 3.040000 6.322750 -105.101585 11086.320312
6.880000 2.920000 3.080000 63.077438 -62.212315 7849.135254
6.880000 2.920000 3.120000 67.196999 4.362133 4534.464844
6.880000 2.920000 3.160000 23.155228 44.592171 2524.626221
6.880000 2.920000 3.200000 -27.278404 34.558056 1938.370605
6.880000 2.960000 2.800000 5.059573 19.874769 420.605713
6.880000 2.960000 2.840000 -29.269611 42.587341 2670.391846
6.880000 2.960000 2.880000 -82.850296 27.532310 7622.199707
6.880000 2.960000 2.920000 -113.943977 -34.750580 14190.832031
6.880000 2.960000 2.960000 -85.426956 -110.911758 19599.183594
6.880000 2.960000 3.000000 -2.992096 -145.271576 21112.783203
6.880000 2.960000 3.040000 81.309021 -106.953476 18050.203125
6.880000 2.960000 3.080000 109.171806 -20.349262 12332.576172
6.880000 2.960000 3.120000 65.374321 52.507011 7030.788086
6.880000 2.960000 3.160000 -9.736899 63.746521 4158.426270
6.880000 2.960000 3.200000 -56.764481 18.202881 3553.551270
6.880000 3.000000 2.800000 -16.892616 21.231411 736.133301
6.880000 3.000000 2.840000 -61.185200 16.764776 4024.686279
6.880000 3.000000 2.880000 -97.171600 -32.013062 10467.156250
6.880000 3.000000 2.920000 -83.646973 -106.843750 18412.402344
6.880000 3.000000 2.960000 -9.602343 -155.965546 24417.457031
6.880000 3.000000 3.000000 85.526817 -134.633911 25441.125000
6.880000 3.000000 3.040000 137.187286 -47.829285 21107.992188
6.880000 3.000000 3.080000 108.793594 47.342133 14077.323242
6.880000 3.000000 3.120000 24.320465 86.530159 8078.953125
6.880000 3.000000 3.160000 -51.544479 51.030518 5260.947266
6.880000 3.000000 3.200000 -68.269424 -19.823538 5053.687012
6.880000 3.040000 2.800000 -31.028351 2.186678 967.540100
6.880000 3.040000 2.840000 -60.431995 -26.935564 4377.550781
6.880000 3.040000 2.880000 -59.290794 -83.611237 10506.237305
6.880000 3.040000 2.920000 -7.311976 -132.524521 17616.212891
6.880000 3.040000 2.960000 76.240097 -129.409088 22559.265625
6.880000 3.040000 3.000000 138.046875 -61.324837 22817.675781
6.880000 3.040000 3.040000 131.421890 34.072014 18432.615234
6.880000 3.040000 3.080000 57.859344 93.562149 12101.580078
6.880000 3.040000 3.120000 -30.576216 79.248688 7215.259277
6.880000 3.040000 3.160000 -73.174011 9.546448 5445.570801
6.880000 3.040000 3.200000 -49.542957 -58.585430 5886.757324
6.880000 3.080000 2.800000 -24.123276 -22.145164 1072.340820
6.880000 3.080000 2.840000 -26.387543 -54.845390 3704.319336
6.880000 3.080000 2.880000 2.862721 -89.275162 7978.250000
6.880000 3.080000 2.920000 59.768734 -94.857712 12570.287109
6.880000 3.080000 2.960000 112.303696 -52.763474 15396.104492
6.880000 3.080000 3.000000 120.609520 21.280293 14999.506836
6.880000 3.080000 3.040000 71.085030 81.771317 11739.629883
6.880000 3.080000 3.080000 -7.083183 87.274765 7667.056152
6.880000 3.080000 3.120000 -61.766930 35.138119 5049.840820
6.880000 3.080000 3.160000 -59.080933 -35.270439 4734.560547
6.880000 3.080000 3.200000 -9.346554 -75.058296 5721.105957
6.880000 3.120000 2.800000 -1.003947 -33.182953 1102.116333
6.880000 3.120000 2.840000 14.419102 -48.568459 2566.805664
6.880000 3.120000 2.880000 44.086754 -51.139645 4558.905273
6.880000 3.120000 2.920000 74.566742 -28.978004 6399.923828
6.880000 3.120000 2.960000 83.656853 14.697945 7214.499023
6.880000 3.120000 3.000000 57.390530 57.134140 6557.982910
6.880000 3.120000 3.040000 5.582027 69.538727 4866.793945
6.880000 3.120000 3.080000 -40.606621 40.183937 3263.646484
6.880000 3.120000 3.120000 -50.832420 -13.318527 2761.318115
6.880000 3.120000 3.160000 -19.619942 -55.744896 3492.435547
6.880000 3.120000 3.200000 29.415482 -61.394474 4634.552246
6.880000 3.160000 2.800000 21.550745 -24.835751 1081.249146
6.880000 3.160000 2.840000 34.229538 -19.224606 1541.246704
6.880000 3.160000 2.880000 43.193863 -5.336296 1894.185913
6.880000 3.160000 2.920000 42.606373 13.987431 2010.951172
6.880000 3.160000 2.960000 28.727146 31.270950 1803.121216
6.880000 3.160000 3.000000 4.360924 36.236122 1332.074219
6.880000 3.160000 3.040000 -19.186584 22.369797 868.532837
6.880000 3.160000 3.080000 -27.290970 -5.979885 780.556091
6.880000 3.160000 3.120000 -12.519348 -33.461281 1276.391479
6.880000 3.160000 3.160000 18.137369 -43.229198 2197.727783
6.880000 3.160000 3.200000 46.962765 -29.355907 3067.270508
6.880000 3.200000 2.800000 30.511032 -6.452046 972.552002
6.880000 3.200000 2.840000 28.083496 6.950834 836.996826
6.880000 3.200000 2.880000 17.569241 15.039494 534.864624
6.880000 3.200000 2.920000 5.367226 14.187122 230.081558
6.880000 3.200000 2.960000 -2.521652 6.486127 48.428577
6.880000 3.200000 3.000000 -3.930321 -3.509253 27.762276
6.880000 3.200000 3.040000 0.327047 -12.316490 151.802887
6.880000 3.200000 3.080000 8.914897 -18.007587 403.748596
6.880000 3.200000 3.120000 20.494194 -18.728737 770.777588
6.880000 3.200000 3.160000 32.292236 -12.582744 1201.114014
6.880000 3.200000 3.200000 39.723618 0.246157 1578.026367
6.920000 2.800000 2.800000 -39.233398 -3.056278 1548.600342
6.920000 2.800000 2.840000 -32.589428 -25.341516 1704.263184
6.920000 2.800000 2.880000 -10.795708 -37.503510 1523.060547
6.920000 2.800000 2.920000 13.310944 -31.129967 1146.256104
6.920000 2.800000 2.960000 25.209904 -11.288040 762.959106
6.920000 2.800000 3.000000 20.377975 7.899811 477.668884
6.920000 2.800000 3.040000 6.965813 15.373714 284.873627
6.920000 2.800000 3.080000 -2.824970 11.622702 143.067642
6.920000 2.800000 3.120000 -3.927822 5.813601 49.225739
6.920000 2.800000 3.160000 -1.274521 5.229597 28.973091
6.920000 2.800000 3.200000 -2.250938 8.207155 72.424126
6.920000 2.840000 2.800000 -22.212036 -17.645470 804.737183
6.920000 2.840000 2.840000 -5.566105 -17.341074 331.694397
6.920000 2.840000 2.880000 2.708931 -2.741997 14.856853
6.920000 2.840000 2.920000 -6.366718 11.899807 182.140503
6.920000 2.840000 2.960000 -24.806288 10.900612 734.175293
6.920000 2.840000 3.000000 -34.361450 -7.070557 1230.702026
6.920000 2.840000 3.040000 -24.002972 -26.690430 1288.521729
6.920000 2.840000 3.080000 -1.077667 -30.140444 909.607727
6.920000 2.840000 3.120000 15.276525 -14.182991 434.529480
6.920000 2.840000 3.160000 12.277268 6.727699 195.993256
6.920000 2.840000 3.200000 -4.532621 14.460056 229.637894
6.920000 2.880000 2.800000 -4.280710 -12.290768 169.387451
6.920000 2.880000 2.840000 -2.643303 11.916850 148.998367
6.920000 2.880000 2.880000 -29.696634 30.301010 1800.041260
6.920000 2.880000 2.920000 -69.132957 16.147751 5040.115723
6.920000 2.880000 2.960000 -86.001854 -31.082561 8362.444336
6.920000 2.880000 3.000000 -58.692135 -80.010399 9846.430664
6.920000 2.880000 3.040000 -1.607582 -92.946716 8641.675781
6.920000 2.880000 3.080000 45.053085 -59.828453 5609.224609
6.920000 2.880000 3.120000 50.118675 -7.734905 2571.710449
6.920000 2.880000 3.160000 18.063850 23.608946 883.685059
6.920000 2.880000 3.200000 -17.586323 16.857361 593.449341
6.920000 2.920000 2.800000 -2.328163 3.060280 14.785656
6.920000 2.920000 2.840000 -32.226299 29.222887 1892.511475
6.920000 2.920000 2.880000 -86.659241 16.918015 7796.043457
6.920000 2.920000 2.920000 -119.667694 -46.475807 16480.357422
6.920000 2.920000 2.960000 -90.550903 -125.546814 23961.468750
6.920000 2.920000 3.000000 -5.642914 -161.542969 26127.972656
6.920000 2.920000 3.040000 80.614250 -123.727760 21807.214844
6.920000 2.920000 3.080000 110.183693 -38.757881 13642.619141
6.920000 2.920000 3.120000 70.943336 31.470661 6023.359375
6.920000 2.920000 3.160000 4.556997 43.329216 1898.187134
6.920000 2.920000 3.200000 -33.658028 5.933916 1168.074097
6.920000 2.960000 2.800000 -16.129496 8.998594 341.135315
6.920000 2.960000 2.840000 -68.372719 9.316257 4761.621094
6.920000 2.960000 2.880000 -114.608612 -47.870461 15426.714844
6.920000 2.960000 2.920000 -99.731804 -140.333191 29639.835938
6.920000 2.960000 2.960000 -9.231083 -202.032593 40902.382812
6.920000 2.960000 3.000000 107.135040 -177.905701 43128.355469
6.920000 2.960000 3.040000 171.278336 -76.118965 35130.363281
6.920000 2.960000 3.080000 142.711731 34.236488 21538.775391
6.920000 2.960000 3.120000 52.831139 80.812561 9321.798828
6.920000 2.960000 3.160000 -24.943933 47.805260 2907.542480
6.920000 2.960000 3.200000 -40.027279 -17.374046 1904.040527
6.920000 3.000000 2.800000 -28.698984 -3.851772 838.467834
6.920000 3.000000 2.840000 -74.380173 -38.186718 6990.635742
6.920000 3.000000 2.880000 -78.709747 -118.687332 20281.906250
6.920000 3.000000 2.920000 -7.395914 -192.418808 37079.695312
6.920000 3.000000 2.960000 112.347107 -192.591095 49713.199219
6.920000 3.000000 3.000000 203.379700 -100.282257 51419.832031
6.920000 3.000000 3.040000 200.885803 30.720009 41298.824219
6.920000 3.000000 3.080000 109.343887 114.465118 25058.349609
6.920000 3.000000 3.120000 -0.529051 104.079529 10832.828125
6.920000 3.000000 3.160000 -53.040623 27.798676 3586.073975
6.920000 3.000000 3.200000 -29.320316 -42.313744 2650.133789
6.920000 3.040000 2.800000 -23.298042 -25.367126 1186.289795
6.920000 3.040000 2.840000 -38.545597 -76.010101 7263.298828
6.920000 3.040000 2.880000 1.497814 -139.714203 19522.302734
6.920000 3.040000 2.920000 95.761887 -158.975601 34443.582031
6.920000 3.040000 2.960000 189.523132 -96.453850 45222.363281
6.920000 3.040000 3.000000 213.488785 23.564646 46132.753906
6.920000 3.040000 3.040000 143.982239 126.434357 36716.531250
6.920000 3.040000 3.080000 27.489742 146.516479 22222.763672
6.920000 3.040000 3.120000 -56.364731 81.522499 9822.900391
6.920000 3.040000 3.160000 -60.540485 -8.632151 3739.664307
6.920000 3.040000 3.200000 -4.638354 -56.318462 3193.283691
6.920000 3.080000 2.800000 0.021038 -35.872429 1286.831665
6.920000 3.080000 2.840000 14.099113 -73.932922 5664.862305
6.920000 3.080000 2.880000 68.747360 -96.157341 13972.433594
6.920000 3.080000 2.920000 139.090942 -66.152321 23722.419922
6.920000 3.080000 2.960000 173.667282 17.486038 30466.085938
6.920000 3.080000 3.000000 136.587784 109.516174 30650.015625
6.920000 3.080000 3.040000 43.094116 149.528961 24216.013672
6.920000 3.080000 3.080000 -47.462681 111.781448 14747.797852
6.920000 3.080000 3.120000 -78.483093 27.682314 6925.906250
6.920000 3.080000 3.160000 -41.111961 -40.916473 3364.351074
6.920000 3.080000 3.200000 23.260105 -53.071770 3357.645264
6.920000 3.120000 2.800000 24.699726 -25.025253 1236.339844
6.920000 3.120000 2.840000 45.584450 -36.154339 3385.078369
6.920000 3.120000 2.880000 80.424866 -25.950617 7141.593750
6.920000 3.120000 2.920000 105.239952 15.848011 11326.606445
6.920000 3.120000 2.960000 92.816254 73.458977 14011.078125
6.920000 3.120000 3.000000 38.423561 110.876244 13769.911133
6.920000 3.120000 3.040000 -29.839367 99.349709 10760.751953
6.920000 3.120000 3.080000 -69.439735 43.319138 6698.424805
6.920000 3.120000 3.120000 -56.892136 -20.299894 3648.800781
6.920000 3.120000 3.160000 -6.470364 -50.804123 2622.924561
6.920000 3.120000 3.200000 42.971851 -35.222450 3087.200928
6.920000 3.160000 2.800000 33.666054 -0.824005 1134.082153
6.920000 3.160000 2.840000 39.665756 5.303406 1601.498291
6.920000 3.160000 2.880000 44.197029 18.458349 2294.088135
6.920000 3.160000 2.920000 39.431961 37.845806 2987.184570
6.920000 3.160000 2.960000 19.412880 54.155258 3309.651855
6.920000 3.160000 3.000000 -11.332314 53.802574 3023.138428
6.920000 3.160000 3.040000 -36.571869 30.567165 2271.853271
6.920000 3.160000 3.080000 -38.901726 -5.750599 1546.413574
6.920000 3.160000 3.120000 -14.377039 -33.651360 1339.113159
6.920000 3.160000 3.160000 22.328987 -35.567245 1763.612549
6.920000 3.160000 3.200000 48.276752 -11.604069 2465.299316
6.920000 3.200000 2.800000 24.474030 19.325985 972.471802
6.920000 3.200000 2.840000 12.955173 22.465132 672.518677
6.920000 3.200000 2.880000 3.483974 17.860052 331.119568
6.920000 3.200000 2.920000 0.211548 10.583414 112.053406
6.920000 3.200000 2.960000 0.960411 5.748844 33.971600
6.920000 3.200000 3.000000 1.258747 3.116852 11.299210
6.920000 3.200000 3.040000 0.737221 -1.333740 2.322357
6.920000 3.200000 3.080000 4.127186 -8.783638 94.185959
6.920000 3.200000 3.120000 15.232178 -13.868752 424.361511
6.920000 3.200000 3.160000 30.549408 -8.888988 1012.280396
6.920000 3.200000 3.200000 40.141087 7.941217 1674.369873
6.960000 2.800000 2.800000 -37.906860 -10.704168 1551.509277
6.960000 2.800000 2.840000 -24.344391 -30.925741 1549.050781
6.960000 2.800000 2.880000 0.465012 -35.491951 1259.894775
6.960000 2.800000 2.920000 20.533047 -21.431889 880.931885
6.960000 2.800000 2.960000 24.096237 0.361771 580.759521
6.960000 2.800000 3.000000 13.039154 14.764740 388.017090
6.960000 2.800000 3.040000 -0.151749 15.403442 237.289062
6.960000 2.800000 3.080000 -4.741112 8.741065 98.884361
6.960000 2.800000 3.120000 -1.131721 5.828369 35.250679
6.960000 2.800000 3.160000 1.644862 10.594521 114.949440
6.960000 2.800000 3.200000 -3.040760 16.750195 289.815247
6.960000 2.840000 2.800000 -23.336958 -18.995113 905.427917
6.960000 2.840000 2.840000 -11.472431 -14.334522 337.095215
6.960000 2.840000 2.880000 -12.471756 -2.944374 164.214035
6.960000 2.840000 2.920000 -25.418287 -0.703392 646.584106
6.960000 2.840000 2.960000 -35.303795 -14.674881 1461.710083
6.960000 2.840000 3.000000 -27.771210 -34.754017 1979.081787
6.960000 2.840000 3.040000 -4.152000 -42.418289 1816.550415
6.960000 2.840000 3.080000 18.473381 -28.515972 1154.426514
6.960000 2.840000 3.120000 22.736002 -2.552261 523.439819
6.960000 2.840000 3.160000 7.014311 15.808956 299.123657
6.960000 2.840000 3.200000 -13.531193 14.785953 401.717590
6.960000 2.880000 2.800000 -13.998972 -14.309898 400.744415
6.960000 2.880000 2.840000 -27.187218 3.480549 751.259033
6.960000 2.880000 2.880000 -60.445526 -1.850204 3657.084961
6.960000 2.880000 2.920000 -82.135117 -42.484219 8551.085938
6.960000 2.880000 2.960000 -62.146133 -95.455055 12973.809570
6.960000 2.880000 3.000000 -3.295670 -119.553360 14303.867188
6.960000 2.880000 3.040000 56.870449 -92.484207 11787.576172
6.960000 2.880000 3.080000 77.616745 -32.443111 7076.914062
6.960000 2.880000 3.120000 50.377033 17.388044 2840.189453
6.960000 2.880000 3.160000 4.289946 26.763071 734.665588
6.960000 2.880000 3.200000 -22.348690 2.439613 505.415680
6.960000 2.920000 2.800000 -16.596624 -9.783226 371.159454
6.960000 2.920000 2.840000 -57.931709 -7.106628 3406.587158
6.960000 2.920000 2.880000 -96.673538 -54.981815 12368.773438
6.960000 2.920000 2.920000 -82.402725 -134.610535 24910.205078
6.960000 2.920000 2.960000 -1.895050 -186.953888 34955.347656
6.960000 2.920000 3.000000 100.123825 -163.699768 36822.394531
6.960000 2.920000 3.040000 155.121796 -73.651962 29487.382812
6.960000 2.920000 3.080000 129.775330 21.788597 17316.378906
6.960000 2.920000 3.120000 53.762295 61.354317 6654.736328
6.960000 2.920000 3.160000 -9.668712 34.826660 1306.380249
6.960000 2.920000 3.200000 -20.637112 -15.118266 654.452332
6.960000 2.960000 2.800000 -22.112505 -16.719664 768.510010
6.960000 2.960000 2.840000 -68.582733 -48.599190 7065.472656
6.960000 2.960000 2.880000 -73.253174 -130.807770 22476.699219
6.960000 2.960000 2.920000 1.622494 -206.583252 42679.273438
6.960000 2.960000 2.960000 126.528259 -205.017578 58041.609375
6.960000 2.960000 3.000000 219.927994 -108.011505 60034.808594
6.960000 2.960000 3.040000 216.449661 26.363739 47545.503906
6.960000 2.960000 3.080000 124.553970 110.397461 27701.291016
6.960000 2.960000 3.120000 18.029720 100.853683 10496.537109
6.960000 2.960000 3.160000 -30.211044 30.892328 1867.043213
6.960000 2.960000 3.200000 -8.141976 -27.888529 844.061768
6.960000 3.000000 2.800000 -16.059742 -31.425053 1245.449219
6.960000 3.000000 2.840000 -37.748611 -89.804962 9489.888672
6.960000 3.000000 2.880000 8.689156 -167.595062 28163.607422
6.960000 3.000000 2.920000 122.976730 -191.713852 51877.476562
6.960000 3.000000 2.960000 236.646255 -115.993103 69455.851562
6.960000 3.000000 3.000000 265.492401 28.033218 71272.078125
6.960000 3.000000 3.040000 184.130814 149.627777 56292.628906
6.960000 3.000000 3.080000 51.032837 173.949844 32862.898438
6.960000 3.000000 3.120000 -41.674385 104.013748 12555.613281
6.960000 3.000000 3.160000 -46.300507 11.695387 2280.518799
6.960000 3.000000 3.200000 7.740402 -30.727943 1004.120300
6.960000 3.040000 2.800000 4.943510 -38.208935 1484.360962
6.960000 3.040000 2.840000 18.585308 -94.210175 9220.970703
6.960000 3.040000 2.880000 94.765182 -130.780090 26083.871094
6.960000 3.040000 2.920000 196.948471 -91.334808 47130.746094
6.960000 3.040000 2.960000 248.717316 26.394373 62556.968750
6.960000 3.040000 3.000000 199.212006 156.076691 64045.355469
6.960000 3.040000 3.040000 72.745766 213.228821 50758.476562
6.960000 3.040000 3.080000 -47.454781 166.526886 29983.160156
6.960000 3.040000 3.120000 -88.699493 62.979691 11834.041016
6.960000 3.040000 3.160000 -46.764534 -16.325844 2453.454834
6.960000 3.040000 3.200000 20.253857 -26.325787 1103.265747
6.960000 3.080000 2.800000 27.947145 -25.615969 1437.220825
6.960000 3.080000 2.840000 60.176247 -55.190338 6667.154297
6.960000 3.080000 2.880000 125.430099 -46.186134 17865.869141
6.960000 3.080000 2.920000 176.442612 24.163635 31715.876953
6.960000 3.080000 2.960000 160.889160 126.348175 41849.183594
6.960000 3.080000 3.000000 71.070412 194.579254 42912.089844
6.960000 3.080000 3.040000 -42.072006 180.494537 34348.332031
6.960000 3.080000 3.080000 -107.867203 95.743889 20802.226562
6.960000 3.080000 3.120000 -93.687714 2.540770 8783.842773
6.960000 3.080000 3.160000 -28.362602 -39.371319 2354.537842
6.960000 3.080000 3.200000 28.663645 -19.572636 1204.692627
6.960000 3.120000 2.800000 35.585480 1.080712 1267.494385
6.960000 3.120000 2.840000 59.595188 -2.246124 3556.631592
6.960000 3.120000 2.880000 88.926048 24.390556 8502.741211
6.960000 3.120000 2.920000 91.439354 79.103188 14618.469727
6.960000 3.120000 2.960000 47.369766 129.925781 19124.603516
6.960000 3.120000 3.000000 -27.583633 137.621384 19700.501953
6.960000 3.120000 3.040000 -89.416672 89.937241 16084.048828
6.960000 3.120000 3.080000 -100.038177 15.157429 10237.384766
6.960000 3.120000 3.120000 -58.331009 -39.341728 4950.278320
6.960000 3.120000 3.160000 0.386799 -44.886528 2014.950073
6.960000 3.120000 3.200000 35.322784 -11.415541 1378.013672
6.960000 3.160000 2.800000 22.801384 24.270313 1108.951172
6.960000 3.160000 2.840000 25.878311 27.376900 1419.181641
6.960000 3.160000 2.880000 27.065208 39.828987 2318.873779
6.960000 3.160000 2.920000 15.401962 57.392845 3531.159180
6.960000 3.160000 2.960000 -12.376518 65.715134 4471.657227
6.960000 3.160000 3.000000 -44.634232 51.397556 4633.923340
6.960000 3.160000 3.040000 -60.919067 15.592560 3954.260742
6.960000 3.160000 3.080000 -48.077736 -23.274765 2853.183350
6.960000 3.160000 3.120000 -12.405602 -42.072495 1923.993774
6.960000 3.160000 3.160000 23.934023 -30.764126 1519.268921
6.960000 3.160000 3.200000 39.604858 0.253901 1568.609253
6.960000 3.200000 2.800000 1.155958 30.566597 935.653076
6.960000 3.200000 2.840000 -7.811085 22.244175 555.816345
6.960000 3.200000 2.880000 -8.830647 11.851322 218.434158
6.960000 3.200000 2.920000 -4.297859 6.306131 58.238884
6.960000 3.200000 2.960000 -1.363361 6.634533 45.875782
6.960000 3.200000 3.000000 -3.843752 6.706726 59.754604
6.960000 3.200000 3.040000 -7.180813 0.273720 51.638992
6.960000 3.200000 3.080000 -2.664505 -10.796436 123.662621
6.960000 3.200000 3.120000 12.629677 -16.379868 427.808777
6.960000 3.200000 3.160000 30.508287 -7.316143 984.281555
6.960000 3.200000 3.200000 37.245750 14.707520 1603.557129
7.000000 2.800000 2.800000 -33.704845 -14.810299 1355.361572
7.000000 2.800000 2.840000 -17.333485 -30.108772 1206.987793
7.000000 2.800000 2.880000 5.282419 -29.260693 884.092041
7.000000 2.800000 2.920000 19.904324 -13.359940 574.670105
7.000000 2.800000 2.960000 18.937355 5.806496 392.338806
7.000000 2.800000 3.000000 7.249924 15.901812 305.429016
7.000000 2.800000 3.040000 -3.294701 14.406953 218.415344
7.000000 2.800000 3.080000 -5.334175 9.312008 115.166916
7.000000 2.800000 3.120000 -2.229006 9.764414 100.312248
7.000000 2.800000 3.160000 -3.011219 16.429417 278.993164
7.000000 2.800000 3.200000 -11.798088 21.457972 599.639404
7.000000 2.840000 2.800000 -25.676146 -22.018885 1144.095703
7.000000 2.840000 2.840000 -19.823036 -20.041115 794.598999
7.000000 2.840000 2.880000 -22.208656 -19.108452 858.357361
7.000000 2.840000 2.920000 -25.402798 -27.125183 1381.077637
7.000000 2.840000 2.960000 -18.350533 -40.408089 1969.555664
7.000000 2.840000 3.000000 1.158546 -46.142262 2130.450684
7.000000 2.840000 3.040000 22.268578 -34.744270 1703.053833
7.000000 2.840000 3.080000 29.788857 -10.131142 990.015991
7.000000 2.840000 3.120000 17.836142 12.419266 472.366119
7.000000 2.840000 3.160000 -4.680359 19.100361 386.729553
7.000000 2.840000 3.200000 -21.905876 9.068375 562.102844
7.000000 2.880000 2.800000 -20.651028 -25.707626 1087.347046
7.000000 2.880000 2.840000 -37.621330 -24.991728 2039.950928
7.000000 2.880000 2.880000 -54.544834 -51.123260 5588.726562
7.000000 2.880000 2.920000 -42.109550 -94.370575 10679.019531
7.000000 2.880000 2.960000 7.468491 -120.679916 14619.420898
7.000000 2.880000 3.000000 67.684250 -102.194313 15024.835938
7.000000 2.880000 3.040000 98.159569 -44.973320 11657.900391
7.000000 2.880000 3.080000 79.814598 13.910095 6563.860840
7.000000 2.880000 3.120000 31.142488 37.966209 2411.287598
7.000000 2.880000 3.160000 -9.656130 21.455519 553.580139
7.000000 2.880000 3.200000 -18.623693 -9.829874 443.468384
7.000000 2.920000 2.800000 -16.194481 -32.405346 1312.367676
7.000000 2.920000 2.840000 -45.891579 -54.853462 5114.939453
7.000000 2.920000 2.880000 -45.123634 -114.149017 15066.140625
7.000000 2.920000 2.920000 14.631622 -167.070312 28126.574219
7.000000 2.920000 2.960000 109.743446 -160.243744 37721.679688
7.000000 2.920000 3.000000 177.697998 -82.019424 38303.765625
7.000000 2.920000 3.040000 170.540588 21.317822 29538.541016
7.000000 2.920000 3.080000 97.782074 83.328682 16505.003906
7.000000 2.920000 3.120000 17.031799 74.003067 5766.536133
7.000000 2.920000 3.160000 -18.034054 21.346233 780.888794
7.000000 2.920000 3.200000 -1.677841 -20.392204 418.657166
7.000000 2.960000 2.800000 -4.579216 -40.750576 1681.578735
7.000000 2.960000 2.840000 -21.592857 -90.023056 8570.402344
7.000000 2.960000 2.880000 22.125284 -156.760529 25063.390625
7.000000 2.960000 2.920000 125.843948 -174.039764 46126.539062
7.000000 2.960000 2.960000 226.135635 -101.233192 61385.484375
7.000000 2.960000 3.000000 247.516174 30.280876 62181.187500
7.000000 2.960000 3.040000 170.693253 137.410080 48017.714844
7.000000 2.960000 3.080000 51.809372 155.666321 26916.214844
7.000000 2.960000 3.120000 -27.120129 92.852203 9357.032227
7.000000 2.960000 3.160000 -28.639135 15.619043 1064.154541
7.000000 2.960000 3.200000 15.770035 -15.065395 475.660156
7.000000 3.000000 2.800000 15.954187 -40.747890 1914.926758
7.000000 3.000000 2.840000 29.506525 -97.214935 10321.377930
7.000000 3.000000 2.880000 109.391586 -133.785675 29865.126953
7.000000 3.000000 2.920000 215.827179 -89.652847 54619.003906
7.000000 3.000000 2.960000 267.047455 35.735424 72591.367188
7.000000 3.000000 3.000000 211.681595 170.074005 73734.265625
7.000000 3.000000 3.040000 79.557373 225.850418 57337.785156
7.000000 3.000000 3.080000 -40.873058 175.721909 32548.796875
7.000000 3.000000 3.120000 -78.581482 73.473366 11573.384766
7.000000 3.000000 3.160000 -36.860825 1.596985 1361.270752
7.000000 3.000000 3.200000 20.996317 -1.656193 443.588318
7.000000 3.040000 2.800000 35.366470 -24.412291 1846.747192
7.000000 3.040000 2.840000 73.637871 -62.254074 9298.105469
7.000000 3.040000 2.880000 154.825806 -51.661453 26639.935547
7.000000 3.040000 2.920000 217.604752 36.222473 48663.894531
7.000000 3.040000 2.960000 196.518036 162.030029 64873.070312
7.000000 3.040000 3.000000 85.548561 243.018341 66376.468750
7.000000 3.040000 3.040000 -49.079552 223.374420 52304.933594
7.000000 3.040000 3.080000 -122.994797 123.624687 30410.783203
7.000000 3.040000 3.120000 -104.515991 21.177155 11372.064453
7.000000 3.040000 3.160000 -35.394257 -18.660248 1600.958252
7.000000 3.040000 3.200000 15.064125 5.579140 258.054657
7.000000 3.080000 2.800000 39.290062 3.417574 1555.388794
7.000000 3.080000 2.840000 78.889206 -6.191616 6261.842773
7.000000 3.080000 2.880000 128.109161 34.242653 17584.515625
7.000000 3.080000 2.920000 133.477081 119.741928 32154.259766
7.000000 3.080000 2.960000 65.945786 197.012253 43162.675781
7.000000 3.080000 3.000000 -45.429863 206.583221 44740.500000
7.000000 3.080000 3.040000 -132.355377 136.173676 36061.214844
7.000000 3.080000 3.080000 -143.930832 33.638676 21847.644531
7.000000 3.080000 3.120000 -88.167961 -33.982052 8928.369141
7.000000 3.080000 3.160000 -19.908463 -36.300495 1714.072876
7.000000 3.080000 3.200000 10.656982 1.791648 116.781273
7.000000 3.120000 2.800000 23.072420 26.668400 1243.540039
7.000000 3.120000 2.840000 44.670387 32.711040 3065.455566
7.000000 3.120000 2.880000 56.734940 68.871140 7962.086914
7.000000 3.120000 2.920000 30.932461 116.286751 14479.425781
7.000000 3.120000 2.960000 -32.941864 136.243073 19647.341797
7.000000 3.120000 3.000000 -100.371674 103.739319 20836.320312
7.000000 3.120000 3.040000 -128.273285 32.253471 17494.322266
7.000000 3.120000 3.080000 -100.983322 -35.036423 11425.182617
7.000000 3.120000 3.120000 -42.656670 -60.374664 5464.691406
7.000000 3.120000 3.160000 4.895733 -40.430641 1658.604980
7.000000 3.120000 3.200000 16.998341 -3.574614 301.721436
7.000000 3.160000 2.800000 -2.434511 31.765324 1014.962585
7.000000 3.160000 2.840000 1.056242 33.391960 1116.138550
7.000000 3.160000 2.880000 -2.227520 44.467819 1982.348755
7.000000 3.160000 2.920000 -20.560783 54.016102 3340.485107
7.000000 3.160000 2.960000 -48.631920 47.009331 4574.940918
7.000000 3.160000 3.000000 -69.044960 18.329178 5103.165527
7.000000 3.160000 3.040000 -65.614807 -20.313866 4717.956055
7.000000 3.160000 3.080000 -37.188187 -47.751160 3663.134521
7.000000 3.160000 3.120000 0.422363 -49.241333 2424.887451
7.000000 3.160000 3.160000 26.195223 -27.230778 1427.704956
7.000000 3.160000 3.200000 28.976688 1.802997 842.899292
7.000000 3.200000 2.800000 -20.186245 19.909607 803.876953
7.000000 3.200000 2.840000 -20.559309 8.396811 493.191589
7.000000 3.200000 2.880000 -14.834068 0.188044 220.084930
7.000000 3.200000 2.920000 -7.997101 -1.534782 66.309181
7.000000 3.200000 2.960000 -5.729786 0.429588 33.014996
7.000000 3.200000 3.000000 -8.238842 -0.698997 68.367111
7.000000 3.200000 3.040000 -8.847649 -8.503628 150.592560
7.000000 3.200000 3.080000 -0.229130 -18.033806 325.270630
7.000000 3.200000 3.120000 16.991417 -18.817123 642.792358
7.000000 3.200000 3.160000 32.193359 -4.716323 1058.656006
7.000000 3.200000 3.200000 32.698574 18.493927 1411.222168
7.040000 2.800000 2.800000 -31.240780 -15.492558 1216.005615
7.040000 2.800000 2.840000 -15.693068 -27.789152 1018.509399
7.040000 2.800000 2.880000 4.557697 -26.068481 700.338318
7.040000 2.800000 2.920000 17.544792 -11.156063 432.277466
7.040000 2.800000 2.960000 16.438778 6.876009 317.512939
7.040000 2.800000 3.000000 5.145668 16.954733 313.940887
7.040000 2.800000 3.040000 -5.884850 16.345039 301.791748
7.040000 2.800000 3.080000 -9.814746 11.791916 235.378525
7.040000 2.800000 3.120000 -9.313660 11.344950 215.452148
7.040000 2.800000 3.160000 -12.219770 15.520171 390.198486
7.040000 2.800000 3.200000 -21.863705 17.157084 772.387085
7.040000 2.840000 2.800000 -27.292543 -28.835381 1576.362061
7.040000 2.840000 2.840000 -21.194036 -34.243980 1621.837402
7.040000 2.840000 2.880000 -13.933548 -40.213020 1811.230835
7.040000 2.840000 2.920000 -1.838867 -44.812977 2011.584351
7.040000 2.840000 2.960000 14.581421 -42.221523 1995.274780
7.040000 2.840000 3.000000 28.668629 -28.739235 1647.833862
7.040000 2.840000 3.040000 31.987829 -7.792938 1083.951050
7.040000 2.840000 3.080000 21.298313 11.062691 576.001282
7.040000 2.840000 3.120000 1.740894 18.644184 350.636292
7.040000 2.840000 3.160000 -16.525963 12.608868 432.091003
7.040000 2.840000 3.200000 -25.464518 -1.412181 650.435913
7.040000 2.880000 2.800000 -16.516043 -42.128185 2047.563599
7.040000 2.880000 2.840000 -21.278193 -54.786549 3454.327393
7.040000 2.880000 2.880000 -11.085663 -80.444412 6594.195312
7.040000 2.880000 2.920000 24.967419 -98.185593 10263.782227
7.040000 2.880000 2.960000 72.720734 -84.436279 12417.791016
7.040000 2.880000 3.000000 101.384918 -37.397690 11677.488281
7.040000 2.880000 3.040000 90.001747 17.371468 8402.082031
7.040000 2.880000 3.080000 46.666790 47.050579 4391.546387
7.040000 2.880000 3.120000 1.784565 38.713364 1501.909180
7.040000 2.880000 3.160000 -18.073654 8.082020 391.976013
7.040000 2.880000 3.200000 -10.713009 -17.270685 413.045135
7.040000 2.920000 2.800000 3.371998 -50.005169 2511.887207
7.040000 2.920000 2.840000 0.473282 -78.707878 6195.154297
7.040000 2.920000 2.880000 34.828064 -114.998421 14437.630859
7.040000 2.920000 2.920000 103.677231 -116.730286 24374.927734
7.040000 2.920000 2.960000 164.651672 -60.790245 30805.626953
7.040000 2.920000 3.000000 170.434540 28.774906 29875.927734
7.040000 2.920000 3.040000 112.621330 96.656624 22026.066406
7.040000 2.920000 3.080000 31.379311 103.196457 11634.169922
7.040000 2.920000 3.120000 -19.481136 57.474270 3682.806396
7.040000 2.920000 3.160000 -18.239662 5.271032 360.469055
7.040000 2.920000 3.200000 11.608884 -14.593085 347.724335
7.040000 2.960000 2.800000 28.406416 -44.275520 2767.246094
7.040000 2.960000 2.840000 42.663105 -82.094086 8559.579102
7.040000 2.960000 2.880000 105.613586 -103.220375 21808.675781
7.040000 2.960000 2.920000 185.292175 -61.742424 38145.320312
7.040000 2.960000 2.960000 218.275787 39.933098 49238.972656
7.040000 2.960000 3.000000 167.549545 143.194122 48577.406250
7.040000 2.960000 3.040000 60.691860 180.880737 36401.343750
7.040000 2.960000 3.080000 -31.379341 136.162140 19524.791016
7.040000 2.960000 3.120000 -55.944862 55.372589 6195.951172
7.040000 2.960000 3.160000 -20.855764 3.062874 444.344116
7.040000 2.960000 3.200000 21.464479 4.601032 481.893372
7.040000 3.000000 2.800000 46.837860 -21.750021 2666.848633
7.040000 3.000000 2.840000 80.952698 -51.081371 9162.645508
7.040000 3.000000 2.880000 152.263062 -36.935120 24548.242188
7.040000 3.000000 2.920000 204.491455 45.996330 43932.417969
7.040000 3.000000 2.960000 179.158173 159.725067 57609.750000
7.040000 3.000000 3.000000 74.369980 228.364883 57681.414062
7.040000 3.000000 3.040000 -46.358238 204.487808 43964.351562
7.040000 3.000000 3.080000 -107.404602 112.227158 24130.683594
7.040000 3.000000 3.120000 -85.875610 24.345486 7967.323242
7.040000 3.000000 3.160000 -25.557373 -3.853306 668.027283
7.040000 3.000000 3.200000 10.759212 21.179243 564.320984
7.040000 3.040000 2.800000 46.453506 9.285976 2244.157471
7.040000 3.040000 2.840000 87.225021 0.895912 7609.007324
7.040000 3.040000 2.880000 137.610138 45.833561 21037.265625
7.040000 3.040000 2.920000 139.586594 137.486633 38386.992188
7.040000 3.040000 2.960000 63.985325 216.860626 51122.652344
7.040000 3.040000 3.000000 -54.244553 221.586151 52042.894531
7.040000 3.040000 3.040000 -140.971588 143.788223 40548.039062
7.040000 3.040000 3.080000 -146.670700 39.192715 23048.363281
7.040000 3.040000 3.120000 -87.628052 -22.578291 8188.454590
7.040000 3.040000 3.160000 -25.395023 -17.806549 961.980408
7.040000 3.040000 3.200000 -7.334194 18.634399 401.031250
7.040000 3.080000 2.800000 25.547874 32.266899 1693.846680
7.040000 3.080000 2.840000 55.694286 41.388283 4814.843750
7.040000 3.080000 2.880000 71.278473 91.440460 13441.978516
7.040000 3.080000 2.920000 34.608738 154.204315 24976.736328
7.040000 3.080000 2.960000 -50.592987 176.927719 33863.070312
7.040000 3.080000 3.000000 -134.874481 130.571365 35240.007812
7.040000 3.080000 3.040000 -163.696106 39.554577 28360.980469
7.040000 3.080000 3.080000 -124.981064 -37.665951 17038.990234
7.040000 3.080000 3.120000 -57.527435 -59.160515 6809.372070
7.040000 3.080000 3.160000 -13.278957 -32.321644 1221.019409
7.040000 3.080000 3.200000 -11.844908 0.811608 140.960541
7.040000 3.120000 2.800000 -3.372108 34.681831 1214.200562
7.040000 3.120000 2.840000 9.500404 46.544540 2256.651855
7.040000 3.120000 2.880000 1.607410 76.957367 5925.020508
7.040000 3.120000 2.920000 -39.294651 97.841530 11117.034180
7.040000 3.120000 2.960000 -94.263962 80.754395 15406.966797
7.040000 3.120000 3.000000 -126.324898 25.063614 16586.164062
7.040000 3.120000 3.040000 -112.370773 -38.427330 14103.849609
7.040000 3.120000 3.080000 -63.373032 -72.900757 9330.662109
7.040000 3.120000 3.120000 -13.759182 -65.822487 4521.914551
7.040000 3.120000 3.160000 8.785447 -35.805359 1359.207764
7.040000 3.120000 3.200000 3.768978 -11.825476 154.047073
7.040000 3.160000 2.800000 -22.592438 18.733582 861.365356
7.040000 3.160000 2.840000 -19.761620 21.308281 844.564453
7.040000 3.160000 2.880000 -27.629435 27.227440 1504.719238
7.040000 3.160000 2.920000 -45.279167 23.612949 2607.774170
7.040000 3.160000 2.960000 -60.393398 3.648102 3660.671143
7.040000 3.160000 3.000000 -59.301727 -26.194328 4202.837891
7.040000 3.160000 3.040000 -38.561676 -50.527466 4040.027832
7.040000 3.160000 3.080000 -7.833134 -56.873848 3295.992432
7.040000 3.160000 3.120000 17.803267 -44.349274 2283.814453
7.040000 3.160000 3.160000 28.501303 -22.625870 1324.254272
7.040000 3.160000 3.200000 24.509357 -3.694946 614.361267
7.040000 3.200000 2.800000 -23.727249 -0.518044 563.250732
7.040000 3.200000 2.840000 -19.551994 -7.636791 440.601074
7.040000 3.200000 2.880000 -12.959665 -12.455296 323.087311
7.040000 3.200000 2.920000 -5.854359 -13.417854 214.312332
7.040000 3.200000 2.960000 -1.383293 -11.640530 137.415421
7.040000 3.200000 3.000000 -0.095581 -11.105930 123.350822
7.040000 3.200000 3.040000 2.096146 -14.374893 211.031387
7.040000 3.200000 3.080000 10.216633 -18.130045 433.078094
7.040000 3.200000 3.120000 23.473059 -14.746426 768.441528
7.040000 3.200000 3.160000 33.172195 -0.157209 1100.419189
7.040000 3.200000 3.200000 29.455002 19.604782 1251.944580
7.080000 2.800000 2.800000 -32.228424 -16.939602 1325.621338
7.080000 2.800000 2.840000 -16.949234 -29.516323 1158.489868
7.080000 2.800000 2.880000 4.572548 -28.010695 805.507202
7.080000 2.800000 2.920000 18.985687 -11.375309 489.854004
7.080000 2.800000 2.960000 17.069740 9.623053 383.979187
7.080000 2.800000 3.000000 2.244186 21.264511 457.215820
7.080000 2.800000 3.040000 -12.906814 18.952385 525.778748
7.080000 2.800000 3.080000 -18.892746 10.186792 460.706604
7.080000 2.800000 3.120000 -17.602932 5.394005 338.958496
7.080000 2.800000 3.160000 -18.184315 6.691151 375.440796
7.080000 2.800000 3.200000 -25.504770 6.598490 694.033325
7.080000 2.840000 2.800000 -24.075384 -38.507526 2062.453613
7.080000 2.840000 2.840000 -10.012711 -47.780495 2383.229980
7.080000 2.840000 2.880000 9.630562 -48.661697 2460.708496
7.080000 2.840000 2.920000 27.942394 -37.396294 2179.260254
7.080000 2.840000 2.960000 36.349087 -17.027870 1611.204468
7.080000 2.840000 3.000000 31.084389 3.619213 979.337891
7.080000 2.840000 3.040000 15.876692 15.970196 507.116486
7.080000 2.840000 3.080000 -1.366404 17.065060 293.083313
7.080000 2.840000 3.120000 -14.289482 9.776754 299.774231
7.080000 2.840000 3.160000 -20.858795 -1.128476 436.362793
7.080000 2.840000 3.200000 -21.883804 -12.445072 633.780701
7.080000 2.880000 2.800000 0.179039 -53.142937 2824.203613
7.080000 2.880000 2.840000 13.404284 -63.336418 4191.176758
7.080000 2.880000 2.880000 39.126389 -67.491600 6085.990234
7.080000 2.880000 2.920000 69.920090 -52.220169 7615.764648
7.080000 2.880000 2.960000 87.084297 -15.816505 7833.836426
7.080000 2.880000 3.000000 76.163559 25.741596 6463.517578
7.080000 2.880000 3.040000 41.043839 49.549248 4139.724609
7.080000 2.880000 3.080000 2.427765 44.090172 1949.837280
7.080000 2.880000 3.120000 -18.485359 18.055569 667.712036
7.080000 2.880000 3.160000 -16.028330 -8.279048 325.449982
7.080000 2.880000 3.200000 -1.462616 -20.404612 418.487427
7.080000 2.920000 2.800000 32.498806 -48.237000 3382.980469
7.080000 2.920000 2.840000 49.343632 -60.010120 6036.008789
7.080000 2.920000 2.880000 86.274940 -58.432693 10857.745117
7.080000 2.920000 2.920000 124.051941 -23.599463 15945.818359
7.080000 2.920000 2.960000 130.512207 37.843620 18465.574219
7.080000 2.920000 3.000000 91.097664 91.796593 16725.398438
7.080000 2.920000 3.040000 26.174519 104.126114 11527.353516
7.080000 2.920000 3.080000 -23.887770 70.861328 5591.953125
7.080000 2.920000 3.120000 -32.770020 21.450039 1533.978271
7.080000 2.920000 3.160000 -8.743831 -8.237700 144.314270
7.080000 2.920000 3.200000 17.295452 -6.597213 342.655884
7.080000 2.960000 2.800000 55.662834 -21.091438 3543.199707
7.080000 2.960000 2.840000 78.820801 -29.596767 7088.687500
7.080000 2.960000 2.880000 120.497856 -10.878225 14638.069336
7.080000 2.960000 2.920000 145.437012 48.462250 23500.513672
7.080000 2.960000 2.960000 118.720108 121.684570 28901.597656
7.080000 2.960000 3.000000 43.299648 159.794540 27409.154297
7.080000 2.960000 3.040000 -36.346596 135.332489 19635.957031
7.080000 2.960000 3.080000 -71.264191 68.928802 9829.764648
7.080000 2.960000 3.120000 -50.500381 11.085865 2673.185059
7.080000 2.960000 3.160000 -7.452918 -3.303013 66.455872
7.080000 2.960000 3.200000 15.069996 17.050335 517.818726
7.080000 3.000000 2.800000 54.750603 15.887183 3250.031006
7.080000 3.000000 2.840000 80.695396 16.411428 6781.082031
7.080000 3.000000 2.880000 111.647575 53.820724 15361.851562
7.080000 3.000000 2.920000 105.403198 122.605713 26141.996094
7.080000 3.000000 2.960000 42.027851 177.936218 33427.636719
7.080000 3.000000 3.000000 -49.296394 173.992554 32703.542969
7.080000 3.000000 3.040000 -111.097702 108.628136 24142.771484
7.080000 3.000000 3.080000 -108.278862 28.303400 12525.393555
7.080000 3.000000 3.120000 -58.728912 -13.403883 3628.749268
7.080000 3.000000 3.160000 -13.410286 -2.962025 188.609360
7.080000 3.000000 3.200000 -6.911327 26.652580 758.126465
7.080000 3.040000 2.800000 29.335503 41.977062 2622.645508
7.080000 3.040000 2.840000 50.417351 51.965351 5242.306641
7.080000 3.040000 2.880000 58.858334 95.561096 12596.226562
7.080000 3.040000 2.920000 21.921774 147.930817 22364.091797
7.080000 3.040000 2.960000 -55.469723 162.462402 29470.921875
7.080000 3.040000 3.000000 -127.493729 115.606354 29619.480469
7.080000 3.040000 3.040000 -146.460388 33.216640 22553.990234
7.080000 3.040000 3.080000 -106.506332 -30.371588 12266.032227
7.080000 3.040000 3.120000 -47.858658 -41.031082 3974.000977
7.080000 3.040000 3.160000 -17.473232 -12.863578 470.785461
7.080000 3.040000 3.200000 -26.280764 11.223735 816.650757
7.080000 3.080000 2.800000 -4.602146 43.081253 1877.174072
7.080000 3.080000 2.840000 6.401222 56.483578 3231.370117
7.080000 3.080000 2.880000 -5.217091 88.673012 7890.121094
7.080000 3.080000 2.920000 -51.943718 108.309341 14429.062500
7.080000 3.080000 2.960000 -110.732742 85.150497 19512.347656
7.080000 3.080000 3.000000 -140.266403 22.266903 20170.478516
7.080000 3.080000 3.040000 -118.916733 -42.827026 15975.343750
7.080000 3.080000 3.080000 -65.290474 -71.048454 9310.728516
7.080000 3.080000 3.120000 -20.321003 -56.150925 3565.869385
7.080000 3.080000 3.160000 -9.256581 -26.606617 793.596313
7.080000 3.080000 3.200000 -21.825731 -14.718169 692.987061
7.080000 3.120000 2.800000 -26.224422 22.652174 1200.841309
7.080000 3.120000 2.840000 -23.921309 31.910151 1590.486694
7.080000 3.120000 2.880000 -40.882080 43.795086 3589.354004
7.080000 3.120000 2.920000 -72.401237 36.396019 6566.609375
7.080000 3.120000 2.960000 -95.054214 1.748367 9038.360352
7.080000 3.120000 3.000000 -87.955261 -43.767197 9651.695312
7.080000 3.120000 3.040000 -52.840675 -72.885101 8104.375000
7.080000 3.120000 3.080000 -12.625229 -71.627151 5289.845215
7.080000 3.120000 3.120000 9.758980 -50.162254 2611.489502
7.080000 3.120000 3.160000 10.611512 -30.502121 1042.983643
7.080000 3.120000 3.200000 4.371071 -25.021069 645.160156
7.080000 3.160000 2.800000 -25.881668 -1.495836 672.098267
7.080000 3.160000 2.840000 -26.425295 0.308809 698.391541
7.080000 3.160000 2.880000 -34.052757 -2.820210 1167.543945
7.080000 3.160000 2.920000 -40.119095 -16.205456 1872.158569
7.080000 3.160000 2.960000 -35.281200 -34.922089 2464.315430
7.080000 3.160000 3.000000 -18.504055 -48.319515 2677.175781
7.080000 3.160000 3.040000 2.464798 -49.624359 2468.652100
7.080000 3.160000 3.080000 18.594536 -40.735584 2005.144531
7.080000 3.160000 3.120000 26.616629 -28.426128 1516.489746
7.080000 3.160000 3.160000 28.946716 -17.459023 1142.729858
7.080000 3.160000 3.200000 28.479977 -8.240507 879.015015
7.080000 3.200000 2.800000 -11.757810 -12.290000 289.290192
7.080000 3.200000 2.840000 -10.175814 -16.189407 365.644104
7.080000 3.200000 2.880000 -4.247194 -21.816345 493.991577
7.080000 3.200000 2.920000 6.266344 -23.066471 571.329163
7.080000 3.200000 2.960000 15.234138 -17.265865 530.189087
7.080000 3.200000 3.000000 17.447601 -9.250780 389.995728
7.080000 3.200000 3.040000 15.420204 -5.929825 272.945526
7.080000 3.200000 3.080000 16.792328 -7.460348 337.639069
7.080000 3.200000 3.120000 24.619921 -6.100935 643.361938
7.080000 3.200000 3.160000 32.036591 4.708621 1048.514282
7.080000 3.200000 3.200000 28.740990 21.031036 1268.348999
7.120000 2.800000 2.800000 -33.538795 -22.452831 1628.980469
7.120000 2.800000 2.840000 -15.368822 -35.377476 1487.766479
7.120000 2.800000 2.880000 9.262733 -30.590427 1021.572449
7.120000 2.800000 2.920000 22.848806 -8.331359 591.479492
7.120000 2.800000 2.960000 15.282945 15.926926 487.235352
7.120000 2.800000 3.000000 -6.192436 25.045670 665.631836
7.120000 2.800000 3.040000 -23.946966 15.818314 823.676270
7.120000 2.800000 3.080000 -26.893768 0.553954 723.581665
7.120000 2.800000 3.120000 -19.812220 -6.680825 437.157471
7.120000 2.800000 3.160000 -15.821775 -4.258060 268.459656
7.120000 2.800000 3.200000 -20.934288 -2.755492 445.837158
7.120000 2.840000 2.800000 -14.236980 -45.997276 2318.441162
7.120000 2.840000 2.840000 8.641617 -50.209263 2595.647461
7.120000 2.840000 2.880000 31.639219 -37.124306 2379.254395
7.120000 2.840000 2.920000 40.623753 -10.965481 1770.531128
7.120000 2.840000 2.960000 29.948069 13.705820 1084.736328
7.120000 2.840000 3.000000 7.579755 23.509321 610.140869
7.120000 2.840000 3.040000 -11.967804 16.697708 422.041779
7.120000 2.840000 3.080000 -19.854755 2.573287 400.833099
7.120000 2.840000 3.120000 -18.250019 -8.608046 407.161652
7.120000 2.840000 3.160000 -14.648180 -14.414486 422.346588
7.120000 2.840000 3.200000 -12.499369 -19.264797 527.366638
7.120000 2.880000 2.800000 21.340706 -50.001350 2955.560791
7.120000 2.880000 2.840000 42.449806 -44.457817 3778.483643
7.120000 2.880000 2.880000 60.545067 -25.108614 4296.147461
7.120000 2.880000 2.920000 64.585403 4.541142 4191.896484
7.120000 2.880000 2.960000 48.975567 31.968084 3420.564697
7.120000 2.880000 3.000000 19.892635 43.380177 2277.556641
7.120000 2.880000 3.040000 -7.728123 34.043533 1218.686035
7.120000 2.880000 3.080000 -20.733101 11.857660 570.465576
7.120000 2.880000 3.120000 -16.684143 -9.166069 362.377441
7.120000 2.880000 3.160000 -3.633163 -19.540833 395.044037
7.120000 2.880000 3.200000 8.240219 -19.670134 454.815369
7.120000 2.920000 2.800000 52.636623 -25.649035 3428.487061
7.120000 2.920000 2.840000 66.808777 -13.863587 4655.611816
7.120000 2.920000 2.880000 78.149689 9.347190 6194.744141
7.120000 2.920000 2.920000 74.420937 42.292919 7327.166504
7.120000 2.920000 2.960000 47.993420 70.405869 7260.354492
7.120000 2.920000 3.000000 7.221478 75.669838 5778.074219
7.120000 2.920000 3.040000 -26.266312 52.969215 3495.656982
7.120000 2.920000 3.080000 -34.170536 16.894161 1453.038208
7.120000 2.920000 3.120000 -16.929325 -9.226150 371.723877
7.120000 2.920000 3.160000 7.351129 -12.598051 212.749985
7.120000 2.920000 3.200000 19.742723 -0.215514 389.821564
7.120000 2.960000 2.800000 58.123779 15.627184 3622.582764
7.120000 2.960000 2.840000 64.086533 28.165520 4900.379883
7.120000 2.960000 2.880000 67.234512 52.511620 7277.949707
7.120000 2.960000 2.920000 51.645889 84.616653 9827.275391
7.120000 2.960000 2.960000 11.722048 103.951012 10943.218750
7.120000 2.960000 3.000000 -35.607330 91.289017 9601.566406
7.120000 2.960000 3.040000 -61.694801 49.814331 6287.715820
7.120000 2.960000 3.080000 -51.670181 6.258919 2708.981689
7.120000 2.960000 3.120000 -19.013105 -11.631174 496.782379
7.120000 2.960000 3.160000 6.767207 0.277411 45.872051
7.120000 2.960000 3.200000 7.738178 20.659676 486.701599
7.120000 3.000000 2.800000 32.886620 48.658089 3449.139404
7.120000 3.000000 2.840000 32.990414 57.794067 4428.521484
7.120000 3.000000 2.880000 27.365625 79.289673 7035.729492
7.120000 3.000000 2.920000 -0.026585 101.944107 10392.601562
7.120000 3.000000 2.960000 -45.948959 101.718109 12457.879883
7.120000 3.000000 3.000000 -84.194115 67.150040 11597.777344
7.120000 3.000000 3.040000 -88.097595 15.643575 8005.908203
7.120000 3.000000 3.080000 -57.235909 -19.203663 3644.729980
7.120000 3.000000 3.120000 -19.583424 -18.388857 721.660522
7.120000 3.000000 3.160000 -5.184345 5.025764 52.135742
7.120000 3.000000 3.200000 -17.812969 20.317585 730.106140
7.120000 3.040000 2.800000 -6.258382 53.483475 2899.649414
7.120000 3.040000 2.840000 -8.479605 58.079071 3445.082275
7.120000 3.040000 2.880000 -20.807512 71.960213 5611.224609
7.120000 3.040000 2.920000 -52.136986 77.626602 8744.154297
7.120000 3.040000 2.960000 -88.385056 56.188423 10969.056641
7.120000 3.040000 3.000000 -102.485947 10.722147 10618.333984
7.120000 3.040000 3.040000 -81.425117 -31.804283 7641.562500
7.120000 3.040000 3.080000 -41.503143 -44.662174 3717.220703
7.120000 3.040000 3.120000 -14.014685 -27.273792 940.271118
7.120000 3.040000 3.160000 -15.075955 -5.228228 254.618790
7.120000 3.040000 3.200000 -30.974695 -3.724196 973.301392
7.120000 3.080000 2.800000 -33.580627 30.895464 2082.188232
7.120000 3.080000 2.840000 -35.875046 32.068661 2315.417969
7.120000 3.080000 2.880000 -49.556705 35.358986 3706.125000
7.120000 3.080000 2.920000 -72.361099 24.582077 5840.407227
7.120000 3.080000 2.960000 -86.096390 -6.227314 7451.367676
7.120000 3.080000 3.000000 -74.620102 -42.499588 7374.374512
7.120000 3.080000 3.040000 -42.150642 -61.050453 5503.834473
7.120000 3.080000 3.080000 -11.250607 -52.786667 2913.008301
7.120000 3.080000 3.120000 -1.248773 -31.974751 1023.944092
7.120000 3.080000 3.160000 -9.601624 -21.482029 553.668762
7.120000 3.080000 3.200000 -16.040133 -29.331375 1117.615479
7.120000 3.120000 2.800000 -34.674809 0.919807 1203.188354
7.120000 3.120000 2.840000 -36.797863 -0.135931 1354.101196
7.120000 3.120000 2.880000 -45.307705 -6.177261 2090.946533
7.120000 3.120000 2.920000 -50.945713 -23.391777 3142.640869
7.120000 3.120000 2.960000 -42.607445 -45.457664 3881.793457
7.120000 3.120000 3.000000 -20.208040 -58.183666 3793.704102
7.120000 3.120000 3.040000 3.527031 -53.634262 2889.073975
7.120000 3.120000 3.080000 15.103734 -38.465469 1707.715088
7.120000 3.120000 3.120000 13.432642 -27.111666 915.478271
7.120000 3.120000 3.160000 9.956511 -26.885538 821.964233
7.120000 3.120000 3.200000 15.599815 -31.050064 1207.460693
7.120000 3.160000 2.800000 -16.681360 -14.521618 489.145172
7.120000 3.160000 2.840000 -18.985350 -18.128773 689.095947
7.120000 3.160000 2.880000 -18.204155 -28.254627 1129.715210
7.120000 3.160000 2.920000 -8.090476 -38.861893 1575.702515
7.120000 3.160000 2.960000 8.634594 -40.839222 1742.398193
7.120000 3.160000 3.000000 22.179886 -31.971355 1514.114868
7.120000 3.160000 3.040000 25.739182 -19.713383 1051.122925
7.120000 3.160000 3.080000 22.502346 -13.296984 683.165344
7.120000 3.160000 3.120000 21.691570 -13.882336 663.243469
7.120000 3.160000 3.160000 27.955597 -13.755523 970.729797
7.120000 3.160000 3.200000 36.020638 -5.520849 1327.966064
7.120000 3.200000 2.800000 0.125107 -9.389545 88.179222
7.120000 3.200000 2.840000 -1.261469 -16.896784 287.092621
7.120000 3.200000 2.880000 8.535588 -24.848024 690.280579
7.120000 3.200000 2.920000 24.537529 -21.549389 1066.466553
7.120000 3.200000 2.960000 33.301964 -6.280994 1148.471680
7.120000 3.200000 3.000000 27.805836 8.863878 851.732849
7.120000 3.200000 3.040000 15.736681 11.901182 389.281250
7.120000 3.200000 3.080000 11.321761 4.358095 147.175278
7.120000 3.200000 3.120000 19.389908 -0.247054 376.029572
7.120000 3.200000 3.160000 29.670383 8.401306 950.913635
7.120000 3.200000 3.200000 28.088438 25.417309 1435.000000
7.160000 2.800000 2.800000 -30.772429 -30.651052 1886.429443
7.160000 2.800000 2.840000 -8.641217 -40.522942 1716.779419
7.160000 2.800000 2.880000 15.970691 -29.044373 1098.638550
7.160000 2.800000 2.920000 23.395855 -1.907020 551.002747
7.160000 2.800000 2.960000 7.452768 20.386669 471.160034
7.160000 2.800000 3.000000 -17.925119 21.368603 777.927124
7.160000 2.800000 3.040000 -31.955944 3.849239 1035.999023
7.160000 2.800000 3.080000 -26.699739 -14.092643 911.478699
7.160000 2.800000 3.120000 -12.976456 -17.921616 489.572693
7.160000 2.800000 3.160000 -7.030952 -10.328807 156.118546
7.160000 2.800000 3.200000 -12.866175 -5.982670 201.330795
7.160000 2.840000 2.800000 -1.538587 -46.478470 2162.615234
7.160000 2.840000 2.840000 22.806774 -40.244930 2139.803223
7.160000 2.840000 2.880000 36.994602 -16.140423 1629.113770
7.160000 2.840000 2.920000 29.336351 11.674769 996.921753
7.160000 2.840000 2.960000 4.631932 24.715118 632.291870
7.160000 2.840000 3.000000 -19.416004 16.048145 634.524170
7.160000 2.840000 3.040000 -27.667171 -4.444273 785.223938
7.160000 2.840000 3.080000 -19.766209 -20.340254 804.428955
7.160000 2.840000 3.120000 -7.587148 -23.749172 621.588013
7.160000 2.840000 3.160000 -1.715146 -20.179581 410.157196
7.160000 2.840000 3.200000 -1.485330 -19.526814 383.502655
7.160000 2.880000 2.800000 34.260902 -34.167530 2341.229492
7.160000 2.880000 2.840000 47.361176 -14.427517 2451.234375
7.160000 2.880000 2.880000 44.630589 11.256458 2118.597168
7.160000 2.880000 2.920000 25.379475 29.460752 1512.053711
7.160000 2.880000 2.960000 -0.364030 30.350510 921.285950
7.160000 2.880000 3.000000 -18.594349 14.934089 568.776855
7.160000 2.880000 3.040000 -21.228767 -6.069448 487.498749
7.160000 2.880000 3.080000 -10.877273 -20.706650 547.080383
7.160000 2.880000 3.120000 3.058914 -24.120554 591.158081
7.160000 2.880000 3.160000 12.773108 -19.894890 558.958923
7.160000 2.880000 3.200000 17.134134 -14.423347 501.611511
7.160000 2.920000 2.800000 50.853607 3.324598 2597.142334
7.160000 2.920000 2.840000 45.945683 24.109362 2692.267090
7.160000 2.920000 2.880000 30.183424 39.335564 2458.325684
7.160000 2.920000 2.920000 8.475625 43.546215 1968.109009
7.160000 2.920000 2.960000 -11.705125 34.833157 1350.358643
7.160000 2.920000 3.000000 -22.540068 16.319479 774.380066
7.160000 2.920000 3.040000 -19.591738 -3.923238 399.227966
7.160000 2.920000 3.080000 -5.230281 -16.325928 293.891754
7.160000 2.920000 3.120000 11.783672 -15.718129 385.914520
7.160000 2.920000 3.160000 21.857275 -5.155112 504.315674
7.160000 2.920000 3.200000 21.503340 6.474915 504.318146
7.160000 2.960000 2.800000 34.162415 42.243095 2951.549805
7.160000 2.960000 2.840000 16.469524 51.091030 2881.538574
7.160000 2.960000 2.880000 -1.516373 50.994240 2602.711914
7.160000 2.960000 2.920000 -17.286751 44.001774 2234.987793
7.160000 2.960000 2.960000 -28.920731 30.420765 1761.831543
7.160000 2.960000 3.000000 -32.004364 11.638695 1159.738525
7.160000 2.960000 3.040000 -22.746838 -5.718093 550.115234
7.160000 2.960000 3.080000 -4.519273 -12.068671 166.076660
7.160000 2.960000 3.120000 11.308837 -3.551775 140.504898
7.160000 2.960000 3.160000 13.982956 12.254885 345.705261
7.160000 2.960000 3.200000 3.773199 21.678984 484.215363
7.160000 3.000000 2.800000 -5.153999 56.187454 3183.593750
7.160000 3.000000 2.840000 -23.082975 49.175552 2951.058594
7.160000 3.000000 2.880000 -33.711205 37.883270 2571.587402
7.160000 3.000000 2.920000 -39.966255 25.866543 2266.379639
7.160000 3.000000 2.960000 -42.645782 11.574803 1952.638794
7.160000 3.000000 3.000000 -37.664040 -4.375033 1437.720703
7.160000 3.000000 3.040000 -22.899639 -14.720288 741.080383
7.160000 3.000000 3.080000 -5.400350 -11.618923 164.163147
7.160000 3.000000 3.120000 2.164093 2.836582 12.729496
7.160000 3.000000 3.160000 -5.787788 15.279371 266.957672
7.160000 3.000000 3.200000 -19.996132 13.123600 572.074158
7.160000 3.040000 2.800000 -39.598976 37.686073 2988.318848
7.160000 3.040000 2.840000 -48.119987 21.398174 2773.415039
7.160000 3.040000 2.880000 -48.611679 6.937216 2411.220459
7.160000 3.040000 2.920000 -45.936806 -4.926270 2134.458252
7.160000 3.040000 2.960000 -40.067833 -16.333017 1872.198730
7.160000 3.040000 3.000000 -28.224922 -24.945206 1418.909546
7.160000 3.040000 3.040000 -12.799535 -24.484970 763.341797
7.160000 3.040000 3.080000 -3.191980 -13.563185 194.148712
7.160000 3.040000 3.120000 -6.849140 -1.304063 48.611294
7.160000 3.040000 3.160000 -19.080296 -0.476154 364.284393
7.160000 3.040000 3.200000 -24.964607 -13.683907 810.480957
7.160000 3.080000 2.800000 -47.368088 3.839532 2258.477783
7.160000 3.080000 2.840000 -46.184307 -11.971124 2276.298096
7.160000 3.080000 2.880000 -39.522812 -24.216799 2148.505859
7.160000 3.080000 2.920000 -29.718239 -32.953987 1969.138916
7.160000 3.080000 2.960000 -16.886852 -37.353966 1680.484497
7.160000 3.080000 3.000000 -3.189230 -34.469009 1198.283691
7.160000 3.080000 3.040000 5.093942 -24.055845 604.631958
7.160000 3.080000 3.080000 2.731393 -12.872469 173.160965
7.160000 3.080000 3.120000 -6.945654 -10.841179 165.773270
7.160000 3.080000 3.160000 -12.172793 -20.876682 584.012756
7.160000 3.080000 3.200000 -3.156750 -33.452206 1129.015137
7.160000 3.120000 2.800000 -29.476723 -19.107033 1233.955933
7.160000 3.120000 2.840000 -24.998352 -30.235193 1539.084473
7.160000 3.120000 2.880000 -14.765059 -39.600906 1786.238770
7.160000 3.120000 2.920000 0.539443 -42.939919 1844.127563
7.160000 3.120000 2.960000 15.819160 -36.579258 1588.287964
7.160000 3.120000 3.000000 23.203909 -22.432470 1041.637085
7.160000 3.120000 3.040000 18.704288 -9.284655 436.055206
7.160000 3.120000 3.080000 7.661791 -6.655609 103.000168
7.160000 3.120000 3.120000 1.987108 -15.697612 250.363617
7.160000 3.120000 3.160000 9.856427 -26.464590 797.523682
7.160000 3.120000 3.200000 27.287251 -25.850525 1412.843750
7.160000 3.160000 2.800000 -6.480826 -18.039196 367.413696
7.160000 3.160000 2.840000 -3.649452 -27.787729 785.476379
7.160000 3.160000 2.880000 9.507742 -35.316502 1337.652344
7.160000 3.160000 2.920000 27.714243 -30.760094 1714.262695
7.160000 3.160000 2.960000 38.158337 -13.404099 1635.728516
7.160000 3.160000 3.000000 32.653122 5.226309 1093.540649
7.160000 3.160000 3.040000 16.913536 11.183796 411.144989
7.160000 3.160000 3.080000 6.371597 1.818747 43.905090
7.160000 3.160000 3.120000 11.603855 -10.864034 252.676697
7.160000 3.160000 3.160000 27.832344 -11.427210 905.220520
7.160000 3.160000 3.200000 39.405071 4.141564 1569.912231
7.160000 3.200000 2.800000 1.266850 -2.094135 5.990311
7.160000 3.200000 2.840000 4.246923 -15.451811 256.794800
7.160000 3.200000 2.880000 21.399860 -20.104275 862.135864
7.160000 3.200000 2.920000 37.803429 -6.476444 1471.043579
7.160000 3.200000 2.960000 37.053772 16.470810 1644.269653
7.160000 3.200000 3.000000 18.976683 29.348549 1221.451782
7.160000 3.200000 3.040000 0.726938 22.336561 499.450409
7.160000 3.200000 3.080000 -0.689693 5.684608 32.790451
7.160000 3.200000 3.120000 13.960531 -0.877611 195.666641
7.160000 3.200000 3.160000 27.238022 11.325451 870.175659
7.160000 3.200000 3.200000 23.498478 31.403879 1538.382080
7.200000 2.800000 2.800000 -23.112976 -37.126255 1912.568359
7.200000 2.800000 2.840000 0.014598 -41.299789 1705.672852
7.200000 2.800000 2.880000 19.658142 -24.511341 987.248413
7.200000 2.800000 2.920000 18.816816 1.878595 357.601685
7.200000 2.800000 2.960000 -1.967831 16.649672 281.083893
7.200000 2.800000 3.000000 -24.320927 8.831250 669.498413
7.200000 2.800000 3.040000 -29.612473 -11.951513 1019.737244
7.200000 2.800000 3.080000 -16.560263 -25.688118 934.121704
7.200000 2.800000 3.120000 -0.885249 -22.056189 487.259125
7.200000 2.800000 3.160000 2.088522 -9.487938 94.382889
7.200000 2.800000 3.200000 -6.848149 -4.331565 65.659607
7.200000 2.840000 2.800000 7.571881 -40.707199 1714.409424
7.200000 2.840000 2.840000 25.300350 -27.562157 1399.780273
7.200000 2.840000 2.880000 27.161814 -3.723261 751.626770
7.200000 2.840000 2.920000 9.824751 13.536427 279.760590
7.200000 2.840000 2.960000 -14.014912 11.178135 321.368469
7.200000 2.840000 3.000000 -26.398781 -7.820724 758.059387
7.200000 2.840000 3.040000 -19.868622 -27.512409 1151.694824
7.200000 2.840000 3.080000 -2.957351 -33.841866 1154.017822
7.200000 2.840000 3.120000 9.475383 -26.569725 795.733215
7.200000 2.840000 3.160000 10.757065 -16.904737 401.484589
7.200000 2.840000 3.200000 7.024055 -14.386253 256.301636
7.200000 2.880000 2.800000 32.726517 -17.278639 1369.576294
7.200000 2.880000 2.840000 31.676388 3.142615 1013.269592
7.200000 2.880000 2.880000 15.362576 17.014835 525.513367
7.200000 2.880000 2.920000 -6.055459 14.577629 249.175842
7.200000 2.880000 2.960000 -18.583544 -2.332179 350.787170
7.200000 2.880000 3.000000 -15.084953 -22.010323 712.010132
7.200000 2.880000 3.040000 0.088815 -32.369522 1047.793945
7.200000 2.880000 3.080000 15.960752 -29.703800 1137.061279
7.200000 2.880000 3.120000 24.231813 -19.568359 970.101440
7.200000 2.880000 3.160000 24.629345 -10.138468 709.393127
7.200000 2.880000 3.200000 22.410259 -4.959836 526.819702
7.200000 2.920000 2.800000 31.140129 19.488701 1349.517090
7.200000 2.920000 2.840000 11.196144 29.474787 994.116699
7.200000 2.920000 2.880000 -9.692104 22.123852 583.401733
7.200000 2.920000 2.920000 -18.859730 3.014290 364.775330
7.200000 2.920000 2.960000 -12.747370 -15.711255 409.338989
7.200000 2.920000 3.000000 2.723767 -24.649673 615.025269
7.200000 2.920000 3.040000 18.382027 -22.051991 824.189209
7.200000 2.920000 3.080000 28.036709 -12.104383 932.573181
7.200000 2.920000 3.120000 30.293985 -0.354784 917.851379
7.200000 2.920000 3.160000 26.838139 9.284365 806.485107
7.200000 2.920000 3.200000 20.392885 14.983093 640.362854
7.200000 2.960000 2.800000 1.323617 42.952896 1846.703247
7.200000 2.960000 2.840000 -23.345951 31.373501 1529.330078
7.200000 2.960000 2.880000 -31.610609 6.349247 1039.543579
7.200000 2.960000 2.920000 -20.641373 -15.309146 660.436218
7.200000 2.960000 2.960000 -0.523919 -22.573391 509.832489
7.200000 2.960000 3.000000 16.442514 -16.156700 531.395264
7.200000 2.960000 3.040000 24.548502 -3.477628 614.722839
7.200000 2.960000 3.080000 24.653973 9.163021 691.779297
7.200000 2.960000 3.120000 19.257996 19.043243 733.515503
7.200000 2.960000 3.160000 10.099501 24.516394 703.053467
7.200000 2.960000 3.200000 -0.024052 23.724775 562.865540
7.200000 3.000000 2.800000 -35.533688 35.772289 2542.299805
7.200000 3.000000 2.840000 -47.920799 6.850576 2343.333496
7.200000 3.000000 2.880000 -35.913204 -21.064510 1733.471802
7.200000 3.000000 2.920000 -10.083302 -31.289440 1080.702026
7.200000 3.000000 2.960000 12.296061 -22.270508 647.168640
7.200000 3.000000 3.000000 21.340178 -4.350742 474.332123
7.200000 3.000000 3.040000 18.184792 11.643118 466.248840
7.200000 3.000000 3.080000 8.649319 21.144838 521.914917
7.200000 3.000000 3.120000 -2.999118 23.873449 578.936279
7.200000 3.000000 3.160000 -13.813313 19.734375 580.253174
7.200000 3.000000 3.200000 -19.432800 9.535766 468.564545
7.200000 3.040000 2.800000 -53.026451 4.916630 2835.977783
7.200000 3.040000 2.840000 -46.643276 -26.496391 2877.654053
7.200000 3.040000 2.880000 -20.383970 -43.641438 2320.081299
7.200000 3.040000 2.920000 8.116026 -38.076153 1515.663330
7.200000 3.040000 2.960000 23.150394 -17.302433 835.314941
7.200000 3.040000 3.000000 20.919407 4.467388 457.579132
7.200000 3.040000 3.040000 7.618395 17.273767 356.423004
7.200000 3.040000 3.080000 -8.245477 18.662415 416.273590
7.200000 3.040000 3.120000 -20.322538 10.592587 525.208435
7.200000 3.040000 3.160000 -24.150890 -3.067028 592.672180
7.200000 3.040000 3.200000 -17.270016 -15.938234 552.280762
7.200000 3.080000 2.800000 -41.806133 -24.789183 2362.256348
7.200000 3.080000 2.840000 -23.764252 -46.441971 2721.596436
7.200000 3.080000 2.880000 4.626341 -49.755379 2497.000732
7.200000 3.080000 2.920000 26.902241 -33.572098 1850.816162
7.200000 3.080000 2.960000 32.071533 -8.633042 1103.112671
7.200000 3.080000 3.000000 20.328251 11.087481 536.170044
7.200000 3.080000 3.040000 0.556000 16.738758 280.495178
7.200000 3.080000 3.080000 -15.909554 7.745156 313.101349
7.200000 3.080000 3.120000 -20.635733 -9.449049 515.117981
7.200000 3.080000 3.160000 -11.337446 -24.620728 734.717896
7.200000 3.080000 3.200000 6.740917 -28.271729 844.730591
7.200000 3.120000 2.800000 -16.198204 -32.674541 1330.007446
7.200000 3.120000 2.840000 1.854480 -43.878296 1928.743896
7.200000 3.120000 2.880000 25.039560 -39.580078 2193.562256
7.200000 3.120000 2.920000 40.000706 -19.892235 1995.757568
7.200000 3.120000 2.960000 37.467854 4.663502 1425.588379
7.200000 3.120000 3.000000 19.112009 19.648500 751.332458
7.200000 3.120000 3.040000 -2.885597 16.456694 279.149414
7.200000 3.120000 3.080000 -13.771747 -1.421358 191.681274
7.200000 3.120000 3.120000 -6.437551 -20.455421 459.866333
7.200000 3.120000 3.160000 13.445159 -26.402048 877.840393
7.200000 3.120000 3.200000 31.412647 -14.437868 1195.206421
7.200000 3.160000 2.800000 0.420271 -19.193216 368.556183
7.200000 3.160000 2.840000 13.661508 -27.791727 959.016846
7.200000 3.160000 2.880000 32.908249 -22.448895 1586.905762
7.200000 3.160000 2.920000 43.481697 -1.962470 1894.509277
7.200000 3.160000 2.960000 35.006340 21.077209 1669.692627
7.200000 3.160000 3.000000 12.162873 29.689165 1029.382080
7.200000 3.160000 3.040000 -7.592657 17.620327 368.124359
7.200000 3.160000 3.080000 -8.674444 -4.103009 92.080666
7.200000 3.160000 3.120000 8.798386 -16.208916 340.140533
7.200000 3.160000 3.160000 29.038658 -7.864167 905.088806
7.200000 3.160000 3.200000 34.612854 14.332808 1403.479004
7.200000 3.200000 2.800000 -3.062609 -2.694937 16.642256
7.200000 3.200000 2.840000 9.983284 -14.567616 311.881378
7.200000 3.200000 2.880000 29.753019 -8.502010 957.526367
7.200000 3.200000 2.920000 36.822098 13.820218 1546.865356
7.200000 3.200000 2.960000 22.297449 33.961403 1650.553101
7.200000 3.200000 3.000000 -2.204381 34.222965 1176.070557
7.200000 3.200000 3.040000 -15.154994 15.464154 468.813904
7.200000 3.200000 3.080000 -6.183671 -3.364632 49.558533
7.200000 3.200000 3.120000 13.910805 -3.815153 208.065872
7.200000 3.200000 3.160000 24.243231 14.330425 793.095337
7.200000 3.200000 3.200000 14.288873 33.968666 1358.042114
