#kx 	ky 	kz 	real 	imag 	intensity
5.800000 -2.200000 1.800000 -35.756500 23.945221 1851.900879
5.800000 -2.200000 1.840000 -35.244377 8.746956 1318.675415
5.800000 -2.200000 1.880000 -30.483086 1.859075 932.674683
5.800000 -2.200000 1.920000 -29.767763 -1.505405 888.385986
5.800000 -2.200000 1.960000 -30.593914 -9.395982 1024.271973
5.800000 -2.200000 2.000000 -24.040876 -20.845612 1012.503296
5.800000 -2.200000 2.040000 -7.861862 -25.375551 705.727478
5.800000 -2.200000 2.080000 7.849941 -15.213993 293.087158
5.800000 -2.200000 2.120000 9.823355 4.009655 112.575630
5.800000 -2.200000 2.160000 -4.169409 17.033316 307.517822
5.800000 -2.200000 2.200000 -22.131359 13.725645 678.190369
5.800000 -2.160000 1.800000 -40.879875 -2.555324 1677.693848
5.800000 -2.160000 1.840000 -31.508732 -11.978861 1136.293213
5.800000 -2.160000 1.880000 -24.374928 -13.407415 773.895874
5.800000 -2.160000 1.920000 -22.238939 -14.029896 691.408447
5.800000 -2.160000 1.960000 -20.445515 -17.772953 733.896973
5.800000 -2.160000 2.000000 -14.784172 -21.412779 677.078857
5.800000 -2.160000 2.040000 -7.538015 -20.035072 458.225800
5.800000 -2.160000 2.080000 -4.608202 -14.347515 227.086716
5.800000 -2.160000 2.120000 -7.753447 -10.552788 171.477264
5.800000 -2.160000 2.160000 -11.792789 -13.016567 308.500916
5.800000 -2.160000 2.200000 -10.463772 -18.764385 461.592651
5.800000 -2.120000 1.800000 -26.197050 -24.095547 1266.880859
5.800000 -2.120000 1.840000 -14.309805 -23.610035 762.204285
5.800000 -2.120000 1.880000 -8.861619 -18.622189 425.314209
5.800000 -2.120000 1.920000 -8.825783 -14.758780 295.716034
5.800000 -2.120000 1.960000 -11.064106 -13.874052 314.903748
5.800000 -2.120000 2.000000 -13.804617 -15.883006 442.837341
5.800000 -2.120000 2.040000 -15.670038 -21.328508 700.455383
5.800000 -2.120000 2.080000 -13.441233 -30.074333 1085.132202
5.800000 -2.120000 2.120000 -3.768970 -38.068600 1463.423340
5.800000 -2.120000 2.160000 11.769625 -38.219437 1599.249390
5.800000 -2.120000 2.200000 24.831038 -26.796623 1334.639404
5.800000 -2.080000 1.800000 -3.269973 -27.570379 770.818542
5.800000 -2.080000 1.840000 3.870394 -18.837269 369.822632
5.800000 -2.080000 1.880000 3.328762 -9.965340 110.388649
5.800000 -2.080000 1.920000 -3.084599 -4.628869 30.941174
5.800000 -2.080000 1.960000 -13.070396 -5.934278 206.050934
5.800000 -2.080000 2.000000 -21.654707 -16.792662 750.919800
5.800000 -2.080000 2.040000 -20.384411 -35.664864 1687.506714
5.800000 -2.080000 2.080000 -3.036581 -52.695000 2785.983643
5.800000 -2.080000 2.120000 25.914658 -53.908699 3577.717285
5.800000 -2.080000 2.160000 50.267723 -33.073067 3620.671875
5.800000 -2.080000 2.200000 53.250408 -0.183594 2835.639648
5.800000 -2.040000 1.800000 10.996588 -14.788189 339.615479
5.800000 -2.040000 1.840000 9.717080 -3.934512 109.902031
5.800000 -2.040000 1.880000 1.846744 3.252785 13.991070
5.800000 -2.040000 1.920000 -10.800702 3.464993 128.661346
5.800000 -2.040000 1.960000 -23.545963 -7.645830 612.871155
5.800000 -2.040000 2.000000 -26.191223 -30.424391 1611.623779
5.800000 -2.040000 2.040000 -8.717360 -54.549843 3051.677734
5.800000 -2.040000 2.080000 26.922054 -61.593410 4518.545410
5.800000 -2.040000 2.120000 61.948364 -39.452457 5394.096191
5.800000 -2.040000 2.160000 72.220787 3.617727 5228.930176
5.800000 -2.040000 2.200000 48.656509 41.338013 4076.287109
5.800000 -2.000000 1.800000 8.946246 0.232730 80.089478
5.800000 -2.000000 1.840000 1.011488 6.727613 46.283894
5.800000 -2.000000 1.880000 -10.658630 7.013577 162.796661
5.800000 -2.000000 1.920000 -23.032724 -2.135242 535.065674
5.800000 -2.000000 1.960000 -28.111420 -22.717381 1306.331299
5.800000 -2.000000 2.000000 -15.053185 -47.920925 2523.013428
5.800000 -2.000000 2.040000 18.639889 -60.362511 3991.078369
5.800000 -2.000000 2.080000 57.921871 -43.757629 5269.673340
5.800000 -2.000000 2.120000 76.574417 -0.018804 5863.641602
5.800000 -2.000000 2.160000 58.040874 46.321678 5514.440918
5.800000 -2.000000 2.200000 12.232659 65.023987 4377.756836
5.800000 -1.960000 1.800000 -2.728972 4.563454 28.272400
5.800000 -1.960000 1.840000 -11.891682 3.721592 155.262344
5.800000 -1.960000 1.880000 -20.723141 -3.774695 443.696869
5.800000 -1.960000 1.920000 -24.721434 -19.211351 980.225342
5.800000 -1.960000 1.960000 -16.040947 -39.469944 1815.188477
5.800000 -1.960000 2.000000 9.960331 -52.552612 2860.985352
5.800000 -1.960000 2.040000 44.897820 -43.157291 3878.365967
5.800000 -1.960000 2.080000 67.245750 -7.310694 4575.437012
5.800000 -1.960000 2.120000 57.497253 38.096859 4757.304688
5.800000 -1.960000 2.160000 16.946697 64.219688 4411.358887
5.800000 -1.960000 2.200000 -29.201002 53.191170 3681.999023
5.800000 -1.920000 1.800000 -11.181673 -3.064192 134.419083
5.800000 -1.920000 1.840000 -16.212193 -9.625020 355.476196
5.800000 -1.920000 1.880000 -17.036921 -20.387562 705.909302
5.800000 -1.920000 1.920000 -10.077879 -33.269203 1208.403442
5.800000 -1.920000 1.960000 7.610979 -41.953835 1818.051270
5.800000 -1.920000 2.000000 32.460831 -36.563457 2390.592041
5.800000 -1.920000 2.040000 51.195324 -11.822429 2760.730957
5.800000 -1.920000 2.080000 47.963120 23.784517 2866.164062
5.800000 -1.920000 2.120000 18.634020 49.403934 2787.975586
5.800000 -1.920000 2.160000 -21.459316 46.777885 2648.672852
5.800000 -1.920000 2.200000 -46.825222 16.740082 2472.831543
5.800000 -1.880000 1.800000 -9.613604 -13.802395 282.927490
5.800000 -1.880000 1.840000 -8.172239 -21.749752 539.837219
5.800000 -1.880000 1.880000 -0.993409 -29.038876 844.243164
5.800000 -1.880000 1.920000 11.437101 -31.832840 1144.136963
5.800000 -1.880000 1.960000 26.145523 -26.121532 1365.922852
5.800000 -1.880000 2.000000 36.458450 -9.950270 1428.226440
5.800000 -1.880000 2.040000 34.025097 12.477280 1313.389771
5.800000 -1.880000 2.080000 15.411953 29.825018 1127.059937
5.800000 -1.880000 2.120000 -11.980976 30.041222 1046.018799
5.800000 -1.880000 2.160000 -32.341721 10.716549 1160.831299
5.800000 -1.880000 2.200000 -32.937817 -16.544228 1358.611206
5.800000 -1.840000 1.800000 -1.548878 -18.950115 361.505890
5.800000 -1.840000 1.840000 5.257731 -24.293966 617.840515
5.800000 -1.840000 1.880000 15.711360 -23.976559 821.722168
5.800000 -1.840000 1.920000 24.713963 -16.396839 879.636292
5.800000 -1.840000 1.960000 27.440113 -3.913841 768.277954
5.800000 -1.840000 2.000000 21.623302 8.442913 538.849976
5.800000 -1.840000 2.040000 8.676497 14.949862 298.779968
5.800000 -1.840000 2.080000 -6.169777 11.673767 174.342987
5.800000 -1.840000 2.120000 -15.610535 -0.765315 244.274506
5.800000 -1.840000 2.160000 -14.412441 -16.177116 469.417542
5.800000 -1.840000 2.200000 -3.739603 -25.960167 687.914856
5.800000 -1.800000 1.800000 5.381235 -17.669186 341.157806
5.800000 -1.800000 1.840000 14.781410 -18.705753 568.395264
5.800000 -1.800000 1.880000 23.114006 -11.543494 667.509521
5.800000 -1.800000 1.920000 23.627815 0.261002 558.341797
5.800000 -1.800000 1.960000 15.122868 8.900448 307.919098
5.800000 -1.800000 2.000000 3.024114 8.575239 82.679993
5.800000 -1.800000 2.040000 -4.909689 -0.230878 24.158350
5.800000 -1.800000 2.080000 -4.210981 -11.561417 151.398712
5.800000 -1.800000 2.120000 3.639372 -18.535116 356.795563
5.800000 -1.800000 2.160000 12.830924 -17.957323 487.098083
5.800000 -1.800000 2.200000 17.470612 -12.079655 451.140320
5.840000 -2.200000 1.800000 -52.907921 15.182175 3029.746582
5.840000 -2.200000 1.840000 -52.579361 -3.756632 2778.701416
5.840000 -2.200000 1.880000 -45.544037 -18.424570 2413.724121
5.840000 -2.200000 1.920000 -35.003166 -29.050095 2069.129639
5.840000 -2.200000 1.960000 -20.691078 -35.421917 1682.832886
5.840000 -2.200000 2.000000 -3.567219 -33.814079 1156.117065
5.840000 -2.200000 2.040000 9.871944 -21.429787 556.691040
5.840000 -2.200000 2.080000 11.094339 -3.041954 132.337845
5.840000 -2.200000 2.120000 -1.470613 9.678127 95.828850
5.840000 -2.200000 2.160000 -18.406921 7.733362 398.619659
5.840000 -2.200000 2.200000 -26.439371 -6.197018 737.443359
5.840000 -2.160000 1.800000 -46.273514 -19.867903 2535.971680
5.840000 -2.160000 1.840000 -31.635817 -31.315657 1981.495239
5.840000 -2.160000 1.880000 -15.790414 -32.473637 1303.874268
5.840000 -2.160000 1.920000 -4.699802 -26.150442 705.933777
5.840000 -2.160000 1.960000 -0.577023 -17.264141 298.383514
5.840000 -2.160000 2.000000 -2.546028 -10.135342 109.207413
5.840000 -2.160000 2.040000 -7.951844 -7.615250 121.223846
5.840000 -2.160000 2.080000 -12.968328 -10.704418 282.762115
5.840000 -2.160000 2.120000 -13.585117 -17.612373 494.751129
5.840000 -2.160000 2.160000 -8.034363 -23.697056 626.101440
5.840000 -2.160000 2.200000 1.001741 -24.105078 582.058228
5.840000 -2.120000 1.800000 -16.668182 -38.069225 1727.094238
5.840000 -2.120000 1.840000 3.772917 -32.003838 1038.480469
5.840000 -2.120000 1.880000 14.247221 -13.660648 389.596619
5.840000 -2.120000 1.920000 7.737892 6.301282 99.581131
5.840000 -2.120000 1.960000 -12.391052 14.225735 355.909698
5.840000 -2.120000 2.000000 -32.740974 2.940754 1080.619507
5.840000 -2.120000 2.040000 -38.194530 -21.876392 1937.398682
5.840000 -2.120000 2.080000 -22.968164 -44.414177 2500.155762
5.840000 -2.120000 2.120000 4.407022 -49.711323 2490.637451
5.840000 -2.120000 2.160000 26.920198 -34.728348 1930.755127
5.840000 -2.120000 2.200000 31.673794 -10.500284 1113.485107
5.840000 -2.080000 1.800000 13.487413 -28.395075 988.190613
5.840000 -2.080000 1.840000 24.980471 -4.335732 642.822510
5.840000 -2.080000 1.880000 14.217655 24.568691 805.762329
5.840000 -2.080000 1.920000 -18.803230 38.087997 1804.257080
5.840000 -2.080000 1.960000 -55.929947 20.730999 3557.933350
5.840000 -2.080000 2.000000 -70.396393 -23.010113 5485.117676
5.840000 -2.080000 2.040000 -47.234367 -67.329620 6764.363281
5.840000 -2.080000 2.080000 2.407738 -82.487015 6809.904785
5.840000 -2.080000 2.120000 47.445194 -58.086014 5625.031250
5.840000 -2.080000 2.160000 60.296562 -11.924973 3777.880371
5.840000 -2.080000 2.200000 37.984352 24.226315 2029.725342
5.840000 -2.040000 1.800000 22.868338 -2.710810 530.309387
5.840000 -2.040000 1.840000 14.442682 27.839674 983.638489
5.840000 -2.040000 1.880000 -20.719704 47.125618 2650.130127
5.840000 -2.040000 1.920000 -67.754189 32.614796 5654.354492
5.840000 -2.040000 1.960000 -94.421875 -19.008749 9276.823242
5.840000 -2.040000 2.000000 -74.325874 -81.402344 12150.677734
5.840000 -2.040000 2.040000 -11.660641 -113.505753 13019.526367
5.840000 -2.040000 2.080000 56.658890 -91.239143 11534.810547
5.840000 -2.040000 2.120000 87.423561 -28.792202 8471.870117
5.840000 -2.040000 2.160000 65.004662 31.193409 5198.634766
5.840000 -2.040000 2.200000 12.726604 51.503036 2814.529297
5.840000 -2.000000 1.800000 9.351168 15.941553 341.577454
5.840000 -2.000000 1.840000 -17.538563 36.607124 1647.682739
5.840000 -2.000000 1.880000 -62.368378 30.150057 4798.840332
5.840000 -2.000000 1.920000 -96.566849 -15.693565 9571.444336
5.840000 -2.000000 1.960000 -87.181885 -83.235588 14528.843750
5.840000 -2.000000 2.000000 -26.339827 -130.125809 17626.513672
5.840000 -2.000000 2.040000 54.915428 -120.158798 17453.841797
5.840000 -2.000000 2.080000 105.716705 -54.971195 14197.853516
5.840000 -2.000000 2.120000 94.721649 23.419342 9520.656250
5.840000 -2.000000 2.160000 35.549114 64.609390 5438.113281
5.840000 -2.000000 2.200000 -25.289133 49.354469 3075.403809
5.840000 -1.960000 1.800000 -10.462939 14.092326 308.066772
5.840000 -1.960000 1.840000 -42.526527 15.318338 2043.156982
5.840000 -1.960000 1.880000 -74.733597 -15.454218 5823.943359
5.840000 -1.960000 1.920000 -76.421196 -72.693253 11124.507812
5.840000 -1.960000 1.960000 -30.130362 -123.384186 16131.496094
5.840000 -1.960000 2.000000 46.923912 -128.179901 18631.941406
5.840000 -1.960000 2.040000 108.875473 -74.715591 17436.287109
5.840000 -1.960000 2.080000 114.875771 7.101898 13246.878906
5.840000 -1.960000 2.120000 62.829605 65.230652 8202.597656
5.840000 -1.960000 2.160000 -7.831712 66.084473 4428.493652
5.840000 -1.960000 2.200000 -48.337746 20.086258 2739.995361
5.840000 -1.920000 1.800000 -18.215641 -2.374162 337.446228
5.840000 -1.920000 1.840000 -40.229408 -16.758013 1899.236328
5.840000 -1.920000 1.880000 -47.320793 -53.901676 5144.648438
5.840000 -1.920000 1.920000 -20.172239 -95.103096 9451.517578
5.840000 -1.920000 1.960000 37.722443 -108.480843 13191.075195
5.840000 -1.920000 2.000000 95.170280 -74.449997 14600.183594
5.840000 -1.920000 2.040000 113.718246 -6.387081 12972.634766
5.840000 -1.920000 2.080000 78.832001 54.812801 9218.927734
5.840000 -1.920000 2.120000 14.106853 71.220879 5271.416992
5.840000 -1.920000 2.160000 -36.290306 37.985836 2759.910156
5.840000 -1.920000 2.200000 -42.744064 -13.989756 2022.768311
5.840000 -1.880000 1.800000 -9.584628 -17.027504 381.800964
5.840000 -1.880000 1.840000 -15.382854 -33.928368 1387.766357
5.840000 -1.880000 1.880000 -3.392026 -57.889420 3362.690674
5.840000 -1.880000 1.920000 29.960297 -70.093109 5810.663086
5.840000 -1.880000 1.960000 69.571762 -53.480087 7700.349609
5.840000 -1.880000 2.000000 89.318069 -9.441818 8066.865723
5.840000 -1.880000 2.040000 72.219269 38.510460 6698.678223
5.840000 -1.880000 2.080000 26.428207 60.459763 4353.833008
5.840000 -1.880000 2.120000 -18.702234 43.630081 2253.357422
5.840000 -1.880000 2.160000 -34.999695 3.122395 1234.728027
5.840000 -1.880000 2.200000 -17.431038 -30.597172 1240.028076
5.840000 -1.840000 1.800000 5.397559 -19.295080 401.433746
5.840000 -1.840000 1.840000 10.092007 -27.262669 845.101685
5.840000 -1.840000 1.880000 23.979025 -31.819839 1587.495850
5.840000 -1.840000 1.920000 42.084476 -24.401409 2366.531982
5.840000 -1.840000 1.960000 52.737782 -3.323883 2792.321777
5.840000 -1.840000 2.000000 45.895325 22.183783 2598.500977
5.840000 -1.840000 2.040000 22.329361 36.892433 1859.651978
5.840000 -1.840000 2.080000 -4.767696 30.930752 979.442383
5.840000 -1.840000 2.120000 -18.703741 8.417299 420.680847
5.840000 -1.840000 2.160000 -12.211545 -14.932907 372.113525
5.840000 -1.840000 2.200000 6.939687 -24.145159 631.147949
5.840000 -1.800000 1.800000 14.917147 -11.860587 363.194794
5.840000 -1.800000 1.840000 19.439600 -9.013079 459.133636
5.840000 -1.800000 1.880000 22.436668 -3.015227 512.495667
5.840000 -1.800000 1.920000 21.357067 4.453798 475.960632
5.840000 -1.800000 1.960000 15.707041 10.026281 347.237457
5.840000 -1.800000 2.000000 7.728527 10.756788 175.438629
5.840000 -1.800000 2.040000 1.338783 6.072854 38.671890
5.840000 -1.800000 2.080000 -0.082809 -1.539904 2.378161
5.840000 -1.800000 2.120000 4.033179 -7.750422 76.335571
5.840000 -1.800000 2.160000 10.779100 -9.173836 200.348267
5.840000 -1.800000 2.200000 15.689902 -5.950305 281.579163
5.880000 -2.200000 1.800000 -62.197983 -9.058820 3950.651367
5.880000 -2.200000 1.840000 -56.269531 -32.343704 4212.375488
5.880000 -2.200000 1.880000 -38.844467 -49.583248 3967.391113
5.880000 -2.200000 1.920000 -15.100971 -55.237549 3279.226074
5.880000 -2.200000 1.960000 7.343079 -47.284397 2289.735107
5.880000 -2.200000 2.000000 20.227352 -28.655273 1230.270508
5.880000 -2.200000 2.040000 18.355671 -7.858658 398.689178
5.880000 -2.200000 2.080000 4.033976 4.212303 34.016457
5.880000 -2.200000 2.120000 -12.434578 1.327339 156.380554
5.880000 -2.200000 2.160000 -19.118629 -12.512945 522.095825
5.880000 -2.200000 2.200000 -11.804167 -25.250408 776.921509
5.880000 -2.160000 1.800000 -36.262405 -41.305298 3021.089844
5.880000 -2.160000 1.840000 -13.665188 -48.085835 2498.984863
5.880000 -2.160000 1.880000 7.704437 -38.698120 1556.902954
5.880000 -2.160000 1.920000 16.234863 -18.774841 616.065430
5.880000 -2.160000 1.960000 8.518284 -1.029179 73.620369
5.880000 -2.160000 2.000000 -8.131348 3.698921 79.800827
5.880000 -2.160000 2.040000 -21.091595 -6.119713 482.306274
5.880000 -2.160000 2.080000 -21.349285 -22.307827 953.431152
5.880000 -2.160000 2.120000 -9.200264 -33.352097 1197.007202
5.880000 -2.160000 2.160000 6.995475 -32.414242 1099.619751
5.880000 -2.160000 2.200000 17.312586 -21.247005 751.160889
5.880000 -2.120000 1.800000 4.007368 -42.252674 1801.347412
5.880000 -2.120000 1.840000 25.450329 -21.022228 1089.653320
5.880000 -2.120000 1.880000 23.795578 13.134797 738.752441
5.880000 -2.120000 1.920000 -6.084393 36.369251 1359.742188
5.880000 -2.120000 1.960000 -46.541653 28.051346 2953.003418
5.880000 -2.120000 2.000000 -68.439972 -10.373459 4791.638672
5.880000 -2.120000 2.040000 -54.337677 -54.076366 5876.836914
5.880000 -2.120000 2.080000 -13.132881 -73.787277 5617.035156
5.880000 -2.120000 2.120000 27.251846 -58.763580 4195.821777
5.880000 -2.120000 2.160000 42.543266 -23.705860 2371.897461
5.880000 -2.120000 2.200000 29.927498 5.435383 925.198547
5.880000 -2.080000 1.800000 27.853558 -13.687384 963.165161
5.880000 -2.080000 1.840000 25.092621 28.180363 1423.772461
5.880000 -2.080000 1.880000 -16.584457 60.592892 3946.542725
5.880000 -2.080000 1.920000 -78.989014 49.818321 8721.128906
5.880000 -2.080000 1.960000 -118.798141 -10.637749 14226.160156
5.880000 -2.080000 2.000000 -101.407799 -87.328278 17909.769531
5.880000 -2.080000 2.040000 -32.383057 -129.636627 17854.316406
5.880000 -2.080000 2.080000 43.983437 -110.341949 14109.888672
5.880000 -2.080000 2.120000 79.740082 -47.609554 8625.150391
5.880000 -2.080000 2.160000 60.968929 11.695997 3854.006836
5.880000 -2.080000 2.200000 14.685644 31.475769 1206.392212
5.880000 -2.040000 1.800000 19.822659 18.442236 733.053833
5.880000 -2.040000 1.840000 -16.981194 56.506561 3481.352295
5.880000 -2.040000 1.880000 -86.902199 54.229916 10492.875977
5.880000 -2.040000 1.920000 -144.203232 -10.184765 20898.300781
5.880000 -2.040000 1.960000 -137.366394 -109.504364 30860.730469
5.880000 -2.040000 2.000000 -55.757236 -180.262848 35603.562500
5.880000 -2.040000 2.040000 54.207886 -172.281799 32619.511719
5.880000 -2.040000 2.080000 122.828094 -91.629768 23482.755859
5.880000 -2.040000 2.120000 112.878487 3.503606 12753.828125
5.880000 -2.040000 2.160000 47.188644 51.303551 4858.822266
5.880000 -2.040000 2.200000 -15.831274 34.922283 1470.195190
5.880000 -2.000000 1.800000 -7.676987 28.094372 848.229797
5.880000 -2.000000 1.840000 -65.491936 38.212959 5749.423828
5.880000 -2.000000 1.880000 -128.487885 -10.602942 16621.558594
5.880000 -2.000000 1.920000 -139.413025 -109.507233 31427.826172
5.880000 -2.000000 1.960000 -67.292122 -199.512177 44333.339844
5.880000 -2.000000 2.000000 56.750965 -213.933746 48988.320312
5.880000 -2.000000 2.040000 156.413757 -135.636566 42862.539062
5.880000 -2.000000 2.080000 170.022858 -15.624968 29151.910156
5.880000 -2.000000 2.120000 100.406876 67.139664 14589.275391
5.880000 -2.000000 2.160000 9.293097 69.473038 4912.864746
5.880000 -2.000000 2.200000 -37.525978 13.751719 1597.308716
5.880000 -1.960000 1.800000 -27.948921 11.611734 915.974609
5.880000 -1.960000 1.840000 -79.958267 -11.502275 6525.626953
5.880000 -1.960000 1.880000 -104.466476 -86.472595 18390.753906
5.880000 -1.960000 1.920000 -58.378006 -174.589874 33889.617188
5.880000 -1.960000 1.960000 51.784462 -209.704742 46657.707031
5.880000 -1.960000 2.000000 163.504822 -153.457153 50282.921875
5.880000 -1.960000 2.040000 203.985382 -33.565685 42736.691406
5.880000 -1.960000 2.080000 150.083679 73.701042 27956.955078
5.880000 -1.960000 2.120000 47.595276 104.380852 13160.672852
5.880000 -1.960000 2.160000 -28.489944 56.636009 4019.314453
5.880000 -1.960000 2.200000 -35.944489 -14.691348 1507.841919
5.880000 -1.920000 1.800000 -24.974638 -12.272280 774.341431
5.880000 -1.920000 1.840000 -51.170074 -51.926239 5314.710938
5.880000 -1.920000 1.880000 -33.708710 -116.935608 14810.213867
5.880000 -1.920000 1.920000 41.133545 -158.901825 26941.757812
5.880000 -1.920000 1.960000 137.843201 -132.529633 36564.851562
5.880000 -1.920000 2.000000 192.977524 -39.002285 38761.503906
5.880000 -1.920000 2.040000 166.468369 67.495453 32267.353516
5.880000 -1.920000 2.080000 77.112991 120.599625 20490.683594
5.880000 -1.920000 2.120000 -11.790886 95.111214 9185.167969
5.880000 -1.920000 2.160000 -44.672840 24.775318 2609.479004
5.880000 -1.920000 2.200000 -16.348263 -30.562618 1201.339355
5.880000 -1.880000 1.800000 -5.303631 -22.480965 533.522278
5.880000 -1.880000 1.840000 -6.412117 -54.958687 3061.572510
5.880000 -1.880000 1.880000 28.697769 -87.130280 8415.247070
5.880000 -1.880000 1.920000 90.402122 -83.631523 15166.775391
5.880000 -1.880000 1.960000 139.522751 -29.803837 20354.867188
5.880000 -1.880000 2.000000 137.216232 49.448303 21273.429688
5.880000 -1.880000 2.040000 79.397438 105.217010 17374.572266
5.880000 -1.880000 2.080000 3.218754 103.522232 10727.212891
5.880000 -1.880000 2.120000 -42.232712 53.029060 4595.683105
5.880000 -1.880000 2.160000 -35.262894 -3.793097 1257.859253
5.880000 -1.880000 2.200000 4.316372 -27.460743 772.723450
5.880000 -1.840000 1.800000 12.367094 -14.242288 355.787781
5.880000 -1.840000 1.840000 19.400246 -27.732231 1145.446167
5.880000 -1.840000 1.880000 43.373627 -32.287514 2923.754883
5.880000 -1.840000 1.920000 70.498184 -13.264221 5145.933594
5.880000 -1.840000 1.960000 78.070236 26.008827 6771.420898
5.880000 -1.840000 2.000000 54.173607 63.068039 6912.357422
5.880000 -1.840000 2.040000 10.277893 73.229584 5468.207031
5.880000 -1.840000 2.080000 -26.178535 50.356880 3221.131104
5.880000 -1.840000 2.120000 -33.694954 12.423210 1289.686157
5.880000 -1.840000 2.160000 -13.587910 -13.632786 370.484131
5.880000 -1.840000 2.200000 13.207094 -13.949657 369.020264
5.880000 -1.800000 1.800000 16.434481 0.864291 270.839172
5.880000 -1.800000 1.840000 15.509623 0.232084 240.602249
5.880000 -1.800000 1.880000 18.394146 1.003529 339.351685
5.880000 -1.800000 1.920000 21.381290 6.645737 501.325378
5.880000 -1.800000 1.960000 19.091141 15.499268 604.698975
5.880000 -1.800000 2.000000 9.893509 21.480740 559.303711
5.880000 -1.800000 2.040000 -1.674042 19.332388 376.543640
5.880000 -1.800000 2.080000 -8.241215 9.732964 162.648193
5.880000 -1.800000 2.120000 -5.908976 -0.811962 35.575275
5.880000 -1.800000 2.160000 2.415670 -5.450178 35.539906
5.880000 -1.800000 2.200000 9.908056 -2.684435 105.375771
5.920000 -2.200000 1.800000 -50.468891 -37.852547 3979.924316
5.920000 -2.200000 1.840000 -34.613953 -59.245361 4708.138672
5.920000 -2.200000 1.880000 -7.221550 -68.046600 4682.490723
5.920000 -2.200000 1.920000 20.525894 -58.701591 3867.189209
5.920000 -2.200000 1.960000 36.101280 -35.184479 2541.250000
5.920000 -2.200000 2.000000 33.084896 -9.570457 1186.203979
5.920000 -2.200000 2.040000 15.698611 4.728668 268.806702
5.920000 -2.200000 2.080000 -3.180790 1.541893 12.494859
5.920000 -2.200000 2.120000 -10.375824 -13.532825 290.795074
5.920000 -2.200000 2.160000 -1.814629 -26.878510 725.747131
5.920000 -2.200000 2.200000 14.392951 -27.070225 939.954102
5.920000 -2.160000 1.800000 -10.526628 -51.339993 2746.604736
5.920000 -2.160000 1.840000 14.608410 -45.974827 2327.090332
5.920000 -2.160000 1.880000 29.242012 -23.164879 1391.706909
5.920000 -2.160000 1.920000 22.355675 2.896450 508.165619
5.920000 -2.160000 1.960000 -1.220913 14.023476 198.148499
5.920000 -2.160000 2.000000 -23.862968 2.752159 577.015686
5.920000 -2.160000 2.040000 -28.943974 -21.756989 1311.120117
5.920000 -2.160000 2.080000 -13.387058 -41.370586 1890.738770
5.920000 -2.160000 2.120000 11.238544 -43.049385 1979.554443
5.920000 -2.160000 2.160000 28.774105 -27.489824 1583.639526
5.920000 -2.160000 2.200000 30.394005 -6.403434 964.799500
5.920000 -2.120000 1.800000 23.716589 -28.838177 1394.116943
5.920000 -2.120000 1.840000 31.290504 6.219961 1017.783569
5.920000 -2.120000 1.880000 4.327682 40.543671 1662.518066
5.920000 -2.120000 1.920000 -46.465889 42.511795 3966.331543
5.920000 -2.120000 1.960000 -85.665428 1.321335 7340.311523
5.920000 -2.120000 2.000000 -81.414528 -59.440369 10161.482422
5.920000 -2.120000 2.040000 -33.326576 -98.822777 10876.601562
5.920000 -2.120000 2.080000 26.334824 -91.753777 9112.279297
5.920000 -2.120000 2.120000 59.519768 -48.295807 5875.087891
5.920000 -2.120000 2.160000 52.360176 -2.320400 2746.972412
5.920000 -2.120000 2.200000 21.844851 18.091217 804.489624
5.920000 -2.080000 1.800000 25.770214 9.491840 754.198975
5.920000 -2.080000 1.840000 -5.832493 52.160904 2754.778076
5.920000 -2.080000 1.880000 -75.318550 57.139397 8937.794922
5.920000 -2.080000 1.920000 -137.030807 -1.393738 18779.384766
5.920000 -2.080000 1.960000 -137.244385 -98.591003 28556.207031
5.920000 -2.080000 2.000000 -62.846306 -171.592575 33393.671875
5.920000 -2.080000 2.040000 42.078331 -169.901596 30637.138672
5.920000 -2.080000 2.080000 110.323227 -98.083527 21791.593750
5.920000 -2.080000 2.120000 106.195267 -10.734291 11392.659180
5.920000 -2.080000 2.160000 50.799332 35.014542 3806.590088
5.920000 -2.080000 2.200000 -2.955945 24.593637 613.584595
5.920000 -2.040000 1.800000 -2.167158 30.928940 961.295898
5.920000 -2.040000 1.840000 -68.922081 47.700562 7025.596680
5.920000 -2.040000 1.880000 -145.529892 -5.048935 21204.441406
5.920000 -2.040000 1.920000 -163.281921 -118.846512 40785.480469
5.920000 -2.040000 1.960000 -84.545227 -224.867981 57713.503906
5.920000 -2.040000 2.000000 55.005363 -245.573120 63331.746094
5.920000 -2.040000 2.040000 168.164795 -161.790817 54455.664062
5.920000 -2.040000 2.080000 186.508606 -31.783072 35795.625000
5.920000 -2.040000 2.120000 115.322235 57.486511 16603.916016
5.920000 -2.040000 2.160000 23.048923 61.842144 4355.703613
5.920000 -2.040000 2.200000 -21.987244 8.665862 558.536011
5.920000 -2.000000 1.800000 -32.500931 20.052538 1458.414795
5.920000 -2.000000 1.840000 -104.648361 -7.840332 11012.750000
5.920000 -2.000000 1.880000 -141.574341 -107.467010 31592.453125
5.920000 -2.000000 1.920000 -83.780075 -226.723541 58422.664062
5.920000 -2.000000 1.960000 60.035084 -276.455261 80031.718750
5.920000 -2.000000 2.000000 206.323029 -206.448975 85190.375000
5.920000 -2.000000 2.040000 260.484589 -54.787704 70853.914062
5.920000 -2.000000 2.080000 195.583771 79.472603 44568.906250
5.920000 -2.000000 2.120000 72.813744 117.825928 19184.791016
5.920000 -2.000000 2.160000 -14.736168 63.100365 4198.810547
5.920000 -2.000000 2.200000 -20.662954 -14.366939 633.366577
5.920000 -1.960000 1.800000 -38.908787 -9.020298 1595.259399
5.920000 -1.960000 1.840000 -83.301285 -70.377609 11892.111328
5.920000 -1.960000 1.880000 -59.661781 -173.122528 33530.937500
5.920000 -1.960000 1.920000 53.912216 -241.131317 61050.839844
5.920000 -1.960000 1.960000 201.758301 -204.278412 82436.078125
5.920000 -1.960000 2.000000 286.577332 -65.889183 86467.953125
5.920000 -1.960000 2.040000 249.929291 90.669395 70685.585938
5.920000 -1.960000 2.080000 123.277573 167.893524 43385.597656
5.920000 -1.960000 2.120000 0.616455 133.574524 17842.535156
5.920000 -1.960000 2.160000 -41.826302 40.982002 3428.963867
5.920000 -1.960000 2.200000 -3.837562 -25.644812 672.383240
5.920000 -1.920000 1.800000 -19.511982 -28.630384 1200.416382
5.920000 -1.920000 1.840000 -24.798868 -92.322006 9138.335938
5.920000 -1.920000 1.880000 38.969006 -156.364609 25968.474609
5.920000 -1.920000 1.920000 153.476593 -153.985092 47266.472656
5.920000 -1.920000 1.960000 245.339462 -58.568245 63621.691406
5.920000 -1.920000 2.000000 244.070496 82.785339 66423.820312
5.920000 -1.920000 2.040000 144.830780 181.586990 53949.789062
5.920000 -1.920000 2.080000 15.798729 180.343002 32773.199219
5.920000 -1.920000 2.120000 -58.764332 98.652618 13185.585938
5.920000 -1.920000 2.160000 -47.184296 11.079727 2349.117920
5.920000 -1.920000 2.200000 11.755040 -20.019156 538.947571
5.920000 -1.880000 1.800000 5.137863 -24.161413 610.171509
5.920000 -1.880000 1.840000 23.048016 -64.928154 4746.875977
5.920000 -1.880000 1.880000 85.409348 -81.634338 13958.921875
5.920000 -1.880000 1.920000 156.050323 -37.750893 25776.832031
5.920000 -1.880000 1.960000 178.095932 56.830879 34947.910156
5.920000 -1.880000 2.000000 123.953445 145.905319 36652.820312
5.920000 -1.880000 2.040000 23.515282 171.256699 29881.826172
5.920000 -1.880000 2.080000 -58.269775 121.764000 18221.837891
5.920000 -1.880000 2.120000 -75.084335 41.516754 7361.297852
5.920000 -1.880000 2.160000 -34.718117 -10.082756 1307.009644
5.920000 -1.880000 2.200000 14.721006 -7.808309 277.677704
5.920000 -1.840000 1.800000 14.461157 -4.632082 230.581238
5.920000 -1.840000 1.840000 30.077034 -20.748188 1335.115234
5.920000 -1.840000 1.880000 63.717979 -14.584068 4272.675781
5.920000 -1.840000 1.920000 87.346924 24.615036 8235.384766
5.920000 -1.840000 1.960000 73.627365 77.618866 11445.677734
5.920000 -1.840000 2.000000 22.463394 108.294601 12232.325195
5.920000 -1.840000 2.040000 -35.731606 94.306313 10170.428711
5.920000 -1.840000 2.080000 -64.639824 46.839935 6372.286133
5.920000 -1.840000 2.120000 -52.002594 0.693279 2704.750488
5.920000 -1.840000 2.160000 -17.396740 -15.679283 548.486511
5.920000 -1.840000 2.200000 7.931726 -1.916626 66.585724
5.920000 -1.800000 1.800000 6.332767 10.528139 150.945648
5.920000 -1.800000 1.840000 7.045307 2.453979 55.658367
5.920000 -1.800000 1.880000 16.073761 1.700943 261.259003
5.920000 -1.800000 1.920000 22.517506 12.585991 665.445190
5.920000 -1.800000 1.960000 16.564285 27.823349 1048.514282
5.920000 -1.800000 2.000000 -0.989990 34.776653 1210.395752
5.920000 -1.800000 2.040000 -19.051876 26.883224 1085.681763
5.920000 -1.800000 2.080000 -25.975317 9.371368 762.539673
5.920000 -1.800000 2.120000 -19.302038 -5.785053 406.035522
5.920000 -1.800000 2.160000 -6.637604 -10.287907 149.898804
5.920000 -1.800000 2.200000 2.171165 -5.341412 33.244633
5.960000 -2.200000 1.800000 -19.267637 -51.266418 2999.487549
5.960000 -2.200000 1.840000 2.952936 -62.160583 3872.657959
5.960000 -2.200000 1.880000 29.695801 -56.446327 4068.028320
5.960000 -2.200000 1.920000 47.475441 -34.616562 3452.223877
5.960000 -2.200000 1.960000 46.987556 -7.444199 2263.246582
5.960000 -2.200000 2.000000 29.927101 10.404327 1003.881470
5.960000 -2.200000 2.040000 8.592308 10.215233 178.178741
5.960000 -2.200000 2.080000 -2.261917 -4.369247 24.206593
5.960000 -2.200000 2.120000 3.981663 -19.673977 402.919006
5.960000 -2.200000 2.160000 20.762846 -22.077187 918.497925
5.960000 -2.200000 2.200000 33.382080 -8.510992 1186.800293
5.960000 -2.160000 1.800000 16.492153 -39.369370 1821.938354
5.960000 -2.160000 1.840000 33.091427 -22.009407 1579.456543
5.960000 -2.160000 1.880000 30.668098 4.301399 959.034302
5.960000 -2.160000 1.920000 7.922607 20.101738 466.847565
5.960000 -2.160000 1.960000 -19.351500 12.230080 524.055359
5.960000 -2.160000 2.000000 -30.595798 -14.438187 1144.564087
5.960000 -2.160000 2.040000 -17.111191 -40.622635 1942.991333
5.960000 -2.160000 2.080000 11.573090 -47.982574 2436.263672
5.960000 -2.160000 2.120000 36.173584 -32.627022 2373.050781
5.960000 -2.160000 2.160000 42.547043 -6.068611 1847.078857
5.960000 -2.160000 2.200000 30.437801 15.261187 1159.363647
5.960000 -2.120000 1.800000 27.357794 -4.182724 765.944031
5.960000 -2.120000 1.840000 12.315121 29.862312 1043.419922
5.960000 -2.120000 1.880000 -33.811722 42.001114 2907.326172
5.960000 -2.120000 1.920000 -81.077560 9.478355 6663.410156
5.960000 -2.120000 1.960000 -89.854698 -55.011711 11100.155273
5.960000 -2.120000 2.000000 -46.124405 -109.301315 14074.238281
5.960000 -2.120000 2.040000 24.033791 -115.803841 13988.152344
5.960000 -2.120000 2.080000 75.280823 -72.558220 10931.897461
5.960000 -2.120000 2.120000 79.896370 -12.900311 6549.847656
5.960000 -2.120000 2.160000 47.010712 24.404774 2805.600098
5.960000 -2.120000 2.200000 8.961292 25.556757 733.452576
5.960000 -2.080000 1.800000 5.225174 23.387306 574.268494
5.960000 -2.080000 1.840000 -49.077061 42.253136 4193.885254
5.960000 -2.080000 1.880000 -115.968582 2.642975 13455.697266
5.960000 -2.080000 1.920000 -136.044983 -91.393051 26860.927734
5.960000 -2.080000 1.960000 -74.679863 -182.741302 38971.464844
5.960000 -2.080000 2.000000 40.493889 -204.856659 43606.003906
5.960000 -2.080000 2.040000 137.048828 -139.334396 38196.453125
5.960000 -2.080000 2.080000 156.875763 -32.824677 25687.464844
5.960000 -2.080000 2.120000 102.436836 43.234543 12362.531250
5.960000 -2.080000 2.160000 28.320351 51.753693 3480.486816
5.960000 -2.080000 2.200000 -10.539160 13.473122 292.598907
5.960000 -2.040000 1.800000 -28.358879 19.975744 1203.256348
5.960000 -2.040000 1.840000 -99.687851 -4.568733 9958.541016
5.960000 -2.040000 1.880000 -138.540955 -101.012985 29397.218750
5.960000 -2.040000 1.920000 -84.588821 -218.883499 55065.253906
5.960000 -2.040000 1.960000 54.821693 -269.940308 75873.187500
5.960000 -2.040000 2.000000 197.991180 -204.208801 80901.742188
5.960000 -2.040000 2.040000 252.510620 -58.648552 67201.265625
5.960000 -2.040000 2.080000 192.580322 70.737381 42090.957031
5.960000 -2.040000 2.120000 77.581886 109.105957 17923.058594
5.960000 -2.040000 2.160000 -4.101910 60.514038 3678.774414
5.960000 -2.040000 2.200000 -10.563460 -7.895850 173.931152
5.960000 -2.000000 1.800000 -42.856743 -8.810799 1914.330566
5.960000 -2.000000 1.840000 -93.671417 -77.183090 14731.563477
5.960000 -2.000000 1.880000 -68.163208 -193.142029 41950.066406
5.960000 -2.000000 1.920000 58.958630 -270.406982 76596.054688
5.960000 -2.000000 1.960000 224.593948 -229.856232 103276.328125
5.960000 -2.000000 2.000000 319.337769 -76.137878 107773.585938
5.960000 -2.000000 2.040000 279.181030 96.628181 87279.054688
5.960000 -2.000000 2.080000 141.263107 180.924240 52688.843750
5.960000 -2.000000 2.120000 10.050636 144.199463 20894.500000
5.960000 -2.000000 2.160000 -33.524406 47.692123 3398.424316
5.960000 -2.000000 2.200000 6.156227 -17.622688 348.458282
5.960000 -1.960000 1.800000 -27.352348 -35.201454 1987.293213
5.960000 -1.960000 1.840000 -33.851166 -118.693817 15234.124023
5.960000 -1.960000 1.880000 49.551853 -202.018372 43266.808594
5.960000 -1.960000 1.920000 198.061890 -198.366730 78577.875000
5.960000 -1.960000 1.960000 315.737640 -74.721352 105273.539062
5.960000 -1.960000 2.000000 312.732056 105.994003 109036.062500
5.960000 -1.960000 2.040000 186.018707 229.835800 87427.453125
5.960000 -1.960000 2.080000 25.193146 226.492767 51933.667969
5.960000 -1.960000 2.120000 -64.226372 125.503220 19876.085938
5.960000 -1.960000 2.160000 -47.778099 22.566132 2791.977051
5.960000 -1.960000 2.200000 20.810020 -8.336422 502.552887
5.960000 -1.920000 1.800000 1.116879 -36.705044 1348.507690
5.960000 -1.920000 1.840000 31.852356 -100.903229 11196.034180
5.960000 -1.920000 1.880000 130.309296 -125.259102 32670.355469
5.960000 -1.920000 1.920000 238.564011 -55.327606 59973.933594
5.960000 -1.920000 1.960000 269.520691 90.209938 80779.242188
5.960000 -1.920000 2.000000 184.596664 223.316772 83946.312500
5.960000 -1.920000 2.040000 33.645702 257.560944 67469.671875
5.960000 -1.920000 2.080000 -84.335999 181.705231 40129.351562
5.960000 -1.920000 2.120000 -104.513771 66.274292 15315.410156
5.960000 -1.920000 2.160000 -45.475189 -1.789051 2071.193604
5.960000 -1.920000 2.200000 18.688015 7.510698 405.652496
5.960000 -1.880000 1.800000 16.484728 -16.200571 534.204712
5.960000 -1.880000 1.840000 56.359200 -47.298809 5413.536621
5.960000 -1.880000 1.880000 127.192688 -28.579876 16994.789062
5.960000 -1.880000 1.920000 170.842438 55.142673 32227.853516
5.960000 -1.880000 1.960000 136.928757 159.807739 44288.000000
5.960000 -1.880000 2.000000 32.714386 213.827698 46792.515625
5.960000 -1.880000 2.040000 -77.455383 179.649643 38273.332031
5.960000 -1.880000 2.080000 -125.498199 86.863754 23295.109375
5.960000 -1.880000 2.120000 -96.040413 5.022770 9248.989258
5.960000 -1.880000 2.160000 -33.475674 -17.111401 1413.420776
5.960000 -1.880000 2.200000 3.698790 11.937313 156.180496
5.960000 -1.840000 1.800000 9.084944 4.393911 101.842659
5.960000 -1.840000 1.840000 34.836823 -5.885956 1248.248779
5.960000 -1.840000 1.880000 67.224091 18.528191 4862.372070
5.960000 -1.840000 1.920000 69.763885 72.065910 10060.495117
5.960000 -1.840000 1.960000 25.639526 117.966385 14573.454102
5.960000 -1.840000 2.000000 -43.134758 119.311966 16095.953125
5.960000 -1.840000 2.040000 -92.564583 72.517082 13826.929688
5.960000 -1.840000 2.080000 -94.300880 10.784264 9008.957031
5.960000 -1.840000 2.120000 -58.283134 -25.530136 4048.711670
5.960000 -1.840000 2.160000 -20.025505 -22.634224 913.328979
5.960000 -1.840000 2.200000 -7.208920 0.181438 52.001457
5.960000 -1.800000 1.800000 -8.099539 7.944784 128.722122
5.960000 -1.800000 1.840000 1.707323 -2.305683 8.231127
5.960000 -1.800000 1.880000 15.745102 3.728115 261.807068
5.960000 -1.800000 1.920000 17.391869 22.446735 806.333008
5.960000 -1.800000 1.960000 0.627884 37.617050 1415.436768
5.960000 -1.800000 2.000000 -24.355766 35.199402 1832.201294
5.960000 -1.800000 2.040000 -40.598995 15.574692 1890.849487
5.960000 -1.800000 2.080000 -39.075386 -7.971359 1590.428345
5.960000 -1.800000 2.120000 -24.743183 -21.713335 1083.694092
5.960000 -1.800000 2.160000 -9.763079 -22.123058 584.747437
5.960000 -1.800000 2.200000 -2.328245 -15.637402 249.949066
6.000000 -2.200000 1.800000 12.371397 -37.698875 1574.256714
6.000000 -2.200000 1.840000 30.460585 -35.858971 2213.712891
6.000000 -2.200000 1.880000 44.915485 -21.684635 2487.624268
6.000000 -2.200000 1.920000 47.335449 -0.751846 2241.209961
6.000000 -2.200000 1.960000 35.873466 16.362350 1554.632080
6.000000 -2.200000 2.000000 17.397694 20.609718 727.440247
6.000000 -2.200000 2.040000 3.795715 11.028921 136.044556
6.000000 -2.200000 2.080000 3.892494 -3.599745 28.109673
6.000000 -2.200000 2.120000 16.409634 -10.414627 377.740509
6.000000 -2.200000 2.160000 30.048706 -2.233511 907.913330
6.000000 -2.200000 2.200000 31.833046 16.182056 1275.201782
6.000000 -2.160000 1.800000 26.064072 -11.512100 811.864258
6.000000 -2.160000 1.840000 26.823492 7.720352 779.103577
6.000000 -2.160000 1.880000 9.917873 22.078251 585.813354
6.000000 -2.160000 1.920000 -14.168627 17.570152 509.460266
6.000000 -2.160000 1.960000 -27.032669 -5.385483 759.768616
6.000000 -2.160000 2.000000 -17.654320 -31.415611 1298.615601
6.000000 -2.160000 2.040000 8.672699 -42.319103 1866.122192
6.000000 -2.160000 2.080000 34.922413 -30.886936 2173.577637
6.000000 -2.160000 2.120000 45.464821 -5.031189 2092.362793
6.000000 -2.160000 2.160000 36.305870 19.620802 1703.092041
6.000000 -2.160000 2.200000 15.376884 31.069973 1201.791748
6.000000 -2.120000 1.800000 11.262288 14.284683 330.891296
6.000000 -2.120000 1.840000 -19.179174 30.018349 1268.942017
6.000000 -2.120000 1.880000 -61.031979 11.157265 3849.386963
6.000000 -2.120000 1.920000 -77.812599 -42.783077 7885.192383
6.000000 -2.120000 1.960000 -46.119377 -99.020554 11932.067383
6.000000 -2.120000 2.000000 20.504074 -116.834656 14070.753906
6.000000 -2.120000 2.040000 80.334534 -82.222000 13214.094727
6.000000 -2.120000 2.080000 97.385048 -19.496902 9863.976562
6.000000 -2.120000 2.120000 69.186165 30.267773 5702.863770
6.000000 -2.120000 2.160000 24.099430 42.710014 2404.927979
6.000000 -2.120000 2.200000 -6.186825 25.050434 665.801025
6.000000 -2.080000 1.800000 -18.770931 15.441847 590.798523
6.000000 -2.080000 1.840000 -70.700386 0.155022 4998.568359
6.000000 -2.080000 1.880000 -101.021988 -68.821030 14941.776367
6.000000 -2.080000 1.920000 -63.854546 -155.557449 28275.521484
6.000000 -2.080000 1.960000 37.047272 -194.934814 39372.082031
6.000000 -2.080000 2.000000 142.604446 -149.023285 42543.968750
6.000000 -2.080000 2.040000 184.854950 -43.397617 36054.703125
6.000000 -2.080000 2.080000 143.607803 52.701183 23400.615234
6.000000 -2.080000 2.120000 60.358669 84.356964 10759.265625
6.000000 -2.080000 2.160000 -1.768244 52.781727 2789.037354
6.000000 -2.080000 2.200000 -11.859295 4.349896 159.564468
6.000000 -2.040000 1.800000 -36.044403 -9.589367 1391.154907
6.000000 -2.040000 1.840000 -78.897858 -66.259811 10615.234375
6.000000 -2.040000 1.880000 -57.670475 -164.293518 30318.242188
6.000000 -2.040000 1.920000 50.254890 -230.105164 55473.941406
6.000000 -2.040000 1.960000 191.368195 -195.664154 74906.250000
6.000000 -2.040000 2.000000 272.233093 -64.705185 78297.617188
6.000000 -2.040000 2.040000 238.323517 82.535950 63610.281250
6.000000 -2.040000 2.080000 121.426971 154.774628 38699.695312
6.000000 -2.040000 2.120000 10.079224 124.855682 15690.532227
6.000000 -2.040000 2.160000 -27.961308 44.819813 2790.650391
6.000000 -2.040000 2.200000 2.753747 -9.323555 94.511803
6.000000 -2.000000 1.800000 -24.574780 -37.765404 2030.145508
6.000000 -2.000000 1.840000 -29.732553 -117.692535 14735.557617
6.000000 -2.000000 1.880000 52.005611 -197.345184 41649.703125
6.000000 -2.000000 1.920000 196.450989 -192.097092 75494.281250
6.000000 -2.000000 1.960000 309.758057 -70.271667 100888.164062
6.000000 -2.000000 2.000000 304.830139 105.768852 104108.460938
6.000000 -2.000000 2.040000 180.285126 224.800781 83038.117188
6.000000 -2.000000 2.080000 24.656055 219.881500 48955.796875
6.000000 -2.000000 2.120000 -60.151180 122.040985 18512.166016
6.000000 -2.000000 2.160000 -43.400452 24.959274 2506.564697
6.000000 -2.000000 2.200000 20.354843 -1.846382 417.728760
6.000000 -1.960000 1.800000 4.440922 -43.803391 1938.458862
6.000000 -1.960000 1.840000 40.989372 -113.568680 14577.973633
6.000000 -1.960000 1.880000 151.636429 -137.596848 41926.500000
6.000000 -1.960000 1.920000 270.756409 -56.273270 76475.710938
6.000000 -1.960000 1.960000 301.418213 107.395172 102386.656250
6.000000 -1.960000 2.000000 202.955566 253.708603 105559.015625
6.000000 -1.960000 2.040000 34.104065 287.560974 83854.398438
6.000000 -1.960000 2.080000 -93.953308 200.258698 48930.769531
6.000000 -1.960000 2.120000 -112.075638 73.575974 17974.371094
6.000000 -1.960000 2.160000 -45.848404 3.374870 2113.465820
6.000000 -1.960000 2.200000 20.179876 17.949295 729.404602
6.000000 -1.920000 1.800000 24.330830 -24.370377 1185.904541
6.000000 -1.920000 1.840000 80.605820 -61.338982 10259.769531
6.000000 -1.920000 1.880000 173.448837 -30.835670 31035.337891
6.000000 -1.920000 1.920000 225.788254 83.223915 57906.554688
6.000000 -1.920000 1.960000 174.406403 219.451553 78576.578125
6.000000 -1.920000 2.000000 34.020363 284.017212 81823.156250
6.000000 -1.920000 2.040000 -107.646683 232.355438 65576.859375
6.000000 -1.920000 2.080000 -163.386353 109.175682 38614.429688
6.000000 -1.920000 2.120000 -119.536423 7.424171 14344.074219
6.000000 -1.920000 2.160000 -39.730659 -13.657099 1765.041626
6.000000 -1.920000 2.200000 0.229765 27.227440 741.386292
6.000000 -1.880000 1.800000 19.376331 0.142288 375.462463
6.000000 -1.880000 1.840000 67.762650 -6.944492 4640.002930
6.000000 -1.880000 1.880000 117.431152 44.484295 15768.927734
6.000000 -1.880000 1.920000 110.261314 137.060959 30943.265625
6.000000 -1.880000 1.960000 26.715904 206.422882 43324.144531
6.000000 -1.880000 2.000000 -88.539001 196.089996 46290.441406
6.000000 -1.880000 2.040000 -161.418503 109.799896 38111.953125
6.000000 -1.880000 2.080000 -152.217010 9.400063 23258.378906
6.000000 -1.880000 2.120000 -87.315086 -40.201382 9240.075195
6.000000 -1.880000 2.160000 -29.712730 -25.426094 1529.332642
6.000000 -1.880000 2.200000 -20.076715 13.053728 573.474304
6.000000 -1.840000 1.800000 -1.076708 7.274929 54.083889
6.000000 -1.840000 1.840000 27.924629 10.387447 887.683960
6.000000 -1.840000 1.880000 44.208313 48.499092 4306.536621
6.000000 -1.840000 1.920000 18.236145 96.280823 9602.553711
6.000000 -1.840000 1.960000 -44.181870 112.018494 14500.179688
6.000000 -1.840000 2.000000 -103.324951 76.273285 16493.660156
6.000000 -1.840000 2.040000 -120.047264 10.860245 14529.291016
6.000000 -1.840000 2.080000 -89.866302 -40.781807 9739.107422
6.000000 -1.840000 2.120000 -43.815071 -52.053558 4629.333496
6.000000 -1.840000 2.160000 -17.348595 -32.866348 1381.170654
6.000000 -1.840000 2.200000 -19.599821 -13.942386 578.543091
6.000000 -1.800000 1.800000 -14.428789 -5.444069 237.827850
6.000000 -1.800000 1.840000 3.049202 -7.602385 67.093880
6.000000 -1.800000 1.880000 12.653854 8.316936 229.291443
6.000000 -1.800000 1.920000 2.041138 27.252430 746.861206
6.000000 -1.800000 1.960000 -22.814209 30.733467 1465.034180
6.000000 -1.800000 2.000000 -43.727608 13.604759 2097.193115
6.000000 -1.800000 2.040000 -46.996101 -12.802063 2372.526367
6.000000 -1.800000 2.080000 -33.819199 -32.523613 2201.523438
6.000000 -1.800000 2.120000 -15.877300 -38.507179 1734.891479
6.000000 -1.800000 2.160000 -3.069902 -35.127594 1243.372192
6.000000 -1.800000 2.200000 3.261627 -30.106178 917.020142
6.040000 -2.200000 1.800000 22.453266 -6.355602 544.542847
6.040000 -2.200000 1.840000 27.845009 0.213923 775.390320
6.040000 -2.200000 1.880000 28.753569 9.264378 912.596375
6.040000 -2.200000 1.920000 24.387093 17.776169 910.722473
6.040000 -2.200000 1.960000 15.691845 22.386730 747.399658
6.040000 -2.200000 2.000000 6.171616 20.470612 457.134766
6.040000 -2.200000 2.040000 1.299896 12.753181 164.333359
6.040000 -2.200000 2.080000 4.769737 4.911922 46.877373
6.040000 -2.200000 2.120000 13.950850 4.536730 215.208130
6.040000 -2.200000 2.160000 19.974169 14.396435 606.224731
6.040000 -2.200000 2.200000 14.437802 28.176514 1002.366028
6.040000 -2.160000 1.800000 11.894668 12.424196 295.843781
6.040000 -2.160000 1.840000 0.755354 20.806023 433.461121
6.040000 -2.160000 1.880000 -15.795204 16.058243 507.355652
6.040000 -2.160000 1.920000 -24.043781 -2.053993 582.322266
6.040000 -2.160000 1.960000 -15.572342 -22.102108 731.000977
6.040000 -2.160000 2.000000 5.631638 -30.375690 954.397888
6.040000 -2.160000 2.040000 26.772991 -21.435440 1176.271118
6.040000 -2.160000 2.080000 36.105400 -1.003738 1304.607422
6.040000 -2.160000 2.120000 30.173855 19.622927 1295.520752
6.040000 -2.160000 2.160000 13.769761 31.307922 1169.792236
6.040000 -2.160000 2.200000 -4.921718 30.980427 984.010193
6.040000 -2.120000 1.800000 -11.746635 13.060011 308.547333
6.040000 -2.120000 1.840000 -38.908802 5.661842 1545.951416
6.040000 -2.120000 1.880000 -54.868252 -30.253059 3925.772705
6.040000 -2.120000 1.920000 -35.483963 -75.323509 6932.742188
6.040000 -2.120000 1.960000 16.786163 -95.613029 9423.626953
6.040000 -2.120000 2.000000 71.341560 -71.987419 10271.806641
6.040000 -2.120000 2.040000 93.793381 -17.548401 9105.144531
6.040000 -2.120000 2.080000 73.725471 33.239548 6540.312988
6.040000 -2.120000 2.120000 30.674212 52.877453 3736.932129
6.040000 -2.120000 2.160000 -5.200151 40.246536 1646.825317
6.040000 -2.120000 2.200000 -17.788185 15.367041 552.565430
6.040000 -2.080000 1.800000 -26.324638 -8.415281 763.803528
6.040000 -2.080000 1.840000 -52.336006 -43.700825 4648.819824
6.040000 -2.080000 1.880000 -37.821121 -105.263641 12510.872070
6.040000 -2.080000 1.920000 31.601017 -145.900787 22285.664062
6.040000 -2.080000 1.960000 121.421570 -122.437637 29734.171875
6.040000 -2.080000 2.000000 172.146759 -37.827118 31065.396484
6.040000 -2.080000 2.040000 149.570221 56.694847 25585.558594
6.040000 -2.080000 2.080000 74.047302 103.459923 16186.958984
6.040000 -2.080000 2.120000 1.228571 85.292297 7276.285156
6.040000 -2.080000 2.160000 -26.349451 34.231201 1866.068726
6.040000 -2.080000 2.200000 -10.678959 -2.948519 122.733925
6.040000 -2.040000 1.800000 -16.107069 -34.363850 1440.311768
6.040000 -2.040000 1.840000 -18.275146 -90.855530 8588.708984
6.040000 -2.040000 1.880000 42.603939 -147.102951 23454.373047
6.040000 -2.040000 1.920000 148.843933 -140.686737 41947.273438
6.040000 -2.040000 1.960000 230.963501 -48.498055 55696.203125
6.040000 -2.040000 2.000000 224.765091 82.720703 57362.062500
6.040000 -2.040000 2.040000 130.001328 170.324463 45910.765625
6.040000 -2.040000 2.080000 12.997620 165.151901 27444.087891
6.040000 -2.040000 2.120000 -50.643642 90.960602 10838.609375
6.040000 -2.040000 2.160000 -38.684967 17.512598 1803.217773
6.040000 -2.040000 2.200000 8.051720 -4.088310 81.544472
6.040000 -2.000000 1.800000 11.952093 -41.306961 1849.117554
6.040000 -2.000000 1.840000 43.385151 -95.920746 11083.060547
6.040000 -2.000000 1.880000 135.360382 -112.469276 30971.771484
6.040000 -2.000000 1.920000 233.035004 -41.195724 56002.398438
6.040000 -2.000000 1.960000 255.035858 97.929695 74633.515625
6.040000 -2.000000 2.000000 167.976624 220.158936 76686.101562
6.040000 -2.000000 2.040000 22.998346 245.393982 60747.132812
6.040000 -2.000000 2.080000 -84.872215 167.869095 35383.328125
6.040000 -2.000000 2.120000 -97.845253 58.772911 13027.948242
6.040000 -2.000000 2.160000 -39.782944 -0.120186 1582.697021
6.040000 -2.000000 2.200000 15.895483 13.515810 435.343506
6.040000 -1.960000 1.800000 33.717491 -22.658163 1650.261597
6.040000 -1.960000 1.840000 87.306870 -53.212181 10454.025391
6.040000 -1.960000 1.880000 173.443954 -19.788893 30474.404297
6.040000 -1.960000 1.920000 218.664001 91.842918 56249.066406
6.040000 -1.960000 1.960000 163.535217 221.542053 75824.648438
6.040000 -1.960000 2.000000 24.554544 278.922852 78400.882812
6.040000 -1.960000 2.040000 -111.633301 223.044037 62210.632812
6.040000 -1.960000 2.080000 -161.068115 100.455215 36034.187500
6.040000 -1.960000 2.120000 -113.692917 3.128540 12935.867188
6.040000 -1.960000 2.160000 -34.985737 -13.024883 1393.649414
6.040000 -1.960000 2.200000 0.505985 29.554852 873.745300
6.040000 -1.920000 1.800000 30.856762 4.370390 971.240051
6.040000 -1.920000 1.840000 83.884262 2.880909 7044.869141
6.040000 -1.920000 1.880000 134.009949 65.259010 22217.404297
6.040000 -1.920000 1.920000 117.932083 169.191605 42533.773438
6.040000 -1.920000 1.960000 17.563255 241.453278 58608.152344
6.040000 -1.920000 2.000000 -113.005058 220.941040 61585.085938
6.040000 -1.920000 2.040000 -189.451477 116.888092 49554.687500
6.040000 -1.920000 2.080000 -170.609924 3.314758 29118.734375
6.040000 -1.920000 2.120000 -92.240196 -46.684143 10687.663086
6.040000 -1.920000 2.160000 -29.200903 -22.919329 1377.988403
6.040000 -1.920000 2.200000 -25.367085 22.332266 1142.218994
6.040000 -1.880000 1.800000 8.570233 15.412361 310.989777
6.040000 -1.880000 1.840000 45.297070 30.449783 2979.013672
6.040000 -1.880000 1.880000 56.964401 88.825111 11134.843750
6.040000 -1.880000 1.920000 8.507988 150.984909 22868.830078
6.040000 -1.880000 1.960000 -84.205017 160.522232 32857.871094
6.040000 -1.880000 2.000000 -161.658981 97.685745 35676.132812
6.040000 -1.880000 2.040000 -172.233017 1.226105 29665.716797
6.040000 -1.880000 2.080000 -118.218666 -65.067398 18209.419922
6.040000 -1.880000 2.120000 -50.981636 -68.786705 7330.738281
6.040000 -1.880000 2.160000 -21.285374 -33.140133 1551.335571
6.040000 -1.880000 2.200000 -35.143898 -7.719996 1294.692017
6.040000 -1.840000 1.800000 -10.003024 2.741373 107.575623
6.040000 -1.840000 1.840000 10.740364 18.386568 453.421326
6.040000 -1.840000 1.880000 4.456894 54.204800 2958.024414
6.040000 -1.840000 1.920000 -38.111050 76.009834 7229.947266
6.040000 -1.840000 1.960000 -91.135239 55.927063 11433.468750
6.040000 -1.840000 2.000000 -115.630676 0.511024 13370.713867
6.040000 -1.840000 2.040000 -95.228844 -54.165611 12002.445312
6.040000 -1.840000 2.080000 -49.888973 -75.642090 8210.634766
6.040000 -1.840000 2.120000 -14.762903 -62.832294 4165.840332
6.040000 -1.840000 2.160000 -7.181310 -41.742622 1794.017700
6.040000 -1.840000 2.200000 -15.013697 -36.504658 1558.001221
6.040000 -1.800000 1.800000 -7.183349 -17.869024 370.902527
6.040000 -1.800000 1.840000 7.045467 -7.658657 108.293640
6.040000 -1.800000 1.880000 3.632755 10.205101 117.341003
6.040000 -1.800000 1.920000 -15.954313 16.963905 542.314209
6.040000 -1.800000 1.960000 -35.428230 4.104546 1272.006836
6.040000 -1.800000 2.000000 -39.718792 -19.819656 1970.401123
6.040000 -1.800000 2.040000 -27.832603 -39.247730 2315.038086
6.040000 -1.800000 2.080000 -10.341404 -46.318672 2252.364014
6.040000 -1.800000 2.120000 3.275612 -44.879776 2024.923950
6.040000 -1.800000 2.160000 12.488102 -42.002571 1920.168701
6.040000 -1.800000 2.200000 21.545267 -38.986195 1984.121826
6.080000 -2.200000 1.800000 5.450120 18.806061 383.371735
6.080000 -2.200000 1.840000 -0.064736 17.964306 322.720459
6.080000 -2.200000 1.880000 -1.752082 13.424843 183.296204
6.080000 -2.200000 1.920000 1.160389 11.023596 122.866165
6.080000 -2.200000 1.960000 3.585045 13.510281 195.380219
6.080000 -2.200000 2.000000 1.212059 17.069162 292.825378
6.080000 -2.200000 2.040000 -3.766792 16.253248 278.356812
6.080000 -2.200000 2.080000 -5.163548 11.325584 154.931091
6.080000 -2.200000 2.120000 -0.899671 8.740185 77.200241
6.080000 -2.200000 2.160000 3.177937 13.435812 190.620316
6.080000 -2.200000 2.200000 -0.873332 21.727627 472.852448
6.080000 -2.160000 1.800000 -13.330202 15.544776 419.334351
6.080000 -2.160000 1.840000 -23.605925 8.553061 630.394531
6.080000 -2.160000 1.880000 -25.219898 -7.243073 688.505371
6.080000 -2.160000 1.920000 -13.401592 -20.812225 612.751404
6.080000 -2.160000 1.960000 5.190292 -21.992748 510.620117
6.080000 -2.160000 2.000000 18.833134 -10.375702 462.342102
6.080000 -2.160000 2.040000 20.881744 5.684345 468.359009
6.080000 -2.160000 2.080000 13.508313 17.450893 487.008209
6.080000 -2.160000 2.120000 2.924240 22.108109 497.319641
6.080000 -2.160000 2.160000 -7.029025 21.556686 514.097900
6.080000 -2.160000 2.200000 -15.899099 17.332230 553.187561
6.080000 -2.120000 1.800000 -23.109816 -4.814850 557.246399
6.080000 -2.120000 1.840000 -32.321899 -23.511356 1597.489014
6.080000 -2.120000 1.880000 -20.781967 -51.333389 3067.007080
6.080000 -2.120000 1.920000 14.203552 -65.367447 4474.644043
6.080000 -2.120000 1.960000 53.568527 -49.073925 5277.836914
6.080000 -2.120000 2.000000 71.431244 -8.454437 5173.899902
6.080000 -2.120000 2.040000 56.875217 32.002331 4258.939453
6.080000 -2.120000 2.080000 22.169327 49.556004 2947.276611
6.080000 -2.120000 2.120000 -9.270922 40.335236 1712.881226
6.080000 -2.120000 2.160000 -22.395958 18.538013 845.236816
6.080000 -2.120000 2.200000 -19.334591 1.035095 374.897827
6.080000 -2.080000 1.800000 -11.325861 -27.633057 891.860962
6.080000 -2.080000 1.840000 -9.161438 -56.586952 3286.015137
6.080000 -2.080000 1.880000 26.414257 -83.313614 7638.871094
6.080000 -2.080000 1.920000 83.789856 -74.628250 12590.115234
6.080000 -2.080000 1.960000 124.581497 -20.601391 15944.966797
6.080000 -2.080000 2.000000 115.859085 51.101887 16034.730469
6.080000 -2.080000 2.040000 60.480663 95.852295 12845.572266
6.080000 -2.080000 2.080000 -4.191074 89.350662 8001.105957
6.080000 -2.080000 2.120000 -38.298378 46.495041 3628.554688
6.080000 -2.080000 2.160000 -31.610655 4.886289 1023.109314
6.080000 -2.080000 2.200000 -6.429338 -9.395229 129.606720
6.080000 -2.040000 1.800000 16.165121 -32.730286 1332.582764
6.080000 -2.040000 1.840000 36.235291 -61.564068 5103.130859
6.080000 -2.040000 1.880000 91.756889 -67.185028 12933.155273
6.080000 -2.040000 1.920000 148.898636 -19.353331 22545.355469
6.080000 -2.040000 1.960000 157.526199 68.607811 29521.535156
6.080000 -2.040000 2.000000 98.077148 143.187363 30121.748047
6.080000 -2.040000 2.040000 4.189026 154.700607 23949.826172
6.080000 -2.040000 2.080000 -63.609951 101.081360 14263.666992
6.080000 -2.040000 2.120000 -69.431679 28.788969 5649.562500
6.080000 -2.040000 2.160000 -29.737373 -9.920795 982.733582
6.080000 -2.040000 2.200000 7.870676 -1.526708 64.278381
6.080000 -2.000000 1.800000 37.922462 -13.418324 1618.164551
6.080000 -2.000000 1.840000 72.093430 -29.395250 6061.542969
6.080000 -2.000000 1.880000 127.612389 -3.056799 16294.265625
6.080000 -2.000000 1.920000 154.098343 76.043625 29528.931641
6.080000 -2.000000 1.960000 110.034348 165.810318 39600.621094
6.080000 -2.000000 2.000000 7.728336 202.153458 40925.746094
6.080000 -2.000000 2.040000 -89.973763 156.438141 32568.169922
6.080000 -2.000000 2.080000 -122.340660 63.655685 19019.283203
6.080000 -2.000000 2.120000 -83.170685 -8.109085 6983.120117
6.080000 -2.000000 2.160000 -22.181757 -18.011589 816.447632
6.080000 -2.000000 2.200000 4.644550 15.865861 273.297394
6.080000 -1.960000 1.800000 35.718586 15.455296 1514.683594
6.080000 -1.960000 1.840000 71.930313 17.964708 5496.700684
6.080000 -1.960000 1.880000 105.401497 67.953804 15727.195312
6.080000 -1.960000 1.920000 86.835526 148.550629 29607.697266
6.080000 -1.960000 1.960000 2.186829 201.618973 40654.992188
6.080000 -1.960000 2.000000 -104.113556 178.361359 42652.406250
6.080000 -1.960000 2.040000 -162.819946 87.762230 34212.542969
6.080000 -1.960000 2.080000 -140.990921 -7.427769 19933.611328
6.080000 -1.960000 2.120000 -70.752060 -45.933960 7115.782715
6.080000 -1.960000 2.160000 -17.021400 -20.992748 730.423584
6.080000 -1.960000 2.200000 -16.750595 20.138998 686.161682
6.080000 -1.920000 1.800000 12.028049 29.848808 1035.625244
6.080000 -1.920000 1.840000 39.011292 46.048744 3642.367676
6.080000 -1.920000 1.880000 42.509258 98.307236 11471.349609
6.080000 -1.920000 1.920000 -8.053402 150.478668 22708.687500
6.080000 -1.920000 1.960000 -96.255363 151.224731 32134.015625
6.080000 -1.920000 2.000000 -165.278992 84.366104 34434.785156
6.080000 -1.920000 2.040000 -167.286392 -10.451408 28093.968750
6.080000 -1.920000 2.080000 -107.827568 -70.755737 16633.158203
6.080000 -1.920000 2.120000 -40.192478 -67.038757 6109.629883
6.080000 -1.920000 2.160000 -14.885626 -26.267567 911.566895
6.080000 -1.920000 2.200000 -34.818375 -0.935886 1213.195068
6.080000 -1.880000 1.800000 -11.343453 18.683521 477.747925
6.080000 -1.880000 1.840000 3.118723 38.926430 1524.993408
6.080000 -1.880000 1.880000 -13.462334 75.486801 5879.491699
6.080000 -1.880000 1.920000 -67.119934 90.461777 12688.417969
6.080000 -1.880000 1.960000 -125.327866 55.951233 18837.615234
6.080000 -1.880000 2.000000 -143.761017 -15.081524 20894.683594
6.080000 -1.880000 2.040000 -108.028160 -77.039558 17605.175781
6.080000 -1.880000 2.080000 -47.781223 -92.792763 10893.542969
6.080000 -1.880000 2.120000 -8.279312 -66.635925 4508.893555
6.080000 -1.880000 2.160000 -8.260143 -36.301884 1386.056763
6.080000 -1.880000 2.200000 -26.480648 -33.676384 1835.323608
6.080000 -1.840000 1.800000 -13.385915 -5.503733 209.473785
6.080000 -1.840000 1.840000 -7.826654 12.351209 213.808868
6.080000 -1.840000 1.880000 -27.852032 29.901192 1669.816895
6.080000 -1.840000 1.920000 -62.839058 22.002396 4432.852539
6.080000 -1.840000 1.960000 -83.874825 -15.491585 7274.975586
6.080000 -1.840000 2.000000 -71.347389 -59.544956 8636.051758
6.080000 -1.840000 2.040000 -33.987949 -81.316284 7767.518555
6.080000 -1.840000 2.080000 0.483944 -73.060165 5338.021973
6.080000 -1.840000 2.120000 12.794889 -52.849571 2956.786377
6.080000 -1.840000 2.160000 8.682726 -43.529388 1970.197388
6.080000 -1.840000 2.200000 8.569843 -49.446014 2518.350586
6.080000 -1.800000 1.800000 6.242893 -18.438278 378.943817
6.080000 -1.800000 1.840000 6.915800 -3.844904 62.611580
6.080000 -1.800000 1.880000 -6.915369 2.806305 55.697678
6.080000 -1.800000 1.920000 -21.404295 -7.284225 511.203766
6.080000 -1.800000 1.960000 -22.451492 -26.788826 1221.710693
6.080000 -1.800000 2.000000 -9.395821 -40.940933 1764.441528
6.080000 -1.800000 2.040000 6.606781 -42.916214 1885.450928
6.080000 -1.800000 2.080000 16.328369 -38.650265 1760.458618
6.080000 -1.800000 2.120000 21.800638 -36.883068 1835.628540
6.080000 -1.800000 2.160000 30.985062 -37.446026 2362.278809
6.080000 -1.800000 2.200000 45.334038 -31.968569 3077.164551
6.120000 -2.200000 1.800000 -22.321047 19.499443 878.457397
6.120000 -2.200000 1.840000 -27.529816 5.848282 792.093140
6.120000 -2.200000 1.880000 -18.843536 -7.479563 411.022736
6.120000 -2.200000 1.920000 -3.038143 -8.058714 74.173187
6.120000 -2.200000 1.960000 5.360132 4.143281 45.897797
6.120000 -2.200000 2.000000 -0.711763 16.340506 267.518738
6.120000 -2.200000 2.040000 -13.487551 16.403999 451.005219
6.120000 -2.200000 2.080000 -18.980669 5.538864 390.944824
6.120000 -2.200000 2.120000 -12.138776 -3.620588 160.458542
6.120000 -2.200000 2.160000 -1.872882 -1.261757 5.099718
6.120000 -2.200000 2.200000 -0.711701 8.861912 79.039993
6.120000 -2.160000 1.800000 -28.880140 -1.431311 836.111145
6.120000 -2.160000 1.840000 -27.398800 -16.346985 1017.918091
6.120000 -2.160000 1.880000 -12.319080 -27.031952 882.486206
6.120000 -2.160000 1.920000 7.272026 -22.598761 563.586365
6.120000 -2.160000 1.960000 16.832203 -5.268848 311.083832
6.120000 -2.160000 2.000000 10.563113 11.517841 244.240036
6.120000 -2.160000 2.040000 -3.593132 16.313938 279.055176
6.120000 -2.160000 2.080000 -12.979950 9.984665 268.172638
6.120000 -2.160000 2.120000 -12.972437 2.624282 175.170975
6.120000 -2.160000 2.160000 -9.766886 1.486558 97.601913
6.120000 -2.160000 2.200000 -11.270740 3.678475 140.560745
6.120000 -2.120000 1.800000 -15.286859 -22.519196 740.802246
6.120000 -2.120000 1.840000 -7.573599 -34.975292 1280.630493
6.120000 -2.120000 1.880000 13.246035 -39.765526 1756.754395
6.120000 -2.120000 1.920000 35.716927 -26.154984 1959.781982
6.120000 -2.120000 1.960000 43.110245 1.771263 1861.630493
6.120000 -2.120000 2.000000 28.882408 27.142878 1570.929199
6.120000 -2.120000 2.040000 2.860367 34.760487 1216.473022
6.120000 -2.120000 2.080000 -17.753075 23.633717 873.724243
6.120000 -2.120000 2.120000 -23.146919 5.853493 570.043213
6.120000 -2.120000 2.160000 -17.119352 -5.798692 326.697052
6.120000 -2.120000 2.200000 -10.106804 -8.483803 174.122391
6.120000 -2.080000 1.800000 12.161432 -25.837040 815.453064
6.120000 -2.080000 1.840000 23.675213 -33.064049 1653.747070
6.120000 -2.080000 1.880000 47.158760 -28.233078 3021.055420
6.120000 -2.080000 1.920000 66.233826 -1.345713 4388.730469
6.120000 -2.080000 1.960000 60.959545 37.753349 5141.381836
6.120000 -2.080000 2.000000 27.743336 64.604538 4943.438965
6.120000 -2.080000 2.040000 -14.612255 60.895908 3921.829834
6.120000 -2.080000 2.080000 -39.856525 30.964769 2547.359619
6.120000 -2.080000 2.120000 -36.350945 -2.152515 1326.024414
6.120000 -2.080000 2.160000 -15.315599 -17.231174 531.480957
6.120000 -2.080000 2.200000 1.863944 -12.060021 148.918411
6.120000 -2.040000 1.800000 33.514992 -5.556557 1154.130005
6.120000 -2.040000 1.840000 45.395592 -6.776868 2106.685791
6.120000 -2.040000 1.880000 65.358200 9.171189 4355.805176
6.120000 -2.040000 1.920000 70.802185 47.058380 7227.440430
6.120000 -2.040000 1.960000 43.097996 86.688873 9372.398438
6.120000 -2.040000 2.000000 -10.213919 97.586479 9627.445312
6.120000 -2.040000 2.040000 -57.143578 67.503799 7822.151367
6.120000 -2.040000 2.080000 -67.955902 16.219913 4881.089844
6.120000 -2.040000 2.120000 -41.655357 -20.604473 2159.713135
6.120000 -2.040000 2.160000 -5.960824 -22.798624 555.308716
6.120000 -2.040000 2.200000 9.294232 -1.762965 89.490807
6.120000 -2.000000 1.800000 31.283295 24.641359 1585.841064
6.120000 -2.000000 1.840000 40.675972 28.112465 2444.845215
6.120000 -2.000000 1.880000 50.397274 51.772545 5220.281738
6.120000 -2.000000 1.920000 35.451336 89.681870 9299.634766
6.120000 -2.000000 1.960000 -12.747245 112.254616 12763.590820
6.120000 -2.000000 2.000000 -70.682755 92.828041 13613.096680
6.120000 -2.000000 2.040000 -99.497910 36.493935 11231.641602
6.120000 -2.000000 2.080000 -80.394455 -20.007860 6863.583008
6.120000 -2.000000 2.120000 -33.266041 -40.046944 2710.387207
6.120000 -2.000000 2.160000 1.450468 -20.039469 403.684174
6.120000 -2.000000 2.200000 0.460275 9.412171 88.800819
6.120000 -1.960000 1.800000 6.476129 41.573009 1770.255371
6.120000 -1.960000 1.840000 12.285849 47.519646 2409.058838
6.120000 -1.960000 1.880000 8.818834 71.311447 5163.094238
6.120000 -1.960000 1.920000 -22.963299 95.245377 9598.995117
6.120000 -1.960000 1.960000 -75.503250 89.134460 13645.693359
6.120000 -1.960000 2.000000 -114.604614 42.084084 14905.288086
6.120000 -1.960000 2.040000 -109.531448 -21.006155 12438.396484
6.120000 -1.960000 2.080000 -64.003029 -58.619865 7532.676270
6.120000 -1.960000 2.120000 -15.037504 -50.619232 2788.433105
6.120000 -1.960000 2.160000 1.238295 -16.772293 282.843201
6.120000 -1.960000 2.200000 -17.005016 3.675581 302.680481
6.120000 -1.920000 1.800000 -20.835112 32.382828 1482.749512
6.120000 -1.920000 1.840000 -18.320665 39.385666 1886.877441
6.120000 -1.920000 1.880000 -32.094170 55.787628 4142.295410
6.120000 -1.920000 1.920000 -67.740524 58.272198 7984.427734
6.120000 -1.920000 1.960000 -104.244270 27.771839 11638.143555
6.120000 -1.920000 2.000000 -110.526657 -26.591713 12923.260742
6.120000 -1.920000 2.040000 -76.543869 -70.924599 10889.262695
6.120000 -1.920000 2.080000 -26.111975 -77.032883 6615.900391
6.120000 -1.920000 2.120000 4.052500 -49.601318 2476.713623
6.120000 -1.920000 2.160000 -1.006305 -21.363895 457.428650
6.120000 -1.920000 2.200000 -21.510939 -20.405514 879.105469
6.120000 -1.880000 1.800000 -28.421997 6.401607 848.790527
6.120000 -1.880000 1.840000 -29.244642 14.210333 1057.182617
6.120000 -1.880000 1.880000 -46.840038 19.856424 2588.266846
6.120000 -1.880000 1.920000 -72.462906 4.830019 5274.201660
6.120000 -1.880000 1.960000 -82.563187 -32.501671 7873.038086
6.120000 -1.880000 2.000000 -61.972023 -70.724182 8842.441406
6.120000 -1.880000 2.040000 -21.261656 -83.997849 7507.696777
6.120000 -1.880000 2.080000 11.561769 -67.249893 4656.222656
6.120000 -1.880000 2.120000 17.799915 -41.253605 2018.696777
6.120000 -1.880000 2.160000 5.622643 -31.499502 1023.832764
6.120000 -1.880000 2.200000 0.046974 -42.691940 1822.604004
6.120000 -1.840000 1.800000 -11.569884 -12.713837 295.503876
6.120000 -1.840000 1.840000 -17.112133 -4.833479 316.187622
6.120000 -1.840000 1.880000 -32.661987 -8.678888 1142.128540
6.120000 -1.840000 1.920000 -42.074360 -29.861366 2661.952881
6.120000 -1.840000 1.960000 -31.291559 -56.127659 4129.476074
6.120000 -1.840000 2.000000 -3.789700 -68.157608 4659.821289
6.120000 -1.840000 2.040000 21.888020 -58.874928 3945.342529
6.120000 -1.840000 2.080000 30.679672 -40.393486 2572.875977
6.120000 -1.840000 2.120000 25.850746 -30.763714 1614.667114
6.120000 -1.840000 2.160000 24.078320 -34.765373 1788.396729
6.120000 -1.840000 2.200000 36.307518 -39.632217 2888.948486
6.120000 -1.800000 1.800000 12.714711 -8.100391 227.280212
6.120000 -1.800000 1.840000 1.247176 -3.225815 11.961329
6.120000 -1.800000 1.880000 -9.191629 -13.386028 263.671814
6.120000 -1.800000 1.920000 -5.444862 -30.471474 958.157227
6.120000 -1.800000 1.960000 11.624355 -38.923943 1650.198975
6.120000 -1.800000 2.000000 28.147610 -32.343658 1838.400146
6.120000 -1.800000 2.040000 32.712139 -19.913456 1466.629883
6.120000 -1.800000 2.080000 28.874996 -15.156101 1063.472778
6.120000 -1.800000 2.120000 30.250555 -19.797369 1307.031860
6.120000 -1.800000 2.160000 43.670937 -21.410202 2365.547607
6.120000 -1.800000 2.200000 59.820992 -7.923405 3641.331299
6.160000 -2.200000 1.800000 -37.348015 -1.344995 1396.683228
6.160000 -2.200000 1.840000 -31.648005 -21.511652 1464.347412
6.160000 -2.200000 1.880000 -9.875943 -30.254005 1012.839111
6.160000 -2.200000 1.920000 10.712745 -17.931450 436.299805
6.160000 -2.200000 1.960000 12.333087 4.976501 176.870605
6.160000 -2.200000 2.000000 -5.009585 17.366659 326.696808
6.160000 -2.200000 2.040000 -23.046331 8.544931 604.149231
6.160000 -2.200000 2.080000 -23.595934 -11.130152 680.648438
6.160000 -2.200000 2.120000 -6.701300 -21.197193 494.228394
6.160000 -2.200000 2.160000 10.261531 -11.993084 249.133087
6.160000 -2.200000 2.200000 10.989921 6.290420 160.347748
6.160000 -2.160000 1.800000 -24.245472 -21.826347 1064.232300
6.160000 -2.160000 1.840000 -10.825905 -32.266479 1158.325928
6.160000 -2.160000 1.880000 9.345566 -27.830194 861.859314
6.160000 -2.160000 1.920000 19.626854 -7.858577 446.970642
6.160000 -2.160000 1.960000 10.270552 12.666123 265.914917
6.160000 -2.160000 2.000000 -10.743894 16.978304 403.694061
6.160000 -2.160000 2.040000 -24.813372 3.068727 625.120483
6.160000 -2.160000 2.080000 -20.795301 -14.476265 642.006775
6.160000 -2.160000 2.120000 -5.350109 -19.340939 402.695557
6.160000 -2.160000 2.160000 4.966628 -9.430302 113.597984
6.160000 -2.160000 2.200000 1.010690 2.459678 7.071508
6.160000 -2.120000 1.800000 2.064213 -25.388983 648.861450
6.160000 -2.120000 1.840000 13.152311 -23.641573 731.907227
6.160000 -2.120000 1.880000 22.993084 -11.338629 657.246399
6.160000 -2.120000 1.920000 21.068382 7.482804 499.869110
6.160000 -2.120000 1.960000 4.917183 20.150726 430.230438
6.160000 -2.120000 2.000000 -15.458318 16.775480 520.376343
6.160000 -2.120000 2.040000 -25.707890 0.145409 660.916687
6.160000 -2.120000 2.080000 -20.081360 -16.392614 671.978821
6.160000 -2.120000 2.120000 -6.183067 -21.183483 486.970276
6.160000 -2.120000 2.160000 3.089142 -14.410536 217.206345
6.160000 -2.120000 2.200000 1.915023 -6.246416 42.685020
6.160000 -2.080000 1.800000 23.043068 -6.159966 568.928162
6.160000 -2.080000 1.840000 23.428759 1.436728 550.970947
6.160000 -2.080000 1.880000 21.180950 11.815842 588.246765
6.160000 -2.080000 1.920000 11.544622 22.544470 641.531433
6.160000 -2.080000 1.960000 -5.802527 26.028543 711.154358
6.160000 -2.080000 2.000000 -23.156706 16.424446 805.995483
6.160000 -2.080000 2.040000 -29.654705 -3.100389 889.013977
6.160000 -2.080000 2.080000 -20.903496 -20.989481 877.514465
6.160000 -2.080000 2.120000 -3.757917 -26.417988 712.032043
6.160000 -2.080000 2.160000 9.111361 -18.600349 428.989868
6.160000 -2.080000 2.200000 10.207494 -7.096931 154.559372
6.160000 -2.040000 1.800000 21.612185 23.712147 1029.352417
6.160000 -2.040000 1.840000 11.152575 26.858440 845.755737
6.160000 -2.040000 1.880000 2.632071 28.178038 800.929626
6.160000 -2.040000 1.920000 -7.780444 29.288898 918.374939
6.160000 -2.040000 1.960000 -22.201878 25.144463 1125.167358
6.160000 -2.040000 2.000000 -34.661713 10.215994 1305.800903
6.160000 -2.040000 2.040000 -34.737312 -12.252839 1356.812988
6.160000 -2.040000 2.080000 -18.726057 -29.501226 1220.987549
6.160000 -2.040000 2.120000 3.860391 -29.911255 909.585815
6.160000 -2.040000 2.160000 17.047218 -14.887600 512.248291
6.160000 -2.040000 2.200000 13.030522 1.131948 171.075821
6.160000 -2.000000 1.800000 -2.791688 42.189877 1787.779297
6.160000 -2.000000 1.840000 -16.302252 34.957321 1487.777710
6.160000 -2.000000 1.880000 -23.029156 27.207399 1270.584595
6.160000 -2.000000 1.920000 -29.503571 21.612602 1337.565308
6.160000 -2.000000 1.960000 -38.674911 12.009398 1639.974365
6.160000 -2.000000 2.000000 -43.331722 -6.728716 1922.913818
6.160000 -2.000000 2.040000 -33.423920 -28.335522 1920.060303
6.160000 -2.000000 2.080000 -9.686991 -38.067303 1542.957275
6.160000 -2.000000 2.120000 12.875923 -27.698145 932.976685
6.160000 -2.000000 2.160000 17.916805 -6.351544 361.354004
6.160000 -2.000000 2.200000 4.572158 6.342163 61.127663
6.160000 -1.960000 1.800000 -32.278843 35.251335 2284.580322
6.160000 -1.960000 1.840000 -40.240246 20.504433 2039.709106
6.160000 -1.960000 1.880000 -41.238411 9.004006 1781.678711
6.160000 -1.960000 1.920000 -42.782650 0.244884 1830.415039
6.160000 -1.960000 1.960000 -44.868958 -12.698023 2174.463135
6.160000 -1.960000 2.000000 -38.906639 -30.939732 2470.993652
6.160000 -1.960000 2.040000 -19.481174 -44.243664 2337.018066
6.160000 -1.960000 2.080000 5.183462 -40.647243 1679.066650
6.160000 -1.960000 2.120000 18.222937 -21.369701 788.739502
6.160000 -1.960000 2.160000 11.216006 -3.044082 135.065231
6.160000 -1.960000 2.200000 -5.180305 -2.353462 32.374352
6.160000 -1.920000 1.800000 -44.682755 9.132118 2079.944092
6.160000 -1.920000 1.840000 -45.250999 -5.062572 2073.282471
6.160000 -1.920000 1.880000 -42.485214 -15.649536 2049.901367
6.160000 -1.920000 1.920000 -39.695908 -26.022337 2252.927246
6.160000 -1.920000 1.960000 -32.941757 -39.151505 2617.999756
6.160000 -1.920000 2.000000 -16.951809 -50.019802 2789.344482
6.160000 -1.920000 2.040000 4.936064 -49.068020 2432.035400
6.160000 -1.920000 2.080000 20.254496 -33.991997 1565.700439
6.160000 -1.920000 2.120000 19.258785 -15.781431 619.954407
6.160000 -1.920000 2.160000 6.810049 -9.820430 142.817612
6.160000 -1.920000 2.200000 -0.301418 -19.880642 395.330780
6.160000 -1.880000 1.800000 -32.135330 -14.564738 1244.811035
6.160000 -1.880000 1.840000 -31.144051 -23.181686 1507.342529
6.160000 -1.880000 1.880000 -28.479677 -33.120461 1908.056885
6.160000 -1.880000 1.920000 -20.809435 -44.799583 2440.035156
6.160000 -1.880000 1.960000 -5.079781 -53.214310 2857.566895
6.160000 -1.880000 2.000000 14.955779 -50.958984 2820.493408
6.160000 -1.880000 2.040000 28.979057 -36.842751 2197.174072
6.160000 -1.880000 2.080000 29.296803 -20.041319 1259.957031
6.160000 -1.880000 2.120000 19.877487 -13.043056 565.235840
6.160000 -1.880000 2.160000 14.260201 -19.112492 568.640625
6.160000 -1.880000 2.200000 22.610859 -27.643457 1275.411743
6.160000 -1.840000 1.800000 -7.583005 -17.183199 352.764282
6.160000 -1.840000 1.840000 -12.004045 -23.287159 686.388855
6.160000 -1.840000 1.880000 -9.781143 -36.361275 1417.813110
6.160000 -1.840000 1.920000 4.609938 -47.640789 2290.896240
6.160000 -1.840000 1.960000 25.912014 -46.262459 2811.647461
6.160000 -1.840000 2.000000 40.798603 -30.669626 2605.151855
6.160000 -1.840000 2.040000 40.276306 -12.006995 1766.348755
6.160000 -1.840000 2.080000 29.375252 -4.251948 880.984436
6.160000 -1.840000 2.120000 23.029875 -10.119903 632.787537
6.160000 -1.840000 2.160000 31.098488 -17.635118 1278.113403
6.160000 -1.840000 2.200000 47.740086 -11.919519 2421.190674
6.160000 -1.800000 1.800000 6.731319 1.275311 46.937077
6.160000 -1.800000 1.840000 -3.500565 -10.418200 120.792854
6.160000 -1.800000 1.880000 2.747899 -28.535366 821.818054
6.160000 -1.800000 1.920000 24.356049 -35.196953 1832.042480
6.160000 -1.800000 1.960000 44.519962 -21.954493 2464.026855
6.160000 -1.800000 2.000000 47.153618 0.590039 2223.811768
6.160000 -1.800000 2.040000 33.686836 13.129932 1307.198120
6.160000 -1.800000 2.080000 21.765009 7.862406 535.533020
6.160000 -1.800000 2.120000 26.389713 -3.056379 705.758423
6.160000 -1.800000 2.160000 43.443466 -0.489936 1887.574707
6.160000 -1.800000 2.200000 53.571735 20.860706 3305.100098
6.200000 -2.200000 1.800000 -29.605883 -23.846888 1445.182373
6.200000 -2.200000 1.840000 -12.486176 -38.582100 1644.483154
6.200000 -2.200000 1.880000 12.722172 -33.613785 1291.740112
6.200000 -2.200000 1.920000 24.676304 -9.699937 703.008789
6.200000 -2.200000 1.960000 12.450894 13.301245 331.947876
6.200000 -2.200000 2.000000 -12.142641 14.994264 372.271667
6.200000 -2.200000 2.040000 -25.009289 -5.045908 650.925720
6.200000 -2.200000 2.080000 -13.288304 -26.211504 863.622009
6.200000 -2.200000 2.120000 11.950764 -26.954380 869.359314
6.200000 -2.200000 2.160000 26.850712 -5.775621 754.318542
6.200000 -2.200000 2.200000 18.219757 18.079937 658.843628
6.200000 -2.160000 1.800000 -6.991977 -29.110779 896.325195
6.200000 -2.160000 1.840000 9.127544 -28.643461 903.759949
6.200000 -2.160000 1.880000 20.943192 -12.802551 602.522583
6.200000 -2.160000 1.920000 15.133249 8.434667 300.158813
6.200000 -2.160000 1.960000 -6.394466 16.775372 322.302277
6.200000 -2.160000 2.000000 -25.831795 3.612982 680.335266
6.200000 -2.160000 2.040000 -25.617645 -20.058258 1058.597412
6.200000 -2.160000 2.080000 -5.666312 -33.028370 1122.980225
6.200000 -2.160000 2.120000 16.083681 -23.929123 831.287720
6.200000 -2.160000 2.160000 20.835833 -1.808030 437.400909
6.200000 -2.160000 2.200000 6.537217 13.303918 219.729431
6.200000 -2.120000 1.800000 12.610880 -14.027971 355.818268
6.200000 -2.120000 1.840000 15.073458 -4.531056 247.739594
6.200000 -2.120000 1.880000 8.953341 7.334784 133.961365
6.200000 -2.120000 1.920000 -6.691877 12.271070 195.360367
6.200000 -2.120000 1.960000 -23.069895 2.977322 541.084473
6.200000 -2.120000 2.000000 -27.432268 -17.105070 1045.112793
6.200000 -2.120000 2.040000 -14.663813 -34.363506 1395.877930
6.200000 -2.120000 2.080000 6.735034 -36.006771 1341.848267
6.200000 -2.120000 2.120000 21.132523 -21.510283 909.275757
6.200000 -2.120000 2.160000 19.252666 -3.175914 380.751587
6.200000 -2.120000 2.200000 5.819270 4.982236 58.686577
6.200000 -2.080000 1.800000 13.232588 12.346142 327.528595
6.200000 -2.080000 1.840000 -0.966640 16.184090 262.859131
6.200000 -2.080000 1.880000 -15.697951 10.729992 361.558411
6.200000 -2.080000 1.920000 -25.053606 -3.029238 636.859436
6.200000 -2.080000 1.960000 -24.542025 -20.491032 1022.193359
6.200000 -2.080000 2.000000 -13.313166 -34.664394 1378.860596
6.200000 -2.080000 2.040000 4.449664 -39.040756 1543.980225
6.200000 -2.080000 2.080000 20.655340 -31.410877 1413.286255
6.200000 -2.080000 2.120000 27.538294 -16.067839 1016.533081
6.200000 -2.080000 2.160000 22.752926 -1.852615 521.127808
6.200000 -2.080000 2.200000 11.328399 3.559070 140.999588
6.200000 -2.040000 1.800000 -7.848888 30.626287 999.574524
6.200000 -2.040000 1.840000 -28.532423 17.179585 1109.237305
6.200000 -2.040000 1.880000 -35.455833 -6.417089 1298.295166
6.200000 -2.040000 1.920000 -26.727873 -27.830223 1488.900513
6.200000 -2.040000 1.960000 -9.201388 -38.788799 1589.236450
6.200000 -2.040000 2.000000 8.696611 -38.684566 1572.126831
6.200000 -2.040000 2.040000 22.289257 -31.105186 1464.343628
6.200000 -2.040000 2.080000 30.120901 -19.304783 1279.943359
6.200000 -2.040000 2.120000 31.030573 -5.813923 996.698181
6.200000 -2.040000 2.160000 24.289364 5.277980 617.830261
6.200000 -2.040000 2.200000 12.763659 8.746136 239.405869
6.200000 -2.000000 1.800000 -36.303726 26.323177 2010.870239
6.200000 -2.000000 1.840000 -48.133568 -3.225843 2327.246338
6.200000 -2.000000 1.880000 -36.966675 -32.790680 2441.763672
6.200000 -2.000000 1.920000 -11.523843 -46.674446 2311.302734
6.200000 -2.000000 1.960000 12.617789 -42.599449 1973.921631
6.200000 -2.000000 2.000000 26.394871 -29.418215 1562.120605
6.200000 -2.000000 2.040000 31.014751 -16.060863 1219.866089
6.200000 -2.000000 2.080000 31.027168 -4.802000 985.744385
6.200000 -2.000000 2.120000 27.300951 5.377779 774.262451
6.200000 -2.000000 2.160000 18.417854 12.360266 491.993530
6.200000 -2.000000 2.200000 7.143219 11.257341 177.753311
6.200000 -1.960000 1.800000 -51.523434 2.213505 2659.563965
6.200000 -1.960000 1.840000 -46.811661 -30.865545 3144.013428
6.200000 -1.960000 1.880000 -20.998091 -52.049168 3150.035645
6.200000 -1.960000 1.920000 9.588247 -51.276913 2721.256348
6.200000 -1.960000 1.960000 29.165440 -34.762238 2059.036133
6.200000 -1.960000 2.000000 34.068829 -15.866248 1412.422852
6.200000 -1.960000 2.040000 30.602695 -2.530431 942.928040
6.200000 -1.960000 2.080000 24.906683 5.685982 652.673218
6.200000 -1.960000 2.120000 17.762705 10.910159 434.545227
6.200000 -1.960000 2.160000 8.887025 11.462322 210.364044
6.200000 -1.960000 2.200000 2.568212 5.086331 32.466473
6.200000 -1.920000 1.800000 -43.448952 -23.475607 2438.915527
6.200000 -1.920000 1.840000 -27.810768 -47.696030 3048.350098
6.200000 -1.920000 1.880000 0.465244 -55.892982 3124.241943
6.200000 -1.920000 1.920000 25.841619 -45.116779 2703.312988
6.200000 -1.920000 1.960000 37.627579 -24.478989 2015.055664
6.200000 -1.920000 2.000000 35.917725 -5.575114 1321.164795
6.200000 -1.920000 2.040000 27.261076 5.815310 776.984070
6.200000 -1.920000 2.080000 17.449589 9.904627 402.589783
6.200000 -1.920000 2.120000 9.362999 8.380207 157.893616
6.200000 -1.920000 2.160000 5.470810 2.638710 36.892551
6.200000 -1.920000 2.200000 8.543943 -3.855083 87.860641
6.200000 -1.880000 1.800000 -20.733620 -32.158775 1464.069824
6.200000 -1.880000 1.840000 -6.333133 -46.025822 2158.484863
6.200000 -1.880000 1.880000 15.784154 -48.196030 2571.996582
6.200000 -1.880000 1.920000 35.255722 -36.338596 2563.459473
6.200000 -1.880000 1.960000 43.525986 -16.161655 2155.710449
6.200000 -1.880000 2.000000 38.654106 2.757478 1501.743530
6.200000 -1.880000 2.040000 25.569096 12.597574 812.477539
6.200000 -1.880000 2.080000 12.820549 11.155039 288.801361
6.200000 -1.880000 2.120000 7.907559 2.668056 69.648018
6.200000 -1.880000 2.160000 13.095077 -4.530483 192.006317
6.200000 -1.880000 2.200000 23.698826 -2.925008 570.190002
6.200000 -1.840000 1.800000 -2.957899 -20.140215 414.377441
6.200000 -1.840000 1.840000 3.864219 -32.773476 1089.032837
6.200000 -1.840000 1.880000 22.131729 -38.133404 1943.969971
6.200000 -1.840000 1.920000 42.268578 -28.065405 2574.299561
6.200000 -1.840000 1.960000 50.811691 -5.637047 2613.604248
6.200000 -1.840000 2.000000 41.816601 15.675035 1994.334717
6.200000 -1.840000 2.040000 22.951077 22.623320 1038.566528
6.200000 -1.840000 2.080000 9.713447 13.793414 284.609314
6.200000 -1.840000 2.120000 12.019280 1.204185 145.913162
6.200000 -1.840000 2.160000 25.343529 -0.322762 642.398621
6.200000 -1.840000 2.200000 34.915237 13.458202 1400.197021
6.200000 -1.800000 1.800000 -3.869308 -0.749750 15.533672
6.200000 -1.800000 1.840000 0.639075 -21.338383 455.734985
6.200000 -1.800000 1.880000 23.911049 -30.904119 1526.802856
6.200000 -1.800000 1.920000 48.835827 -17.024216 2674.761963
6.200000 -1.800000 1.960000 54.713795 12.208679 3142.651123
6.200000 -1.800000 2.000000 37.184418 34.436211 2568.533691
6.200000 -1.800000 2.040000 12.988985 34.140388 1334.279907
6.200000 -1.800000 2.080000 3.729385 17.609299 323.995728
6.200000 -1.800000 2.120000 14.636654 6.231009 253.057114
6.200000 -1.800000 2.160000 29.945322 14.686097 1112.403687
6.200000 -1.800000 2.200000 29.529408 36.401821 2197.078369
