#kx 	ky 	kz 	real 	imag 	intensity
1.800000 -6.200000 1.800000 -51.287258 0.761407 2630.962646
1.800000 -6.200000 1.840000 -40.743111 -13.796782 1850.352295
1.800000 -6.200000 1.880000 -28.117458 -15.408484 1028.012939
1.800000 -6.200000 1.920000 -24.162792 -10.283658 689.594116
1.800000 -6.200000 1.960000 -28.189980 -10.224642 899.218201
1.800000 -6.200000 2.000000 -29.322323 -19.461544 1238.550293
1.800000 -6.200000 2.040000 -18.820469 -29.556805 1227.814697
1.800000 -6.200000 2.080000 -0.498194 -27.990070 783.692200
1.800000 -6.200000 2.120000 11.892159 -11.566619 275.210083
1.800000 -6.200000 2.160000 7.751066 9.277106 146.143723
1.800000 -6.200000 2.200000 -10.116551 19.662308 488.950958
1.800000 -6.160000 1.800000 -38.457874 -23.727192 2041.987671
1.800000 -6.160000 1.840000 -22.615051 -26.670633 1222.763184
1.800000 -6.160000 1.880000 -14.280272 -19.666204 590.685791
1.800000 -6.160000 1.920000 -16.313574 -13.929382 460.160400
1.800000 -6.160000 1.960000 -20.875868 -16.803879 718.172180
1.800000 -6.160000 2.000000 -18.404995 -24.808254 954.193298
1.800000 -6.160000 2.040000 -7.809700 -27.967127 843.151550
1.800000 -6.160000 2.080000 2.422054 -20.613726 430.792023
1.800000 -6.160000 2.120000 2.899273 -7.426449 63.557926
1.800000 -6.160000 2.160000 -7.366577 0.971309 55.209900
1.800000 -6.160000 2.200000 -20.133659 -2.022129 409.453217
1.800000 -6.120000 1.800000 -14.381712 -29.113863 1054.450684
1.800000 -6.120000 1.840000 -3.859818 -21.135242 461.596680
1.800000 -6.120000 1.880000 -4.473842 -11.767897 158.498657
1.800000 -6.120000 1.920000 -11.125324 -9.624069 216.395554
1.800000 -6.120000 1.960000 -15.000408 -14.792911 443.842468
1.800000 -6.120000 2.000000 -12.282938 -20.602890 575.349609
1.800000 -6.120000 2.040000 -6.658957 -21.399731 502.290192
1.800000 -6.120000 2.080000 -4.138430 -17.950294 339.339691
1.800000 -6.120000 2.120000 -6.493457 -15.567718 284.518829
1.800000 -6.120000 2.160000 -10.005485 -18.033978 425.334045
1.800000 -6.120000 2.200000 -9.796064 -24.000603 671.991821
1.800000 -6.080000 1.800000 0.617735 -15.536498 241.764359
1.800000 -6.080000 1.840000 0.377068 -5.547723 30.919409
1.800000 -6.080000 1.880000 -7.003397 -1.288300 50.707287
1.800000 -6.080000 1.920000 -14.172070 -4.588370 221.900696
1.800000 -6.080000 1.960000 -16.686684 -11.355269 407.387543
1.800000 -6.080000 2.000000 -15.437841 -17.307507 537.876709
1.800000 -6.080000 2.040000 -13.113294 -21.863800 649.984253
1.800000 -6.080000 2.080000 -10.044000 -26.580109 807.384155
1.800000 -6.080000 2.120000 -4.412218 -31.290682 998.574402
1.800000 -6.080000 2.160000 4.255039 -33.266346 1124.755127
1.800000 -6.080000 2.200000 13.239719 -30.298519 1093.290405
1.800000 -6.040000 1.800000 -3.602163 -0.169687 13.004374
1.800000 -6.040000 1.840000 -10.376962 2.872517 115.932686
1.800000 -6.040000 1.880000 -17.419453 -0.394197 303.592712
1.800000 -6.040000 1.920000 -21.104597 -7.177964 496.927185
1.800000 -6.040000 1.960000 -21.765686 -14.664598 688.795532
1.800000 -6.040000 2.000000 -20.394222 -22.874010 939.144653
1.800000 -6.040000 2.040000 -15.411625 -32.321831 1282.218872
1.800000 -6.040000 2.080000 -4.324352 -40.260521 1639.609619
1.800000 -6.040000 2.120000 11.609125 -41.266327 1837.681641
1.800000 -6.040000 2.160000 26.011168 -32.519875 1734.123047
1.800000 -6.040000 2.200000 32.066505 -17.782713 1344.485596
1.800000 -6.000000 1.800000 -17.392019 0.344620 302.601105
1.800000 -6.000000 1.840000 -21.569918 -4.486521 485.390228
1.800000 -6.000000 1.880000 -22.717236 -10.896607 634.808838
1.800000 -6.000000 1.920000 -22.123228 -16.945242 776.578491
1.800000 -6.000000 1.960000 -21.014393 -23.927717 1014.140381
1.800000 -6.000000 2.000000 -16.959957 -33.583466 1415.489258
1.800000 -6.000000 2.040000 -5.690891 -43.245586 1902.567017
1.800000 -6.000000 2.080000 12.850235 -45.747135 2257.928711
1.800000 -6.000000 2.120000 31.381527 -35.757553 2263.402832
1.800000 -6.000000 2.160000 40.007980 -16.279554 1865.662476
1.800000 -6.000000 2.200000 34.939323 2.412041 1226.574341
1.800000 -5.960000 1.800000 -22.275524 -13.224798 671.094238
1.800000 -5.960000 1.840000 -19.057312 -18.963722 722.803955
1.800000 -5.960000 1.880000 -15.187925 -21.966619 713.205444
1.800000 -5.960000 1.920000 -13.211750 -24.425156 771.138611
1.800000 -5.960000 1.960000 -11.391016 -30.024612 1031.232666
1.800000 -5.960000 2.000000 -4.315247 -38.386532 1492.147217
1.800000 -5.960000 2.040000 10.957031 -42.972641 1966.704346
1.800000 -5.960000 2.080000 29.548496 -36.253799 2187.451660
1.800000 -5.960000 2.120000 40.959007 -17.824625 1995.357544
1.800000 -5.960000 2.160000 38.027283 3.298247 1456.952637
1.800000 -5.960000 2.200000 23.863924 15.660895 814.750488
1.800000 -5.920000 1.800000 -10.880722 -24.496391 718.463318
1.800000 -5.920000 1.840000 -4.063552 -24.213547 602.808289
1.800000 -5.920000 1.880000 -0.981472 -21.590534 467.114441
1.800000 -5.920000 1.920000 -1.355189 -21.427675 460.981812
1.800000 -5.920000 1.960000 -0.184509 -26.031244 677.659729
1.800000 -5.920000 2.000000 7.720524 -31.549402 1054.971313
1.800000 -5.920000 2.040000 21.598534 -30.383259 1389.639038
1.800000 -5.920000 2.080000 33.607941 -18.486280 1471.236206
1.800000 -5.920000 2.120000 35.110428 -0.473319 1232.966187
1.800000 -5.920000 2.160000 24.818050 13.371853 794.742065
1.800000 -5.920000 2.200000 10.467094 16.033033 366.618225
1.800000 -5.880000 1.800000 5.495914 -19.781532 421.514099
1.800000 -5.880000 1.840000 8.333670 -13.900847 262.683624
1.800000 -5.880000 1.880000 6.183770 -9.657351 131.503448
1.800000 -5.880000 1.920000 2.581726 -10.502540 116.968643
1.800000 -5.880000 1.960000 2.852105 -15.490520 248.090729
1.800000 -5.880000 2.000000 9.428252 -19.204712 457.712891
1.800000 -5.880000 2.040000 18.886791 -16.149755 617.525513
1.800000 -5.880000 2.080000 24.270391 -6.054276 625.706116
1.800000 -5.880000 2.120000 21.269991 5.218592 479.646210
1.800000 -5.880000 2.160000 12.371398 10.775835 269.170105
1.800000 -5.880000 2.200000 4.501657 9.037872 101.948044
1.800000 -5.840000 1.800000 9.541386 -3.063720 100.424423
1.800000 -5.840000 1.840000 5.525800 1.452096 32.643051
1.800000 -5.840000 1.880000 -0.282198 1.594191 2.621079
1.800000 -5.840000 1.920000 -4.250108 -2.720580 25.464972
1.800000 -5.840000 1.960000 -3.580099 -8.824964 90.697090
1.800000 -5.840000 2.000000 1.650374 -12.656811 162.918594
1.800000 -5.840000 2.040000 8.222751 -11.569103 201.457779
1.800000 -5.840000 2.080000 12.111889 -6.420666 187.922791
1.800000 -5.840000 2.120000 11.733777 -0.717200 138.195892
1.800000 -5.840000 2.160000 8.891932 2.691083 86.308372
1.800000 -5.840000 2.200000 6.329226 4.047148 56.438499
1.800000 -5.800000 1.800000 -3.204348 8.357051 80.108147
1.800000 -5.800000 1.840000 -9.087068 5.713712 115.221298
1.800000 -5.800000 1.880000 -12.632222 0.459415 159.784103
1.800000 -5.800000 1.920000 -13.241844 -5.838578 209.435425
1.800000 -5.800000 1.960000 -10.823650 -11.869252 258.030548
1.800000 -5.800000 2.000000 -5.630178 -16.221497 294.835876
1.800000 -5.800000 2.040000 1.301188 -17.464186 306.690857
1.800000 -5.800000 2.080000 8.033754 -14.881695 286.006042
1.800000 -5.800000 2.120000 12.436478 -9.049978 236.568085
1.800000 -5.800000 2.160000 13.025434 -1.642116 172.358490
1.800000 -5.800000 2.200000 9.323195 5.112490 113.059532
1.840000 -6.200000 1.800000 -58.238525 -19.199226 3760.336182
1.840000 -6.200000 1.840000 -43.085644 -30.624161 2794.211914
1.840000 -6.200000 1.880000 -30.693676 -30.890287 1896.311523
1.840000 -6.200000 1.920000 -26.026810 -29.243473 1532.575562
1.840000 -6.200000 1.960000 -23.088219 -32.913284 1616.350098
1.840000 -6.200000 2.000000 -13.301342 -38.457325 1655.891479
1.840000 -6.200000 2.040000 2.950359 -35.620632 1277.534058
1.840000 -6.200000 2.080000 14.686522 -19.706497 604.039917
1.840000 -6.200000 2.120000 11.053617 1.100317 123.393143
1.840000 -6.200000 2.160000 -6.795535 12.045553 191.274658
1.840000 -6.200000 2.200000 -25.444866 5.615608 678.976257
1.840000 -6.160000 1.800000 -32.451851 -46.169762 3184.769531
1.840000 -6.160000 1.840000 -12.225378 -44.729275 2150.167969
1.840000 -6.160000 1.880000 -1.013498 -34.804478 1212.378906
1.840000 -6.160000 1.920000 1.019550 -25.866810 670.131348
1.840000 -6.160000 1.960000 0.260067 -22.073772 487.319061
1.840000 -6.160000 2.000000 1.759029 -20.344105 416.976776
1.840000 -6.160000 2.040000 4.273144 -15.935116 272.187683
1.840000 -6.160000 2.080000 2.909314 -8.925316 88.125366
1.840000 -6.160000 2.120000 -4.197560 -4.552866 38.348099
1.840000 -6.160000 2.160000 -12.741745 -7.468862 218.135971
1.840000 -6.160000 2.200000 -15.957517 -16.333141 521.413818
1.840000 -6.120000 1.800000 1.402824 -44.985687 2025.679932
1.840000 -6.120000 1.840000 17.750538 -31.457294 1304.643066
1.840000 -6.120000 1.880000 21.851461 -12.798416 641.285828
1.840000 -6.120000 1.920000 14.152054 2.370492 205.899857
1.840000 -6.120000 1.960000 0.096241 8.200706 67.260849
1.840000 -6.120000 2.000000 -12.995365 3.748074 182.927567
1.840000 -6.120000 2.040000 -19.358431 -7.282791 427.787903
1.840000 -6.120000 2.080000 -17.239285 -18.797043 650.521729
1.840000 -6.120000 2.120000 -9.275623 -25.615055 742.168213
1.840000 -6.120000 2.160000 -0.382733 -26.125523 682.689392
1.840000 -6.120000 2.200000 5.574736 -22.485859 536.691528
1.840000 -6.080000 1.800000 18.393595 -22.614763 849.751831
1.840000 -6.080000 1.840000 26.043179 -2.773782 685.940979
1.840000 -6.080000 1.880000 18.617052 19.645676 732.547241
1.840000 -6.080000 1.920000 -4.042858 32.890957 1098.159790
1.840000 -6.080000 1.960000 -32.208370 26.833723 1757.427856
1.840000 -6.080000 2.000000 -49.883453 1.598007 2490.912598
1.840000 -6.080000 2.040000 -45.512867 -29.767239 2957.509766
1.840000 -6.080000 2.080000 -21.517059 -49.244682 2888.022705
1.840000 -6.080000 2.120000 6.702236 -47.179169 2270.793945
1.840000 -6.080000 2.160000 22.692413 -29.346127 1376.140747
1.840000 -6.080000 2.200000 21.553925 -11.026060 586.145630
1.840000 -6.040000 1.800000 11.723886 -2.561852 144.012589
1.840000 -6.040000 1.840000 10.995390 18.072693 447.520813
1.840000 -6.040000 1.880000 -8.699970 37.201183 1459.617554
1.840000 -6.040000 1.920000 -43.274910 37.211025 3257.378174
1.840000 -6.040000 1.960000 -72.874168 8.725708 5386.782715
1.840000 -6.040000 2.000000 -74.855164 -37.139927 6982.669434
1.840000 -6.040000 2.040000 -43.272610 -73.443275 7266.433594
1.840000 -6.040000 2.080000 3.651730 -77.801956 6066.479492
1.840000 -6.040000 2.120000 36.987999 -50.835785 3952.389160
1.840000 -6.040000 2.160000 40.398186 -15.083880 1859.536865
1.840000 -6.040000 2.200000 21.861656 4.969573 502.628662
1.840000 -6.000000 1.800000 -2.973068 -0.997410 9.833961
1.840000 -6.000000 1.840000 -9.955656 17.967110 421.932098
1.840000 -6.000000 1.880000 -38.213787 27.428181 2212.598633
1.840000 -6.000000 1.920000 -73.140869 8.108076 5415.327637
1.840000 -6.000000 1.960000 -86.333855 -39.038025 8977.501953
1.840000 -6.000000 2.000000 -59.704262 -87.629364 11243.503906
1.840000 -6.000000 2.040000 -4.244936 -104.924942 11027.262695
1.840000 -6.000000 2.080000 46.148151 -79.499176 8449.771484
1.840000 -6.000000 2.120000 62.110329 -31.440742 4846.212891
1.840000 -6.000000 2.160000 42.453197 5.238944 1829.720459
1.840000 -6.000000 2.200000 12.129973 11.548579 280.505920
1.840000 -5.960000 1.800000 -6.100452 -12.057923 182.609024
1.840000 -5.960000 1.840000 -18.449381 4.238997 358.348755
1.840000 -5.960000 1.880000 -48.390270 1.107426 2342.844482
1.840000 -5.960000 1.920000 -70.801270 -33.083553 6107.341309
1.840000 -5.960000 1.960000 -58.870430 -82.091934 10204.812500
1.840000 -5.960000 2.000000 -10.161673 -111.607346 12559.458984
1.840000 -5.960000 2.040000 47.472916 -98.125206 11882.233398
1.840000 -5.960000 2.080000 77.860962 -50.269390 8589.340820
1.840000 -5.960000 2.120000 66.776024 -1.689844 4461.893066
1.840000 -5.960000 2.160000 32.226212 18.085896 1365.628296
1.840000 -5.960000 2.200000 5.798427 7.295162 86.841141
1.840000 -5.920000 1.800000 5.034551 -17.126261 318.655518
1.840000 -5.920000 1.840000 -12.277246 -5.743257 183.715759
1.840000 -5.920000 1.880000 -36.744431 -19.648571 1736.219482
1.840000 -5.920000 1.920000 -41.208447 -56.545216 4895.497559
1.840000 -5.920000 1.960000 -11.338914 -90.381271 8297.345703
1.840000 -5.920000 2.000000 38.794693 -92.778961 10112.963867
1.840000 -5.920000 2.040000 76.871460 -58.495590 9330.955078
1.840000 -5.920000 2.080000 79.705238 -10.623879 6465.791504
1.840000 -5.920000 2.120000 52.323624 19.678410 3125.001221
1.840000 -5.920000 2.160000 21.207834 19.601965 834.009277
1.840000 -5.920000 2.200000 9.249009 2.666986 92.656975
1.840000 -5.880000 1.800000 15.161248 -6.867042 277.019714
1.840000 -5.880000 1.840000 -4.291756 -3.514012 30.767452
1.840000 -5.880000 1.880000 -18.925488 -22.585508 868.279297
1.840000 -5.880000 1.920000 -10.211361 -50.905525 2695.644531
1.840000 -5.880000 1.960000 21.326506 -64.709251 4642.106934
1.840000 -5.880000 2.000000 55.433731 -50.486553 5621.790527
1.840000 -5.880000 2.040000 69.428307 -16.856325 5104.425293
1.840000 -5.880000 2.080000 57.345337 13.510950 3471.033203
1.840000 -5.880000 2.120000 33.308044 23.907305 1680.984985
1.840000 -5.880000 2.160000 16.975254 16.521809 561.129395
1.840000 -5.880000 2.200000 15.870586 7.093220 302.189270
1.840000 -5.840000 1.800000 9.830460 8.428795 167.682526
1.840000 -5.840000 1.840000 -5.990461 3.312365 46.857388
1.840000 -5.840000 1.880000 -10.867329 -14.275021 321.875061
1.840000 -5.840000 1.920000 1.094969 -30.445251 928.112305
1.840000 -5.840000 1.960000 22.272774 -32.532398 1554.433350
1.840000 -5.840000 2.000000 38.612019 -19.221748 1860.363525
1.840000 -5.840000 2.040000 41.424107 -0.232960 1716.010986
1.840000 -5.840000 2.080000 33.189110 13.128727 1273.880371
1.840000 -5.840000 2.120000 23.006475 17.213402 825.599121
1.840000 -5.840000 2.160000 17.236645 16.849285 581.000366
1.840000 -5.840000 2.200000 14.533038 18.320312 546.843018
1.840000 -5.800000 1.800000 -7.475865 11.000397 176.897293
1.840000 -5.800000 1.840000 -14.615080 2.036083 217.746185
1.840000 -5.800000 1.880000 -13.605776 -9.394526 273.374268
1.840000 -5.800000 1.920000 -5.862263 -17.373802 336.215118
1.840000 -5.800000 1.960000 4.440160 -19.471554 398.856445
1.840000 -5.800000 2.000000 13.925439 -16.371937 461.958160
1.840000 -5.800000 2.040000 20.998705 -9.456264 530.366577
1.840000 -5.800000 2.080000 24.513445 0.351188 601.032349
1.840000 -5.800000 2.120000 22.845646 11.594130 656.347351
1.840000 -5.800000 2.160000 14.995983 21.164001 672.794434
1.840000 -5.800000 2.200000 2.472649 25.120060 637.131409
1.880000 -6.200000 1.800000 -54.105412 -45.406242 4989.122070
1.880000 -6.200000 1.840000 -34.594841 -52.473751 3950.297607
1.880000 -6.200000 1.880000 -20.030552 -50.598679 2961.449219
1.880000 -6.200000 1.920000 -10.971649 -47.912781 2416.011719
1.880000 -6.200000 1.960000 -1.381405 -46.579430 2171.551514
1.880000 -6.200000 2.000000 11.400120 -40.834259 1797.399536
1.880000 -6.200000 2.040000 20.927441 -25.610523 1093.856689
1.880000 -6.200000 2.080000 17.629129 -5.720631 343.511810
1.880000 -6.200000 2.120000 0.549625 5.849928 34.523746
1.880000 -6.200000 2.160000 -18.589725 0.139012 345.597198
1.880000 -6.200000 2.200000 -24.813240 -17.754324 930.912964
1.880000 -6.160000 1.800000 -11.679724 -64.980087 4358.827637
1.880000 -6.160000 1.840000 12.022413 -55.439228 3218.046387
1.880000 -6.160000 1.880000 24.255314 -37.019737 1958.781250
1.880000 -6.160000 1.920000 24.159187 -19.006416 944.910156
1.880000 -6.160000 1.960000 16.583923 -7.272579 327.916931
1.880000 -6.160000 2.000000 7.115940 -2.473339 56.754009
1.880000 -6.160000 2.040000 -1.295324 -2.670403 8.808915
1.880000 -6.160000 2.080000 -7.696467 -6.446407 100.791779
1.880000 -6.160000 2.120000 -10.830017 -13.096889 288.817780
1.880000 -6.160000 2.160000 -8.864293 -20.614452 503.531342
1.880000 -6.160000 2.200000 -1.756196 -25.027796 629.474792
1.880000 -6.120000 1.800000 28.411743 -48.294304 3139.566895
1.880000 -6.120000 1.840000 46.299820 -21.589985 2609.800781
1.880000 -6.120000 1.880000 43.242889 12.473729 2025.541382
1.880000 -6.120000 1.920000 17.755249 36.939102 1679.746216
1.880000 -6.120000 1.960000 -17.680115 37.696358 1733.601807
1.880000 -6.120000 2.000000 -43.132980 14.400658 2067.833008
1.880000 -6.120000 2.040000 -44.928192 -18.035995 2343.839600
1.880000 -6.120000 2.080000 -25.399529 -40.015106 2246.344727
1.880000 -6.120000 2.120000 -0.096876 -41.445427 1717.732788
1.880000 -6.120000 2.160000 15.082017 -27.587002 988.509888
1.880000 -6.120000 2.200000 15.372595 -12.146776 383.860840
1.880000 -6.080000 1.800000 40.594616 -13.048750 1818.192749
1.880000 -6.080000 1.840000 43.683899 25.884768 2578.304199
1.880000 -6.080000 1.880000 13.962294 63.462387 4222.420410
1.880000 -6.080000 1.920000 -41.099522 70.948479 6722.857422
1.880000 -6.080000 1.960000 -90.113586 34.475090 9308.990234
1.880000 -6.080000 2.000000 -99.705833 -28.465397 10751.531250
1.880000 -6.080000 2.040000 -62.526184 -78.991310 10149.150391
1.880000 -6.080000 2.080000 -4.887779 -87.157272 7620.280762
1.880000 -6.080000 2.120000 34.667305 -55.597401 4292.893066
1.880000 -6.080000 2.160000 36.703453 -14.705955 1563.408569
1.880000 -6.080000 2.200000 13.464550 5.383239 210.273376
1.880000 -6.040000 1.800000 25.525309 11.889210 792.894653
1.880000 -6.040000 1.840000 8.468357 53.631226 2948.021484
1.880000 -6.040000 1.880000 -47.638390 74.978531 7891.196289
1.880000 -6.040000 1.920000 -114.261505 43.693607 14964.822266
1.880000 -6.040000 1.960000 -142.242752 -35.416649 21487.339844
1.880000 -6.040000 2.000000 -103.591537 -115.965202 24179.134766
1.880000 -6.040000 2.040000 -19.602497 -145.095047 21436.830078
1.880000 -6.040000 2.080000 54.117699 -107.962067 14584.533203
1.880000 -6.040000 2.120000 73.815163 -39.487507 7007.941406
1.880000 -6.040000 2.160000 42.185635 7.870649 1841.574951
1.880000 -6.040000 2.200000 -0.117970 9.179300 84.273468
1.880000 -6.000000 1.800000 5.464497 13.497154 212.033890
1.880000 -6.000000 1.840000 -30.992268 46.366806 3110.401367
1.880000 -6.000000 1.880000 -97.828033 36.026970 10868.266602
1.880000 -6.000000 1.920000 -144.634308 -34.861908 22134.437500
1.880000 -6.000000 1.960000 -122.959320 -130.635132 32184.531250
1.880000 -6.000000 2.000000 -33.582146 -185.977142 35715.257812
1.880000 -6.000000 2.040000 67.943642 -161.292709 30631.675781
1.880000 -6.000000 2.080000 116.510132 -78.126884 19678.419922
1.880000 -6.000000 2.120000 92.112244 0.182463 8484.698242
1.880000 -6.000000 2.160000 32.512688 24.268620 1646.040771
1.880000 -6.000000 2.200000 -6.015775 -2.338661 41.658882
1.880000 -5.960000 1.800000 -0.333527 3.195110 10.319970
1.880000 -5.960000 1.840000 -48.195503 17.438885 2626.921387
1.880000 -5.960000 1.880000 -102.615952 -24.436459 11127.173828
1.880000 -5.960000 1.920000 -107.246605 -110.915009 23803.972656
1.880000 -5.960000 1.960000 -37.769558 -183.161377 34974.628906
1.880000 -5.960000 2.000000 69.214951 -183.691071 38533.121094
1.880000 -5.960000 2.040000 143.434311 -108.658592 32380.091797
1.880000 -5.960000 2.080000 140.946365 -12.642200 20025.703125
1.880000 -5.960000 2.120000 80.112282 39.595581 7985.787598
1.880000 -5.960000 2.160000 20.194366 28.054432 1194.863525
1.880000 -5.960000 2.200000 5.587167 -12.348448 183.700592
1.880000 -5.920000 1.800000 6.352801 0.177181 40.389473
1.880000 -5.920000 1.840000 -39.941826 -7.082989 1645.518188
1.880000 -5.920000 1.880000 -65.894684 -63.945686 8431.160156
1.880000 -5.920000 1.920000 -31.533875 -133.787994 18893.611328
1.880000 -5.920000 1.960000 54.188797 -158.636078 28101.830078
1.880000 -5.920000 2.000000 135.829041 -111.548805 30892.664062
1.880000 -5.920000 2.040000 158.542084 -22.753906 25653.332031
1.880000 -5.920000 2.080000 115.465370 46.685913 15511.826172
1.880000 -5.920000 2.120000 50.405987 58.402344 5951.597168
1.880000 -5.920000 2.160000 15.011986 26.222754 912.992554
1.880000 -5.920000 2.200000 23.508017 -4.165469 569.977966
1.880000 -5.880000 1.800000 9.129991 9.242783 168.785767
1.880000 -5.880000 1.840000 -23.658325 -13.198116 733.906616
1.880000 -5.880000 1.880000 -21.881500 -63.283516 4483.603516
1.880000 -5.880000 1.920000 26.829937 -99.024048 10525.607422
1.880000 -5.880000 1.960000 93.027130 -85.092880 15894.845703
1.880000 -5.880000 2.000000 129.887863 -25.782913 17535.615234
1.880000 -5.880000 2.040000 114.337158 38.476128 14553.397461
1.880000 -5.880000 2.080000 65.513519 67.477036 8845.171875
1.880000 -5.880000 2.120000 24.109713 55.032223 3609.823975
1.880000 -5.880000 2.160000 14.528015 28.840019 1042.809937
1.880000 -5.880000 2.200000 26.789061 19.793661 1109.442749
1.880000 -5.840000 1.800000 -1.501441 17.262363 300.243530
1.880000 -5.840000 1.840000 -16.339283 -7.951380 330.196594
1.880000 -5.840000 1.880000 -1.498146 -38.429314 1479.056519
1.880000 -5.840000 1.920000 35.816113 -46.759064 3469.204102
1.880000 -5.840000 1.960000 68.934525 -23.378975 5298.545410
1.880000 -5.840000 2.000000 75.446373 15.808159 5942.053223
1.880000 -5.840000 2.040000 55.541748 45.096504 5118.580566
1.880000 -5.840000 2.080000 28.394371 51.600384 3468.839844
1.880000 -5.840000 2.120000 12.301525 43.243053 2021.289185
1.880000 -5.840000 2.160000 9.106813 36.594254 1422.073486
1.880000 -5.840000 2.200000 6.978822 39.019073 1571.192017
1.880000 -5.800000 1.800000 -16.407639 10.492279 379.298523
1.880000 -5.800000 1.840000 -18.413479 -6.303413 378.789246
1.880000 -5.800000 1.880000 -6.889187 -19.115685 412.870300
1.880000 -5.800000 1.920000 10.011092 -20.185562 507.678894
1.880000 -5.800000 1.960000 22.875713 -10.884064 641.761108
1.880000 -5.800000 2.000000 27.923851 2.495945 785.971191
1.880000 -5.800000 2.040000 26.648186 15.380066 946.672241
1.880000 -5.800000 2.080000 20.924221 26.788555 1155.449707
1.880000 -5.800000 2.120000 10.399593 36.090912 1410.705444
1.880000 -5.800000 2.160000 -5.102205 40.154415 1638.409546
1.880000 -5.800000 2.200000 -22.061085 35.157467 1722.739014
1.920000 -6.200000 1.800000 -32.947468 -69.894775 5970.815430
1.920000 -6.200000 1.840000 -9.548838 -69.850853 4970.321777
1.920000 -6.200000 1.880000 7.127739 -61.472431 3829.664551
1.920000 -6.200000 1.920000 17.583092 -51.338936 2944.851318
1.920000 -6.200000 1.960000 25.460342 -40.339378 2275.494629
1.920000 -6.200000 2.000000 30.030457 -25.622597 1558.345703
1.920000 -6.200000 2.040000 25.775993 -8.471264 736.164185
1.920000 -6.200000 2.080000 10.455946 2.511368 115.633774
1.920000 -6.200000 2.120000 -8.028887 -1.387363 66.387794
1.920000 -6.200000 2.160000 -15.766821 -18.281979 582.823364
1.920000 -6.200000 2.200000 -5.678790 -34.131393 1197.200684
1.920000 -6.160000 1.800000 20.616291 -69.621262 5272.151367
1.920000 -6.160000 1.840000 43.223492 -48.170650 4188.681641
1.920000 -6.160000 1.880000 48.466366 -18.624067 2695.844482
1.920000 -6.160000 1.920000 35.776230 5.778400 1313.328491
1.920000 -6.160000 1.960000 13.719307 15.616055 432.080536
1.920000 -6.160000 2.000000 -6.097900 10.208115 141.389999
1.920000 -6.160000 2.040000 -15.933580 -3.936462 269.374725
1.920000 -6.160000 2.080000 -14.567787 -18.465450 553.193237
1.920000 -6.160000 2.120000 -5.436617 -27.467188 784.003235
1.920000 -6.160000 2.160000 6.413807 -28.470196 851.688965
1.920000 -6.160000 2.200000 15.931925 -21.808357 729.430664
1.920000 -6.120000 1.800000 55.290318 -32.243458 4096.660156
1.920000 -6.120000 1.840000 63.207371 9.816151 4091.528320
1.920000 -6.120000 1.880000 38.028763 51.609306 4109.707031
1.920000 -6.120000 1.920000 -12.797920 65.964111 4515.050781
1.920000 -6.120000 1.960000 -60.811165 40.095428 5305.641113
1.920000 -6.120000 2.000000 -76.489334 -11.385574 5980.249512
1.920000 -6.120000 2.040000 -52.422745 -56.019489 5886.327148
1.920000 -6.120000 2.080000 -8.643677 -68.430672 4757.470215
1.920000 -6.120000 2.120000 24.646095 -48.634895 2972.782959
1.920000 -6.120000 2.160000 30.908319 -18.159580 1285.094604
1.920000 -6.120000 2.200000 16.565363 0.437943 274.603058
1.920000 -6.080000 1.800000 51.938072 12.994488 2866.419922
1.920000 -6.080000 1.840000 32.132729 65.096962 5270.126465
1.920000 -6.080000 1.880000 -32.039566 93.557983 9779.630859
1.920000 -6.080000 1.920000 -108.573196 63.679680 15843.240234
1.920000 -6.080000 1.960000 -144.463074 -18.955154 21228.878906
1.920000 -6.080000 2.000000 -109.961464 -105.164223 23151.037109
1.920000 -6.080000 2.040000 -26.862564 -139.665222 20227.972656
1.920000 -6.080000 2.080000 47.951870 -106.555984 13653.559570
1.920000 -6.080000 2.120000 69.780487 -40.458618 6506.216309
1.920000 -6.080000 2.160000 40.389328 6.426644 1672.599609
1.920000 -6.080000 2.200000 -0.956442 8.853359 79.296753
1.920000 -6.040000 1.800000 22.616665 36.010086 1808.239868
1.920000 -6.040000 1.840000 -29.121347 78.943085 7080.063477
1.920000 -6.040000 1.880000 -117.250587 65.741760 18069.679688
1.920000 -6.040000 1.920000 -179.022247 -23.006008 32578.242188
1.920000 -6.040000 1.960000 -155.873657 -142.244659 44530.140625
1.920000 -6.040000 2.000000 -49.900173 -212.268997 47548.156250
1.920000 -6.040000 2.040000 71.091980 -185.787781 39571.167969
1.920000 -6.040000 2.080000 129.027542 -89.344162 24630.486328
1.920000 -6.040000 2.120000 100.570267 1.261223 10115.969727
1.920000 -6.040000 2.160000 30.937357 27.805754 1730.280029
1.920000 -6.040000 2.200000 -13.558222 -5.102498 209.860870
1.920000 -6.000000 1.800000 -4.484808 30.895706 974.658203
1.920000 -6.000000 1.840000 -77.682060 45.224781 8079.783203
1.920000 -6.000000 1.880000 -155.317230 -19.154781 24490.347656
1.920000 -6.000000 1.920000 -160.767609 -143.283157 46376.289062
1.920000 -6.000000 1.960000 -63.176216 -244.842377 63939.023438
1.920000 -6.000000 2.000000 84.635170 -245.705124 67534.117188
1.920000 -6.000000 2.040000 185.327362 -142.877945 54760.335938
1.920000 -6.000000 2.080000 179.842316 -13.142771 32515.990234
1.920000 -6.000000 2.120000 95.466064 54.618950 12096.999023
1.920000 -6.000000 2.160000 14.587057 34.540718 1405.843384
1.920000 -6.000000 2.200000 -2.488539 -23.945763 579.592346
1.920000 -5.960000 1.800000 -12.496662 15.552765 398.055054
1.920000 -5.960000 1.840000 -84.903275 -6.606956 7252.217773
1.920000 -5.960000 1.880000 -119.991577 -102.617729 24928.376953
1.920000 -5.960000 1.920000 -59.157684 -213.209152 48957.777344
1.920000 -5.960000 1.960000 79.561829 -248.548462 68106.421875
1.920000 -5.960000 2.000000 206.967682 -169.688812 71629.914062
1.920000 -5.960000 2.040000 237.609512 -28.008785 57242.773438
1.920000 -5.960000 2.080000 163.991455 78.280426 33021.023438
1.920000 -5.960000 2.120000 58.862499 89.701721 11511.192383
1.920000 -5.960000 2.160000 5.378283 31.332090 1010.625793
1.920000 -5.960000 2.200000 24.838303 -21.550503 1081.365479
1.920000 -5.920000 1.800000 -7.963333 9.261927 149.197968
1.920000 -5.920000 1.840000 -57.614388 -39.678387 4893.791992
1.920000 -5.920000 1.880000 -42.758484 -130.771317 18929.423828
1.920000 -5.920000 1.920000 54.247627 -188.717743 38557.191406
1.920000 -5.920000 1.960000 176.262421 -152.471863 54316.109375
1.920000 -5.920000 2.000000 236.656342 -34.967068 57228.917969
1.920000 -5.920000 2.040000 195.823090 84.533783 45492.644531
1.920000 -5.920000 2.080000 95.010681 129.964096 25917.695312
1.920000 -5.920000 2.120000 15.449768 92.902420 8869.554688
1.920000 -5.920000 2.160000 4.406721 31.283344 998.066833
1.920000 -5.920000 2.200000 40.035294 8.362867 1672.762207
1.920000 -5.880000 1.800000 -7.668468 13.304818 235.823593
1.920000 -5.880000 1.840000 -25.998371 -40.832165 2343.180908
1.920000 -5.880000 1.880000 18.018753 -98.778938 10081.954102
1.920000 -5.880000 1.920000 105.100739 -101.830521 21415.621094
1.920000 -5.880000 1.960000 172.348785 -32.614952 30767.837891
1.920000 -5.880000 2.000000 168.650879 65.750359 32766.228516
1.920000 -5.880000 2.040000 100.278297 127.309425 26263.425781
1.920000 -5.880000 2.080000 22.622204 121.282455 15221.197266
1.920000 -5.880000 2.120000 -12.234653 74.498100 5699.653320
1.920000 -5.880000 2.160000 0.280471 39.395622 1552.093628
1.920000 -5.880000 2.200000 22.201527 42.814323 2325.974121
1.920000 -5.840000 1.800000 -17.287224 14.060137 496.535583
1.920000 -5.840000 1.840000 -12.983589 -25.798204 834.120972
1.920000 -5.840000 1.880000 29.134966 -47.956455 3148.667725
1.920000 -5.840000 1.920000 78.892334 -26.363159 6919.016602
1.920000 -5.840000 1.960000 97.375664 28.321182 10284.109375
1.920000 -5.840000 2.000000 71.663010 78.688171 11327.415039
1.920000 -5.840000 2.040000 24.037048 94.676270 9541.375000
1.920000 -5.840000 2.080000 -11.518604 77.957962 6210.122070
1.920000 -5.840000 2.120000 -20.434540 54.501358 3387.968262
1.920000 -5.840000 2.160000 -15.861273 45.992134 2366.856445
1.920000 -5.840000 2.200000 -19.356094 50.411366 2915.964111
1.920000 -5.800000 1.800000 -25.720188 2.366482 667.128296
1.920000 -5.800000 1.840000 -16.370022 -17.217472 564.418945
1.920000 -5.800000 1.880000 5.442581 -22.222569 523.464233
1.920000 -5.800000 1.920000 23.869843 -9.565727 661.272522
1.920000 -5.800000 1.960000 28.562065 11.068993 938.314148
1.920000 -5.800000 2.000000 20.914009 28.228603 1234.249878
1.920000 -5.800000 2.040000 8.236816 37.916313 1505.491943
1.920000 -5.800000 2.080000 -5.295197 42.519211 1835.922363
1.920000 -5.800000 2.120000 -20.575008 43.440983 2310.449951
1.920000 -5.800000 2.160000 -37.877918 37.628258 2850.622559
1.920000 -5.800000 2.200000 -52.135731 22.012499 3202.684570
1.960000 -6.200000 1.800000 3.346533 -78.940613 6242.819336
1.960000 -6.200000 1.840000 27.160505 -68.176682 5385.752930
1.960000 -6.200000 1.880000 40.289177 -49.830612 4106.307617
1.960000 -6.200000 1.920000 43.501057 -31.504519 2884.876465
1.960000 -6.200000 1.960000 40.500881 -15.903538 1893.243896
1.960000 -6.200000 2.000000 32.382664 -3.055649 1057.973999
1.960000 -6.200000 2.040000 18.609789 4.396698 365.655212
1.960000 -6.200000 2.080000 2.822041 1.377975 9.862729
1.960000 -6.200000 2.120000 -5.541973 -12.576378 188.878754
1.960000 -6.200000 2.160000 1.334802 -28.095472 791.137268
1.960000 -6.200000 2.200000 19.884056 -31.133503 1364.670654
1.960000 -6.160000 1.800000 52.832069 -52.893295 5588.928223
1.960000 -6.160000 1.840000 66.205040 -19.676575 4770.274902
1.960000 -6.160000 1.880000 55.148262 15.227409 3273.204834
1.960000 -6.160000 1.920000 25.026264 33.813271 1769.651123
1.960000 -6.160000 1.960000 -7.089622 28.081726 838.846069
1.960000 -6.160000 2.000000 -24.609919 5.020241 630.850891
1.960000 -6.160000 2.040000 -21.995388 -19.924805 880.794922
1.960000 -6.160000 2.080000 -5.703072 -33.999180 1188.469238
1.960000 -6.160000 2.120000 12.937174 -33.486267 1288.700562
1.960000 -6.160000 2.160000 25.161905 -22.284252 1129.709351
1.960000 -6.160000 2.200000 27.329247 -7.084438 797.076965
1.960000 -6.120000 1.800000 67.543396 -0.520815 4562.381836
1.960000 -6.120000 1.840000 54.113785 48.151608 5246.878906
1.960000 -6.120000 1.880000 2.932285 78.162628 6117.994629
1.960000 -6.120000 1.920000 -60.475670 61.936111 7493.388672
1.960000 -6.120000 1.960000 -95.206573 3.128227 9074.078125
1.960000 -6.120000 2.000000 -77.915359 -62.259846 9947.091797
1.960000 -6.120000 2.040000 -22.532516 -93.529129 9255.412109
1.960000 -6.120000 2.080000 31.759663 -77.121826 6956.452148
1.960000 -6.120000 2.120000 52.829876 -34.140560 3956.573730
1.960000 -6.120000 2.160000 38.433037 1.194128 1478.524170
1.960000 -6.120000 2.200000 11.097073 10.006636 223.277771
1.960000 -6.080000 1.800000 42.030006 42.327930 3558.175293
1.960000 -6.080000 1.840000 -8.372620 86.493820 7551.281738
1.960000 -6.080000 1.880000 -93.096275 77.996178 14750.320312
1.960000 -6.080000 1.920000 -154.757965 -0.590927 23950.376953
1.960000 -6.080000 1.960000 -140.287216 -108.897232 31539.111328
1.960000 -6.080000 2.000000 -50.583466 -175.845322 33480.261719
1.960000 -6.080000 2.040000 55.517212 -158.598083 28235.511719
1.960000 -6.080000 2.080000 109.535652 -78.411148 18146.367188
1.960000 -6.080000 2.120000 89.292511 0.327085 7973.259277
1.960000 -6.080000 2.160000 31.063622 26.780544 1682.146240
1.960000 -6.080000 2.200000 -9.721537 2.070244 98.794189
1.960000 -6.040000 1.800000 0.396804 51.710575 2674.141113
1.960000 -6.040000 1.840000 -80.026215 65.682549 10718.392578
1.960000 -6.040000 1.880000 -163.593048 -2.481361 26768.841797
1.960000 -6.040000 1.920000 -172.001785 -132.382156 47109.648438
1.960000 -6.040000 1.960000 -74.066422 -239.572250 62880.699219
1.960000 -6.040000 2.000000 76.369171 -244.232407 65481.718750
1.960000 -6.040000 2.040000 180.334137 -142.735794 52893.906250
1.960000 -6.040000 2.080000 177.237885 -12.259453 31563.562500
1.960000 -6.040000 2.120000 93.348831 57.180782 11983.645508
1.960000 -6.040000 2.160000 10.898550 38.102051 1570.544678
1.960000 -6.040000 2.200000 -8.752102 -21.597223 543.039368
1.960000 -6.000000 1.800000 -27.282915 32.941620 1829.507812
1.960000 -6.000000 1.840000 -112.273308 1.223080 12606.791992
1.960000 -6.000000 1.880000 -151.279648 -114.074600 35898.546875
1.960000 -6.000000 1.920000 -78.673851 -243.878204 65666.156250
1.960000 -6.000000 1.960000 83.309013 -285.127625 88238.156250
1.960000 -6.000000 2.000000 231.217499 -193.812668 91024.882812
1.960000 -6.000000 2.040000 266.420380 -29.946701 71876.625000
1.960000 -6.000000 2.080000 180.412659 92.520844 41108.832031
1.960000 -6.000000 2.120000 57.584763 104.306671 14195.886719
1.960000 -6.000000 2.160000 -5.121029 33.949638 1178.802979
1.960000 -6.000000 2.200000 18.179728 -31.244682 1306.732666
1.960000 -5.960000 1.800000 -30.553219 10.164047 1036.807007
1.960000 -5.960000 1.840000 -89.420853 -60.071274 11604.646484
1.960000 -5.960000 1.880000 -62.902122 -180.084534 36387.117188
1.960000 -5.960000 1.920000 68.961273 -252.689117 68607.445312
1.960000 -5.960000 1.960000 229.947235 -200.253693 92977.273438
1.960000 -5.960000 2.000000 306.452454 -42.049290 95681.250000
1.960000 -5.960000 2.040000 247.568878 115.854164 74712.531250
1.960000 -5.960000 2.080000 109.751068 172.265884 41720.832031
1.960000 -5.960000 2.120000 2.733482 116.593735 13601.570312
1.960000 -5.960000 2.160000 -9.203320 27.680710 850.922791
1.960000 -5.960000 2.200000 44.825077 -7.621229 2067.370605
1.960000 -5.920000 1.800000 -22.229010 1.008614 495.146179
1.960000 -5.920000 1.840000 -38.482613 -80.871590 8021.125488
1.960000 -5.920000 1.880000 36.294830 -162.079468 27587.068359
1.960000 -5.920000 1.920000 170.588348 -157.028809 53758.429688
1.960000 -5.920000 1.960000 268.384155 -42.766647 73859.039062
1.960000 -5.920000 2.000000 252.854630 111.512581 76370.523438
1.960000 -5.920000 2.040000 136.876495 202.082535 59572.527344
1.960000 -5.920000 2.080000 10.716194 181.504501 33058.718750
1.960000 -5.920000 2.120000 -40.817188 95.098343 10709.737305
1.960000 -5.920000 2.160000 -10.197275 30.598125 1040.229736
1.960000 -5.920000 2.200000 38.965313 34.786491 2728.395508
1.960000 -5.880000 1.800000 -19.705179 2.466388 394.377167
1.960000 -5.880000 1.840000 -0.902641 -62.213318 3871.311523
1.960000 -5.880000 1.880000 80.921638 -89.799507 14612.263672
1.960000 -5.880000 1.920000 168.805557 -35.417595 29749.722656
1.960000 -5.880000 1.960000 189.688766 76.806396 41881.050781
1.960000 -5.880000 2.000000 121.763733 170.846985 44015.097656
1.960000 -5.880000 2.040000 14.915680 186.061584 34841.390625
1.960000 -5.880000 2.080000 -55.931976 129.208969 19823.343750
1.960000 -5.880000 2.120000 -57.778961 61.674599 7142.164551
1.960000 -5.880000 2.160000 -21.831615 37.962257 1917.752441
1.960000 -5.880000 2.200000 -3.832440 58.264290 3409.415039
1.960000 -5.840000 1.800000 -25.715897 0.117367 661.321106
1.960000 -5.840000 1.840000 4.619768 -34.848633 1235.769531
1.960000 -5.840000 1.880000 59.939224 -28.091057 4381.818359
1.960000 -5.840000 1.920000 93.701447 26.311829 9472.273438
1.960000 -5.840000 1.960000 74.634171 92.066933 14046.580078
1.960000 -5.840000 2.000000 15.174423 123.480789 15477.767578
1.960000 -5.840000 2.040000 -41.987083 106.016571 13002.428711
1.960000 -5.840000 2.080000 -64.233261 65.035309 8355.502930
1.960000 -5.840000 2.120000 -55.468948 36.818779 4432.426758
1.960000 -5.840000 2.160000 -44.657310 33.664146 3127.550293
1.960000 -5.840000 2.200000 -52.310806 37.662807 4154.907227
1.960000 -5.800000 1.800000 -28.340443 -12.225057 952.632690
1.960000 -5.800000 1.840000 -7.450251 -25.440937 702.747498
1.960000 -5.800000 1.880000 16.438848 -16.226234 533.526428
1.960000 -5.800000 1.920000 25.025414 8.142254 692.567627
1.960000 -5.800000 1.960000 14.388634 30.442556 1133.781982
1.960000 -5.800000 2.000000 -5.412453 39.791180 1612.632690
1.960000 -5.800000 2.040000 -23.267147 38.064445 1990.262085
1.960000 -5.800000 2.080000 -36.865921 32.251869 2399.279297
1.960000 -5.800000 2.120000 -49.870075 24.023624 3064.158936
1.960000 -5.800000 2.160000 -62.284618 9.121754 3962.580078
1.960000 -5.800000 2.200000 -67.163589 -14.080734 4709.214844
2.000000 -6.200000 1.800000 40.405502 -62.493279 5538.014648
2.000000 -6.200000 1.840000 57.444542 -40.480068 4938.511230
2.000000 -6.200000 1.880000 58.791527 -15.356260 3692.258301
2.000000 -6.200000 1.920000 48.373600 3.124409 2349.767090
2.000000 -6.200000 1.960000 33.659813 12.080284 1278.916260
2.000000 -6.200000 2.000000 19.351448 13.241859 549.825378
2.000000 -6.200000 2.040000 7.458397 7.907578 118.157471
2.000000 -6.200000 2.080000 1.246090 -3.319382 12.571035
2.000000 -6.200000 2.120000 5.303303 -16.115767 287.842957
2.000000 -6.200000 2.160000 19.539091 -21.192646 830.904297
2.000000 -6.200000 2.200000 34.476219 -11.145716 1312.836670
2.000000 -6.160000 1.800000 69.101334 -18.221748 5107.026367
2.000000 -6.160000 1.840000 65.958321 19.769770 4741.343750
2.000000 -6.160000 1.880000 36.410915 47.138351 3547.778809
2.000000 -6.160000 1.920000 -3.613770 46.850941 2208.070068
2.000000 -6.160000 1.960000 -30.667896 20.474838 1359.738770
2.000000 -6.160000 2.000000 -31.482124 -13.720749 1179.383057
2.000000 -6.160000 2.040000 -10.942772 -35.581356 1385.777222
2.000000 -6.160000 2.080000 14.819290 -36.729416 1568.661377
2.000000 -6.160000 2.120000 31.570663 -22.409267 1498.882080
2.000000 -6.160000 2.160000 34.372948 -3.550285 1194.104004
2.000000 -6.160000 2.200000 25.789978 11.200330 790.570374
2.000000 -6.120000 1.800000 57.040348 32.691086 4322.308594
2.000000 -6.120000 1.840000 20.884184 71.749741 5584.174316
2.000000 -6.120000 1.880000 -42.470009 72.778931 7100.474609
2.000000 -6.120000 1.920000 -92.218071 22.897858 9028.484375
2.000000 -6.120000 1.960000 -91.009300 -50.870201 10870.469727
2.000000 -6.120000 2.000000 -37.752716 -100.865822 11599.181641
2.000000 -6.120000 2.040000 30.617332 -97.441498 10432.266602
2.000000 -6.120000 2.080000 70.141663 -51.382961 7560.061523
2.000000 -6.120000 2.120000 64.284805 -0.897808 4133.342285
2.000000 -6.120000 2.160000 31.391422 22.130438 1475.177734
2.000000 -6.120000 2.200000 2.462242 14.422417 214.068741
2.000000 -6.080000 1.800000 14.774806 57.681107 3545.405029
2.000000 -6.080000 1.840000 -53.679852 72.799179 8181.247070
2.000000 -6.080000 1.880000 -126.003174 20.441460 16294.653320
2.000000 -6.080000 1.920000 -139.060608 -83.511620 26312.042969
2.000000 -6.080000 1.960000 -67.015991 -172.342697 34193.148438
2.000000 -6.080000 2.000000 49.257172 -182.480530 35725.414062
2.000000 -6.080000 2.040000 133.102234 -108.989975 29595.019531
2.000000 -6.080000 2.080000 136.122864 -9.393471 18617.669922
2.000000 -6.080000 2.120000 75.385361 47.451027 7934.552734
2.000000 -6.080000 2.160000 11.115256 38.017067 1568.846313
2.000000 -6.080000 2.200000 -9.693739 -5.385845 122.975906
2.000000 -6.040000 1.800000 -26.899611 46.158211 2854.169434
2.000000 -6.040000 1.840000 -106.431343 16.610931 11603.553711
2.000000 -6.040000 1.880000 -144.265228 -88.651009 28671.458984
2.000000 -6.040000 1.920000 -81.521484 -207.830933 49839.449219
2.000000 -6.040000 1.960000 62.524361 -248.664017 65743.085938
2.000000 -6.040000 2.000000 196.094452 -170.911194 67663.671875
2.000000 -6.040000 2.040000 230.762817 -26.551746 53956.472656
2.000000 -6.040000 2.080000 157.033493 83.695160 31664.398438
2.000000 -6.040000 2.120000 47.810360 96.913406 11678.039062
2.000000 -6.040000 2.160000 -11.065674 35.535301 1385.206787
2.000000 -6.040000 2.200000 5.875844 -25.223829 670.767090
2.000000 -6.000000 1.800000 -43.566288 15.212875 2129.453125
2.000000 -6.000000 1.840000 -101.190903 -58.602711 13673.875977
2.000000 -6.000000 1.880000 -72.682060 -180.639191 37913.199219
2.000000 -6.000000 1.920000 61.182964 -254.108612 68314.539062
2.000000 -6.000000 1.960000 223.975250 -201.592834 90804.585938
2.000000 -6.000000 2.000000 301.668427 -42.299557 92793.085938
2.000000 -6.000000 2.040000 242.480896 117.269173 72549.046875
2.000000 -6.000000 2.080000 102.438354 174.486542 40939.167969
2.000000 -6.000000 2.120000 -7.642971 117.070625 13763.946289
2.000000 -6.000000 2.160000 -21.033718 23.524466 995.817749
2.000000 -6.000000 2.200000 35.308517 -17.393316 1549.218872
2.000000 -5.960000 1.800000 -35.455654 -8.933407 1336.909180
2.000000 -5.960000 1.840000 -47.355713 -102.033455 12653.389648
2.000000 -5.960000 1.880000 41.689171 -190.918427 38187.832031
2.000000 -5.960000 1.920000 195.176071 -180.886414 70813.593750
2.000000 -5.960000 1.960000 304.599670 -47.408482 95028.523438
2.000000 -5.960000 2.000000 283.176819 129.966675 97080.445312
2.000000 -5.960000 2.040000 146.272278 232.103271 75267.507812
2.000000 -5.960000 2.080000 -1.474581 204.001831 41618.921875
2.000000 -5.960000 2.120000 -60.574387 98.002014 13273.650391
2.000000 -5.960000 2.160000 -20.602848 17.314886 724.282593
2.000000 -5.960000 2.200000 44.605953 19.329006 2363.301514
2.000000 -5.920000 1.800000 -21.517441 -14.684977 678.648804
2.000000 -5.920000 1.840000 10.671001 -93.050499 8772.265625
2.000000 -5.920000 1.880000 119.698837 -120.407814 28825.853516
2.000000 -5.920000 1.920000 231.430466 -41.300262 55265.769531
2.000000 -5.920000 1.960000 251.269943 110.515427 75350.242188
2.000000 -5.920000 2.000000 152.271851 233.200165 77569.031250
2.000000 -5.920000 2.040000 3.470165 245.525635 60294.878906
2.000000 -5.920000 2.080000 -91.579605 157.805313 33289.343750
2.000000 -5.920000 2.120000 -86.276917 56.519032 10638.107422
2.000000 -5.920000 2.160000 -24.105030 20.572701 1004.288452
2.000000 -5.920000 2.200000 14.020200 53.340050 3041.726807
2.000000 -5.880000 1.800000 -17.625795 -11.341561 439.299683
2.000000 -5.880000 1.840000 34.431431 -54.598114 4166.477539
2.000000 -5.880000 1.880000 118.815804 -31.629917 15117.646484
2.000000 -5.880000 1.920000 162.392715 63.980186 30464.859375
2.000000 -5.880000 1.960000 116.609879 170.873749 42795.703125
2.000000 -5.880000 2.000000 5.764374 212.093414 45016.843750
2.000000 -5.880000 2.040000 -93.280556 164.315933 35700.988281
2.000000 -5.880000 2.080000 -120.598961 76.111832 20337.121094
2.000000 -5.880000 2.120000 -83.471581 18.735447 7318.521973
2.000000 -5.880000 2.160000 -40.170132 20.426079 2030.864258
2.000000 -5.880000 2.200000 -38.322784 48.556442 3826.363770
2.000000 -5.840000 1.800000 -21.860336 -14.233009 680.452881
2.000000 -5.840000 1.840000 22.709793 -26.338009 1209.425415
2.000000 -5.840000 1.880000 64.991722 10.612015 4336.538574
2.000000 -5.840000 1.920000 62.016048 75.579086 9558.188477
2.000000 -5.840000 1.960000 7.770531 119.783783 14408.535156
2.000000 -5.840000 2.000000 -60.737946 111.379379 16094.464844
2.000000 -5.840000 2.040000 -98.517021 62.946365 13667.848633
2.000000 -5.840000 2.080000 -92.793243 15.529762 8851.759766
2.000000 -5.840000 2.120000 -68.837158 -2.257383 4743.649902
2.000000 -5.840000 2.160000 -59.007771 2.233768 3486.906738
2.000000 -5.840000 2.200000 -69.689415 0.659090 4857.049316
2.000000 -5.800000 1.800000 -20.577724 -26.309948 1115.656128
2.000000 -5.800000 1.840000 4.610252 -26.445766 720.632996
2.000000 -5.800000 1.880000 19.598064 -5.283726 412.001892
2.000000 -5.800000 1.920000 12.324081 19.931189 549.135254
2.000000 -5.800000 1.960000 -10.138481 31.461830 1092.635498
2.000000 -5.800000 2.000000 -31.842316 26.146980 1697.597656
2.000000 -5.800000 2.040000 -44.271404 13.373886 2138.818115
2.000000 -5.800000 2.080000 -50.848564 1.217205 2587.058105
2.000000 -5.800000 2.120000 -57.097183 -11.957790 3403.077148
2.000000 -5.800000 2.160000 -60.354233 -31.605457 4641.538086
2.000000 -5.800000 2.200000 -51.975815 -55.759323 5810.587402
2.040000 -6.200000 1.800000 58.177261 -25.424925 4031.020508
2.040000 -6.200000 1.840000 61.558708 1.934428 3793.216553
2.040000 -6.200000 1.880000 47.879292 23.729761 2855.528076
2.040000 -6.200000 1.920000 26.993164 31.281509 1707.163818
2.040000 -6.200000 1.960000 9.799142 26.258171 785.514771
2.040000 -6.200000 2.000000 0.812687 15.615974 244.519119
2.040000 -6.200000 2.040000 -0.896961 4.525476 21.284475
2.040000 -6.200000 2.080000 3.402466 -4.762717 34.260250
2.040000 -6.200000 2.120000 13.247189 -9.235905 260.789948
2.040000 -6.200000 2.160000 25.013367 -4.345839 644.554810
2.040000 -6.200000 2.200000 29.984991 10.598126 1011.419922
2.040000 -6.160000 1.800000 59.671417 18.730160 3911.496826
2.040000 -6.160000 1.840000 39.649208 49.951576 4067.219727
2.040000 -6.160000 1.880000 0.658754 58.416225 3412.889160
2.040000 -6.160000 1.920000 -33.182205 36.559967 2437.689941
2.040000 -6.160000 1.960000 -41.131618 -1.128719 1693.084106
2.040000 -6.160000 2.000000 -21.784492 -30.457188 1402.204346
2.040000 -6.160000 2.040000 8.423790 -36.542393 1406.306641
2.040000 -6.160000 2.080000 30.369799 -22.193157 1414.860840
2.040000 -6.160000 2.120000 35.581070 -0.902153 1266.826416
2.040000 -6.160000 2.160000 27.324596 15.500870 986.910522
2.040000 -6.160000 2.200000 13.027591 22.513412 676.571838
2.040000 -6.120000 1.800000 28.790092 50.835281 3413.095215
2.040000 -6.120000 1.840000 -18.392601 67.576561 4904.879395
2.040000 -6.120000 1.880000 -70.899475 38.918175 6541.359375
2.040000 -6.120000 1.920000 -87.287697 -25.691185 8279.178711
2.040000 -6.120000 1.960000 -49.950718 -84.656555 9661.806641
2.040000 -6.120000 2.000000 17.631912 -98.195160 9953.173828
2.040000 -6.120000 2.040000 70.274170 -61.288944 8694.793945
2.040000 -6.120000 2.080000 78.436829 -5.261032 6180.014160
2.040000 -6.120000 2.120000 48.863342 31.263214 3365.014648
2.040000 -6.120000 2.160000 12.207861 33.039486 1240.639526
2.040000 -6.120000 2.200000 -6.254299 13.480085 220.828964
2.040000 -6.080000 1.800000 -13.716621 51.160259 2805.517822
2.040000 -6.080000 1.840000 -75.331917 33.305744 6784.169922
2.040000 -6.080000 1.880000 -108.643135 -41.217045 13502.175781
2.040000 -6.080000 1.920000 -70.193970 -128.884216 21538.333984
2.040000 -6.080000 1.960000 28.126255 -163.849564 27637.765625
2.040000 -6.080000 2.000000 122.980057 -115.994225 28578.753906
2.040000 -6.080000 2.040000 152.125031 -19.083210 23506.193359
2.040000 -6.080000 2.080000 106.390007 58.588661 14751.464844
2.040000 -6.080000 2.120000 32.762222 72.572098 6340.072754
2.040000 -6.080000 2.160000 -11.342271 34.590801 1325.170654
2.040000 -6.080000 2.200000 -6.337392 -7.863602 101.998764
2.040000 -6.040000 1.800000 -40.487137 24.078320 2218.973633
2.040000 -6.040000 1.840000 -89.129593 -34.440903 9130.259766
2.040000 -6.040000 1.880000 -69.882797 -132.828857 22527.111328
2.040000 -6.040000 1.920000 33.773342 -194.683044 39042.125000
2.040000 -6.040000 1.960000 162.726624 -157.790329 51377.742188
2.040000 -6.040000 2.000000 227.080444 -35.314190 52812.621094
2.040000 -6.040000 2.040000 184.296631 90.383377 42134.406250
2.040000 -6.040000 2.080000 75.828033 138.083176 24816.853516
2.040000 -6.040000 2.120000 -12.608295 95.443367 9268.405273
2.040000 -6.040000 2.160000 -27.120762 21.051777 1178.713013
2.040000 -6.040000 2.200000 14.863983 -16.131374 481.159241
2.040000 -6.000000 1.800000 -39.657257 -7.414581 1627.674072
2.040000 -6.000000 1.840000 -49.508751 -89.558098 10471.769531
2.040000 -6.000000 1.880000 28.705933 -168.153091 29099.494141
2.040000 -6.000000 1.920000 163.790100 -160.357391 52541.687500
2.040000 -6.000000 1.960000 260.946075 -43.802570 70011.515625
2.040000 -6.000000 2.000000 243.135223 112.524574 71776.515625
2.040000 -6.000000 2.040000 122.372742 203.472305 56376.070312
2.040000 -6.000000 2.080000 -9.781214 178.750626 32047.458984
2.040000 -6.000000 2.120000 -64.111526 82.641937 10939.977539
2.040000 -6.000000 2.160000 -28.562885 6.419170 857.044189
2.040000 -6.000000 2.200000 33.472118 3.575584 1133.167480
2.040000 -5.960000 1.800000 -22.174995 -22.744675 1009.050659
2.040000 -5.960000 1.840000 12.380253 -96.996460 9561.583984
2.040000 -5.960000 1.880000 120.118790 -120.688995 28994.357422
2.040000 -5.960000 1.920000 228.964020 -40.240379 54043.812500
2.040000 -5.960000 1.960000 246.157410 111.083351 72932.976562
2.040000 -5.960000 2.000000 144.897583 232.361267 74987.062500
2.040000 -5.960000 2.040000 -6.099354 241.989960 58596.343750
2.040000 -5.960000 2.080000 -102.138855 149.395432 32751.339844
2.040000 -5.960000 2.120000 -94.267883 41.916306 10643.410156
2.040000 -5.960000 2.160000 -24.993935 1.779903 627.864807
2.040000 -5.960000 2.200000 22.326029 35.773285 1778.179443
2.040000 -5.920000 1.800000 -8.336525 -20.447350 487.591766
2.040000 -5.920000 1.840000 51.911118 -61.948364 6532.364258
2.040000 -5.920000 1.880000 144.343704 -29.721912 21718.498047
2.040000 -5.920000 1.920000 187.906158 82.040665 42039.394531
2.040000 -5.920000 1.960000 128.772537 203.148987 57851.878906
2.040000 -5.920000 2.000000 -3.979103 245.216293 60146.863281
2.040000 -5.920000 2.040000 -119.823257 181.471161 47289.394531
2.040000 -5.920000 2.080000 -146.947678 70.029205 26497.708984
2.040000 -5.920000 2.120000 -93.158241 -2.039942 8682.619141
2.040000 -5.920000 2.160000 -29.724846 2.464464 889.640076
2.040000 -5.920000 2.200000 -18.592022 45.811935 2444.396729
2.040000 -5.880000 1.800000 -7.579205 -15.289505 291.213318
2.040000 -5.880000 1.840000 50.110767 -21.490526 2972.931885
2.040000 -5.880000 1.880000 99.666191 35.862976 11219.502930
2.040000 -5.880000 1.920000 84.320938 126.449402 23099.472656
2.040000 -5.880000 1.960000 -1.902695 181.631287 32993.546875
2.040000 -5.880000 2.000000 -103.487549 156.642563 35246.566406
2.040000 -5.880000 2.040000 -152.312012 72.208618 28413.033203
2.040000 -5.880000 2.080000 -128.381256 -6.093651 16518.878906
2.040000 -5.880000 2.120000 -72.809227 -29.436140 6167.669922
2.040000 -5.880000 2.160000 -42.819038 -6.570847 1876.646118
2.040000 -5.880000 2.200000 -56.786861 14.008419 3420.983398
2.040000 -5.840000 1.800000 -11.460426 -20.214251 539.957275
2.040000 -5.840000 1.840000 26.293100 -7.834835 752.711792
2.040000 -5.840000 1.880000 38.512177 39.268196 3025.178955
2.040000 -5.840000 1.920000 3.813652 84.405396 7138.814941
2.040000 -5.840000 1.960000 -57.852432 88.618973 11200.226562
2.040000 -5.840000 2.000000 -103.134468 47.266815 12870.871094
2.040000 -5.840000 2.040000 -105.557838 -7.295502 11195.681641
2.040000 -5.840000 2.080000 -77.262543 -38.512280 7452.696289
2.040000 -5.840000 2.120000 -51.766018 -39.133026 4211.114258
2.040000 -5.840000 2.160000 -48.333488 -32.125324 3368.162598
2.040000 -5.840000 2.200000 -55.601425 -41.497517 4813.562500
2.040000 -5.800000 1.800000 -5.664946 -32.324215 1076.946411
2.040000 -5.800000 1.840000 13.759439 -20.233150 598.702515
2.040000 -5.800000 1.880000 14.249767 2.853382 211.197647
2.040000 -5.800000 1.920000 -4.177010 17.003262 306.558319
2.040000 -5.800000 1.960000 -26.121662 12.661652 842.658691
2.040000 -5.800000 2.000000 -37.807892 -3.106300 1439.085693
2.040000 -5.800000 2.040000 -39.010246 -18.116455 1850.005249
2.040000 -5.800000 2.080000 -37.941872 -29.162275 2290.023926
2.040000 -5.800000 2.120000 -37.516956 -42.428028 3207.659668
2.040000 -5.800000 2.160000 -30.578524 -61.348701 4698.708984
2.040000 -5.800000 2.200000 -9.720789 -78.064499 6188.559570
2.080000 -6.200000 1.800000 46.415279 11.772750 2292.975830
2.080000 -6.200000 1.840000 35.664345 34.108215 2435.315918
2.080000 -6.200000 1.880000 13.391075 42.713539 2003.767334
2.080000 -6.200000 1.920000 -6.503324 35.073399 1272.436523
2.080000 -6.200000 1.960000 -14.844015 19.516685 601.245789
2.080000 -6.200000 2.000000 -12.368050 6.045035 189.511108
2.080000 -6.200000 2.040000 -5.006927 -1.230406 26.583221
2.080000 -6.200000 2.080000 3.198307 -3.238064 20.714226
2.080000 -6.200000 2.120000 11.128910 -0.622177 124.239746
2.080000 -6.200000 2.160000 16.408943 7.584982 326.785370
2.080000 -6.200000 2.200000 13.887134 19.485258 572.527771
2.080000 -6.160000 1.800000 29.935989 38.621155 2387.757080
2.080000 -6.160000 1.840000 1.620097 54.164799 2936.450195
2.080000 -6.160000 1.880000 -31.678041 42.938919 2847.249023
2.080000 -6.160000 1.920000 -46.711617 10.399824 2290.131348
2.080000 -6.160000 1.960000 -34.182980 -21.721336 1640.292480
2.080000 -6.160000 2.000000 -5.243790 -33.956844 1180.564575
2.080000 -6.160000 2.040000 19.948502 -23.565638 953.281982
2.080000 -6.160000 2.080000 28.852192 -2.745163 839.984924
2.080000 -6.160000 2.120000 22.813309 14.448029 729.192627
2.080000 -6.160000 2.160000 10.417561 22.092379 596.598755
2.080000 -6.160000 2.200000 -1.748262 21.550903 467.497864
2.080000 -6.120000 1.800000 -1.275200 46.225952 2138.464844
2.080000 -6.120000 1.840000 -42.244656 40.838486 3452.392822
2.080000 -6.120000 1.880000 -68.687515 -0.730099 4718.507812
2.080000 -6.120000 1.920000 -53.724854 -53.457024 5744.013184
2.080000 -6.120000 1.960000 -2.669151 -79.272835 6291.306641
2.080000 -6.120000 2.000000 50.153530 -60.019997 6117.776367
2.080000 -6.120000 2.040000 70.712288 -12.169708 5148.329102
2.080000 -6.120000 2.080000 52.504128 29.468344 3625.066650
2.080000 -6.120000 2.120000 17.291267 41.664055 2034.881348
2.080000 -6.120000 2.160000 -7.758352 27.917763 839.593506
2.080000 -6.120000 2.200000 -12.248886 8.089455 215.474487
2.080000 -6.080000 1.800000 -27.687243 30.245832 1681.393799
2.080000 -6.080000 1.840000 -64.271584 -4.410752 4150.291016
2.080000 -6.080000 1.880000 -58.777706 -68.073044 8088.758301
2.080000 -6.080000 1.920000 1.628700 -112.287987 12611.244141
2.080000 -6.080000 1.960000 81.605942 -96.303879 15933.966797
2.080000 -6.080000 2.000000 125.318298 -25.752701 16367.876953
2.080000 -6.080000 2.040000 104.682732 50.531876 13511.945312
2.080000 -6.080000 2.080000 42.188446 82.859200 8645.511719
2.080000 -6.080000 2.120000 -12.190615 61.434181 3922.769775
2.080000 -6.080000 2.160000 -25.534523 18.208866 983.574646
2.080000 -6.080000 2.200000 -5.116644 -7.508980 82.564819
2.080000 -6.040000 1.800000 -34.150764 3.298519 1177.154907
2.080000 -6.040000 1.840000 -45.444466 -53.078842 4882.562988
2.080000 -6.040000 1.880000 4.269641 -110.321030 12188.958984
2.080000 -6.040000 1.920000 95.844490 -110.275345 21346.816406
2.080000 -6.040000 1.960000 164.859375 -35.009365 28404.269531
2.080000 -6.040000 2.000000 156.956573 70.433723 29596.273438
2.080000 -6.040000 2.040000 77.571991 134.329620 24061.861328
2.080000 -6.040000 2.080000 -12.708965 120.220398 14614.461914
2.080000 -6.040000 2.120000 -52.525486 55.363121 5824.001953
2.080000 -6.040000 2.160000 -30.862310 0.482391 952.714905
2.080000 -6.040000 2.200000 12.169250 -6.579038 191.374374
2.080000 -6.000000 1.800000 -21.791790 -15.848498 726.057007
2.080000 -6.000000 1.840000 1.901182 -71.740952 5150.378418
2.080000 -6.000000 1.880000 81.364334 -91.674484 15024.365234
2.080000 -6.000000 1.920000 163.772949 -33.722603 27958.792969
2.080000 -6.000000 1.960000 178.613861 79.108665 38161.093750
2.080000 -6.000000 2.000000 103.529442 171.228546 40037.562500
2.080000 -6.000000 2.040000 -11.196707 179.330536 32284.808594
2.080000 -6.000000 2.080000 -85.704170 108.124039 19036.011719
2.080000 -6.000000 2.120000 -80.256035 22.980999 6969.157715
2.080000 -6.000000 2.160000 -24.721563 -11.750849 749.238159
2.080000 -6.000000 2.200000 17.332767 12.476678 456.092346
2.080000 -5.960000 1.800000 -5.553497 -18.315876 366.312653
2.080000 -5.960000 1.840000 43.291306 -51.049545 4480.193359
2.080000 -5.960000 1.880000 118.735519 -23.789621 14664.070312
2.080000 -5.960000 1.920000 153.909271 69.399651 28504.375000
2.080000 -5.960000 1.960000 102.972824 170.555603 39692.617188
2.080000 -5.960000 2.000000 -10.626541 204.653625 41996.027344
2.080000 -5.960000 2.040000 -109.949127 147.501495 33845.500000
2.080000 -5.960000 2.080000 -131.879913 47.984898 19694.863281
2.080000 -5.960000 2.120000 -81.052292 -17.643532 6880.768555
2.080000 -5.960000 2.160000 -19.028250 -14.071848 560.091187
2.080000 -5.960000 2.200000 -2.615437 28.220009 803.209412
2.080000 -5.920000 1.800000 0.707403 -11.518158 133.168381
2.080000 -5.920000 1.840000 52.410522 -13.456133 2927.930176
2.080000 -5.920000 1.880000 95.118034 42.565632 10859.273438
2.080000 -5.920000 1.920000 75.883125 128.116180 22172.003906
2.080000 -5.920000 1.960000 -10.765362 177.673294 31683.691406
2.080000 -5.920000 2.000000 -110.633011 147.678223 34048.519531
2.080000 -5.920000 2.040000 -155.816315 58.555149 27707.429688
2.080000 -5.920000 2.080000 -125.201508 -23.217688 16214.478516
2.080000 -5.920000 2.120000 -60.227997 -45.852352 5729.849609
2.080000 -5.920000 2.160000 -21.871483 -15.875559 730.395142
2.080000 -5.920000 2.200000 -33.542931 16.236847 1388.763428
2.080000 -5.880000 1.800000 -2.801888 -9.761263 103.132828
2.080000 -5.880000 1.840000 33.559071 8.796610 1203.591553
2.080000 -5.880000 1.880000 39.493420 62.767330 5499.467773
2.080000 -5.880000 1.920000 -7.756935 110.316223 12229.838867
2.080000 -5.880000 1.960000 -83.493164 106.579193 18330.232422
2.080000 -5.880000 2.000000 -134.633377 47.193459 20353.369141
2.080000 -5.880000 2.040000 -127.893570 -26.102188 17038.089844
2.080000 -5.880000 2.080000 -79.096191 -64.209152 10379.023438
2.080000 -5.880000 2.120000 -34.834606 -54.856449 4222.679688
2.080000 -5.880000 2.160000 -26.559175 -28.636177 1525.420410
2.080000 -5.880000 2.200000 -43.926804 -23.700119 2491.259766
2.080000 -5.840000 1.800000 -3.557596 -18.423491 352.081512
2.080000 -5.840000 1.840000 14.285839 3.851271 218.917496
2.080000 -5.840000 1.880000 1.765583 36.670723 1347.859253
2.080000 -5.840000 1.920000 -38.471649 47.953148 3779.572266
2.080000 -5.840000 1.960000 -76.905792 22.551502 6423.071289
2.080000 -5.840000 2.000000 -85.024384 -22.834297 7750.551270
2.080000 -5.840000 2.040000 -61.712448 -56.579216 7009.633789
2.080000 -5.840000 2.080000 -31.281448 -62.650856 4903.658691
2.080000 -5.840000 2.120000 -16.773369 -52.939106 3083.894775
2.080000 -5.840000 2.160000 -17.773928 -50.262012 2842.182617
2.080000 -5.840000 2.200000 -15.158785 -62.383854 4121.533691
2.080000 -5.800000 1.800000 8.621480 -27.925478 854.162231
2.080000 -5.800000 1.840000 16.243204 -11.346432 392.583191
2.080000 -5.800000 1.880000 6.044502 3.065985 45.936268
2.080000 -5.800000 1.920000 -11.464857 2.209766 136.326019
2.080000 -5.800000 1.960000 -21.258043 -11.507774 584.333252
2.080000 -5.800000 2.000000 -19.130123 -25.763016 1029.694580
2.080000 -5.800000 2.040000 -12.822796 -33.516758 1287.797119
2.080000 -5.800000 2.080000 -9.280640 -39.383732 1637.208618
2.080000 -5.800000 2.120000 -4.614280 -50.405411 2561.996826
2.080000 -5.800000 2.160000 10.659359 -63.506500 4146.697754
2.080000 -5.800000 2.200000 37.579624 -65.937683 5760.005859
2.120000 -6.200000 1.800000 15.075027 26.980476 955.202576
2.120000 -6.200000 1.840000 -1.827085 36.624371 1344.682739
2.120000 -6.200000 1.880000 -20.499638 30.943214 1377.717651
2.120000 -6.200000 1.920000 -29.153229 14.921598 1072.564819
2.120000 -6.200000 1.960000 -25.250950 -0.264477 637.680420
2.120000 -6.200000 2.000000 -15.157686 -7.447176 285.215881
2.120000 -6.200000 2.040000 -6.111732 -7.458231 92.978485
2.120000 -6.200000 2.080000 -0.223624 -4.495192 20.256754
2.120000 -6.200000 2.120000 3.771613 -0.140156 14.244706
2.120000 -6.200000 2.160000 5.279748 6.498016 70.099960
2.120000 -6.200000 2.200000 1.179625 13.853660 193.315399
2.120000 -6.160000 1.800000 -1.141892 32.337830 1047.039185
2.120000 -6.160000 1.840000 -25.227871 32.520824 1694.049561
2.120000 -6.160000 1.880000 -42.524536 12.470957 1963.860962
2.120000 -6.160000 1.920000 -39.235401 -14.591297 1752.322754
2.120000 -6.160000 1.960000 -18.153030 -30.241779 1244.097778
2.120000 -6.160000 2.000000 5.231596 -26.521070 730.736755
2.120000 -6.160000 2.040000 17.034718 -10.385727 398.044922
2.120000 -6.160000 2.080000 15.055909 5.319614 254.978699
2.120000 -6.160000 2.120000 6.303562 13.313869 216.994019
2.120000 -6.160000 2.160000 -2.337573 14.527363 216.508514
2.120000 -6.160000 2.200000 -9.117956 12.257834 233.391632
2.120000 -6.120000 1.800000 -16.936594 25.553890 939.849487
2.120000 -6.120000 1.840000 -41.168800 10.437460 1803.810669
2.120000 -6.120000 1.880000 -44.505669 -23.157486 2517.023682
2.120000 -6.120000 1.920000 -18.516996 -49.993309 2842.210205
2.120000 -6.120000 1.960000 20.181063 -48.377647 2747.672119
2.120000 -6.120000 2.000000 44.444870 -19.509109 2355.951660
2.120000 -6.120000 2.040000 40.120476 14.731361 1826.665649
2.120000 -6.120000 2.080000 16.027206 31.993982 1280.486328
2.120000 -6.120000 2.120000 -7.256725 27.216377 793.391235
2.120000 -6.120000 2.160000 -16.388332 12.175520 416.820709
2.120000 -6.120000 2.200000 -13.320014 0.845603 178.137817
2.120000 -6.080000 1.800000 -23.600109 10.843050 674.536865
2.120000 -6.080000 1.840000 -36.414078 -18.485334 1667.692627
2.120000 -6.080000 1.880000 -15.900020 -52.984169 3060.132812
2.120000 -6.080000 1.920000 30.509106 -59.863533 4514.448242
2.120000 -6.080000 1.960000 69.383423 -26.615292 5522.433105
2.120000 -6.080000 2.000000 70.651276 25.556128 5644.718262
2.120000 -6.080000 2.040000 34.502331 59.953281 4784.806641
2.120000 -6.080000 2.080000 -10.019999 56.407772 3282.237061
2.120000 -6.080000 2.120000 -32.118675 26.372049 1727.094238
2.120000 -6.080000 2.160000 -24.787102 -1.543986 616.784302
2.120000 -6.080000 2.200000 -5.486788 -8.760799 106.856453
2.120000 -6.040000 1.800000 -18.949364 -2.275134 364.254639
2.120000 -6.040000 1.840000 -11.978535 -35.225967 1384.354004
2.120000 -6.040000 1.880000 29.026411 -52.139164 3561.024902
2.120000 -6.040000 1.920000 76.379410 -26.057423 6512.803711
2.120000 -6.040000 1.960000 89.205658 33.607674 9087.125000
2.120000 -6.040000 2.000000 51.677628 85.561516 9991.349609
2.120000 -6.040000 2.040000 -10.686350 92.576370 8684.583008
2.120000 -6.040000 2.080000 -53.372078 54.369347 5804.604492
2.120000 -6.040000 2.120000 -52.071285 5.751539 2744.499023
2.120000 -6.040000 2.160000 -20.970778 -16.711796 719.057617
2.120000 -6.040000 2.200000 5.424027 -5.955009 64.882217
2.120000 -6.000000 1.800000 -9.277566 -6.571680 129.260193
2.120000 -6.000000 1.840000 15.298244 -28.808668 1063.975586
2.120000 -6.000000 1.880000 59.264748 -17.516680 3819.144287
2.120000 -6.000000 1.920000 82.703690 34.541077 8032.986328
2.120000 -6.000000 1.960000 55.282284 94.576721 12000.886719
2.120000 -6.000000 2.000000 -11.857714 116.171013 13636.309570
2.120000 -6.000000 2.040000 -72.633469 81.700836 11950.647461
2.120000 -6.000000 2.080000 -86.411026 19.036510 7829.253906
2.120000 -6.000000 2.120000 -53.275475 -24.219925 3424.880859
2.120000 -6.000000 2.160000 -10.416385 -23.442703 658.061401
2.120000 -6.000000 2.200000 4.921974 4.803538 47.299812
2.120000 -5.960000 1.800000 -3.717680 -3.423427 25.540997
2.120000 -5.960000 1.840000 26.454908 -6.889948 747.333557
2.120000 -5.960000 1.880000 53.444096 26.284468 3547.144531
2.120000 -5.960000 1.920000 41.751320 80.032684 8148.403320
2.120000 -5.960000 1.960000 -14.591835 111.577576 12662.477539
2.120000 -5.960000 2.000000 -80.814270 90.166672 14660.974609
2.120000 -5.960000 2.040000 -110.221817 27.652096 12913.487305
2.120000 -5.960000 2.080000 -86.155411 -30.645000 8361.871094
2.120000 -5.960000 2.120000 -35.955772 -46.745716 3477.979492
2.120000 -5.960000 2.160000 -3.611967 -22.575672 522.707275
2.120000 -5.960000 2.200000 -9.087988 6.610229 126.286652
2.120000 -5.920000 1.800000 -5.299688 -1.277419 29.718496
2.120000 -5.920000 1.840000 17.550262 10.756357 423.710938
2.120000 -5.920000 1.880000 19.737213 47.427883 2638.961670
2.120000 -5.920000 1.920000 -16.013594 79.223587 6532.812012
2.120000 -5.920000 1.960000 -72.202759 72.683968 10496.197266
2.120000 -5.920000 2.000000 -108.626511 23.791885 12365.772461
2.120000 -5.920000 2.040000 -98.661125 -35.354595 10983.964844
2.120000 -5.920000 2.080000 -53.943527 -64.900085 7121.924805
2.120000 -5.920000 2.120000 -12.640776 -53.005894 2969.414062
2.120000 -5.920000 2.160000 -3.257739 -23.836655 578.798950
2.120000 -5.920000 2.200000 -20.270189 -11.247818 537.393982
2.120000 -5.880000 1.800000 -7.495808 -6.584738 99.545906
2.120000 -5.880000 1.840000 2.948587 10.948241 128.558151
2.120000 -5.880000 1.880000 -11.510372 35.278000 1377.025879
2.120000 -5.880000 1.920000 -48.056770 39.262302 3850.981445
2.120000 -5.880000 1.960000 -80.072128 10.119585 6513.951660
2.120000 -5.880000 2.000000 -81.210396 -35.918663 7885.278809
2.120000 -5.880000 2.040000 -50.614952 -67.615097 7133.674805
2.120000 -5.880000 2.080000 -13.308706 -67.725693 4763.891113
2.120000 -5.880000 2.120000 4.495242 -47.563026 2282.448730
2.120000 -5.880000 2.160000 -0.450669 -33.103748 1096.061279
2.120000 -5.880000 2.200000 -8.785738 -38.191730 1535.797485
2.120000 -5.840000 1.800000 -0.855286 -15.763913 249.232468
2.120000 -5.840000 1.840000 0.498505 -0.406682 0.413898
2.120000 -5.840000 1.880000 -16.183537 8.843703 340.117950
2.120000 -5.840000 1.920000 -37.222263 -2.226795 1390.455566
2.120000 -5.840000 1.960000 -42.946869 -28.826328 2675.390869
2.120000 -5.840000 2.000000 -27.417439 -51.742569 3429.009277
2.120000 -5.840000 2.040000 -3.555649 -56.748230 3233.004150
2.120000 -5.840000 2.080000 11.410250 -47.824036 2417.332275
2.120000 -5.840000 2.120000 13.737340 -40.405117 1821.287964
2.120000 -5.840000 2.160000 14.942009 -43.136230 2083.998047
2.120000 -5.840000 2.200000 26.698822 -48.712784 3085.762451
2.120000 -5.800000 1.800000 15.918035 -17.204994 549.395630
2.120000 -5.800000 1.840000 13.143055 -5.140543 199.165085
2.120000 -5.800000 1.880000 2.114426 -3.260704 15.102986
2.120000 -5.800000 1.920000 -4.207504 -12.659084 177.955505
2.120000 -5.800000 1.960000 0.256561 -23.073784 532.465271
2.120000 -5.800000 2.000000 9.233891 -25.926971 757.472534
2.120000 -5.800000 2.040000 13.721531 -24.119623 770.036621
2.120000 -5.800000 2.080000 14.453027 -26.729359 923.348633
2.120000 -5.800000 2.120000 21.445187 -35.323273 1707.629639
2.120000 -5.800000 2.160000 40.567139 -39.137882 3177.466553
2.120000 -5.800000 2.200000 63.271721 -26.196808 4689.583496
2.160000 -6.200000 1.800000 -11.864574 14.288695 344.934937
2.160000 -6.200000 1.840000 -23.814651 12.618210 726.356873
2.160000 -6.200000 1.880000 -30.790348 1.682276 950.875610
2.160000 -6.200000 1.920000 -27.972637 -10.847373 900.133972
2.160000 -6.200000 1.960000 -18.647350 -17.533566 655.149597
2.160000 -6.200000 2.000000 -9.548265 -17.243721 388.515289
2.160000 -6.200000 2.040000 -4.108433 -13.938660 211.165466
2.160000 -6.200000 2.080000 -0.913302 -10.836734 118.268921
2.160000 -6.200000 2.120000 2.017629 -7.280626 57.078339
2.160000 -6.200000 2.160000 3.340817 -1.612586 13.761495
2.160000 -6.200000 2.200000 0.109752 4.365730 19.071646
2.160000 -6.160000 1.800000 -14.148739 8.685238 275.620178
2.160000 -6.160000 1.840000 -26.369062 2.928211 703.901855
2.160000 -6.160000 1.880000 -29.515568 -11.914241 1013.117920
2.160000 -6.160000 1.920000 -20.036922 -24.671465 1010.159424
2.160000 -6.160000 1.960000 -4.868778 -26.671843 735.092224
2.160000 -6.160000 2.000000 5.955527 -18.710474 385.550140
2.160000 -6.160000 2.040000 8.203475 -8.277129 135.807861
2.160000 -6.160000 2.080000 4.981261 -1.399408 26.771305
2.160000 -6.160000 2.120000 1.034431 1.647714 3.785008
2.160000 -6.160000 2.160000 -2.497272 3.346206 17.433460
2.160000 -6.160000 2.200000 -7.065741 3.883136 65.003433
2.160000 -6.120000 1.800000 -12.831493 4.834461 188.019226
2.160000 -6.120000 1.840000 -22.936306 -5.604922 557.489319
2.160000 -6.120000 1.880000 -19.325251 -21.813156 849.279053
2.160000 -6.120000 1.920000 -2.972254 -29.438309 875.448303
2.160000 -6.120000 1.960000 13.647795 -21.663570 655.572571
2.160000 -6.120000 2.000000 18.477060 -4.933480 365.740997
2.160000 -6.120000 2.040000 10.299040 8.118501 171.980286
2.160000 -6.120000 2.080000 -2.126022 10.385798 112.384766
2.160000 -6.120000 2.120000 -9.761700 4.807631 118.404091
2.160000 -6.120000 2.160000 -10.884218 -1.313119 120.190491
2.160000 -6.120000 2.200000 -9.635202 -4.394116 112.145386
2.160000 -6.080000 1.800000 -10.911785 4.087031 135.770874
2.160000 -6.080000 1.840000 -15.962057 -9.424634 343.610992
2.160000 -6.080000 1.880000 -5.241897 -21.989832 511.030182
2.160000 -6.080000 1.920000 13.176523 -19.663565 560.276489
2.160000 -6.080000 1.960000 22.828938 -2.144446 525.759033
2.160000 -6.080000 2.000000 14.669346 16.685104 493.582397
2.160000 -6.080000 2.040000 -4.609838 21.982136 504.464905
2.160000 -6.080000 2.080000 -19.649117 11.383648 515.675171
2.160000 -6.080000 2.120000 -20.914253 -4.375131 456.547729
2.160000 -6.080000 2.160000 -11.972980 -13.002421 312.415192
2.160000 -6.080000 2.200000 -3.484114 -11.704789 149.141144
2.160000 -6.040000 1.800000 -10.956206 5.156950 146.632599
2.160000 -6.040000 1.840000 -9.880001 -7.656058 156.229645
2.160000 -6.040000 1.880000 3.949559 -12.273913 166.247971
2.160000 -6.040000 1.920000 16.462788 -0.443130 271.219727
2.160000 -6.040000 1.960000 12.770748 19.279301 534.783447
2.160000 -6.040000 2.000000 -7.436562 28.962738 894.142639
2.160000 -6.040000 2.040000 -28.695438 18.615561 1169.967285
2.160000 -6.040000 2.080000 -34.250488 -4.087318 1189.802124
2.160000 -6.040000 2.120000 -21.533638 -21.381838 920.880554
2.160000 -6.040000 2.160000 -3.426943 -22.168497 503.186188
2.160000 -6.040000 2.200000 5.123526 -11.154640 150.676514
2.160000 -6.000000 1.800000 -13.661528 5.346493 215.222336
2.160000 -6.000000 1.840000 -8.517421 -3.256151 83.148979
2.160000 -6.000000 1.880000 2.119308 -0.047943 4.493767
2.160000 -6.000000 1.920000 3.365435 14.391366 218.437576
2.160000 -6.000000 1.960000 -11.859418 25.561478 794.034973
2.160000 -6.000000 2.000000 -33.810989 19.030489 1505.342529
2.160000 -6.000000 2.040000 -44.006676 -4.358852 1955.587158
2.160000 -6.000000 2.080000 -32.918999 -27.979755 1866.527222
2.160000 -6.000000 2.120000 -9.391818 -34.693962 1291.877319
2.160000 -6.000000 2.160000 7.805979 -22.685905 575.583618
2.160000 -6.000000 2.200000 7.662972 -6.154876 96.603638
2.160000 -5.960000 1.800000 -17.324137 2.045925 304.311523
2.160000 -5.960000 1.840000 -11.751483 -1.490273 140.318268
2.160000 -5.960000 1.880000 -8.310219 4.774240 91.853111
2.160000 -5.960000 1.920000 -16.512798 13.024710 442.315582
2.160000 -5.960000 1.960000 -33.432613 9.862208 1215.002808
2.160000 -5.960000 2.000000 -44.505085 -9.193402 2065.221191
2.160000 -5.960000 2.040000 -37.307411 -33.155205 2491.110352
2.160000 -5.960000 2.080000 -14.520897 -44.705666 2209.453125
2.160000 -5.960000 2.120000 7.533614 -36.455502 1385.758911
2.160000 -5.960000 2.160000 13.914080 -17.945465 515.641296
2.160000 -5.960000 2.200000 4.638042 -6.276777 60.909370
2.160000 -5.920000 1.800000 -18.082024 -5.376707 355.868530
2.160000 -5.920000 1.840000 -14.594002 -5.402740 242.174484
2.160000 -5.920000 1.880000 -17.381006 -1.654872 304.837952
2.160000 -5.920000 1.920000 -27.370850 -3.680571 762.710022
2.160000 -5.920000 1.960000 -35.335766 -17.295994 1547.767700
2.160000 -5.920000 2.000000 -30.435774 -36.713886 2274.245605
2.160000 -5.920000 2.040000 -11.792572 -48.532494 2494.467529
2.160000 -5.920000 2.080000 9.280802 -44.291504 2047.870605
2.160000 -5.920000 2.120000 19.345764 -28.852291 1206.713379
2.160000 -5.920000 2.160000 15.253226 -15.823807 483.053772
2.160000 -5.920000 2.200000 6.417732 -14.629939 255.222397
2.160000 -5.880000 1.800000 -11.927082 -13.664076 328.962250
2.160000 -5.880000 1.840000 -11.118514 -11.886793 264.917206
2.160000 -5.880000 1.880000 -16.094437 -12.909492 425.685883
2.160000 -5.880000 1.920000 -20.628183 -22.128551 915.194702
2.160000 -5.880000 1.960000 -16.174297 -36.088333 1563.975708
2.160000 -5.880000 2.000000 -1.383196 -44.797859 2008.761353
2.160000 -5.880000 2.040000 15.510020 -41.597782 1970.936279
2.160000 -5.880000 2.080000 24.457605 -30.008745 1498.699219
2.160000 -5.880000 2.120000 23.362339 -20.109119 950.175537
2.160000 -5.880000 2.160000 19.500307 -18.293892 714.928467
2.160000 -5.880000 2.200000 21.336361 -21.333256 910.348083
2.160000 -5.840000 1.800000 1.336914 -16.040781 259.093994
2.160000 -5.840000 1.840000 -0.847621 -13.134423 173.231537
2.160000 -5.840000 1.880000 -5.070584 -17.597307 335.376038
2.160000 -5.840000 1.920000 -2.492583 -27.587208 767.266968
2.160000 -5.840000 1.960000 9.152519 -33.884033 1231.896240
2.160000 -5.840000 2.000000 22.404642 -30.126141 1409.552368
2.160000 -5.840000 2.040000 28.191719 -20.161829 1201.272339
2.160000 -5.840000 2.080000 26.085205 -13.701452 868.167725
2.160000 -5.840000 2.120000 24.710566 -15.029398 836.494873
2.160000 -5.840000 2.160000 31.526003 -17.753731 1309.083740
2.160000 -5.840000 2.200000 43.559376 -11.956554 2040.378418
2.160000 -5.800000 1.800000 15.300387 -6.729621 279.389648
2.160000 -5.800000 1.840000 8.772269 -3.766820 91.141640
2.160000 -5.800000 1.880000 5.395152 -10.030616 129.720917
2.160000 -5.800000 1.920000 11.755680 -16.913637 424.267151
2.160000 -5.800000 1.960000 22.517914 -15.090599 734.782654
2.160000 -5.800000 2.000000 27.081535 -6.043064 769.928162
2.160000 -5.800000 2.040000 23.053280 -0.385191 531.602112
2.160000 -5.800000 2.080000 20.072762 -4.364052 421.960693
2.160000 -5.800000 2.120000 28.446388 -10.599164 921.539307
2.160000 -5.800000 2.160000 45.286301 -5.056748 2076.419922
2.160000 -5.800000 2.200000 55.047203 16.511969 3302.839600
2.200000 -6.200000 1.800000 -15.521009 -10.894852 359.599518
2.200000 -6.200000 1.840000 -17.118441 -14.366361 499.433350
2.200000 -6.200000 1.880000 -15.110301 -19.216972 597.613220
2.200000 -6.200000 1.920000 -10.091864 -22.028160 587.085571
2.200000 -6.200000 1.960000 -4.860243 -21.790138 498.432098
2.200000 -6.200000 2.000000 -1.107486 -20.148918 407.205444
2.200000 -6.200000 2.040000 2.012010 -18.647207 351.766541
2.200000 -6.200000 2.080000 5.886503 -16.502392 306.979858
2.200000 -6.200000 2.120000 9.639530 -11.746347 230.897217
2.200000 -6.200000 2.160000 10.245054 -4.501425 125.223969
2.200000 -6.200000 2.200000 5.933192 1.798248 38.436466
2.200000 -6.160000 1.800000 -3.864027 -12.005917 159.072739
2.200000 -6.160000 1.840000 -6.757666 -12.562960 203.494003
2.200000 -6.160000 1.880000 -7.071654 -15.805592 299.825012
2.200000 -6.160000 1.920000 -4.227556 -18.455206 358.466858
2.200000 -6.160000 1.960000 -0.174469 -18.746380 351.457184
2.200000 -6.160000 2.000000 3.348841 -17.190622 306.732208
2.200000 -6.160000 2.040000 6.184373 -14.659737 253.154358
2.200000 -6.160000 2.080000 8.442153 -10.835172 188.670898
2.200000 -6.160000 2.120000 8.778341 -5.295164 105.098038
2.200000 -6.160000 2.160000 5.268756 0.288419 27.842974
2.200000 -6.160000 2.200000 -1.676091 2.343283 8.300255
2.200000 -6.120000 1.800000 2.814349 -2.394471 13.654055
2.200000 -6.120000 1.840000 -4.516319 -2.369434 26.011360
2.200000 -6.120000 1.880000 -8.589035 -7.558434 130.901443
2.200000 -6.120000 1.920000 -7.386920 -13.462309 235.800354
2.200000 -6.120000 1.960000 -2.805603 -16.423813 277.613037
2.200000 -6.120000 2.000000 1.983527 -15.738897 251.647278
2.200000 -6.120000 2.040000 5.023510 -12.708211 186.734283
2.200000 -6.120000 2.080000 5.755045 -8.788945 110.366104
2.200000 -6.120000 2.120000 4.023753 -5.174208 42.963013
2.200000 -6.120000 2.160000 0.077051 -3.429448 11.767051
2.200000 -6.120000 2.200000 -4.433442 -5.141474 46.090164
2.200000 -6.080000 1.800000 -2.147051 9.027925 86.113243
2.200000 -6.080000 1.840000 -14.007689 5.155918 222.798828
2.200000 -6.080000 1.880000 -19.407598 -5.805658 410.360535
2.200000 -6.080000 1.920000 -15.997623 -16.672335 533.890686
2.200000 -6.080000 1.960000 -7.488120 -21.758972 529.524841
2.200000 -6.080000 2.000000 0.339402 -20.494534 420.141113
2.200000 -6.080000 2.040000 4.179069 -16.259136 281.824097
2.200000 -6.080000 2.080000 4.442783 -12.636484 179.419052
2.200000 -6.080000 2.120000 3.251202 -11.040333 132.459259
2.200000 -6.080000 2.160000 2.173589 -11.125591 128.503265
2.200000 -6.080000 2.200000 1.842880 -12.278815 154.165512
2.200000 -6.040000 1.800000 -15.285461 12.008364 377.846130
2.200000 -6.040000 1.840000 -27.881126 0.932467 778.226746
2.200000 -6.040000 1.880000 -29.455513 -16.339439 1134.604492
2.200000 -6.040000 1.920000 -19.580023 -29.784487 1270.492920
2.200000 -6.040000 1.960000 -5.311058 -33.321918 1138.557617
2.200000 -6.040000 2.000000 5.292611 -28.596596 845.776978
2.200000 -6.040000 2.040000 9.332131 -21.822271 563.300171
2.200000 -6.040000 2.080000 9.536149 -17.610468 401.066711
2.200000 -6.040000 2.120000 9.810087 -15.964703 351.109558
2.200000 -6.040000 2.160000 11.216494 -14.431219 334.069824
2.200000 -6.040000 2.200000 12.215742 -11.929174 291.529541
2.200000 -6.000000 1.800000 -26.681450 3.445120 723.768616
2.200000 -6.000000 1.840000 -34.550365 -14.120970 1393.129639
2.200000 -6.000000 1.880000 -28.228521 -33.754993 1936.249023
2.200000 -6.000000 1.920000 -10.968418 -44.516388 2102.014893
2.200000 -6.000000 1.960000 7.165564 -42.394897 1848.672607
2.200000 -6.000000 2.000000 17.817667 -32.348320 1363.883057
2.200000 -6.000000 2.040000 20.192709 -22.512115 914.540833
2.200000 -6.000000 2.080000 19.255476 -16.931149 657.437134
2.200000 -6.000000 2.120000 19.311909 -13.815508 563.818115
2.200000 -6.000000 2.160000 20.109451 -9.887069 502.144165
2.200000 -6.000000 2.200000 18.927362 -5.066760 383.917114
2.200000 -5.960000 1.800000 -28.244980 -11.067119 920.260010
2.200000 -5.960000 1.840000 -28.078491 -30.293806 1706.116333
2.200000 -5.960000 1.880000 -14.212135 -46.374855 2352.612061
2.200000 -5.960000 1.920000 6.895331 -50.241501 2571.754150
2.200000 -5.960000 1.960000 24.467571 -41.227249 2298.348145
2.200000 -5.960000 2.000000 31.873438 -26.653904 1726.346680
2.200000 -5.960000 2.040000 30.622868 -14.851549 1158.328491
2.200000 -5.960000 2.080000 26.805567 -8.684748 793.963257
2.200000 -5.960000 2.120000 24.505619 -5.434830 630.062744
2.200000 -5.960000 2.160000 23.040258 -1.856482 534.300049
2.200000 -5.960000 2.200000 19.974316 1.787561 402.168671
2.200000 -5.920000 1.800000 -19.064632 -22.416424 865.956299
2.200000 -5.920000 1.840000 -12.307316 -37.399204 1550.170410
2.200000 -5.920000 1.880000 4.347595 -46.337746 2166.088379
2.200000 -5.920000 1.920000 23.976227 -43.342567 2453.437500
2.200000 -5.920000 1.960000 37.435486 -29.840441 2291.867676
2.200000 -5.920000 2.000000 40.041584 -13.433770 1783.794678
2.200000 -5.920000 2.040000 34.389332 -1.852871 1186.059204
2.200000 -5.920000 2.080000 27.066978 2.506855 738.905640
2.200000 -5.920000 2.120000 22.781204 2.783291 526.729980
2.200000 -5.920000 2.160000 21.449469 3.252225 470.656677
2.200000 -5.920000 2.200000 20.268776 5.186289 437.720856
2.200000 -5.880000 1.800000 -4.644774 -24.210396 607.717163
2.200000 -5.880000 1.840000 3.172983 -32.098846 1040.403809
2.200000 -5.880000 1.880000 16.979851 -35.270386 1532.315430
2.200000 -5.880000 1.920000 32.144348 -29.269205 1889.945557
2.200000 -5.880000 1.960000 41.209839 -14.899010 1920.231323
2.200000 -5.880000 2.000000 39.686516 0.943475 1575.909668
2.200000 -5.880000 2.040000 30.312706 10.204681 1022.995667
2.200000 -5.880000 2.080000 21.068689 10.289864 549.770996
2.200000 -5.880000 2.120000 18.291256 6.012264 370.717346
2.200000 -5.880000 2.160000 21.369005 4.702262 478.745636
2.200000 -5.880000 2.200000 24.192829 9.211416 670.143188
2.200000 -5.840000 1.800000 7.254004 -15.578819 295.320190
2.200000 -5.840000 1.840000 10.286995 -18.817188 459.908844
2.200000 -5.840000 1.880000 18.992132 -21.303766 814.551514
2.200000 -5.840000 1.920000 30.971394 -16.389923 1227.856812
2.200000 -5.840000 1.960000 37.822411 -2.877309 1438.813721
2.200000 -5.840000 2.000000 33.567997 11.631055 1262.091797
2.200000 -5.840000 2.040000 22.004595 17.330891 784.561951
2.200000 -5.840000 2.080000 14.014189 12.481720 352.190826
2.200000 -5.840000 2.120000 16.605694 5.931136 310.927429
2.200000 -5.840000 2.160000 25.255314 8.208061 705.203125
2.200000 -5.840000 2.200000 28.348209 20.229355 1212.847778
2.200000 -5.800000 1.800000 10.350520 -0.580623 107.470390
2.200000 -5.800000 1.840000 6.758108 -5.384915 74.669334
2.200000 -5.800000 1.880000 13.052126 -11.810934 309.856140
2.200000 -5.800000 1.920000 25.506023 -8.873854 729.302551
2.200000 -5.800000 1.960000 31.898323 4.753342 1040.097290
2.200000 -5.800000 2.000000 25.452698 18.094166 975.238647
2.200000 -5.800000 2.040000 13.414287 19.882719 575.265625
2.200000 -5.800000 2.080000 9.523088 11.948650 233.459473
2.200000 -5.800000 2.120000 18.066925 8.093246 391.914429
2.200000 -5.800000 2.160000 27.764450 18.607367 1117.098755
2.200000 -5.800000 2.200000 23.465704 37.508297 1957.511597
