#kx 	ky 	kz 	real 	imag 	intensity
6.800000 0.800000 0.983333 -6.941435 -25.529776 699.953003
6.800000 0.800000 0.991667 -40.871162 22.805305 2190.533936
6.800000 0.800000 1.000000 -11.910485 -122.214798 15078.316406
6.800000 0.800000 1.008333 97.639450 8.747972 9609.989258
6.800000 0.800000 1.016667 -31.755169 16.115299 1268.093628
6.800000 0.900000 0.983333 -19.145706 34.361328 1547.259033
6.800000 0.900000 0.991667 -33.696007 24.873928 1754.133179
6.800000 0.900000 1.000000 13.870248 34.544067 1385.676392
6.800000 0.900000 1.008333 -81.579277 61.599346 10449.658203
6.800000 0.900000 1.016667 -51.975109 -89.483780 10708.758789
6.800000 1.000000 0.983333 -49.056198 -31.312021 3386.953125
6.800000 1.000000 0.991667 -8.325432 -28.190136 863.996582
6.800000 1.000000 1.000000 -39.776596 21.320354 2036.735107
6.800000 1.000000 1.008333 -57.455357 -89.119492 11243.401367
6.800000 1.000000 1.016667 108.456192 -31.880241 12779.094727
6.800000 1.100000 0.983333 27.581131 -26.426708 1459.089722
6.800000 1.100000 0.991667 80.247818 79.206078 12713.314453
6.800000 1.100000 1.000000 -124.288826 79.411392 21753.880859
6.800000 1.100000 1.008333 -13.713129 -71.222984 5260.763184
6.800000 1.100000 1.016667 -54.838921 69.402267 7823.981934
6.800000 1.200000 0.983333 16.267784 30.814903 1214.199097
6.800000 1.200000 0.991667 -76.419083 142.460876 26134.976562
6.800000 1.200000 1.000000 -173.735748 -118.933487 44329.281250
6.800000 1.200000 1.008333 53.297153 -94.646324 11798.513672
6.800000 1.200000 1.016667 -0.443733 -100.117416 10023.694336
6.900000 0.800000 0.983333 -36.826523 81.221199 7953.076172
6.900000 0.800000 0.991667 -101.342888 -129.841888 27129.296875
6.900000 0.800000 1.000000 128.027374 23.546520 16945.447266
6.900000 0.800000 1.008333 -137.386871 31.828142 19888.183594
6.900000 0.800000 1.016667 39.296711 -103.287964 12212.634766
6.900000 0.900000 0.983333 -28.748909 -747.681885 559854.687500
6.900000 0.900000 0.991667 76.661987 491.629120 247576.250000
6.900000 0.900000 1.000000 -980.377136 -370.194550 1098183.250000
6.900000 0.900000 1.008333 31.221725 -961.525513 925506.125000
6.900000 0.900000 1.016667 511.673523 -530.149170 542867.937500
6.900000 1.000000 0.983333 1111.481812 -160.151718 1261040.500000
6.900000 1.000000 0.991667 -844.651367 216.580933 760343.250000
6.900000 1.000000 1.000000 356.495972 -1549.543213 2528173.500000
6.900000 1.000000 1.008333 1293.813599 -174.608292 1704441.625000
6.900000 1.000000 1.016667 958.785583 535.160461 1205666.500000
6.900000 1.100000 0.983333 252.993027 644.934937 479946.531250
6.900000 1.100000 0.991667 -279.429138 -422.622131 256690.109375
6.900000 1.100000 1.000000 883.143250 -24.506714 780542.562500
6.900000 1.100000 1.008333 290.875061 682.281189 550115.937500
6.900000 1.100000 1.016667 -212.482803 656.254211 475818.531250
6.900000 1.200000 0.983333 81.750000 130.236389 23644.580078
6.900000 1.200000 0.991667 -227.643616 -22.380720 52322.515625
6.900000 1.200000 1.000000 113.753738 -193.676895 50450.652344
6.900000 1.200000 1.008333 88.875183 96.395676 17190.923828
6.900000 1.200000 1.016667 -5.090256 -7.583048 83.413315
7.000000 0.800000 0.983333 -168.582596 -68.014252 33046.031250
7.000000 0.800000 0.991667 128.205414 -146.496613 37897.886719
7.000000 0.800000 1.000000 -27.714531 86.998238 8336.789062
7.000000 0.800000 1.008333 -19.556343 -193.326111 37757.433594
7.000000 0.800000 1.016667 174.541687 2.990788 30473.746094
7.000000 0.900000 0.983333 1108.479004 -240.877716 1286747.875000
7.000000 0.900000 0.991667 -733.078247 248.916504 599363.125000
7.000000 0.900000 1.000000 346.858368 -1549.540039 2521385.000000
7.000000 0.900000 1.008333 1417.490845 -130.507935 2026312.625000
7.000000 0.900000 1.016667 888.713013 609.467529 1161261.500000
7.000000 1.000000 0.983333 472.041534 1612.089478 2821655.750000
7.000000 1.000000 0.991667 -535.688232 -1221.522095 1779078.125000
7.000000 1.000000 1.000000 2391.581299 192.829926 5756844.500000
7.000000 1.000000 1.008333 495.918091 1868.807861 3738377.500000
7.000000 1.000000 1.016667 -516.748108 1503.268433 2526844.500000
7.000000 1.100000 0.983333 -919.239929 483.743042 1079009.375000
7.000000 1.100000 0.991667 643.461304 -490.975189 655099.062500
7.000000 1.100000 1.000000 148.130371 1387.262085 1946438.750000
7.000000 1.100000 1.008333 -973.381836 501.218750 1198692.375000
7.000000 1.100000 1.016667 -1041.166870 -108.976471 1095904.375000
7.000000 1.200000 0.983333 -148.502808 130.540344 39093.867188
7.000000 1.200000 0.991667 -17.420912 -219.257706 48377.429688
7.000000 1.200000 1.000000 196.791016 33.658997 39859.632812
7.000000 1.200000 1.008333 -40.517113 110.597557 13873.456055
7.000000 1.200000 1.016667 -6.074455 -94.415787 8951.240234
7.100000 0.800000 0.983333 57.033997 -133.763351 21145.511719
7.100000 0.800000 0.991667 77.502182 70.342598 10954.669922
7.100000 0.800000 1.000000 -63.531219 20.778414 4467.958496
7.100000 0.800000 1.008333 68.628555 -82.653847 11541.537109
7.100000 0.800000 1.016667 105.999847 138.471893 30410.433594
7.100000 0.900000 0.983333 274.183777 641.378601 486543.250000
7.100000 0.900000 0.991667 -211.043060 -457.856445 254171.703125
7.100000 0.900000 1.000000 1002.741028 44.076843 1007432.312500
7.100000 0.900000 1.008333 263.101196 856.513367 802837.375000
7.100000 0.900000 1.016667 -315.736633 637.957275 506679.125000
7.100000 1.000000 0.983333 -929.069885 408.134888 1029745.000000
7.100000 1.000000 0.991667 720.870361 -448.669678 720958.562500
7.100000 1.000000 1.000000 129.866730 1505.924927 2284675.250000
7.100000 1.000000 1.008333 -1121.705811 480.632874 1489231.875000
7.100000 1.000000 1.016667 -930.562073 -190.495544 902234.312500
7.100000 1.100000 0.983333 -347.741760 -571.261353 447263.875000
7.100000 1.100000 0.991667 396.656921 336.087280 270291.375000
7.100000 1.100000 1.000000 -809.503052 194.986145 693314.812500
7.100000 1.100000 1.008333 -330.489319 -543.885803 405034.968750
7.100000 1.100000 1.016667 -31.516268 -610.021729 373119.781250
7.100000 1.200000 0.983333 -10.968143 -98.851364 9891.891602
7.100000 1.200000 0.991667 163.536423 2.614298 26750.996094
7.100000 1.200000 1.000000 80.913307 177.035019 37888.363281
7.100000 1.200000 1.008333 -110.838951 86.069923 19693.304688
7.100000 1.200000 1.016667 75.682281 -19.000679 6088.833496
7.200000 0.800000 0.983333 49.109650 60.748058 6102.083984
7.200000 0.800000 0.991667 -43.914455 -22.322191 2426.759521
7.200000 0.800000 1.000000 -45.040234 -60.772942 5721.973145
7.200000 0.800000 1.008333 106.507980 -73.232452 16706.941406
7.200000 0.800000 1.016667 -26.018272 128.415573 17167.509766
7.200000 0.900000 0.983333 15.111923 -8.190855 295.460327
7.200000 0.900000 0.991667 83.681244 20.814013 7435.773926
7.200000 0.900000 1.000000 48.321159 52.337349 5074.132324
7.200000 0.900000 1.008333 -15.498168 90.451614 8421.687500
7.200000 0.900000 1.016667 -36.458950 -56.584938 4531.110352
7.200000 1.000000 0.983333 88.133713 3.981405 7783.402832
7.200000 1.000000 0.991667 16.602257 72.428856 5521.573730
7.200000 1.000000 1.000000 -56.033104 42.315277 4930.291504
7.200000 1.000000 1.008333 -6.771586 -57.492733 3351.268799
7.200000 1.000000 1.016667 64.563919 70.682297 9164.486328
7.200000 1.100000 0.983333 93.038208 34.596783 9853.045898
7.200000 1.100000 0.991667 53.014694 81.464005 9446.941406
7.200000 1.100000 1.000000 20.595295 59.628487 3979.722656
7.200000 1.100000 1.008333 1.609093 104.386673 10899.166016
7.200000 1.100000 1.016667 -82.331108 28.338951 7581.507324
7.200000 1.200000 0.983333 86.937378 126.269806 23502.171875
7.200000 1.200000 0.991667 -56.178116 120.740128 17734.160156
7.200000 1.200000 1.000000 -112.804214 115.942863 26167.539062
7.200000 1.200000 1.008333 -155.579742 -55.509296 27286.337891
7.200000 1.200000 1.016667 5.496445 -14.681942 245.770325
