#kx 	ky 	kz 	real 	imag 	intensity
6.800000 0.800000 0.800000 -31.112938 20.426876 1385.272217
6.800000 0.800000 0.840000 -31.148258 6.084627 1007.236694
6.800000 0.800000 0.880000 -26.989336 -1.220250 729.913269
6.800000 0.800000 0.920000 -25.545635 -5.652065 684.525330
6.800000 0.800000 0.960000 -24.218607 -13.492569 768.590332
6.800000 0.800000 1.000000 -15.844161 -22.694401 766.073242
6.800000 0.800000 1.040000 -0.252420 -23.912853 571.888245
6.800000 0.800000 1.080000 12.354900 -12.053372 297.927368
6.800000 0.800000 1.120000 11.192007 5.625126 156.903061
6.800000 0.800000 1.160000 -3.068729 15.237679 241.603943
6.800000 0.800000 1.200000 -18.097961 10.087254 429.288879
6.800000 0.840000 0.800000 -34.503895 -7.534186 1247.282715
6.800000 0.840000 0.840000 -25.115728 -17.915869 951.778198
6.800000 0.840000 0.880000 -16.007238 -20.514093 677.059692
6.800000 0.840000 0.920000 -10.326847 -20.361256 521.224487
6.800000 0.840000 0.960000 -5.777152 -20.397987 449.453369
6.800000 0.840000 1.000000 -0.548243 -19.010906 361.715118
6.800000 0.840000 1.040000 3.095872 -14.451380 218.426804
6.800000 0.840000 1.080000 2.087844 -9.236717 89.676041
6.800000 0.840000 1.120000 -2.164925 -8.066133 69.749390
6.800000 0.840000 1.160000 -4.156303 -11.680396 153.706512
6.800000 0.840000 1.200000 -0.746631 -14.922045 223.224884
6.800000 0.880000 0.800000 -16.866512 -28.743082 1110.644043
6.800000 0.880000 0.840000 -2.810150 -29.856808 899.325867
6.800000 0.880000 0.880000 7.027068 -24.303392 640.034607
6.800000 0.880000 0.920000 10.985335 -16.167183 382.055389
6.800000 0.880000 0.960000 9.109770 -8.807925 160.567444
6.800000 0.880000 1.000000 2.635030 -5.791735 40.487572
6.800000 0.880000 1.040000 -4.207438 -10.195952 121.659973
6.800000 0.880000 1.080000 -4.520016 -20.768457 451.759369
6.800000 0.880000 1.120000 5.898148 -29.689482 916.253479
6.800000 0.880000 1.160000 22.455929 -27.268135 1247.819946
6.800000 0.880000 1.200000 32.830227 -11.315811 1205.871460
6.800000 0.920000 0.800000 8.846849 -29.689564 959.736938
6.800000 0.920000 0.840000 20.067005 -20.827818 836.482666
6.800000 0.920000 0.880000 23.873756 -8.213964 637.425476
6.800000 0.920000 0.920000 18.828995 3.773715 368.771973
6.800000 0.920000 0.960000 5.866169 8.706106 110.208221
6.800000 0.920000 1.000000 -7.977728 0.619637 64.028099
6.800000 0.920000 1.040000 -10.613410 -18.785252 465.530151
6.800000 0.920000 1.080000 5.739620 -36.426941 1359.865234
6.800000 0.920000 1.120000 34.346928 -35.505699 2440.366211
6.800000 0.920000 1.160000 55.180111 -10.677963 3158.863525
6.800000 0.920000 1.200000 50.319584 23.769287 3097.039551
6.800000 0.960000 0.800000 24.369192 -12.337942 746.082397
6.800000 0.960000 0.840000 26.496449 1.541753 704.438782
6.800000 0.960000 0.880000 20.087032 14.224228 605.817505
6.800000 0.960000 0.920000 5.519297 20.222839 439.425873
6.800000 0.960000 0.960000 -11.504148 12.700785 293.655365
6.800000 0.960000 1.000000 -18.173748 -9.098241 413.063110
6.800000 0.960000 1.040000 -3.015562 -32.785332 1083.971558
6.800000 0.960000 1.080000 30.593723 -37.759003 2361.718262
6.800000 0.960000 1.120000 60.971458 -12.503304 3873.851318
6.800000 0.960000 1.160000 62.981522 31.263401 4944.072266
6.800000 0.960000 1.200000 30.392097 64.011971 5021.211914
6.800000 1.000000 0.800000 20.468155 8.333881 488.398956
6.800000 1.000000 0.840000 12.546249 18.850090 512.734253
6.800000 1.000000 0.880000 -0.920994 22.841816 522.596741
6.800000 1.000000 0.920000 -16.037525 16.111732 516.790161
6.800000 1.000000 0.960000 -23.520203 -3.021120 562.327148
6.800000 1.000000 1.000000 -12.362296 -26.325359 845.850891
6.800000 1.000000 1.040000 18.317713 -35.599678 1602.875610
6.800000 1.000000 1.080000 51.488205 -15.970050 2906.077637
6.800000 1.000000 1.120000 60.988533 27.468143 4474.100098
6.800000 1.000000 1.160000 33.348652 67.857430 5716.763672
6.800000 1.000000 1.200000 -17.249722 75.906174 6059.299805
6.800000 1.040000 0.800000 2.908586 16.903915 294.202240
6.800000 1.040000 0.840000 -9.431198 17.239388 386.143982
6.800000 1.040000 0.880000 -20.240627 9.179719 493.950226
6.800000 1.040000 0.920000 -24.124969 -6.442001 623.513550
6.800000 1.040000 0.960000 -14.715601 -24.274700 805.809937
6.800000 1.040000 1.000000 9.418764 -32.285351 1131.057007
6.800000 1.040000 1.040000 37.577095 -18.227400 1744.276123
6.800000 1.040000 1.080000 49.336571 17.562138 2742.525879
6.800000 1.040000 1.120000 29.620224 56.066849 4020.849121
6.800000 1.040000 1.160000 -15.554340 70.464401 5207.169434
6.800000 1.040000 1.200000 -59.398621 47.683285 5801.891602
6.800000 1.080000 0.800000 -13.982668 8.852758 273.886322
6.800000 1.080000 0.840000 -21.615351 -1.579563 469.718414
6.800000 1.080000 0.880000 -20.446901 -15.896928 670.788086
6.800000 1.080000 0.920000 -9.001261 -27.822071 855.090332
6.800000 1.080000 0.960000 10.478971 -30.174095 1020.284851
6.800000 1.080000 1.000000 30.175440 -17.162176 1205.097412
6.800000 1.080000 1.040000 37.529148 10.086130 1510.166992
6.800000 1.080000 1.080000 22.481926 39.464317 2062.869385
6.800000 1.080000 1.120000 -12.530106 52.373470 2899.983887
6.800000 1.080000 1.160000 -49.891712 36.839252 3846.313477
6.800000 1.080000 1.200000 -67.243332 -1.174176 4523.044434
6.800000 1.120000 0.800000 -19.163734 -8.317058 436.422180
6.800000 1.120000 0.840000 -15.386866 -23.183649 774.237183
6.800000 1.120000 0.880000 -0.767362 -32.551346 1060.178955
6.800000 1.120000 0.920000 18.200718 -29.626747 1209.010254
6.800000 1.120000 0.960000 31.932207 -13.699121 1207.331787
6.800000 1.120000 1.000000 32.254517 9.339605 1127.582153
6.800000 1.120000 1.040000 16.391102 28.987490 1108.942749
6.800000 1.120000 1.080000 -10.574706 34.445396 1298.309814
6.800000 1.120000 1.120000 -36.563698 20.539368 1758.769653
6.800000 1.120000 1.160000 -48.201801 -7.874331 2385.418701
6.800000 1.120000 1.200000 -39.077438 -37.219238 2912.317871
6.800000 1.160000 0.800000 -11.759576 -23.163971 674.857178
6.800000 1.160000 0.840000 3.337120 -33.484451 1132.344849
6.800000 1.160000 0.880000 23.836754 -29.734037 1452.303833
6.800000 1.160000 0.920000 36.948353 -11.342615 1493.835693
6.800000 1.160000 0.960000 33.535179 12.063713 1270.141479
6.800000 1.160000 1.000000 14.586712 27.127018 948.647278
6.800000 1.160000 1.040000 -9.700407 25.498129 744.252502
6.800000 1.160000 1.080000 -26.741312 8.524950 787.772583
6.800000 1.160000 1.120000 -28.991632 -14.626009 1054.434937
6.800000 1.160000 1.160000 -17.257267 -33.069328 1391.393677
6.800000 1.160000 1.200000 1.198229 -40.164417 1614.616211
6.800000 1.200000 0.800000 1.323120 -29.208988 854.915649
6.800000 1.200000 0.840000 21.557396 -29.413593 1329.880859
6.800000 1.200000 0.880000 37.563446 -13.085863 1582.252197
6.800000 1.200000 0.920000 36.696114 11.292776 1474.131592
6.800000 1.200000 0.960000 17.841511 27.680841 1084.548584
6.800000 1.200000 1.000000 -6.867638 24.991379 671.733459
6.800000 1.200000 1.040000 -21.346905 5.668549 487.822784
6.800000 1.200000 1.080000 -17.678019 -16.849869 596.430420
6.800000 1.200000 1.120000 -0.887795 -28.995365 841.519409
6.800000 1.200000 1.160000 16.713919 -26.630098 988.517212
6.800000 1.200000 1.200000 25.674154 -15.901988 912.035400
6.840000 0.800000 0.800000 -38.568321 16.933487 1774.258301
6.840000 0.800000 0.840000 -41.595810 0.960049 1731.133179
6.840000 0.800000 0.880000 -37.709000 -13.879505 1614.609253
6.840000 0.800000 0.920000 -28.013302 -25.868710 1453.935181
6.840000 0.800000 0.960000 -12.976662 -32.242756 1207.989136
6.840000 0.800000 1.000000 3.953648 -28.949217 853.688477
6.840000 0.800000 1.040000 15.077288 -15.417408 465.021057
6.840000 0.800000 1.080000 13.602318 1.525391 187.349869
6.840000 0.800000 1.120000 0.789886 11.044900 122.613739
6.840000 0.800000 1.160000 -13.416805 7.367526 234.291107
6.840000 0.800000 1.200000 -18.659830 -4.721020 370.477295
6.840000 0.840000 0.800000 -34.582977 -12.939366 1363.409546
6.840000 0.840000 0.840000 -22.738096 -25.079296 1145.992065
6.840000 0.840000 0.880000 -7.125961 -27.358120 799.246033
6.840000 0.840000 0.920000 4.892971 -20.262218 434.498657
6.840000 0.840000 0.960000 8.465630 -8.933237 151.469604
6.840000 0.840000 1.000000 3.557537 -0.234266 12.710951
6.840000 0.840000 1.040000 -5.134710 0.945583 27.259373
6.840000 0.840000 1.080000 -10.803635 -5.365927 145.511688
6.840000 0.840000 1.120000 -8.953320 -13.965128 275.186737
6.840000 0.840000 1.160000 -0.881058 -17.984261 324.209900
6.840000 0.840000 1.200000 6.962602 -14.372593 255.049255
6.840000 0.880000 0.800000 -10.243135 -28.847414 937.095093
6.840000 0.880000 0.840000 10.001278 -25.228588 736.507202
6.840000 0.880000 0.880000 22.283817 -6.936279 544.680481
6.840000 0.880000 0.920000 16.360863 15.575951 510.288086
6.840000 0.880000 0.960000 -6.058456 25.972902 711.296570
6.840000 0.880000 1.000000 -29.878365 14.416504 1100.552246
6.840000 0.880000 1.040000 -36.754776 -13.025974 1520.589600
6.840000 0.880000 1.080000 -19.783274 -37.269135 1780.366333
6.840000 0.880000 1.120000 9.844748 -40.660549 1750.199341
6.840000 0.880000 1.160000 31.098253 -21.395445 1424.866455
6.840000 0.880000 1.200000 30.061386 4.877178 927.473816
6.840000 0.920000 0.800000 15.224667 -20.552231 654.184692
6.840000 0.920000 0.840000 28.663160 1.646645 824.288208
6.840000 0.920000 0.880000 20.032198 31.737236 1408.541016
6.840000 0.920000 0.920000 -13.114180 47.880939 2464.566162
6.840000 0.920000 0.960000 -52.319664 31.897270 3754.782959
6.840000 0.920000 1.000000 -68.381256 -12.468540 4831.460449
6.840000 0.920000 1.040000 -44.756653 -57.369663 5294.436523
6.840000 0.920000 1.080000 5.927673 -70.616913 5021.885742
6.840000 0.920000 1.120000 49.239941 -42.206104 4205.926758
6.840000 0.920000 1.160000 56.096977 6.327995 3186.914307
6.840000 0.920000 1.200000 26.311714 39.412758 2245.671875
6.840000 0.960000 0.800000 22.616764 2.417838 517.363953
6.840000 0.960000 0.840000 16.399254 32.162010 1303.330444
6.840000 0.960000 0.880000 -16.864021 52.576046 3048.635986
6.840000 0.960000 0.920000 -63.200500 40.020508 5595.944336
6.840000 0.960000 0.960000 -89.933517 -9.712723 8182.374512
6.840000 0.960000 1.000000 -70.053993 -69.943092 9799.597656
6.840000 0.960000 1.040000 -8.425159 -98.803268 9833.069336
6.840000 0.960000 1.080000 56.325222 -72.762093 8466.852539
6.840000 0.960000 1.120000 80.261490 -8.577592 6515.481934
6.840000 0.960000 1.160000 49.843689 48.325264 4819.724609
6.840000 0.960000 1.200000 -7.399382 60.570442 3723.529297
6.840000 1.000000 0.800000 8.655026 19.636011 460.482422
6.840000 1.000000 0.840000 -16.590555 39.010338 1797.052979
6.840000 1.000000 0.880000 -58.490398 32.798424 4496.863281
6.840000 1.000000 0.920000 -89.747261 -10.292911 8160.514648
6.840000 1.000000 0.960000 -79.248535 -72.668930 11561.103516
6.840000 1.000000 1.000000 -20.742008 -113.345558 13277.446289
6.840000 1.000000 1.040000 54.175163 -98.527252 12642.567383
6.840000 1.000000 1.080000 95.851578 -32.431519 10239.329102
6.840000 1.000000 1.120000 75.861526 41.519707 7478.857422
6.840000 1.000000 1.160000 11.254270 73.837753 5578.672363
6.840000 1.000000 1.200000 -49.407108 48.406570 4784.258301
6.840000 1.040000 0.800000 -12.681196 17.287632 459.674957
6.840000 1.040000 0.840000 -42.191547 15.409618 2017.583008
6.840000 1.040000 0.880000 -68.846336 -14.838125 4959.987793
6.840000 1.040000 0.920000 -66.062576 -66.090324 8732.195312
6.840000 1.040000 0.960000 -20.754049 -107.439896 11974.061523
6.840000 1.040000 1.000000 48.422661 -104.473427 13259.451172
6.840000 1.040000 1.040000 98.244270 -49.407982 12093.084961
6.840000 1.040000 1.080000 92.948700 26.495747 9341.485352
6.840000 1.040000 1.120000 34.815392 73.655975 6637.313965
6.840000 1.040000 1.160000 -35.377213 62.852837 5202.026367
6.840000 1.040000 1.200000 -70.580826 8.028888 5046.115723
6.840000 1.080000 0.800000 -23.302208 -1.552857 545.404297
6.840000 1.080000 0.840000 -39.552483 -19.821068 1957.273682
6.840000 1.080000 0.880000 -38.650726 -53.656380 4372.885742
6.840000 1.080000 0.920000 -8.327724 -84.623138 7230.426758
6.840000 1.080000 0.960000 43.504322 -86.796677 9426.289062
6.840000 1.080000 1.000000 87.435020 -48.015442 9950.365234
6.840000 1.080000 1.040000 91.742859 14.807856 8636.024414
6.840000 1.080000 1.080000 48.730633 63.305069 6382.206055
6.840000 1.080000 1.120000 -15.516018 65.691818 4556.161621
6.840000 1.080000 1.160000 -59.255985 22.222305 4005.102539
6.840000 1.080000 1.200000 -57.099258 -34.967003 4483.016602
6.840000 1.120000 0.800000 -15.726100 -21.833458 724.010132
6.840000 1.120000 0.840000 -12.125389 -40.344055 1774.667847
6.840000 1.120000 0.880000 7.819747 -56.583008 3262.785156
6.840000 1.120000 0.920000 40.225704 -55.962975 4749.961914
6.840000 1.120000 0.960000 68.569756 -30.191139 5613.316406
6.840000 1.120000 1.000000 72.641769 12.580235 5435.088867
6.840000 1.120000 1.040000 44.258663 48.952698 4355.195801
6.840000 1.120000 1.080000 -3.092457 55.309277 3068.679199
6.840000 1.120000 1.120000 -41.160877 26.149809 2378.030273
6.840000 1.120000 1.160000 -46.946548 -20.197411 2611.913818
6.840000 1.120000 1.200000 -19.696758 -54.755325 3386.107910
6.840000 1.160000 0.800000 3.210223 -30.161129 919.999268
6.840000 1.160000 0.840000 18.424412 -35.031555 1566.668823
6.840000 1.160000 0.880000 37.128338 -28.364777 2183.073975
6.840000 1.160000 0.920000 49.515572 -8.793380 2529.115234
6.840000 1.160000 0.960000 46.452599 16.827595 2441.011963
6.840000 1.160000 1.000000 26.055916 35.703102 1953.622314
6.840000 1.160000 1.040000 -3.124199 36.330849 1329.691162
6.840000 1.160000 1.080000 -25.761156 16.564150 938.008179
6.840000 1.160000 1.120000 -29.039501 -13.614111 1028.636597
6.840000 1.160000 1.160000 -11.336963 -37.745754 1553.268677
6.840000 1.160000 1.200000 16.564173 -43.641949 2178.991455
6.840000 1.200000 0.800000 20.658503 -24.293978 1016.971069
6.840000 1.200000 0.840000 33.190315 -14.155457 1301.973999
6.840000 1.200000 0.880000 36.486187 3.620421 1344.349243
6.840000 1.200000 0.920000 26.742380 20.033728 1116.505127
6.840000 1.200000 0.960000 8.265706 25.819490 734.967957
6.840000 1.200000 1.000000 -9.125610 17.715061 397.100159
6.840000 1.200000 1.040000 -16.395794 0.390502 268.974548
6.840000 1.200000 1.080000 -10.581223 -16.905876 397.770935
6.840000 1.200000 1.120000 4.293346 -26.083355 698.774231
6.840000 1.200000 1.160000 20.540400 -24.362865 1015.457214
6.840000 1.200000 1.200000 31.545387 -14.630447 1209.161377
6.880000 0.800000 0.800000 -44.419189 8.239088 2040.946899
6.880000 0.800000 0.840000 -46.980736 -13.242887 2382.563477
6.880000 0.800000 0.880000 -35.518906 -33.659008 2394.521484
6.880000 0.800000 0.920000 -13.391815 -43.362877 2059.679932
6.880000 0.800000 0.960000 9.560413 -37.238960 1478.141602
6.880000 0.800000 1.000000 22.047997 -18.848806 841.391602
6.880000 0.800000 1.040000 18.699362 0.704060 350.161835
6.880000 0.800000 1.080000 4.311302 9.905479 116.705849
6.880000 0.800000 1.120000 -9.418659 5.124208 114.968658
6.880000 0.800000 1.160000 -12.910885 -6.961626 215.155182
6.880000 0.800000 1.200000 -6.008647 -15.532322 277.356873
6.880000 0.840000 0.800000 -31.744453 -18.598000 1353.595947
6.880000 0.840000 0.840000 -15.021722 -28.976221 1065.273560
6.880000 0.840000 0.880000 4.250603 -23.713659 580.405273
6.880000 0.840000 0.920000 12.437920 -6.268812 193.999847
6.880000 0.840000 0.960000 3.967529 9.911228 113.973732
6.880000 0.840000 1.000000 -13.595490 12.117615 331.673950
6.880000 0.840000 1.040000 -25.550062 -1.137917 654.100525
6.880000 0.840000 1.080000 -22.144924 -19.079851 854.438354
6.880000 0.840000 1.120000 -6.274292 -27.914238 818.571472
6.880000 0.840000 1.160000 9.718487 -22.248520 589.445618
6.880000 0.840000 1.200000 15.021081 -8.732458 301.888702
6.880000 0.880000 0.800000 -4.963877 -24.771770 638.280701
6.880000 0.880000 0.840000 15.120428 -9.447604 317.884583
6.880000 0.880000 0.880000 14.425255 21.024151 650.102905
6.880000 0.880000 0.920000 -14.648273 42.203255 1995.686646
6.880000 0.880000 0.960000 -54.575951 31.614189 3977.991455
6.880000 0.880000 1.000000 -74.502022 -9.505653 5640.908691
6.880000 0.880000 1.040000 -56.293190 -54.155964 6101.791992
6.880000 0.880000 1.080000 -11.140900 -71.006050 5165.979004
6.880000 0.880000 1.120000 29.291990 -50.518345 3410.124023
6.880000 0.880000 1.160000 39.550442 -11.953379 1707.120728
6.880000 0.880000 1.200000 20.462042 14.686232 634.380554
6.880000 0.920000 0.800000 13.163221 -8.518891 245.841919
6.880000 0.920000 0.840000 13.036182 27.704679 937.491333
6.880000 0.920000 0.880000 -24.888988 57.254097 3897.493408
6.880000 0.920000 0.920000 -83.718704 45.344128 9064.911133
6.880000 0.920000 0.960000 -119.844566 -15.172932 14592.937500
6.880000 0.920000 1.000000 -98.504761 -90.084015 17818.316406
6.880000 0.920000 1.040000 -26.781723 -127.885895 17072.062500
6.880000 0.920000 1.080000 48.521000 -102.521042 12864.851562
6.880000 0.920000 1.120000 78.654648 -35.739407 7463.858887
6.880000 0.920000 1.160000 52.544762 22.165852 3252.276855
6.880000 0.920000 1.200000 2.313711 35.249546 1247.883789
6.880000 0.960000 0.800000 8.982841 12.571684 238.738678
6.880000 0.960000 0.840000 -22.316711 46.230350 2635.281006
6.880000 0.960000 0.880000 -85.268143 42.976433 9117.629883
6.880000 0.960000 0.920000 -135.946625 -18.650341 18829.320312
6.880000 0.960000 0.960000 -124.733276 -111.876678 28074.781250
6.880000 0.960000 1.000000 -42.689713 -174.711884 32346.654297
6.880000 0.960000 1.040000 62.982567 -159.523834 29414.656250
6.880000 0.960000 1.080000 123.629013 -75.337769 20959.912109
6.880000 0.960000 1.120000 105.087845 17.830746 11361.390625
6.880000 0.960000 1.160000 34.046551 58.956459 4635.031738
6.880000 0.960000 1.200000 -28.731472 34.670418 2027.535400
6.880000 1.000000 0.800000 -10.480646 18.175194 440.181610
6.880000 1.000000 0.840000 -60.309792 25.533108 4289.210449
6.880000 1.000000 0.880000 -113.699715 -20.120890 13332.475586
6.880000 1.000000 0.920000 -118.191772 -109.536140 25967.460938
6.880000 1.000000 0.960000 -46.773911 -187.181946 37224.878906
6.880000 1.000000 1.000000 69.043686 -191.822601 41562.941406
6.880000 1.000000 1.040000 156.465179 -110.469521 36684.867188
6.880000 1.000000 1.080000 158.937408 5.289782 25289.082031
6.880000 1.000000 1.120000 83.079330 79.276062 13186.869141
6.880000 1.000000 1.160000 -8.536400 72.328232 5304.243164
6.880000 1.000000 1.200000 -51.810570 9.836439 2781.090820
6.880000 1.040000 0.800000 -25.239960 3.326117 648.118591
6.880000 1.040000 0.840000 -66.987244 -19.823101 4880.246094
6.880000 1.040000 0.880000 -82.052925 -85.750122 14085.765625
6.880000 1.040000 0.920000 -34.834858 -158.618591 26373.324219
6.880000 1.040000 0.960000 65.492088 -180.301270 36797.761719
6.880000 1.040000 1.000000 160.788544 -119.712555 40184.050781
6.880000 1.040000 1.040000 186.248093 -6.060160 34725.078125
6.880000 1.040000 1.080000 124.571236 88.845581 23411.531250
6.880000 1.040000 1.120000 22.102207 107.253265 11991.770508
6.880000 1.040000 1.160000 -49.487144 50.879593 5037.710449
6.880000 1.040000 1.200000 -51.331268 -25.563126 3288.372559
6.880000 1.080000 0.800000 -20.921976 -18.701912 787.490601
6.880000 1.080000 0.840000 -35.946915 -54.219513 4231.936523
6.880000 1.080000 0.880000 -13.047052 -105.204956 11238.308594
6.880000 1.080000 0.920000 54.782921 -131.102310 20188.984375
6.880000 1.080000 0.960000 134.153702 -96.960747 27398.601562
6.880000 1.080000 1.000000 170.826935 -8.750042 29258.404297
6.880000 1.080000 1.040000 133.692566 83.070427 24774.398438
6.880000 1.080000 1.080000 44.143223 120.282234 16416.439453
6.880000 1.080000 1.120000 -38.270721 83.587914 8451.587891
6.880000 1.080000 1.160000 -63.102497 7.249956 4034.486816
6.880000 1.080000 1.200000 -27.182062 -51.432800 3384.197510
6.880000 1.120000 0.800000 -0.352778 -29.766685 886.179993
6.880000 1.120000 0.840000 7.974249 -53.703232 2947.625732
6.880000 1.120000 0.880000 42.354652 -70.505539 6764.947754
6.880000 1.120000 0.920000 90.814301 -55.520515 11329.764648
6.880000 1.120000 0.960000 121.197090 -2.487389 14694.921875
6.880000 1.120000 1.000000 105.184311 63.882210 15144.675781
6.880000 1.120000 1.040000 44.685970 102.197342 12441.132812
6.880000 1.120000 1.080000 -24.762600 86.548065 8103.753906
6.880000 1.120000 1.120000 -59.756798 28.668419 4392.753418
6.880000 1.120000 1.160000 -42.632862 -30.775415 2764.687012
6.880000 1.120000 1.200000 6.623102 -54.649174 3030.397705
6.880000 1.160000 0.800000 21.258591 -22.546616 960.277588
6.880000 1.160000 0.840000 33.652695 -25.025238 1758.766357
6.880000 1.160000 0.880000 51.869606 -16.826542 2973.588623
6.880000 1.160000 0.920000 64.471596 7.215019 4208.643066
6.880000 1.160000 0.960000 57.398163 39.788315 4877.659180
6.880000 1.160000 1.000000 26.801102 62.258286 4594.393066
6.880000 1.160000 1.040000 -13.712185 57.582664 3503.787109
6.880000 1.160000 1.080000 -40.208229 25.173643 2250.414062
6.880000 1.160000 1.120000 -35.968922 -16.064377 1551.827515
6.880000 1.160000 1.160000 -4.786654 -40.835114 1690.418579
6.880000 1.160000 1.200000 32.014023 -36.224319 2337.099121
6.880000 1.200000 0.800000 30.735195 -4.367042 963.723267
6.880000 1.200000 0.840000 30.865015 5.403452 981.846436
6.880000 1.200000 0.880000 26.266218 14.675327 905.279480
6.880000 1.200000 0.920000 17.363480 21.114359 747.306580
6.880000 1.200000 0.960000 5.542931 22.338112 529.715332
6.880000 1.200000 1.000000 -6.063194 16.328335 303.376862
6.880000 1.200000 1.040000 -12.419758 3.318081 165.260040
6.880000 1.200000 1.080000 -8.843235 -12.289223 229.227798
6.880000 1.200000 1.120000 5.133583 -22.827755 547.460083
6.880000 1.200000 1.160000 23.781265 -21.823130 1041.797607
6.880000 1.200000 1.200000 37.917728 -8.875559 1516.529663
6.920000 0.800000 0.800000 -44.186218 -3.435709 1964.225952
6.920000 0.800000 0.840000 -40.728867 -28.989803 2499.249268
6.920000 0.800000 0.880000 -19.120155 -46.971214 2571.875244
6.920000 0.800000 0.920000 9.526108 -45.471283 2158.384521
6.920000 0.800000 0.960000 28.304512 -25.477493 1450.248047
6.920000 0.800000 1.000000 27.215042 -0.883057 741.438293
6.920000 0.800000 1.040000 10.879093 12.110176 265.011047
6.920000 0.800000 1.080000 -5.647621 7.615574 89.892593
6.920000 0.800000 1.120000 -9.557186 -6.193137 129.694748
6.920000 0.800000 1.160000 -0.352935 -15.279703 233.593887
6.920000 0.800000 1.200000 11.476466 -12.286315 282.662811
6.920000 0.840000 0.800000 -26.393326 -21.567581 1161.768188
6.920000 0.840000 0.840000 -7.488495 -25.720882 717.641357
6.920000 0.840000 0.880000 6.751690 -12.174095 193.793900
6.920000 0.840000 0.920000 2.757820 7.380386 62.075676
6.920000 0.840000 0.960000 -16.978050 14.472679 497.712616
6.920000 0.840000 1.000000 -35.175434 0.729958 1237.843994
6.920000 0.840000 1.040000 -34.928978 -24.078339 1799.799805
6.920000 0.840000 1.080000 -14.694988 -40.481674 1854.708618
6.920000 0.840000 1.120000 10.737518 -36.325531 1434.838501
6.920000 0.840000 1.160000 23.725971 -16.578213 837.758789
6.920000 0.840000 1.200000 18.761305 2.541946 358.448059
6.920000 0.880000 0.800000 -4.951294 -18.326866 360.389343
6.920000 0.880000 0.840000 3.622089 6.240429 52.062485
6.920000 0.880000 0.880000 -18.734310 32.833984 1429.044922
6.920000 0.880000 0.920000 -63.170998 30.007019 4890.996094
6.920000 0.880000 0.960000 -94.976059 -13.119492 9192.573242
6.920000 0.880000 1.000000 -83.095627 -72.203354 12118.207031
6.920000 0.880000 1.040000 -29.421631 -105.790474 12057.256836
6.920000 0.880000 1.080000 30.787537 -90.665108 9168.034180
6.920000 0.880000 1.120000 58.684120 -41.388535 5156.836914
6.920000 0.880000 1.160000 43.927361 4.007776 1945.675293
6.920000 0.880000 1.200000 9.720325 17.683481 407.190247
6.920000 0.920000 0.800000 1.356403 -1.891552 5.417799
6.920000 0.920000 0.840000 -23.090740 32.602268 1596.090088
6.920000 0.920000 0.880000 -83.027336 33.518494 8017.027832
6.920000 0.920000 0.920000 -134.488312 -24.465820 18685.681641
6.920000 0.920000 0.960000 -125.815552 -116.224358 29337.654297
6.920000 0.920000 1.000000 -46.645454 -179.771759 34493.683594
6.920000 0.920000 1.040000 56.727314 -167.663177 31328.929688
6.920000 0.920000 1.080000 117.534889 -88.979446 21731.792969
6.920000 0.920000 1.120000 104.059860 -1.628029 10831.104492
6.920000 0.920000 1.160000 42.997765 37.980469 3291.323730
6.920000 0.920000 1.200000 -9.410547 20.220215 497.415497
6.920000 0.960000 0.800000 -9.930443 8.124477 164.620819
6.920000 0.960000 0.840000 -65.117363 21.212833 4690.255371
6.920000 0.960000 0.880000 -128.882980 -28.672508 17432.935547
6.920000 0.960000 0.920000 -136.675919 -132.641891 36274.179688
6.920000 0.960000 0.960000 -54.999180 -224.544144 53444.984375
6.920000 0.960000 1.000000 78.919640 -232.090332 60094.230469
6.920000 0.960000 1.040000 180.395309 -141.362396 52525.792969
6.920000 0.960000 1.080000 186.526398 -12.759785 34954.910156
6.920000 0.960000 1.120000 107.963280 69.031525 16421.421875
6.920000 0.960000 1.160000 15.193562 64.995804 4455.298828
6.920000 0.960000 1.200000 -25.625467 7.203794 708.559204
6.920000 1.000000 0.800000 -23.583685 0.162949 556.216736
6.920000 1.000000 0.840000 -82.067123 -25.284019 7374.294434
6.920000 1.000000 0.880000 -107.552284 -113.047089 24347.138672
6.920000 1.000000 0.920000 -47.494228 -214.165985 48122.773438
6.920000 1.000000 0.960000 86.780197 -247.465332 68769.890625
6.920000 1.000000 1.000000 215.940063 -170.341522 75646.343750
6.920000 1.000000 1.040000 253.678040 -22.936207 64878.617188
6.920000 1.000000 1.080000 179.712555 100.075729 42311.753906
6.920000 1.000000 1.120000 56.305725 127.145813 19336.392578
6.920000 1.000000 1.160000 -27.226797 65.588722 5043.178711
6.920000 1.000000 1.200000 -29.099367 -14.284996 1050.834351
6.920000 1.040000 0.800000 -22.433844 -18.569160 848.091064
6.920000 1.040000 0.840000 -54.397011 -70.769150 7967.307129
6.920000 1.040000 0.880000 -26.595869 -154.791931 24667.880859
6.920000 1.040000 0.920000 76.876991 -203.610504 47367.308594
6.920000 1.040000 0.960000 203.837265 -158.058411 66532.093750
6.920000 1.040000 1.000000 267.672180 -25.775238 72312.757812
6.920000 1.040000 1.040000 219.568390 115.027321 61441.562500
6.920000 1.040000 1.080000 92.912994 176.398819 39749.367188
6.920000 1.040000 1.120000 -23.579010 132.355835 18074.035156
6.920000 1.040000 1.160000 -59.994499 35.653488 4870.511230
6.920000 1.040000 1.200000 -18.077169 -33.596779 1455.527588
6.920000 1.080000 0.800000 -3.962552 -30.048313 918.602966
6.920000 1.080000 0.840000 -1.642973 -79.511276 6324.742188
6.920000 1.080000 0.880000 56.197102 -124.241684 18594.109375
6.920000 1.080000 0.920000 150.877625 -110.347061 34940.531250
6.920000 1.080000 0.960000 219.316711 -19.485729 48479.515625
6.920000 1.080000 1.000000 203.556854 104.194710 52291.929688
6.920000 1.080000 1.040000 103.757668 182.983353 44248.558594
6.920000 1.080000 1.080000 -16.661350 168.455780 28654.949219
6.920000 1.080000 1.120000 -81.566566 81.337982 13268.972656
6.920000 1.080000 1.160000 -63.018261 -8.559860 4044.572510
6.920000 1.080000 1.200000 2.484142 -42.501358 1812.536499
6.920000 1.120000 0.800000 18.253920 -22.989330 861.714844
6.920000 1.120000 0.840000 37.129795 -48.309731 3712.451660
6.920000 1.120000 0.880000 86.162537 -51.482639 10074.445312
6.920000 1.120000 0.920000 135.470978 -7.264984 18405.166016
6.920000 1.120000 0.960000 140.924713 72.819443 25162.447266
6.920000 1.120000 1.000000 83.456650 141.234985 26912.332031
6.920000 1.120000 1.040000 -8.575272 150.477142 22716.906250
6.920000 1.120000 1.080000 -78.078484 93.637466 14864.224609
6.920000 1.120000 1.120000 -84.556694 11.620098 7284.861328
6.920000 1.120000 1.160000 -35.429794 -40.568069 2901.038574
6.920000 1.120000 1.200000 24.373451 -37.578003 2006.171387
6.920000 1.160000 0.800000 28.225777 -2.396664 802.438477
6.920000 1.160000 0.840000 39.457314 -5.873363 1591.375977
6.920000 1.160000 0.880000 58.471806 5.989685 3454.828369
6.920000 1.160000 0.920000 66.427284 38.143990 5867.547852
6.920000 1.160000 0.960000 45.697090 75.119682 7731.190918
6.920000 1.160000 1.000000 -1.166786 89.836868 8072.024414
6.920000 1.160000 1.040000 -48.373661 66.345535 6741.741211
6.920000 1.160000 1.080000 -65.484779 15.939922 4542.337402
6.920000 1.160000 1.120000 -42.213593 -29.563370 2655.980225
6.920000 1.160000 1.160000 3.074903 -42.609646 1825.036987
6.920000 1.160000 1.200000 38.917149 -20.687332 1942.510132
6.920000 1.200000 0.800000 21.610573 16.952274 754.396484
6.920000 1.200000 0.840000 16.048576 16.973427 545.654053
6.920000 1.200000 0.880000 13.878601 16.971197 480.637115
6.920000 1.200000 0.920000 11.410065 20.179726 537.410889
6.920000 1.200000 0.960000 3.687538 23.759665 578.119629
6.920000 1.200000 1.000000 -8.625740 20.575085 497.737488
6.920000 1.200000 1.040000 -17.408417 6.852867 350.014771
6.920000 1.200000 1.080000 -13.429348 -11.906403 322.109802
6.920000 1.200000 1.120000 4.558998 -23.476547 571.932739
6.920000 1.200000 1.160000 26.927149 -18.592968 1070.769775
6.920000 1.200000 1.200000 39.941402 1.034391 1596.385620
6.960000 0.800000 0.800000 -36.911541 -12.242386 1512.337891
6.960000 0.800000 0.840000 -25.774353 -36.001167 1960.401367
6.960000 0.800000 0.880000 0.671249 -45.138424 2037.927856
6.960000 0.800000 0.920000 25.691734 -32.491489 1715.762085
6.960000 0.800000 0.960000 33.102875 -7.236526 1148.167603
6.960000 0.800000 1.000000 20.627476 12.223053 574.895813
6.960000 0.800000 1.040000 1.531479 13.632706 188.196091
6.960000 0.800000 1.080000 -7.342178 0.778084 54.512997
6.960000 0.800000 1.120000 -0.209080 -11.072687 122.648117
6.960000 0.800000 1.160000 13.704656 -9.673691 281.397888
6.960000 0.800000 1.200000 20.087246 3.577598 416.296631
6.960000 0.840000 0.800000 -21.830082 -20.608315 901.255127
6.960000 0.840000 0.840000 -6.824318 -18.770134 398.889252
6.960000 0.840000 0.880000 -2.944786 -5.000530 33.677067
6.960000 0.840000 0.920000 -15.568617 4.381096 261.575836
6.960000 0.840000 0.960000 -32.893944 -4.136909 1099.125610
6.960000 0.840000 1.000000 -36.369198 -27.478638 2077.793945
6.960000 0.840000 1.040000 -18.155220 -47.694500 2604.377441
6.960000 0.840000 1.080000 11.054771 -47.814838 2408.466797
6.960000 0.840000 1.120000 31.244898 -26.866224 1698.037598
6.960000 0.840000 1.160000 30.398312 -0.100765 924.067505
6.960000 0.840000 1.200000 13.680493 15.000835 412.180969
6.960000 0.880000 0.800000 -11.168192 -15.217560 356.302643
6.960000 0.880000 0.840000 -18.930676 5.994644 394.306244
6.960000 0.880000 0.880000 -53.062519 10.540077 2926.724121
6.960000 0.880000 0.920000 -86.759842 -22.977448 8055.232910
6.960000 0.880000 0.960000 -83.710007 -81.960693 13724.919922
6.960000 0.880000 1.000000 -33.060707 -125.882233 16939.347656
6.960000 0.880000 1.040000 36.931221 -120.634064 15916.492188
6.960000 0.880000 1.080000 81.293373 -69.030548 11373.829102
6.960000 0.880000 1.120000 76.237122 -8.234020 5879.897949
6.960000 0.880000 1.160000 37.003479 23.076164 1901.766846
6.960000 0.880000 1.200000 0.316088 16.117832 259.884430
6.960000 0.920000 0.800000 -12.877466 -8.359916 235.717316
6.960000 0.920000 0.840000 -53.757202 4.154453 2907.096191
6.960000 0.920000 0.880000 -105.135025 -34.763184 12261.851562
6.960000 0.920000 0.920000 -111.603798 -120.184601 26899.746094
6.960000 0.920000 0.960000 -43.154541 -196.819000 40600.031250
6.960000 0.920000 1.000000 69.647148 -203.127350 46111.445312
6.960000 0.920000 1.040000 155.593781 -127.039925 40348.566406
6.960000 0.920000 1.080000 162.148193 -19.238693 26662.164062
6.960000 0.920000 1.120000 98.776917 49.976021 12254.481445
6.960000 0.920000 1.160000 24.041937 49.422642 3020.612061
6.960000 0.920000 1.200000 -8.899937 6.654982 123.497650
6.960000 0.960000 0.800000 -19.633171 -12.058817 530.876465
6.960000 0.960000 0.840000 -75.307495 -34.292053 6847.163574
6.960000 0.960000 0.880000 -100.355385 -119.415985 24331.380859
6.960000 0.960000 0.920000 -40.585770 -218.865433 49549.281250
6.960000 0.960000 0.960000 92.924858 -250.938690 71605.257812
6.960000 0.960000 1.000000 220.562958 -173.687424 78815.343750
6.960000 0.960000 1.040000 257.405548 -28.392731 67063.765625
6.960000 0.960000 1.080000 185.890121 91.350327 42900.019531
6.960000 0.960000 1.120000 69.025620 118.036537 18697.160156
6.960000 0.960000 1.160000 -7.677494 62.702969 3990.606201
6.960000 0.960000 1.200000 -8.776693 -5.477194 107.030006
6.960000 1.000000 0.800000 -17.456230 -24.772743 918.408752
6.960000 1.000000 0.840000 -55.176147 -82.038414 9774.708984
6.960000 1.000000 0.880000 -24.576809 -178.132294 32335.132812
6.960000 1.000000 0.920000 93.981277 -234.366455 63760.117188
6.960000 1.000000 0.960000 239.459839 -181.901031 90429.000000
6.960000 1.000000 1.000000 311.917419 -30.965759 98251.351562
6.960000 1.000000 1.040000 257.696899 127.668297 82706.890625
6.960000 1.000000 1.080000 117.932419 195.913879 52290.304688
6.960000 1.000000 1.120000 -7.122833 149.361221 22359.509766
6.960000 1.000000 1.160000 -44.230312 50.682808 4525.067383
6.960000 1.000000 1.200000 -2.407146 -13.628222 191.522781
6.960000 1.040000 0.800000 -1.361572 -32.810307 1078.370117
6.960000 1.040000 0.840000 -1.824272 -99.167038 9837.429688
6.960000 1.040000 0.880000 73.831436 -161.423203 31508.531250
6.960000 1.040000 0.920000 200.626526 -145.042755 61288.406250
6.960000 1.040000 0.960000 292.699066 -25.367790 86316.265625
6.960000 1.040000 1.000000 273.194702 137.218613 93464.289062
6.960000 1.040000 1.040000 145.026184 239.959747 78613.273438
6.960000 1.040000 1.080000 -6.836370 223.027634 49788.058594
6.960000 1.040000 1.120000 -86.431244 118.102562 21418.574219
6.960000 1.040000 1.160000 -65.013931 15.335758 4461.996582
6.960000 1.040000 1.200000 5.436370 -17.361904 330.989838
6.960000 1.080000 0.800000 18.553791 -24.729813 955.806824
6.960000 1.080000 0.840000 46.333191 -71.038925 7193.293457
6.960000 1.080000 0.880000 126.732285 -81.655609 22728.710938
6.960000 1.080000 0.920000 209.530426 -13.713280 44091.054688
6.960000 1.080000 0.960000 222.012802 113.299919 62126.554688
6.960000 1.080000 1.000000 134.798599 222.087006 67493.296875
6.960000 1.080000 1.040000 -5.051125 239.055359 57172.980469
6.960000 1.080000 1.080000 -109.068237 157.554810 36719.398438
6.960000 1.080000 1.120000 -120.287071 42.904404 16309.767578
6.960000 1.080000 1.160000 -56.532299 -25.337461 3837.887695
6.960000 1.080000 1.200000 13.989525 -18.607441 541.943665
6.960000 1.120000 0.800000 26.841377 -3.421494 732.166138
6.960000 1.120000 0.840000 56.821960 -21.104641 3674.141113
6.960000 1.120000 0.880000 107.114944 0.180042 11473.643555
6.960000 1.120000 0.920000 132.124786 70.150833 22378.097656
6.960000 1.120000 0.960000 93.295181 151.804855 31748.707031
6.960000 1.120000 1.000000 -0.933372 186.612305 34825.023438
6.960000 1.120000 1.040000 -95.121758 144.660095 29974.691406
6.960000 1.120000 1.080000 -130.581207 52.865662 19846.228516
6.960000 1.120000 1.120000 -93.605682 -26.621513 9470.728516
6.960000 1.120000 1.160000 -23.634184 -48.085720 2870.811279
6.960000 1.120000 1.200000 24.355957 -16.031590 850.224487
6.960000 1.160000 0.800000 17.707485 16.565895 587.983887
6.960000 1.160000 0.840000 31.379263 13.073975 1155.586914
6.960000 1.160000 0.880000 48.046043 31.929672 3327.926270
6.960000 1.160000 0.920000 42.658779 68.964424 6575.863281
6.960000 1.160000 0.960000 3.603760 97.260666 9472.624023
6.960000 1.160000 1.000000 -51.683556 88.906036 10575.472656
6.960000 1.160000 1.040000 -87.597992 41.370636 9384.937500
6.960000 1.160000 1.080000 -79.672768 -17.188210 6643.184570
6.960000 1.160000 1.120000 -35.470543 -50.021053 3760.265137
6.960000 1.160000 1.160000 12.356125 -41.284042 1857.046021
6.960000 1.160000 1.200000 33.675140 -6.199970 1172.454712
6.960000 1.200000 0.800000 -0.219044 23.042072 530.985046
6.960000 1.200000 0.840000 -0.532007 14.628150 214.265808
6.960000 1.200000 0.880000 4.511566 13.345053 198.444672
6.960000 1.200000 0.920000 4.905960 19.898022 419.999725
6.960000 1.200000 0.960000 -5.075409 25.166870 659.131104
6.960000 1.200000 1.000000 -19.802744 18.730698 742.987671
6.960000 1.200000 1.040000 -26.184866 -0.186638 685.682068
6.960000 1.200000 1.080000 -15.506420 -20.197765 648.398804
6.960000 1.200000 1.120000 7.850807 -26.660572 772.421265
6.960000 1.200000 1.160000 29.147655 -13.989353 1045.287842
6.960000 1.200000 1.200000 34.903313 9.783039 1313.949097
7.000000 0.800000 0.800000 -27.265514 -13.539036 926.713745
7.000000 0.800000 0.840000 -12.615372 -31.020014 1121.388916
7.000000 0.800000 0.880000 10.952751 -32.407074 1170.181152
7.000000 0.800000 0.920000 27.683580 -16.406410 1035.550903
7.000000 0.800000 0.960000 26.960636 4.901962 750.905151
7.000000 0.800000 1.000000 12.428196 15.996376 410.344116
7.000000 0.800000 1.040000 -1.431206 11.344958 130.756439
7.000000 0.800000 1.080000 -2.623104 -0.195591 6.918931
7.000000 0.800000 1.120000 7.560371 -4.353462 76.111847
7.000000 0.800000 1.160000 16.572731 4.801302 297.707916
7.000000 0.800000 1.200000 13.248339 19.593384 559.419189
7.000000 0.840000 0.800000 -21.086811 -18.261677 778.142456
7.000000 0.840000 0.840000 -13.204241 -16.353340 441.783691
7.000000 0.840000 0.880000 -15.009005 -11.735260 362.986542
7.000000 0.840000 0.920000 -22.875195 -15.781700 772.336609
7.000000 0.840000 0.960000 -24.348999 -30.697285 1535.197021
7.000000 0.840000 1.000000 -10.567764 -45.950184 2223.097168
7.000000 0.840000 1.040000 14.068306 -47.248722 2430.358887
7.000000 0.840000 1.080000 34.438210 -29.702442 2068.225342
7.000000 0.840000 1.120000 37.258797 -2.814445 1396.139038
7.000000 0.840000 1.160000 22.034933 17.288891 784.443970
7.000000 0.840000 1.200000 0.625360 20.936932 438.746185
7.000000 0.880000 0.800000 -18.484371 -20.400467 757.851013
7.000000 0.880000 0.840000 -34.216743 -14.691532 1386.626587
7.000000 0.880000 0.880000 -57.857994 -34.519337 4539.131836
7.000000 0.880000 0.920000 -58.864861 -79.723953 9820.980469
7.000000 0.880000 0.960000 -19.054947 -120.758133 14945.617188
7.000000 0.880000 1.000000 45.886879 -122.692215 17158.986328
7.000000 0.880000 1.040000 96.094955 -77.411560 15226.790039
7.000000 0.880000 1.080000 100.725357 -12.668533 10306.089844
7.000000 0.880000 1.120000 63.521080 31.143522 5004.846680
7.000000 0.880000 1.160000 17.054903 34.430069 1476.299438
7.000000 0.880000 1.200000 -7.354964 10.899117 172.886246
7.000000 0.920000 0.800000 -16.986977 -26.430368 987.121765
7.000000 0.920000 0.840000 -51.630978 -41.627522 4398.608398
7.000000 0.920000 0.880000 -65.672318 -100.926224 14498.956055
7.000000 0.920000 0.920000 -19.474922 -169.827423 29220.626953
7.000000 0.920000 0.960000 78.843773 -189.193863 42010.656250
7.000000 0.920000 1.000000 171.098969 -129.179810 45962.281250
7.000000 0.920000 1.040000 195.902344 -20.855080 38812.660156
7.000000 0.920000 1.080000 141.704453 67.297363 24609.087891
7.000000 0.920000 1.120000 55.359467 87.010559 10635.507812
7.000000 0.920000 1.160000 -1.249847 47.596725 2267.010254
7.000000 0.920000 1.200000 -3.757867 -0.414746 14.293579
7.000000 0.960000 0.800000 -8.800669 -35.450184 1334.167358
7.000000 0.960000 0.840000 -37.549976 -82.046127 8141.567383
7.000000 0.960000 0.880000 -8.681114 -161.540649 26170.742188
7.000000 0.960000 0.920000 94.758392 -205.876434 51364.257812
7.000000 0.960000 0.960000 219.177063 -156.204865 72438.546875
7.000000 0.960000 1.000000 278.293091 -23.290668 77989.500000
7.000000 0.960000 1.040000 227.964981 113.061752 64750.992188
7.000000 0.960000 1.080000 106.573975 169.476349 40080.242188
7.000000 0.960000 1.120000 1.092384 128.466995 16504.962891
7.000000 0.960000 1.160000 -28.501041 46.641075 2987.699219
7.000000 0.960000 1.200000 5.677639 -2.995340 41.207645
7.000000 1.000000 0.800000 8.598431 -38.043571 1521.246338
7.000000 1.000000 0.840000 9.393684 -101.285172 10346.926758
7.000000 1.000000 0.880000 85.437813 -160.370483 33018.312500
7.000000 1.000000 0.920000 211.152542 -140.480316 64320.113281
7.000000 1.000000 0.960000 299.888733 -18.420696 90272.570312
7.000000 1.000000 1.000000 276.328278 143.236115 96873.906250
7.000000 1.000000 1.040000 147.005569 242.048462 80198.093750
7.000000 1.000000 1.080000 -1.108742 222.303452 49420.054688
7.000000 1.000000 1.120000 -75.021606 120.340843 20110.160156
7.000000 1.000000 1.160000 -52.482315 26.350929 3448.764648
7.000000 1.000000 1.200000 10.320002 2.087711 110.860970
7.000000 1.040000 0.800000 26.526115 -26.026995 1381.039307
7.000000 1.040000 0.840000 58.807911 -78.379059 9601.647461
7.000000 1.040000 0.880000 151.850235 -88.852417 30953.246094
7.000000 1.040000 0.920000 245.998535 -8.081825 60580.597656
7.000000 1.040000 0.960000 257.016357 138.954712 85365.820312
7.000000 1.040000 1.000000 154.045578 261.382874 92051.046875
7.000000 1.040000 1.040000 -4.881401 276.912842 76704.546875
7.000000 1.040000 1.080000 -118.347305 183.607239 47717.703125
7.000000 1.040000 1.120000 -127.090530 59.773373 19724.859375
7.000000 1.040000 1.160000 -58.812302 -7.388462 3513.476074
7.000000 1.040000 1.200000 7.461424 5.297291 83.734138
7.000000 1.080000 0.800000 31.596397 -2.887188 1006.668213
7.000000 1.080000 0.840000 75.527443 -27.575447 6464.799805
7.000000 1.080000 0.880000 146.468903 3.988220 21469.044922
7.000000 1.080000 0.920000 179.375626 102.727989 42728.656250
7.000000 1.080000 0.960000 122.956848 214.109879 60961.425781
7.000000 1.080000 1.000000 -6.317055 257.925934 66565.695312
7.000000 1.080000 1.040000 -130.027008 198.622620 56357.968750
7.000000 1.080000 1.080000 -172.358078 78.773285 35912.539062
7.000000 1.080000 1.120000 -123.312042 -17.834190 15523.917969
7.000000 1.080000 1.160000 -41.209221 -38.201580 3157.560547
7.000000 1.080000 1.200000 4.907034 1.143539 25.386663
7.000000 1.120000 0.800000 18.818562 17.088123 646.142212
7.000000 1.120000 0.840000 51.988670 14.394829 2910.032959
7.000000 1.120000 0.880000 84.233803 56.079575 10240.251953
7.000000 1.120000 0.920000 70.171700 127.268234 21121.269531
7.000000 1.120000 0.960000 -4.308693 175.697601 30888.210938
7.000000 1.120000 1.000000 -101.037178 155.965866 34533.863281
7.000000 1.120000 1.040000 -157.595047 72.669502 30117.054688
7.000000 1.120000 1.080000 -140.255493 -20.413879 20088.330078
7.000000 1.120000 1.120000 -71.780731 -65.767258 9477.804688
7.000000 1.120000 1.160000 -8.332912 -49.112854 2481.510010
7.000000 1.120000 1.200000 10.541588 -4.598732 132.273407
7.000000 1.160000 0.800000 -2.514952 21.290035 459.590576
7.000000 1.160000 0.840000 13.363615 22.346577 677.955688
7.000000 1.160000 0.880000 20.749786 46.678173 2609.405518
7.000000 1.160000 0.920000 -1.511215 76.612740 5871.795410
7.000000 1.160000 0.960000 -49.265781 81.514946 9071.803711
7.000000 1.160000 1.000000 -92.168243 46.384750 10646.530273
7.000000 1.160000 1.040000 -98.623161 -11.743538 9864.439453
7.000000 1.160000 1.080000 -63.578651 -56.543518 7239.414062
7.000000 1.160000 1.120000 -12.683395 -62.708755 4093.256348
7.000000 1.160000 1.160000 20.455614 -35.368931 1669.393433
7.000000 1.160000 1.200000 21.562939 -1.748280 468.016815
7.000000 1.200000 0.800000 -16.982277 10.375027 396.038910
7.000000 1.200000 0.840000 -8.622013 3.373360 85.718666
7.000000 1.200000 0.880000 -1.483852 7.491066 58.317886
7.000000 1.200000 0.920000 -4.869713 15.662567 269.030121
7.000000 1.200000 0.960000 -17.449467 15.866852 556.240845
7.000000 1.200000 1.000000 -27.794706 2.635590 779.492065
7.000000 1.200000 1.040000 -24.515263 -17.228851 897.831421
7.000000 1.200000 1.080000 -6.516052 -30.031464 944.347717
7.000000 1.200000 1.120000 15.822289 -26.513340 953.302002
7.000000 1.200000 1.160000 29.026917 -8.951963 922.699524
7.000000 1.200000 1.200000 26.482807 11.436792 832.139282
7.040000 0.800000 0.800000 -22.112309 -8.546005 561.988403
7.040000 0.800000 0.840000 -9.630670 -21.052441 535.955078
7.040000 0.800000 0.880000 8.639671 -21.236603 525.637207
7.040000 0.800000 0.920000 21.254850 -8.509895 524.187012
7.040000 0.800000 0.960000 20.565754 7.997826 486.915436
7.040000 0.800000 1.000000 9.581474 16.759830 372.696564
7.040000 0.800000 1.040000 -0.738075 14.078903 198.760269
7.040000 0.800000 1.080000 -1.990738 7.135872 54.883705
7.040000 0.800000 1.120000 3.608931 6.330379 53.098083
7.040000 0.800000 1.160000 5.916167 14.403196 242.453094
7.040000 0.800000 1.200000 -2.290344 23.444355 554.883423
7.040000 0.840000 0.800000 -23.400826 -18.705343 897.488525
7.040000 0.840000 0.840000 -19.039953 -22.954042 889.407837
7.040000 0.840000 0.880000 -15.440697 -28.332710 1041.157593
7.040000 0.840000 0.920000 -8.286232 -35.411812 1322.658081
7.040000 0.840000 0.960000 5.142654 -39.482933 1585.348877
7.040000 0.840000 1.000000 21.704483 -34.530582 1663.445679
7.040000 0.840000 1.040000 33.530556 -19.084419 1488.513306
7.040000 0.840000 1.080000 33.654587 1.347664 1134.447388
7.040000 0.840000 1.120000 21.355881 17.461479 760.976929
7.040000 0.840000 1.160000 2.878432 22.333130 507.054047
7.040000 0.840000 1.200000 -12.894892 15.670598 411.845886
7.040000 0.880000 0.800000 -18.761705 -32.175060 1387.236084
7.040000 0.880000 0.840000 -27.136492 -42.036209 2503.432129
7.040000 0.880000 0.880000 -25.102020 -68.761215 5358.215820
7.040000 0.880000 0.920000 3.729675 -95.857346 9202.541016
7.040000 0.880000 0.960000 53.278679 -96.975708 12242.906250
7.040000 0.880000 1.000000 95.464149 -60.801125 12810.181641
7.040000 0.880000 1.040000 102.657707 -4.248657 10556.655273
7.040000 0.880000 1.080000 71.441818 39.768635 6685.478027
7.040000 0.880000 1.120000 25.205612 49.059120 3042.120117
7.040000 0.880000 1.160000 -6.454420 28.488527 853.255737
7.040000 0.880000 1.200000 -11.558588 1.864789 137.078384
7.040000 0.920000 0.800000 -3.835573 -43.594727 1915.211914
7.040000 0.920000 0.840000 -14.021961 -71.069069 5247.427734
7.040000 0.920000 0.880000 10.552578 -115.491310 13449.599609
7.040000 0.920000 0.920000 78.352890 -135.074631 24384.332031
7.040000 0.920000 0.960000 154.387436 -95.508339 32957.324219
7.040000 0.920000 1.000000 185.430725 -6.744316 34430.039062
7.040000 0.920000 1.040000 146.793747 79.513626 27870.820312
7.040000 0.920000 1.080000 65.680687 112.004189 16858.890625
7.040000 0.920000 1.120000 -2.259441 82.500961 6811.513672
7.040000 0.920000 1.160000 -20.674212 28.625452 1246.839600
7.040000 0.920000 1.200000 0.851291 -3.787474 15.069653
7.040000 0.960000 0.800000 19.164553 -43.422455 2252.789795
7.040000 0.960000 0.840000 24.672438 -85.349228 7893.219727
7.040000 0.960000 0.880000 83.558762 -122.313522 21942.664062
7.040000 0.960000 0.920000 175.677292 -99.880783 40838.683594
7.040000 0.960000 0.960000 236.216812 -3.251007 55808.953125
7.040000 0.960000 1.000000 211.018387 118.389465 58544.824219
7.040000 0.960000 1.040000 108.685898 188.358917 47291.707031
7.040000 0.960000 1.080000 -3.061413 167.990921 28230.322266
7.040000 0.960000 1.120000 -55.423336 88.566811 10915.826172
7.040000 0.960000 1.160000 -35.564934 19.324638 1638.306152
7.040000 0.960000 1.200000 10.876408 4.252932 136.383667
7.040000 1.000000 0.800000 38.961861 -26.256851 2207.448730
7.040000 1.000000 0.840000 67.848907 -65.462456 8888.806641
7.040000 1.000000 0.880000 146.436249 -68.530579 26140.015625
7.040000 1.000000 0.920000 222.985886 5.850878 49756.941406
7.040000 1.000000 0.960000 225.618546 133.999207 68859.515625
7.040000 1.000000 1.000000 130.674423 236.193787 72863.312500
7.040000 1.000000 1.040000 -8.113235 243.234039 59228.621094
7.040000 1.000000 1.080000 -102.306030 158.131439 35472.078125
7.040000 1.000000 1.120000 -104.426163 52.361149 13646.513672
7.040000 1.000000 1.160000 -44.206024 0.292435 1954.258179
7.040000 1.000000 1.200000 7.427368 16.107338 314.612152
7.040000 1.040000 0.800000 42.172195 1.484209 1780.696899
7.040000 1.040000 0.840000 84.981064 -18.609423 7568.091797
7.040000 1.040000 0.880000 152.474457 16.784184 23530.169922
7.040000 1.040000 0.920000 179.742737 116.961952 45987.550781
7.040000 1.040000 0.960000 117.574265 225.600449 64719.269531
7.040000 1.040000 1.000000 -13.807703 263.130096 69428.101562
7.040000 1.040000 1.040000 -133.793365 198.287781 57218.707031
7.040000 1.040000 1.080000 -169.217773 78.770615 34839.464844
7.040000 1.040000 1.120000 -116.736076 -10.774361 13743.398438
7.040000 1.040000 1.160000 -39.755894 -23.026209 2110.737305
7.040000 1.040000 1.200000 -5.382454 17.183975 324.259827
7.040000 1.080000 0.800000 25.115908 23.607487 1188.122314
7.040000 1.080000 0.840000 64.045990 24.666103 4710.305176
7.040000 1.080000 0.880000 98.535896 77.650772 15738.965820
7.040000 1.080000 0.920000 75.853600 161.809769 31936.167969
7.040000 1.080000 0.960000 -16.539909 213.966110 46055.066406
7.040000 1.080000 1.000000 -129.231979 183.735718 50459.718750
7.040000 1.080000 1.040000 -188.901016 82.964531 42566.707031
7.040000 1.080000 1.080000 -162.220444 -21.151417 26762.855469
7.040000 1.080000 1.120000 -83.709648 -64.593178 11179.583984
7.040000 1.080000 1.160000 -20.858786 -40.138741 2046.207520
7.040000 1.080000 1.200000 -12.308331 4.673727 173.338715
7.040000 1.120000 0.800000 -0.972536 26.458340 700.989563
7.040000 1.120000 0.840000 23.310171 37.053272 1916.309082
7.040000 1.120000 0.880000 27.605072 80.128288 7182.582520
7.040000 1.120000 0.920000 -15.218094 123.690865 15531.020508
7.040000 1.120000 0.960000 -90.971260 122.643524 23317.203125
7.040000 1.120000 1.000000 -150.199814 62.374962 26450.621094
7.040000 1.120000 1.040000 -150.561676 -23.387344 23215.787109
7.040000 1.120000 1.080000 -95.003494 -80.158066 15450.979492
7.040000 1.120000 1.120000 -28.178879 -79.792961 7160.965820
7.040000 1.120000 1.160000 4.814050 -41.582996 1752.320679
7.040000 1.120000 1.200000 -3.761543 -8.776835 91.182045
7.040000 1.160000 0.800000 -18.062771 10.884968 444.746216
7.040000 1.160000 0.840000 -5.664999 18.370235 369.557770
7.040000 1.160000 0.880000 -11.302837 39.393078 1679.568726
7.040000 1.160000 0.920000 -41.557732 49.763077 4203.408691
7.040000 1.160000 0.960000 -77.506020 29.440491 6873.925781
7.040000 1.160000 1.000000 -90.003174 -16.385818 8369.066406
7.040000 1.160000 1.040000 -66.280319 -59.712608 7958.676270
7.040000 1.160000 1.080000 -21.759018 -73.912430 5936.502441
7.040000 1.160000 1.120000 14.213306 -56.111492 3350.517578
7.040000 1.160000 1.160000 23.924585 -26.696417 1285.084473
7.040000 1.160000 1.200000 13.305382 -8.545209 250.053787
7.040000 1.200000 0.800000 -16.545986 -8.140986 340.045319
7.040000 1.200000 0.840000 -6.914515 -6.919228 95.686218
7.040000 1.200000 0.880000 -5.402306 -0.194302 29.222660
7.040000 1.200000 0.920000 -12.321878 2.038010 155.982178
7.040000 1.200000 0.960000 -19.413015 -5.620369 408.453735
7.040000 1.200000 1.000000 -17.786118 -19.188061 684.527649
7.040000 1.200000 1.040000 -5.699944 -29.293190 890.580383
7.040000 1.200000 1.080000 10.703266 -29.250809 970.169678
7.040000 1.200000 1.120000 23.118715 -19.506735 914.987671
7.040000 1.200000 1.160000 26.919373 -5.686605 756.990112
7.040000 1.200000 1.200000 22.540173 6.131985 545.660645
7.080000 0.800000 0.800000 -24.373512 -3.728139 607.967163
7.080000 0.800000 0.840000 -15.388495 -16.525555 509.899750
7.080000 0.800000 0.880000 2.106737 -19.886633 399.916534
7.080000 0.800000 0.920000 17.446129 -9.068439 386.604004
7.080000 0.800000 0.960000 19.811127 9.293591 478.851562
7.080000 0.800000 1.000000 8.590523 22.153042 564.554321
7.080000 0.800000 1.040000 -5.850899 22.030739 519.586487
7.080000 0.800000 1.080000 -12.457873 13.598949 340.130035
7.080000 0.800000 1.120000 -10.147304 7.825447 164.205399
7.080000 0.800000 1.160000 -7.656083 9.930799 157.236359
7.080000 0.800000 1.200000 -12.910093 14.142298 366.675110
7.080000 0.840000 0.800000 -24.576099 -23.398273 1151.463867
7.080000 0.840000 0.840000 -16.297310 -33.996117 1421.338257
7.080000 0.840000 0.880000 -0.491840 -40.047318 1604.029541
7.080000 0.840000 0.920000 18.172249 -35.393391 1582.922729
7.080000 0.840000 0.960000 30.868240 -19.894571 1348.642212
7.080000 0.840000 1.000000 31.590403 -0.549385 998.255371
7.080000 0.840000 1.040000 21.658669 13.879524 661.739136
7.080000 0.840000 1.080000 7.620821 19.150528 424.819611
7.080000 0.840000 1.120000 -4.556932 16.854961 304.855347
7.080000 0.840000 1.160000 -12.894383 10.663145 279.967773
7.080000 0.840000 1.200000 -17.906097 2.548923 327.125336
7.080000 0.880000 0.800000 -8.480164 -41.954254 1832.072632
7.080000 0.880000 0.840000 -0.850060 -54.851730 3009.435059
7.080000 0.880000 0.880000 21.300785 -66.245377 4842.173340
7.080000 0.880000 0.920000 54.390587 -60.453758 6612.993164
7.080000 0.880000 0.960000 80.563751 -30.479828 7419.538086
7.080000 0.880000 1.000000 81.434799 12.313240 6783.242188
7.080000 0.880000 1.040000 54.385220 45.028652 4985.331543
7.080000 0.880000 1.080000 15.786766 51.096085 2860.031738
7.080000 0.880000 1.120000 -12.105675 32.782246 1221.223022
7.080000 0.880000 1.160000 -18.340403 7.311249 389.824738
7.080000 0.880000 1.200000 -9.124355 -8.756894 159.937057
7.080000 0.920000 0.800000 20.118050 -45.398193 2465.731689
7.080000 0.920000 0.840000 32.209362 -61.959030 4876.364258
7.080000 0.920000 0.880000 68.378487 -70.533203 9650.550781
7.080000 0.920000 0.920000 114.515198 -46.152534 15243.787109
7.080000 0.920000 0.960000 136.817566 13.244102 18894.453125
7.080000 0.920000 1.000000 111.412842 77.880394 18478.177734
7.080000 0.920000 1.040000 48.807884 108.191162 14087.537109
7.080000 0.920000 1.080000 -12.165390 88.502869 7980.754395
7.080000 0.920000 1.120000 -36.587387 40.147224 2950.436523
7.080000 0.920000 1.160000 -21.549385 1.312449 466.098541
7.080000 0.920000 1.200000 5.988418 -6.478046 77.826225
7.080000 0.960000 0.800000 45.946487 -26.603966 2818.850586
7.080000 0.960000 0.840000 66.784851 -41.828613 6209.849121
7.080000 0.960000 0.880000 113.471603 -33.890907 14024.398438
7.080000 0.960000 0.920000 153.788788 19.910892 24047.435547
7.080000 0.960000 0.960000 144.990051 101.893799 31404.460938
7.080000 0.960000 1.000000 76.279930 161.207260 31806.410156
7.080000 0.960000 1.040000 -14.694363 156.719635 24776.968750
7.080000 0.960000 1.080000 -71.161484 94.964432 14082.199219
7.080000 0.960000 1.120000 -65.908554 25.014032 4969.639160
7.080000 0.960000 1.160000 -22.453915 -5.677111 536.407837
7.080000 0.960000 1.200000 11.168129 8.529003 197.471008
7.080000 1.000000 0.800000 51.899193 6.489196 2735.635742
7.080000 1.000000 0.840000 79.272003 0.007010 6284.050293
7.080000 1.000000 0.880000 121.164421 30.676626 15621.873047
7.080000 1.000000 0.920000 132.425400 104.184250 28390.843750
7.080000 1.000000 0.960000 79.553406 179.253586 38460.593750
7.080000 1.000000 1.000000 -20.035732 198.913055 39967.832031
7.080000 1.000000 1.040000 -105.630562 143.452377 31736.398438
7.080000 1.000000 1.080000 -124.780510 51.972572 18271.324219
7.080000 1.000000 1.120000 -79.466019 -11.235144 6441.076660
7.080000 1.000000 1.160000 -21.245504 -13.719444 639.594604
7.080000 1.000000 1.200000 -0.668119 20.441706 418.309723
7.080000 1.040000 0.800000 32.764881 34.178188 2241.686035
7.080000 1.040000 0.840000 58.851028 39.262947 5005.022461
7.080000 1.040000 0.880000 80.334366 83.878876 13489.276367
7.080000 1.040000 0.920000 54.862110 150.956024 25797.572266
7.080000 1.040000 0.960000 -26.324928 188.182770 36105.753906
7.080000 1.040000 1.000000 -119.903732 155.169708 38454.542969
7.080000 1.040000 1.040000 -164.041733 65.566490 31208.654297
7.080000 1.040000 1.080000 -134.023285 -20.698841 18390.681641
7.080000 1.040000 1.120000 -64.623421 -50.278061 6704.069824
7.080000 1.040000 1.160000 -16.166330 -22.778873 780.227295
7.080000 1.040000 1.200000 -18.278221 14.792483 552.910889
7.080000 1.080000 0.800000 1.104101 39.216957 1539.188721
7.080000 1.080000 0.840000 18.983608 51.577110 3020.575684
7.080000 1.080000 0.880000 16.900583 92.371307 8818.087891
7.080000 1.080000 0.920000 -29.934017 130.107178 17823.921875
7.080000 1.080000 0.960000 -105.154938 121.644485 25854.941406
7.080000 1.080000 1.000000 -158.718460 56.080452 28336.566406
7.080000 1.080000 1.040000 -151.092575 -29.015270 23670.853516
7.080000 1.080000 1.080000 -91.028229 -78.720146 14483.000000
7.080000 1.080000 1.120000 -27.828152 -69.947342 5667.037109
7.080000 1.080000 1.160000 -5.165174 -29.788073 914.008301
7.080000 1.080000 1.200000 -22.711824 -5.425550 545.263550
7.080000 1.120000 0.800000 -21.411154 20.785847 890.488892
7.080000 1.120000 0.840000 -12.638403 33.289516 1267.921143
7.080000 1.120000 0.880000 -27.369608 57.374001 4040.871338
7.080000 1.120000 0.920000 -69.503853 63.028591 8803.388672
7.080000 1.120000 0.960000 -112.017227 29.148338 13397.485352
7.080000 1.120000 1.000000 -119.433601 -31.760269 15273.099609
7.080000 1.120000 1.040000 -81.918304 -81.263489 13314.363281
7.080000 1.120000 1.080000 -26.028433 -89.332474 8657.770508
7.080000 1.120000 1.120000 9.723812 -61.130119 3831.444092
7.080000 1.120000 1.160000 9.953997 -29.496822 969.144531
7.080000 1.120000 1.200000 -6.989887 -21.686323 519.155151
7.080000 1.160000 0.800000 -21.156473 -4.479767 467.664642
7.080000 1.160000 0.840000 -17.642891 4.158649 328.565979
7.080000 1.160000 0.880000 -30.411951 11.798971 1064.102539
7.080000 1.160000 0.920000 -51.238167 1.729462 2628.340820
7.080000 1.160000 0.960000 -59.822250 -27.425911 4330.882324
7.080000 1.160000 1.000000 -43.474834 -58.079086 5263.241211
7.080000 1.160000 1.040000 -10.170937 -69.430557 4924.049805
7.080000 1.160000 1.080000 18.700531 -56.654800 3559.476318
7.080000 1.160000 1.120000 28.305866 -34.027107 1959.066040
7.080000 1.160000 1.160000 22.417624 -19.642982 888.396606
7.080000 1.160000 1.200000 16.226345 -18.424660 602.762329
7.080000 1.200000 0.800000 -3.491766 -16.403158 281.256042
7.080000 1.200000 0.840000 -1.798855 -11.272373 130.302277
7.080000 1.200000 0.880000 -5.649880 -10.870991 150.099579
7.080000 1.200000 0.920000 -7.252842 -17.441757 356.818634
7.080000 1.200000 0.960000 -1.218582 -25.200508 636.550537
7.080000 1.200000 1.000000 9.953590 -26.959646 825.896484
7.080000 1.200000 1.040000 19.274010 -21.593904 837.784180
7.080000 1.200000 1.080000 23.042276 -14.080702 729.212646
7.080000 1.200000 1.120000 23.761545 -8.859627 643.104004
7.080000 1.200000 1.160000 25.369553 -4.938498 668.002930
7.080000 1.200000 1.200000 27.288813 1.388710 746.607849
7.120000 0.800000 0.800000 -30.353390 -5.035805 946.687561
7.120000 0.800000 0.840000 -20.798649 -21.355682 888.648926
7.120000 0.800000 0.880000 1.466648 -25.308264 642.659302
7.120000 0.800000 0.920000 20.404657 -9.488200 506.375977
7.120000 0.800000 0.960000 20.154625 15.727913 653.576172
7.120000 0.800000 1.000000 0.910935 30.782913 948.417542
7.120000 0.800000 1.040000 -20.871979 25.396025 1080.597534
7.120000 0.800000 1.080000 -28.530495 7.744921 873.972961
7.120000 0.800000 1.120000 -20.779263 -4.984123 456.619232
7.120000 0.800000 1.160000 -10.841077 -4.338366 136.350357
7.120000 0.800000 1.200000 -10.952882 2.191447 124.768059
7.120000 0.840000 0.800000 -21.245590 -29.323301 1311.231079
7.120000 0.840000 0.840000 -4.932064 -40.016075 1625.611572
7.120000 0.840000 0.880000 18.810848 -35.896904 1642.435791
7.120000 0.840000 0.920000 34.535503 -14.417192 1400.556519
7.120000 0.840000 0.960000 30.530539 12.262594 1082.484985
7.120000 0.840000 1.000000 9.980533 27.171883 837.922241
7.120000 0.840000 1.040000 -11.905833 23.272303 683.348999
7.120000 0.840000 1.080000 -21.842083 8.354951 546.881836
7.120000 0.840000 1.120000 -19.188063 -4.186570 385.709137
7.120000 0.840000 1.160000 -13.265130 -8.351185 245.705963
7.120000 0.840000 1.200000 -11.611080 -8.923588 214.447601
7.120000 0.880000 0.800000 6.769747 -41.443302 1763.376709
7.120000 0.880000 0.840000 24.976482 -43.907177 2551.664795
7.120000 0.880000 0.880000 46.840843 -32.416611 3244.901367
7.120000 0.880000 0.920000 58.883495 -5.548199 3498.048584
7.120000 0.880000 0.960000 50.326515 25.297108 3172.701660
7.120000 0.880000 1.000000 23.540642 43.213028 2421.527588
7.120000 0.880000 1.040000 -6.453041 39.093616 1569.952515
7.120000 0.880000 1.080000 -23.523752 18.647453 901.094482
7.120000 0.880000 1.120000 -22.400406 -3.195254 511.987854
7.120000 0.880000 1.160000 -10.566122 -14.744685 329.048676
7.120000 0.880000 1.200000 0.493193 -15.294056 234.151382
7.120000 0.920000 0.800000 38.402905 -28.380318 2280.225586
7.120000 0.920000 0.840000 53.496140 -23.696650 3423.368164
7.120000 0.920000 0.880000 70.970810 -5.978106 5072.593750
7.120000 0.920000 0.920000 76.322098 27.028975 6555.627930
7.120000 0.920000 0.960000 56.821922 61.824142 7050.955566
7.120000 0.920000 1.000000 16.251871 76.895432 6177.030762
7.120000 0.920000 1.040000 -23.985346 61.004799 4296.882324
7.120000 0.920000 1.080000 -40.829613 24.647310 2274.547119
7.120000 0.920000 1.120000 -28.607853 -7.528080 875.081238
7.120000 0.920000 1.160000 -3.047102 -17.165419 303.936432
7.120000 0.920000 1.200000 13.726712 -6.474591 230.342957
7.120000 0.960000 0.800000 51.961960 5.665995 2732.148682
7.120000 0.960000 0.840000 61.143826 13.852852 3930.468994
7.120000 0.960000 0.880000 71.552269 36.021904 6417.304688
7.120000 0.960000 0.920000 64.692192 72.305435 9413.156250
7.120000 0.960000 0.960000 28.530584 102.420792 11304.012695
7.120000 0.960000 1.000000 -24.699585 100.914490 10793.803711
7.120000 0.960000 1.040000 -63.591297 62.510201 7951.377930
7.120000 0.960000 1.080000 -63.981331 11.175517 4218.502930
7.120000 0.960000 1.120000 -31.530750 -18.863487 1350.019409
7.120000 0.960000 1.160000 3.025109 -13.207319 183.584579
7.120000 0.960000 1.200000 12.364214 11.128953 276.727356
7.120000 1.000000 0.800000 36.444233 39.802555 2912.425537
7.120000 1.000000 0.840000 39.961670 47.547264 3857.677490
7.120000 1.000000 0.880000 41.038177 70.506554 6655.306152
7.120000 1.000000 0.920000 19.180931 101.467293 10663.519531
7.120000 1.000000 0.960000 -29.666328 113.543648 13772.250977
7.120000 1.000000 1.000000 -80.816559 85.788925 13891.056641
7.120000 1.000000 1.040000 -99.195190 28.315636 10641.460938
7.120000 1.000000 1.080000 -72.601562 -21.734678 5743.382812
7.120000 1.000000 1.120000 -25.554239 -32.731781 1724.388672
7.120000 1.000000 1.160000 2.629938 -7.867335 68.811539
7.120000 1.000000 1.200000 -5.259978 19.142670 394.109161
7.120000 1.040000 0.800000 1.715341 51.545574 2659.888672
7.120000 1.040000 0.840000 1.896890 56.664944 3214.513916
7.120000 1.040000 0.880000 -6.083544 75.084503 5674.691895
7.120000 1.040000 0.920000 -37.750755 90.756439 9661.850586
7.120000 1.040000 0.960000 -84.111206 77.769211 13122.745117
7.120000 1.040000 1.000000 -113.470490 29.692509 13757.197266
7.120000 1.040000 1.040000 -100.589203 -27.416233 10869.836914
7.120000 1.040000 1.080000 -53.921139 -55.747589 6015.283203
7.120000 1.040000 1.120000 -10.563038 -41.434525 1828.397583
7.120000 1.040000 1.160000 -1.602127 -8.197932 69.772903
7.120000 1.040000 1.200000 -22.648293 6.481634 554.956726
7.120000 1.080000 0.800000 -28.106068 34.695251 1993.711548
7.120000 1.080000 0.840000 -28.942266 37.418167 2237.773926
7.120000 1.080000 0.880000 -42.012474 46.863422 3961.228516
7.120000 1.080000 0.920000 -71.432121 43.623951 7005.596680
7.120000 1.080000 0.960000 -98.380569 12.821808 9843.134766
7.120000 1.080000 1.000000 -96.821960 -35.218887 10614.862305
7.120000 1.080000 1.040000 -61.146126 -69.840431 8616.535156
7.120000 1.080000 1.080000 -15.522228 -68.463211 4928.150879
7.120000 1.080000 1.120000 7.492863 -39.559704 1621.113159
7.120000 1.080000 1.160000 -1.633967 -14.846172 223.078674
7.120000 1.080000 1.200000 -20.851883 -17.543783 742.585327
7.120000 1.120000 0.800000 -33.604095 4.513815 1149.609741
7.120000 1.120000 0.840000 -34.948505 6.242790 1260.370483
7.120000 1.120000 0.880000 -47.146111 5.894262 2257.498291
7.120000 1.120000 0.920000 -62.992432 -9.896038 4065.978027
7.120000 1.120000 0.960000 -64.391823 -40.637451 5797.708984
7.120000 1.120000 1.000000 -41.414192 -68.023323 6342.307617
7.120000 1.120000 1.040000 -5.400986 -72.214508 5244.105469
7.120000 1.120000 1.080000 19.740543 -52.177307 3112.160400
7.120000 1.120000 1.120000 20.506779 -27.824570 1194.734619
7.120000 1.120000 1.160000 7.015013 -20.362099 463.825439
7.120000 1.120000 1.200000 1.935219 -31.019630 965.962524
7.120000 1.160000 0.800000 -15.460178 -14.966518 463.013794
7.120000 1.160000 0.840000 -18.599268 -13.933750 540.082153
7.120000 1.160000 0.880000 -25.254131 -21.094110 1082.732666
7.120000 1.160000 0.920000 -24.406847 -37.381393 1993.062744
7.120000 1.160000 0.960000 -9.118923 -52.143204 2802.068359
7.120000 1.160000 1.000000 14.337326 -52.771179 2990.356201
7.120000 1.160000 1.040000 31.079424 -37.971874 2407.793945
7.120000 1.160000 1.080000 32.130878 -19.998661 1432.339722
7.120000 1.160000 1.120000 23.484333 -12.542545 708.829346
7.120000 1.160000 1.160000 19.561398 -16.793085 664.656006
7.120000 1.160000 1.200000 27.704994 -20.715847 1196.713013
7.120000 1.200000 0.800000 7.155865 -10.893206 169.868317
7.120000 1.200000 0.840000 1.311086 -12.613163 160.810822
7.120000 1.200000 0.880000 1.709482 -22.226414 496.935791
7.120000 1.200000 0.920000 13.392750 -29.553514 1052.776001
7.120000 1.200000 0.960000 29.224148 -24.758606 1467.039429
7.120000 1.200000 1.000000 36.538723 -9.502766 1425.380859
7.120000 1.200000 1.040000 30.595299 3.980350 951.915527
7.120000 1.200000 1.080000 19.989035 5.661051 431.608978
7.120000 1.200000 1.120000 17.558176 -1.430020 310.334503
7.120000 1.200000 1.160000 26.323513 -4.429309 712.546143
7.120000 1.200000 1.200000 35.955070 5.186505 1319.666870
7.160000 0.800000 0.800000 -33.369465 -12.629932 1273.036377
7.160000 0.800000 0.840000 -18.584518 -30.128559 1253.114502
7.160000 0.800000 0.880000 8.253089 -28.237040 865.443848
7.160000 0.800000 0.920000 24.178885 -3.603272 597.602051
7.160000 0.800000 0.960000 13.577024 24.764492 797.615662
7.160000 0.800000 1.000000 -15.351099 32.853035 1314.978149
7.160000 0.800000 1.040000 -37.816555 14.901472 1652.145630
7.160000 0.800000 1.080000 -36.363243 -11.458766 1453.588745
7.160000 0.800000 1.120000 -16.836336 -23.384226 830.284241
7.160000 0.800000 1.160000 -0.454370 -15.054378 226.840729
7.160000 0.800000 1.200000 -1.198188 -1.210538 2.901057
7.160000 0.840000 0.800000 -14.466686 -32.148247 1242.794800
7.160000 0.840000 0.840000 6.862513 -36.349854 1368.406006
7.160000 0.840000 0.880000 27.426176 -19.843433 1145.957031
7.160000 0.840000 0.920000 28.379593 9.406324 893.880249
7.160000 0.840000 0.960000 5.897286 29.818136 923.899292
7.160000 0.840000 1.000000 -23.651459 25.734818 1221.672363
7.160000 0.840000 1.040000 -38.250893 2.001933 1467.138428
7.160000 0.840000 1.080000 -30.129845 -21.216526 1357.948486
7.160000 0.840000 1.120000 -11.136139 -27.847637 899.504517
7.160000 0.840000 1.160000 0.932000 -19.604921 385.221558
7.160000 0.840000 1.200000 -0.038066 -10.954002 119.991615
7.160000 0.880000 0.800000 16.568626 -30.789185 1222.493286
7.160000 0.880000 0.840000 32.191753 -20.505018 1456.764771
7.160000 0.880000 0.880000 37.837360 2.027527 1435.776733
7.160000 0.880000 0.920000 24.943733 24.952076 1244.795898
7.160000 0.880000 0.960000 -1.645020 32.791222 1077.970215
7.160000 0.880000 1.000000 -25.829987 19.641857 1052.990723
7.160000 0.880000 1.040000 -32.940228 -5.275311 1112.887451
7.160000 0.880000 1.080000 -21.408350 -25.303185 1098.568604
7.160000 0.880000 1.120000 -2.654986 -30.040743 909.495178
7.160000 0.880000 1.160000 9.968760 -22.314627 597.318726
7.160000 0.880000 1.200000 12.189276 -12.854354 313.812866
7.160000 0.920000 0.800000 38.223064 -4.281174 1479.331177
7.160000 0.920000 0.840000 39.069405 11.614645 1661.318359
7.160000 0.920000 0.880000 30.299927 28.223299 1714.640137
7.160000 0.920000 0.920000 11.414451 38.436623 1607.663574
7.160000 0.920000 0.960000 -11.900569 35.152405 1377.315063
7.160000 0.920000 1.000000 -28.798845 17.178759 1124.483154
7.160000 0.920000 1.040000 -29.844164 -7.488629 946.753723
7.160000 0.920000 1.080000 -14.583199 -25.509361 863.397217
7.160000 0.920000 1.120000 6.880754 -27.495829 803.365356
7.160000 0.920000 1.160000 20.987301 -15.250196 673.035278
7.160000 0.920000 1.200000 21.116381 -0.073821 445.906982
7.160000 0.960000 0.800000 32.662601 31.624651 2066.964111
7.160000 0.960000 0.840000 19.756027 40.631832 2041.246338
7.160000 0.960000 0.880000 5.123606 44.151878 1975.639648
7.160000 0.960000 0.920000 -11.095519 42.371544 1918.458374
7.160000 0.960000 0.960000 -27.405869 32.156219 1785.104004
7.160000 0.960000 1.000000 -36.802338 11.845794 1494.734985
7.160000 0.960000 1.040000 -30.928642 -11.959628 1099.613647
7.160000 0.960000 1.080000 -9.916882 -25.705006 759.091858
7.160000 0.960000 1.120000 13.540690 -20.039440 584.929443
7.160000 0.960000 1.160000 23.051609 -0.211413 531.421387
7.160000 0.960000 1.200000 13.435129 16.576742 455.291077
7.160000 1.000000 0.800000 1.654946 51.902531 2696.611572
7.160000 1.000000 0.840000 -15.211765 47.314507 2470.060303
7.160000 1.000000 0.880000 -25.982761 39.092575 2203.333252
7.160000 1.000000 0.920000 -34.847649 30.297916 2132.322266
7.160000 1.000000 0.960000 -43.113708 16.713259 2138.125000
7.160000 1.000000 1.000000 -43.758381 -3.928851 1930.231812
7.160000 1.000000 1.040000 -29.281427 -23.252661 1398.088135
7.160000 1.000000 1.080000 -4.183739 -27.155960 754.949829
7.160000 1.000000 1.120000 14.418859 -11.197183 333.280396
7.160000 1.000000 1.160000 12.074001 11.073547 268.404968
7.160000 1.000000 1.200000 -6.993973 18.837509 403.767395
7.160000 1.040000 0.800000 -33.257973 42.406948 2904.441895
7.160000 1.040000 0.840000 -43.863426 27.511398 2680.877197
7.160000 1.040000 0.880000 -46.350849 14.233837 2351.003174
7.160000 1.040000 0.920000 -47.401318 3.152421 2256.822754
7.160000 1.040000 0.960000 -46.854874 -11.008579 2316.567871
7.160000 1.040000 1.000000 -37.405716 -27.574268 2159.527832
7.160000 1.040000 1.040000 -16.516220 -35.980015 1567.347046
7.160000 1.040000 1.080000 4.993284 -26.815168 743.986145
7.160000 1.040000 1.120000 10.788364 -5.667068 148.504456
7.160000 1.040000 1.160000 -3.103872 8.310492 78.698296
7.160000 1.040000 1.200000 -20.809130 0.842373 433.729462
7.160000 1.080000 0.800000 -47.731575 11.900879 2419.934082
7.160000 1.080000 0.840000 -49.282074 -4.482320 2448.814209
7.160000 1.080000 0.880000 -45.211651 -17.159456 2338.540283
7.160000 1.080000 0.920000 -39.397789 -27.937931 2332.713867
7.160000 1.080000 0.960000 -29.414806 -38.711285 2363.794434
7.160000 1.080000 1.000000 -12.264589 -44.591042 2138.781006
7.160000 1.080000 1.040000 6.769710 -38.075493 1495.572144
7.160000 1.080000 1.080000 15.414358 -20.353329 651.860413
7.160000 1.080000 1.120000 7.235145 -4.936363 76.715004
7.160000 1.080000 1.160000 -8.273537 -6.081332 105.434006
7.160000 1.080000 1.200000 -12.172602 -22.705542 663.713867
7.160000 1.120000 0.800000 -34.507561 -15.246872 1423.238770
7.160000 1.120000 0.840000 -32.077633 -27.311501 1774.892578
7.160000 1.120000 0.880000 -25.032238 -38.341873 2096.712158
7.160000 1.120000 0.920000 -12.671052 -46.982803 2367.939453
7.160000 1.120000 0.960000 4.759937 -48.949032 2418.664795
7.160000 1.120000 1.000000 21.619390 -39.877163 2057.586182
7.160000 1.120000 1.040000 28.489597 -22.221706 1305.461426
7.160000 1.120000 1.080000 21.057558 -7.135057 494.329803
7.160000 1.120000 1.120000 7.152413 -5.965878 86.748711
7.160000 1.120000 1.160000 2.111425 -18.277189 338.513763
7.160000 1.120000 1.200000 14.430895 -29.649202 1087.325928
7.160000 1.160000 0.800000 -8.639793 -19.610424 459.214752
7.160000 1.160000 0.840000 -8.493914 -29.150463 921.896057
7.160000 1.160000 0.880000 0.635588 -40.351162 1628.620239
7.160000 1.160000 0.920000 19.028467 -43.998871 2297.983154
7.160000 1.160000 0.960000 37.694183 -33.295383 2529.434082
7.160000 1.160000 1.000000 44.160568 -12.156647 2097.939941
7.160000 1.160000 1.040000 34.045609 5.558368 1189.999023
7.160000 1.160000 1.080000 17.008781 7.580111 346.756714
7.160000 1.160000 1.120000 9.403334 -4.704428 110.554329
7.160000 1.160000 1.160000 19.155005 -16.227495 630.245789
7.160000 1.160000 1.200000 37.466255 -11.797416 1542.899414
7.160000 1.200000 0.800000 6.452181 -2.390638 47.345791
7.160000 1.200000 0.840000 3.816410 -15.531077 255.779358
7.160000 1.200000 0.880000 17.257410 -27.249249 1040.339722
7.160000 1.200000 0.920000 38.933590 -22.636005 2028.213135
7.160000 1.200000 0.960000 50.584961 -0.658296 2559.271729
7.160000 1.200000 1.000000 41.197586 22.692513 2212.191162
7.160000 1.200000 1.040000 18.995342 28.998993 1201.764648
7.160000 1.200000 1.080000 4.394942 15.734367 266.885834
7.160000 1.200000 1.120000 10.072124 -0.708034 101.949005
7.160000 1.200000 1.160000 28.267235 -1.150731 800.360718
7.160000 1.200000 1.200000 38.622856 17.309204 1791.333496
7.200000 0.800000 0.800000 -29.981543 -21.483744 1360.444092
7.200000 0.800000 0.840000 -9.859580 -34.853924 1312.007324
7.200000 0.800000 0.880000 15.432383 -24.121838 820.021484
7.200000 0.800000 0.920000 21.267426 4.959434 476.899353
7.200000 0.800000 0.960000 -0.286613 26.952932 726.542725
7.200000 0.800000 1.000000 -30.909523 21.268576 1407.750977
7.200000 0.800000 1.040000 -43.142052 -7.049694 1910.934814
7.200000 0.800000 1.080000 -27.153021 -32.129971 1769.621582
7.200000 0.800000 1.120000 0.385801 -32.871349 1080.674438
7.200000 0.800000 1.160000 14.048681 -12.906966 363.955231
7.200000 0.800000 1.200000 5.109533 5.179613 52.935722
7.200000 0.840000 0.800000 -8.415228 -30.988466 1031.101074
7.200000 0.840000 0.840000 11.318372 -27.918171 907.529785
7.200000 0.840000 0.880000 21.477062 -6.642653 505.389038
7.200000 0.840000 0.920000 8.761918 16.568699 351.292999
7.200000 0.840000 0.960000 -19.488628 20.402367 796.063232
7.200000 0.840000 1.000000 -40.349625 -0.640976 1628.503052
7.200000 0.840000 1.040000 -36.447990 -30.022558 2229.810059
7.200000 0.840000 1.080000 -12.160275 -44.446255 2123.341797
7.200000 0.840000 1.120000 11.425097 -35.428814 1385.733643
7.200000 0.840000 1.160000 17.238705 -15.557297 539.202393
7.200000 0.840000 1.200000 7.361481 -4.055722 70.640289
7.200000 0.880000 0.800000 15.407701 -19.039642 599.905212
7.200000 0.880000 0.840000 20.843832 -5.222937 461.744385
7.200000 0.880000 0.880000 11.996828 10.961609 264.080750
7.200000 0.880000 0.920000 -9.079382 15.541758 323.981415
7.200000 0.880000 0.960000 -28.467764 1.411984 812.407288
7.200000 0.880000 1.000000 -31.258535 -23.914230 1548.986450
7.200000 0.880000 1.040000 -14.483912 -43.487259 2100.925537
7.200000 0.880000 1.080000 10.143872 -44.870392 2116.250244
7.200000 0.880000 1.120000 26.412231 -29.998741 1597.530518
7.200000 0.880000 1.160000 27.071293 -12.005881 876.996094
7.200000 0.880000 1.200000 18.085938 -2.729636 334.552063
7.200000 0.920000 0.800000 21.869310 9.609695 570.612976
7.200000 0.920000 0.840000 8.769762 18.763195 428.966217
7.200000 0.920000 0.880000 -8.961888 16.500093 352.568542
7.200000 0.920000 0.920000 -21.797554 2.061026 479.381195
7.200000 0.920000 0.960000 -22.311268 -18.227175 830.022583
7.200000 0.920000 1.000000 -9.508837 -34.594864 1287.222534
7.200000 0.920000 1.040000 10.695022 -39.256012 1655.417969
7.200000 0.920000 1.080000 28.806381 -30.542316 1762.640625
7.200000 0.920000 1.120000 36.939125 -13.587898 1549.129883
7.200000 0.920000 1.160000 33.036331 2.761084 1099.022705
7.200000 0.920000 1.200000 21.689518 11.185219 595.544312
7.200000 0.960000 0.800000 2.631641 34.588989 1203.323730
7.200000 0.960000 0.840000 -19.185091 25.991848 1043.643921
7.200000 0.960000 0.880000 -29.102430 4.753643 869.548584
7.200000 0.960000 0.920000 -23.063679 -16.630894 808.519897
7.200000 0.960000 0.960000 -6.843591 -28.661976 868.343567
7.200000 0.960000 1.000000 11.165414 -29.488178 994.219116
7.200000 0.960000 1.040000 25.694378 -21.777887 1134.477417
7.200000 0.960000 1.080000 34.194206 -8.379663 1239.462524
7.200000 0.960000 1.120000 34.231804 7.637650 1230.150146
7.200000 0.960000 1.160000 24.559402 20.626245 1028.606201
7.200000 0.960000 1.200000 9.088387 23.786200 648.382019
7.200000 1.000000 0.800000 -30.063053 36.069233 2204.776855
7.200000 1.000000 0.840000 -44.535267 9.507333 2073.779297
7.200000 1.000000 0.880000 -36.287319 -18.659161 1664.933838
7.200000 1.000000 0.920000 -13.578450 -32.388100 1233.363281
7.200000 1.000000 0.960000 8.588705 -29.189938 925.818298
7.200000 1.000000 1.000000 21.760843 -17.022354 763.294800
7.200000 1.000000 1.040000 26.585766 -3.356033 718.065857
7.200000 1.000000 1.080000 25.588171 9.862529 752.023987
7.200000 1.000000 1.120000 18.004963 21.575676 789.688477
7.200000 1.000000 1.160000 3.647560 26.642807 723.143860
7.200000 1.000000 1.200000 -10.873577 19.547539 500.340942
7.200000 1.040000 0.800000 -52.266148 12.251616 2881.852295
7.200000 1.040000 0.840000 -50.150070 -20.388657 2930.726807
7.200000 1.040000 0.880000 -26.455631 -41.430500 2416.386719
7.200000 1.040000 0.920000 2.058799 -40.991676 1684.556152
7.200000 1.040000 0.960000 20.195564 -25.422213 1054.149658
7.200000 1.040000 1.000000 24.649605 -7.006176 656.689514
7.200000 1.040000 1.040000 20.337341 7.359833 467.774597
7.200000 1.040000 1.080000 11.255535 16.868053 411.218292
7.200000 1.040000 1.120000 -1.590389 20.284676 413.997406
7.200000 1.040000 1.160000 -14.580928 14.036223 409.619019
7.200000 1.040000 1.200000 -18.942772 -1.279493 360.465729
7.200000 1.080000 0.800000 -48.449993 -18.355755 2684.335693
7.200000 1.080000 0.840000 -33.521938 -44.195747 3076.984375
7.200000 1.080000 0.880000 -5.264675 -52.816460 2817.295166
7.200000 1.080000 0.920000 19.767681 -41.760086 2134.666016
7.200000 1.080000 0.960000 30.875986 -20.523895 1374.556885
7.200000 1.080000 1.000000 27.798073 -0.466664 772.950623
7.200000 1.080000 1.040000 15.881414 12.025444 396.830627
7.200000 1.080000 1.080000 0.716561 14.764132 218.493042
7.200000 1.080000 1.120000 -12.010159 7.265772 197.035370
7.200000 1.080000 1.160000 -15.371950 -7.625609 294.446777
7.200000 1.080000 1.200000 -4.923042 -20.894089 460.799316
7.200000 1.120000 0.800000 -24.677654 -32.758171 1682.084473
7.200000 1.120000 0.840000 -7.859643 -48.518616 2415.830078
7.200000 1.120000 0.880000 16.764660 -49.529369 2734.212402
7.200000 1.120000 0.920000 36.750584 -34.573975 2545.965088
7.200000 1.120000 0.960000 42.868652 -11.147959 1961.998291
7.200000 1.120000 1.000000 33.437477 9.523030 1208.752930
7.200000 1.120000 1.040000 14.424535 18.047840 533.791748
7.200000 1.120000 1.080000 -3.296883 11.211598 136.569366
7.200000 1.120000 1.120000 -8.984556 -5.664534 112.809189
7.200000 1.120000 1.160000 1.421081 -20.297684 414.015442
7.200000 1.120000 1.200000 21.008938 -20.455719 859.811890
7.200000 1.160000 0.800000 -2.565620 -23.132401 541.690369
7.200000 1.160000 0.840000 9.462534 -35.479111 1348.306885
7.200000 1.160000 0.880000 30.913359 -35.917122 2245.675293
7.200000 1.160000 0.920000 49.255981 -19.349329 2800.548096
7.200000 1.160000 0.960000 51.329185 7.040032 2684.247314
7.200000 1.160000 1.000000 34.199570 27.236952 1911.462158
7.200000 1.160000 1.040000 9.260688 28.182020 879.986572
7.200000 1.160000 1.080000 -5.397142 10.897355 147.881500
7.200000 1.160000 1.120000 0.631941 -9.124038 83.647415
7.200000 1.160000 1.160000 20.947855 -13.981855 634.304932
7.200000 1.160000 1.200000 37.137756 1.698133 1382.096558
7.200000 1.200000 0.800000 0.181385 -2.411881 5.850070
7.200000 1.200000 0.840000 10.506288 -18.852686 465.805847
7.200000 1.200000 0.880000 34.215534 -19.825783 1563.764404
7.200000 1.200000 0.920000 52.207920 1.158662 2727.009521
7.200000 1.200000 0.960000 47.341351 30.762203 3187.516602
7.200000 1.200000 1.000000 21.380726 46.154575 2587.380371
7.200000 1.200000 1.040000 -4.983462 35.900024 1313.646606
7.200000 1.200000 1.080000 -10.582989 11.256428 238.706818
7.200000 1.200000 1.120000 6.515759 -3.895486 57.629936
7.200000 1.200000 1.160000 27.372772 4.656879 770.955200
7.200000 1.200000 1.200000 30.341139 28.559715 1736.242065
