#kx 	ky 	kz 	real 	imag 	intensity
2.800000 -7.200000 2.800000 -53.164425 -4.989946 2851.355713
2.800000 -7.200000 2.840000 -40.076508 -19.375166 1981.523560
2.800000 -7.200000 2.880000 -26.441940 -19.785328 1090.635376
2.800000 -7.200000 2.920000 -22.684618 -14.232565 717.157837
2.800000 -7.200000 2.960000 -26.453001 -14.933875 922.781921
2.800000 -7.200000 3.000000 -25.873093 -24.751396 1282.048584
2.800000 -7.200000 3.040000 -13.095318 -33.725197 1308.876221
2.800000 -7.200000 3.080000 6.215688 -29.441933 905.462158
2.800000 -7.200000 3.120000 17.454628 -10.424843 413.341370
2.800000 -7.200000 3.160000 11.046587 11.277221 249.202789
2.800000 -7.200000 3.200000 -8.389456 20.825499 504.084351
2.800000 -7.160000 2.800000 -38.819981 -29.336452 2367.618164
2.800000 -7.160000 2.840000 -20.900211 -30.899281 1391.584473
2.800000 -7.160000 2.880000 -12.336191 -22.604832 663.160034
2.800000 -7.160000 2.920000 -14.546965 -16.836304 495.075317
2.800000 -7.160000 2.960000 -18.275139 -20.155643 740.230713
2.800000 -7.160000 3.000000 -14.209726 -27.562737 961.620789
2.800000 -7.160000 3.040000 -2.789124 -28.791721 836.742432
2.800000 -7.160000 3.080000 6.572479 -19.503721 423.592621
2.800000 -7.160000 3.120000 5.295415 -5.850843 62.273788
2.800000 -7.160000 3.160000 -5.921748 1.593128 37.605160
2.800000 -7.160000 3.200000 -18.099258 -2.282986 332.795197
2.800000 -7.120000 2.800000 -13.891479 -34.109589 1356.437134
2.800000 -7.120000 2.840000 -2.205048 -24.499851 605.104980
2.800000 -7.120000 2.880000 -2.769193 -14.265800 211.181458
2.800000 -7.120000 2.920000 -9.144362 -11.954562 226.530914
2.800000 -7.120000 2.960000 -12.290363 -16.632303 427.686523
2.800000 -7.120000 3.000000 -9.306943 -21.296043 540.140625
2.800000 -7.120000 3.040000 -4.432240 -21.203432 469.230286
2.800000 -7.120000 3.080000 -2.872714 -18.077543 335.050049
2.800000 -7.120000 3.120000 -5.031153 -16.813030 307.990479
2.800000 -7.120000 3.160000 -6.920662 -19.597000 431.937988
2.800000 -7.120000 3.200000 -5.062728 -23.986761 600.995911
2.800000 -7.080000 2.800000 1.280188 -20.040554 403.262695
2.800000 -7.080000 2.840000 1.872147 -8.937716 83.387695
2.800000 -7.080000 2.880000 -4.980422 -3.879100 39.852020
2.800000 -7.080000 2.920000 -11.773478 -6.198436 177.035385
2.800000 -7.080000 2.960000 -14.662602 -11.885910 356.266785
2.800000 -7.080000 3.000000 -14.567859 -17.639093 523.360107
2.800000 -7.080000 3.040000 -12.909443 -23.489662 718.417969
2.800000 -7.080000 3.080000 -8.569269 -29.931664 969.336853
2.800000 -7.080000 3.120000 0.062847 -34.640434 1199.963623
2.800000 -7.080000 3.160000 11.240035 -33.776878 1267.215942
2.800000 -7.080000 3.200000 19.875914 -26.494780 1097.025269
2.800000 -7.040000 2.800000 -3.019600 -4.789104 32.053505
2.800000 -7.040000 2.840000 -8.387058 -0.912291 71.175018
2.800000 -7.040000 2.880000 -14.499550 -2.631763 217.163132
2.800000 -7.040000 2.920000 -18.608955 -7.615561 404.289978
2.800000 -7.040000 2.960000 -21.015772 -14.580969 654.267334
2.800000 -7.040000 3.000000 -20.905960 -24.500751 1037.345947
2.800000 -7.040000 3.040000 -14.533672 -36.569530 1548.558228
2.800000 -7.040000 3.080000 0.589392 -45.029045 2027.962280
2.800000 -7.040000 3.120000 20.312172 -42.596313 2227.030273
2.800000 -7.040000 3.160000 34.780365 -27.990372 1993.134766
2.800000 -7.040000 3.200000 36.455929 -8.921608 1408.629883
2.800000 -7.000000 2.800000 -16.375105 -4.953339 292.679626
2.800000 -7.000000 2.840000 -18.423582 -8.217856 406.961548
2.800000 -7.000000 2.880000 -19.120834 -11.958307 508.607422
2.800000 -7.000000 2.920000 -20.326942 -16.220480 676.288574
2.800000 -7.000000 2.960000 -21.498831 -24.177237 1046.738525
2.800000 -7.000000 3.000000 -17.219913 -36.882408 1656.837402
2.800000 -7.000000 3.040000 -2.113064 -48.281990 2335.615723
2.800000 -7.000000 3.080000 21.247370 -48.122978 2767.271729
2.800000 -7.000000 3.120000 41.122089 -31.693787 2695.522461
2.800000 -7.000000 3.160000 45.528900 -6.374523 2113.515381
2.800000 -7.000000 3.200000 33.247154 13.201734 1279.659058
2.800000 -6.960000 2.800000 -19.828148 -18.958416 752.577026
2.800000 -6.960000 2.840000 -14.730659 -21.697744 687.784424
2.800000 -6.960000 2.880000 -11.827118 -21.517191 602.870239
2.800000 -6.960000 2.920000 -12.687672 -23.245369 701.324158
2.800000 -6.960000 2.960000 -12.421493 -31.202057 1127.861816
2.800000 -6.960000 3.000000 -3.187019 -42.311954 1800.458618
2.800000 -6.960000 3.040000 16.749878 -46.156059 2410.940186
2.800000 -6.960000 3.080000 38.127914 -34.128521 2618.493896
2.800000 -6.960000 3.120000 46.913666 -9.243567 2286.335693
2.800000 -6.960000 3.160000 36.957672 14.333807 1571.327515
2.800000 -6.960000 3.200000 16.407551 23.092501 802.471313
2.800000 -6.920000 2.800000 -6.524525 -29.376526 905.549683
2.800000 -6.920000 2.840000 0.622062 -25.189457 634.895691
2.800000 -6.920000 2.880000 1.235688 -20.110596 405.962982
2.800000 -6.920000 2.920000 -1.969434 -20.682400 431.640320
2.800000 -6.920000 2.960000 -0.975480 -27.992044 784.506104
2.800000 -6.920000 3.000000 9.976992 -34.697590 1303.463135
2.800000 -6.920000 3.040000 27.156414 -30.732510 1681.958008
2.800000 -6.920000 3.080000 38.760933 -13.447578 1683.247314
2.800000 -6.920000 3.120000 35.204170 8.099385 1304.933716
2.800000 -6.920000 3.160000 18.649839 20.260839 758.318115
2.800000 -6.920000 3.200000 1.708490 17.171036 297.763428
2.800000 -6.880000 2.800000 10.824852 -22.358009 617.057983
2.800000 -6.880000 2.840000 12.081737 -13.199491 320.194885
2.800000 -6.880000 2.880000 6.933808 -8.136343 114.277779
2.800000 -6.880000 2.920000 1.467954 -10.670530 116.015106
2.800000 -6.880000 2.960000 2.558878 -17.671953 318.845795
2.800000 -6.880000 3.000000 11.565085 -21.132984 580.354248
2.800000 -6.880000 3.040000 22.110287 -15.129957 717.780396
2.800000 -6.880000 3.080000 25.254833 -1.881252 641.345703
2.800000 -6.880000 3.120000 17.884617 9.559532 411.244202
2.800000 -6.880000 3.160000 6.057045 11.637326 172.115158
2.800000 -6.880000 3.200000 -0.760540 5.606457 32.010780
2.800000 -6.840000 2.800000 13.817746 -3.148340 200.842163
2.800000 -6.840000 2.840000 7.388880 2.708920 61.933788
2.800000 -6.840000 2.880000 -0.597302 2.190738 5.156101
2.800000 -6.840000 2.920000 -5.201222 -3.772163 41.281933
2.800000 -6.840000 2.960000 -3.623168 -10.892509 131.774094
2.800000 -6.840000 3.000000 2.738197 -14.179980 208.569565
2.800000 -6.840000 3.040000 9.160682 -11.625757 219.076324
2.800000 -6.840000 3.080000 11.410845 -5.762484 163.413605
2.800000 -6.840000 3.120000 9.349623 -1.164984 88.772629
2.800000 -6.840000 3.160000 6.541786 0.131641 42.812298
2.800000 -6.840000 3.200000 5.887561 0.479468 34.893269
2.800000 -6.800000 2.800000 -1.527768 9.114811 85.413857
2.800000 -6.800000 2.840000 -8.915009 5.907049 114.370605
2.800000 -6.800000 2.880000 -13.046800 -0.369944 170.355835
2.800000 -6.800000 2.920000 -13.563879 -7.482119 239.960922
2.800000 -6.800000 2.960000 -10.825415 -13.937472 311.442749
2.800000 -6.800000 3.000000 -5.339225 -18.474705 369.822052
2.800000 -6.800000 3.040000 1.844302 -19.835741 396.858093
2.800000 -6.800000 3.080000 8.912371 -17.344276 380.254272
2.800000 -6.800000 3.120000 13.833701 -11.399598 321.322144
2.800000 -6.800000 3.160000 14.954405 -3.385529 235.096024
2.800000 -6.800000 3.200000 11.268095 4.562078 147.782516
2.840000 -7.200000 2.800000 -56.955257 -21.226637 3694.471436
2.840000 -7.200000 2.840000 -40.981590 -32.052299 2706.840576
2.840000 -7.200000 2.880000 -28.557741 -31.954338 1836.624268
2.840000 -7.200000 2.920000 -23.730505 -30.593338 1499.089111
2.840000 -7.200000 2.960000 -19.832544 -34.444496 1579.753174
2.840000 -7.200000 3.000000 -8.827454 -39.079758 1605.151367
2.840000 -7.200000 3.040000 7.599861 -34.341465 1237.094116
2.840000 -7.200000 3.080000 17.866705 -16.899548 604.813843
2.840000 -7.200000 3.120000 12.077692 3.713037 159.657303
2.840000 -7.200000 3.160000 -6.840256 12.843201 211.736893
2.840000 -7.200000 3.200000 -24.567997 4.583563 624.595520
2.840000 -7.160000 2.800000 -31.394386 -48.068306 3296.169434
2.840000 -7.160000 2.840000 -11.551242 -44.736305 2134.768311
2.840000 -7.160000 2.880000 -1.999620 -34.863342 1219.451172
2.840000 -7.160000 2.920000 -0.454403 -27.853138 776.003784
2.840000 -7.160000 2.960000 0.514576 -25.737732 662.695618
2.840000 -7.160000 3.000000 4.560802 -23.562609 575.997437
2.840000 -7.160000 3.040000 8.172108 -16.983788 355.232361
2.840000 -7.160000 3.080000 5.804579 -8.230125 101.428101
2.840000 -7.160000 3.120000 -2.817834 -4.071642 24.518456
2.840000 -7.160000 3.160000 -11.325208 -8.406784 198.934357
2.840000 -7.160000 3.200000 -12.700708 -17.696466 474.472900
2.840000 -7.120000 2.800000 2.435114 -47.468285 2259.167725
2.840000 -7.120000 2.840000 16.752062 -32.318806 1325.136841
2.840000 -7.120000 2.880000 18.621166 -15.408925 584.182800
2.840000 -7.120000 2.920000 11.556761 -3.798870 147.990128
2.840000 -7.120000 2.960000 1.217499 0.002071 1.482308
2.840000 -7.120000 3.000000 -7.715765 -3.126492 69.307976
2.840000 -7.120000 3.040000 -12.210968 -10.717335 263.968994
2.840000 -7.120000 3.080000 -10.799141 -19.368256 491.750793
2.840000 -7.120000 3.120000 -4.131809 -25.226791 653.462830
2.840000 -7.120000 3.160000 4.633605 -25.568024 675.194092
2.840000 -7.120000 3.200000 11.218400 -20.669891 553.096924
2.840000 -7.080000 2.800000 20.223288 -25.824650 1075.893921
2.840000 -7.080000 2.840000 25.197039 -5.778506 668.281860
2.840000 -7.080000 2.880000 16.663494 13.395025 457.098724
2.840000 -7.080000 2.920000 -3.151611 22.938564 536.110413
2.840000 -7.080000 2.960000 -25.732731 16.304409 928.007202
2.840000 -7.080000 3.000000 -38.589615 -5.413750 1518.467041
2.840000 -7.080000 3.040000 -32.774399 -31.325245 2055.432129
2.840000 -7.080000 3.080000 -10.464100 -46.374805 2260.119873
2.840000 -7.080000 3.120000 15.066342 -42.075531 1997.344971
2.840000 -7.080000 3.160000 28.891878 -23.252386 1375.414062
2.840000 -7.080000 3.200000 25.816193 -3.957396 682.136780
2.840000 -7.040000 2.800000 15.032128 -5.814730 259.775970
2.840000 -7.040000 2.840000 12.392519 13.844159 345.235260
2.840000 -7.040000 2.880000 -6.504549 29.721863 925.698242
2.840000 -7.040000 2.920000 -36.553837 27.699598 2103.450684
2.840000 -7.040000 2.960000 -60.248165 1.254513 3631.415039
2.840000 -7.040000 3.000000 -58.599430 -38.692005 4930.964844
2.840000 -7.040000 3.040000 -27.667469 -68.043678 5395.431152
2.840000 -7.040000 3.080000 15.149605 -67.449066 4778.887207
2.840000 -7.040000 3.120000 43.288692 -38.650719 3367.789062
2.840000 -7.040000 3.160000 42.223461 -3.410410 1794.451538
2.840000 -7.040000 3.200000 20.325590 14.954753 636.774231
2.840000 -7.000000 2.800000 1.774094 -3.210407 13.454123
2.840000 -7.000000 2.840000 -5.911144 14.840040 255.168427
2.840000 -7.000000 2.880000 -32.225018 22.491869 1544.335938
2.840000 -7.000000 2.920000 -62.685215 3.529467 3941.893311
2.840000 -7.000000 2.960000 -71.622108 -39.369068 6679.650391
2.840000 -7.000000 3.000000 -44.087055 -80.973625 8500.396484
2.840000 -7.000000 3.040000 7.784262 -91.688599 8467.393555
2.840000 -7.000000 3.080000 51.588375 -62.930984 6621.668945
2.840000 -7.000000 3.120000 60.758263 -15.613079 3935.334717
2.840000 -7.000000 3.160000 36.348541 17.409492 1624.306885
2.840000 -7.000000 3.200000 4.047046 19.051548 379.340057
2.840000 -6.960000 2.800000 -0.751527 -12.389270 154.058792
2.840000 -6.960000 2.840000 -13.434481 3.956224 196.136978
2.840000 -6.960000 2.880000 -41.827156 0.629798 1749.907593
2.840000 -6.960000 2.920000 -61.421124 -31.692135 4776.945801
2.840000 -6.960000 2.960000 -47.881569 -75.983765 8066.177246
2.840000 -6.960000 3.000000 -1.051928 -99.576134 9916.512695
2.840000 -6.960000 3.040000 50.988434 -81.937973 9313.652344
2.840000 -6.960000 3.080000 74.148972 -33.910702 6648.005371
2.840000 -6.960000 3.120000 57.214012 10.786896 3389.800293
2.840000 -6.960000 3.160000 20.291677 24.587921 1016.317993
2.840000 -6.960000 3.200000 -4.868124 8.381915 93.955132
2.840000 -6.920000 2.800000 9.681445 -15.468132 332.993469
2.840000 -6.920000 2.840000 -8.716354 -3.444792 87.841423
2.840000 -6.920000 2.880000 -32.938995 -17.045082 1375.512207
2.840000 -6.920000 2.920000 -36.509354 -52.223911 4060.269775
2.840000 -6.920000 2.960000 -7.050245 -82.684204 6886.383789
2.840000 -6.920000 3.000000 39.961517 -81.691254 8270.383789
2.840000 -6.920000 3.040000 72.675812 -46.324120 7427.697266
2.840000 -6.920000 3.080000 70.117393 -0.929205 4917.312012
2.840000 -6.920000 3.120000 39.853638 24.121597 2170.163818
2.840000 -6.920000 3.160000 9.587485 18.439938 431.951172
2.840000 -6.920000 3.200000 1.333084 -1.902757 5.397596
2.840000 -6.880000 2.800000 17.946274 -4.057658 338.533356
2.840000 -6.880000 2.840000 -3.474216 -0.670845 12.520213
2.840000 -6.880000 2.880000 -18.714911 -20.177828 757.392578
2.840000 -6.880000 2.920000 -9.974712 -48.008453 2404.306396
2.840000 -6.880000 2.960000 20.768002 -60.396175 4079.007812
2.840000 -6.880000 3.000000 52.516151 -45.103363 4792.259277
2.840000 -6.880000 3.040000 63.256287 -12.190386 4149.963379
2.840000 -6.880000 3.080000 48.711514 15.278169 2606.233887
2.840000 -6.880000 3.120000 24.524536 21.680664 1071.504150
2.840000 -6.880000 3.160000 10.594109 11.197119 237.610596
2.840000 -6.880000 3.200000 13.045086 1.176964 171.559509
2.840000 -6.840000 2.800000 10.409479 10.851718 226.117035
2.840000 -6.840000 2.840000 -7.174081 4.469390 71.442886
2.840000 -6.840000 2.880000 -12.277326 -14.476912 360.313721
2.840000 -6.840000 2.920000 0.137295 -31.128405 968.996460
2.840000 -6.840000 2.960000 21.427334 -32.936119 1543.918579
2.840000 -6.840000 3.000000 37.131844 -19.355066 1753.392334
2.840000 -6.840000 3.040000 38.934509 -0.812973 1516.556885
2.840000 -6.840000 3.080000 30.113438 11.265142 1033.722534
2.840000 -6.840000 3.120000 20.417418 13.824250 607.980835
2.840000 -6.840000 3.160000 16.133911 12.699115 421.570618
2.840000 -6.840000 3.200000 14.947803 14.839691 443.653259
2.840000 -6.800000 2.800000 -8.218180 11.563662 201.256744
2.840000 -6.800000 2.840000 -15.675713 0.689412 246.203262
2.840000 -6.800000 2.880000 -13.784309 -12.044551 335.078400
2.840000 -6.800000 2.920000 -4.790161 -20.354919 437.268402
2.840000 -6.800000 2.960000 6.528954 -22.002310 526.728882
2.840000 -6.800000 3.000000 16.485941 -18.013329 596.266235
2.840000 -6.800000 3.040000 23.380730 -10.171443 650.116760
2.840000 -6.800000 3.080000 26.223057 0.184052 687.682556
2.840000 -6.800000 3.120000 23.820183 11.429411 698.032593
2.840000 -6.800000 3.160000 15.532307 20.722553 670.676758
2.840000 -6.800000 3.200000 2.745299 24.527208 609.120605
2.880000 -7.200000 2.800000 -53.889812 -43.719978 4815.548340
2.880000 -7.200000 2.840000 -34.274174 -51.233650 3799.605957
2.880000 -7.200000 2.880000 -19.153332 -49.802704 2847.159424
2.880000 -7.200000 2.920000 -9.140724 -46.934185 2286.370361
2.880000 -7.200000 2.960000 1.005291 -44.448715 1976.698853
2.880000 -7.200000 3.000000 13.018772 -37.213951 1554.366577
2.880000 -7.200000 3.040000 20.443329 -21.555134 882.553467
2.880000 -7.200000 3.080000 15.049454 -3.266306 237.154816
2.880000 -7.200000 3.120000 -2.296018 5.233652 32.662811
2.880000 -7.200000 3.160000 -19.141779 -3.026251 375.565918
2.880000 -7.200000 3.200000 -21.700481 -21.023394 912.893982
2.880000 -7.160000 2.800000 -12.415354 -64.498741 4314.228516
2.880000 -7.160000 2.840000 9.109612 -54.529858 3056.490479
2.880000 -7.160000 2.880000 19.590027 -38.500462 1866.054688
2.880000 -7.160000 2.920000 20.580154 -24.006680 999.863403
2.880000 -7.160000 2.960000 16.694275 -13.926030 472.633118
2.880000 -7.160000 3.000000 10.791798 -7.588772 174.052353
2.880000 -7.160000 3.040000 3.365202 -4.727463 33.673489
2.880000 -7.160000 3.080000 -4.355536 -6.788660 65.056595
2.880000 -7.160000 3.120000 -8.525890 -14.068598 270.616241
2.880000 -7.160000 3.160000 -5.328018 -22.666269 542.147522
2.880000 -7.160000 3.200000 4.382251 -25.925152 691.317627
2.880000 -7.120000 2.800000 28.406843 -49.555653 3262.711426
2.880000 -7.120000 2.840000 41.978134 -24.025627 2339.394531
2.880000 -7.120000 2.880000 37.609047 4.110344 1431.335327
2.880000 -7.120000 2.920000 17.067810 22.593353 801.769775
2.880000 -7.120000 2.960000 -9.453808 22.845581 611.295044
2.880000 -7.120000 3.000000 -28.020105 5.687119 817.469604
2.880000 -7.120000 3.040000 -29.187147 -18.240715 1184.613281
2.880000 -7.120000 3.080000 -14.100878 -34.898178 1416.717529
2.880000 -7.120000 3.120000 6.555365 -35.935722 1334.348877
2.880000 -7.120000 3.160000 20.320423 -23.590782 969.444580
2.880000 -7.120000 3.200000 21.295746 -7.692419 512.682129
2.880000 -7.080000 2.800000 42.845901 -14.769884 2053.920654
2.880000 -7.080000 2.840000 41.590149 20.076843 2132.820068
2.880000 -7.080000 2.880000 14.084927 49.564167 2654.991943
2.880000 -7.080000 2.920000 -30.806290 52.720497 3728.478516
2.880000 -7.080000 2.960000 -67.814468 21.490654 5060.650391
2.880000 -7.080000 3.000000 -72.128967 -28.452454 6012.129883
2.880000 -7.080000 3.040000 -39.842087 -66.285744 5981.191406
2.880000 -7.080000 3.080000 7.152184 -69.198540 4839.591797
2.880000 -7.080000 3.120000 37.982399 -40.180870 3057.165039
2.880000 -7.080000 3.160000 37.067451 -4.142154 1391.153442
2.880000 -7.080000 3.200000 14.222675 13.848150 394.055786
2.880000 -7.040000 2.800000 29.828825 11.905495 1031.499634
2.880000 -7.040000 2.840000 10.672911 47.561249 2375.983398
2.880000 -7.040000 2.880000 -38.874832 62.082886 5365.537109
2.880000 -7.040000 2.920000 -92.675400 32.006916 9613.171875
2.880000 -7.040000 2.960000 -110.961151 -34.787560 13522.550781
2.880000 -7.040000 3.000000 -74.072220 -98.203094 15130.541016
2.880000 -7.040000 3.040000 -3.022900 -115.977875 13460.004883
2.880000 -7.040000 3.080000 55.061871 -79.121506 9292.022461
2.880000 -7.040000 3.120000 65.434692 -19.335966 4655.578125
2.880000 -7.040000 3.160000 32.978638 19.062126 1450.955200
2.880000 -7.040000 3.200000 -6.444654 16.338230 308.471344
2.880000 -7.000000 2.800000 9.826511 16.490114 368.484192
2.880000 -7.000000 2.840000 -25.890322 43.525589 2564.785645
2.880000 -7.000000 2.880000 -84.021408 30.400892 7983.811523
2.880000 -7.000000 2.920000 -120.141052 -33.249306 15539.388672
2.880000 -7.000000 2.960000 -95.814232 -113.126472 21977.964844
2.880000 -7.000000 3.000000 -16.700958 -153.548050 23855.925781
2.880000 -7.000000 3.040000 66.747246 -124.803070 20031.001953
2.880000 -7.000000 3.080000 100.265556 -50.167389 12569.948242
2.880000 -7.000000 3.120000 71.218620 14.239321 5274.850098
2.880000 -7.000000 3.160000 16.004539 28.197699 1051.255493
2.880000 -7.000000 3.200000 -16.163704 -1.358511 263.110870
2.880000 -6.960000 2.800000 1.793562 8.383047 73.492348
2.880000 -6.960000 2.840000 -43.796814 18.678686 2267.054199
2.880000 -6.960000 2.880000 -90.767448 -21.917343 8719.099609
2.880000 -6.960000 2.920000 -90.258102 -98.462952 17841.478516
2.880000 -6.960000 2.960000 -25.545158 -157.147751 25347.970703
2.880000 -6.960000 3.000000 66.676811 -150.313721 27040.011719
2.880000 -6.960000 3.040000 124.384155 -80.137436 21893.425781
2.880000 -6.960000 3.080000 113.368500 1.849124 12855.835938
2.880000 -6.960000 3.120000 55.227478 40.046753 4653.816406
2.880000 -6.960000 3.160000 4.287075 21.778551 492.684326
2.880000 -6.960000 3.200000 -2.649045 -17.825722 324.773773
2.880000 -6.920000 2.800000 5.339893 5.328018 56.902237
2.880000 -6.920000 2.840000 -38.915173 -4.113096 1531.308228
2.880000 -6.920000 2.880000 -60.608826 -58.056007 7043.929688
2.880000 -6.920000 2.920000 -26.275358 -119.744766 15029.203125
2.880000 -6.920000 2.960000 51.389839 -137.301636 21492.654297
2.880000 -6.920000 3.000000 120.281281 -90.751701 22703.457031
2.880000 -6.920000 3.040000 133.510971 -11.643553 17960.751953
2.880000 -6.920000 3.080000 90.016502 44.646545 10096.285156
2.880000 -6.920000 3.120000 32.574467 47.495407 3316.909668
2.880000 -6.920000 3.160000 6.570090 14.246866 246.139282
2.880000 -6.920000 3.200000 20.498936 -11.976304 563.638184
2.880000 -6.880000 2.800000 5.954525 12.263372 185.846680
2.880000 -6.880000 2.840000 -25.648067 -11.842224 798.061646
2.880000 -6.880000 2.880000 -22.113573 -59.959019 4084.093994
2.880000 -6.880000 2.920000 24.749218 -91.555962 8995.017578
2.880000 -6.880000 2.960000 84.779205 -75.935074 12953.648438
2.880000 -6.880000 3.000000 114.970551 -20.565418 13641.164062
2.880000 -6.880000 3.040000 97.182274 35.606049 10712.185547
2.880000 -6.880000 3.080000 52.196564 57.292892 6006.957031
2.880000 -6.880000 3.120000 17.825333 42.386559 2114.362793
2.880000 -6.880000 3.160000 13.847132 18.742956 543.041443
2.880000 -6.880000 3.200000 27.695402 14.069168 964.976807
2.880000 -6.840000 2.800000 -4.794181 17.427811 326.712738
2.880000 -6.840000 2.840000 -18.589254 -9.749262 440.608459
2.880000 -6.840000 2.880000 -2.393793 -39.896709 1597.477661
2.880000 -6.840000 2.920000 34.481873 -46.900925 3388.696289
2.880000 -6.840000 2.960000 65.582542 -23.479851 4852.373047
2.880000 -6.840000 3.000000 70.521645 13.649376 5159.607910
2.880000 -6.840000 3.040000 51.134270 40.094406 4222.274902
2.880000 -6.840000 3.080000 26.369820 44.980019 2718.569336
2.880000 -6.840000 3.120000 12.835009 37.117146 1542.419922
2.880000 -6.840000 3.160000 10.807108 32.309196 1160.677734
2.880000 -6.840000 3.200000 8.124811 36.392891 1390.455078
2.880000 -6.800000 2.800000 -18.014208 8.610742 398.656555
2.880000 -6.800000 2.840000 -18.253983 -9.998201 433.171906
2.880000 -6.800000 2.880000 -4.480669 -22.859104 542.615051
2.880000 -6.800000 2.920000 13.985831 -22.643112 708.313965
2.880000 -6.800000 2.960000 27.292385 -11.518089 877.540649
2.880000 -6.800000 3.000000 31.671104 3.548233 1015.648804
2.880000 -6.800000 3.040000 28.892517 17.409500 1137.868164
2.880000 -6.800000 3.080000 21.402210 28.714880 1282.598877
2.880000 -6.800000 3.120000 9.613787 36.923271 1455.752930
2.880000 -6.800000 3.160000 -6.200355 39.545399 1602.282959
2.880000 -6.800000 3.200000 -22.745434 33.453377 1636.483154
2.920000 -7.200000 2.800000 -35.483967 -67.792236 5854.898926
2.920000 -7.200000 2.840000 -11.075453 -68.763573 4851.094238
2.920000 -7.200000 2.880000 7.008064 -60.138325 3665.731201
2.920000 -7.200000 2.920000 17.966911 -48.513306 2676.350586
2.920000 -7.200000 2.960000 24.534641 -35.987228 1897.029175
2.920000 -7.200000 3.000000 26.431988 -21.401653 1156.680664
2.920000 -7.200000 3.040000 19.962452 -6.868851 445.680603
2.920000 -7.200000 3.080000 4.924747 -0.022259 24.253624
2.920000 -7.200000 3.120000 -10.125961 -7.166344 153.891571
2.920000 -7.200000 3.160000 -12.748899 -24.157677 746.127747
2.920000 -7.200000 3.200000 1.319428 -36.527252 1335.980957
2.920000 -7.160000 2.800000 18.003107 -69.665329 5177.370117
2.920000 -7.160000 2.840000 38.354382 -49.733528 3944.482422
2.920000 -7.160000 2.880000 43.431767 -24.114809 2467.842285
2.920000 -7.160000 2.920000 34.196800 -3.177814 1179.519653
2.920000 -7.160000 2.960000 17.455593 6.665154 349.122009
2.920000 -7.160000 3.000000 1.228134 4.813606 24.679119
2.920000 -7.160000 3.040000 -8.645727 -5.220482 102.002029
2.920000 -7.160000 3.080000 -9.314394 -18.117035 414.984894
2.920000 -7.160000 3.120000 -0.929022 -27.852701 776.636047
2.920000 -7.160000 3.160000 12.697459 -28.970778 1000.531433
2.920000 -7.160000 3.200000 24.186344 -19.381535 960.623169
2.920000 -7.120000 2.800000 54.745411 -33.582512 4124.845215
2.920000 -7.120000 2.840000 58.867340 3.426545 3477.104980
2.920000 -7.120000 2.880000 36.747066 36.846134 2707.984375
2.920000 -7.120000 2.920000 -3.366096 47.271362 2245.912354
2.920000 -7.120000 2.960000 -39.600239 27.237045 2310.035645
2.920000 -7.120000 3.000000 -50.928909 -11.279594 2720.983154
2.920000 -7.120000 3.040000 -32.523849 -44.391563 3028.411621
2.920000 -7.120000 3.080000 1.085052 -53.401131 2852.857910
2.920000 -7.120000 3.120000 27.674364 -37.323902 2158.944092
2.920000 -7.120000 3.160000 33.542007 -11.033205 1246.797852
2.920000 -7.120000 3.200000 20.977642 7.841911 501.557037
2.920000 -7.080000 2.800000 53.909470 12.960104 3074.195312
2.920000 -7.080000 2.840000 32.388573 56.061333 4191.892578
2.920000 -7.080000 2.880000 -22.176079 75.756592 6230.839355
2.920000 -7.080000 2.920000 -81.913765 48.336563 9046.288086
2.920000 -7.080000 2.960000 -106.400490 -17.809952 11638.258789
2.920000 -7.080000 3.000000 -75.860336 -82.861679 12620.847656
2.920000 -7.080000 3.040000 -10.062241 -105.340508 11197.871094
2.920000 -7.080000 3.080000 46.342690 -75.448364 7840.100586
2.920000 -7.080000 3.120000 59.825981 -21.531212 4042.740967
2.920000 -7.080000 3.160000 32.845314 15.708829 1325.582031
2.920000 -7.080000 3.200000 -3.655245 16.601919 288.984528
2.920000 -7.040000 2.800000 24.924866 39.273438 2163.651855
2.920000 -7.040000 2.840000 -23.831398 71.927765 5741.539062
2.920000 -7.040000 2.880000 -97.024933 55.000484 12438.890625
2.920000 -7.040000 2.920000 -142.561569 -21.311138 20777.964844
2.920000 -7.040000 2.960000 -117.197845 -116.049629 27202.851562
2.920000 -7.040000 3.000000 -28.652367 -165.516235 28216.583984
2.920000 -7.040000 3.040000 65.438126 -136.642792 22953.400391
2.920000 -7.040000 3.080000 104.287399 -55.899574 14000.624023
2.920000 -7.040000 3.120000 73.909653 14.354950 5668.701172
2.920000 -7.040000 3.160000 14.149468 29.749594 1085.245850
2.920000 -7.040000 3.200000 -21.365294 -2.641987 463.455872
2.920000 -7.000000 2.800000 -4.967785 36.738129 1374.368896
2.920000 -7.000000 2.840000 -70.910339 43.179749 6892.767090
2.920000 -7.000000 2.880000 -133.390289 -17.341925 18093.710938
2.920000 -7.000000 2.920000 -130.449005 -122.059448 31915.453125
2.920000 -7.000000 2.960000 -43.562111 -200.079529 41929.472656
2.920000 -7.000000 3.000000 77.179726 -191.173492 42504.015625
2.920000 -7.000000 3.040000 151.270493 -100.697266 33022.703125
2.920000 -7.000000 3.080000 136.170502 3.379055 18553.824219
2.920000 -7.000000 3.120000 61.458542 49.927925 6269.950195
2.920000 -7.000000 3.160000 -2.630632 24.051172 585.379089
2.920000 -7.000000 3.200000 -9.671696 -28.433954 902.031433
2.920000 -6.960000 2.800000 -17.110451 20.855488 727.718872
2.920000 -6.960000 2.840000 -80.892166 -4.900967 6567.562012
2.920000 -6.960000 2.880000 -105.707184 -91.718452 19586.283203
2.920000 -6.960000 2.920000 -46.676239 -183.405960 35816.417969
2.920000 -6.960000 2.960000 72.976028 -204.859116 47292.757812
2.920000 -6.960000 3.000000 174.172150 -130.630127 47400.167969
2.920000 -6.960000 3.040000 189.045624 -11.482998 35870.105469
2.920000 -6.960000 3.080000 119.838249 69.088623 19134.443359
2.920000 -6.960000 3.120000 33.235485 67.481117 5658.298828
2.920000 -6.960000 3.160000 -2.804888 12.609970 166.878754
2.920000 -6.960000 3.200000 22.674871 -29.477596 1383.078491
2.920000 -6.920000 2.800000 -15.033325 11.009388 347.207489
2.920000 -6.920000 2.840000 -57.614555 -38.140369 4774.125000
2.920000 -6.920000 2.880000 -38.774300 -119.678955 15826.499023
2.920000 -6.920000 2.920000 50.270607 -165.480591 29910.960938
2.920000 -6.920000 2.960000 154.087708 -126.959137 39861.644531
2.920000 -6.920000 3.000000 198.325317 -22.827011 39854.003906
2.920000 -6.920000 3.040000 155.609436 74.818871 29812.160156
2.920000 -6.920000 3.080000 68.392487 104.150574 15524.874023
2.920000 -6.920000 3.120000 7.351877 65.694290 4369.790039
2.920000 -6.920000 3.160000 7.298418 14.163853 253.881622
2.920000 -6.920000 3.200000 42.466351 2.028152 1807.504272
2.920000 -6.880000 2.800000 -13.891745 10.913153 312.077484
2.920000 -6.880000 2.840000 -27.609217 -42.394318 2559.547119
2.920000 -6.880000 2.880000 16.753059 -94.105865 9136.579102
2.920000 -6.880000 2.920000 96.381432 -92.462242 17838.646484
2.920000 -6.880000 2.960000 152.992783 -27.112503 24141.878906
2.920000 -6.880000 3.000000 144.426544 59.056984 24346.753906
2.920000 -6.880000 3.040000 81.871948 108.003647 18367.804688
2.920000 -6.880000 3.080000 16.944286 97.527000 9798.624023
2.920000 -6.880000 3.120000 -7.215068 56.228558 3213.707764
2.920000 -6.880000 3.160000 7.818855 30.635088 999.643127
2.920000 -6.880000 3.200000 25.338770 39.986370 2240.963135
2.920000 -6.840000 2.800000 -20.275864 9.506728 501.488525
2.920000 -6.840000 2.840000 -12.739946 -30.043184 1064.899170
2.920000 -6.840000 2.880000 29.836243 -49.296585 3320.354736
2.920000 -6.840000 2.920000 76.549110 -26.235825 6548.084473
2.920000 -6.840000 2.960000 91.677505 25.965015 9078.946289
2.920000 -6.840000 3.000000 66.049759 71.477890 9471.660156
2.920000 -6.840000 3.040000 22.492989 84.266075 7606.706055
2.920000 -6.840000 3.080000 -8.114063 68.546738 4764.493164
2.920000 -6.840000 3.120000 -14.867424 49.085171 2630.394287
2.920000 -6.840000 3.160000 -11.868057 44.049850 2081.239990
2.920000 -6.840000 3.200000 -18.445648 48.924084 2733.807861
2.920000 -6.800000 2.800000 -25.380592 -1.655430 646.914917
2.920000 -6.800000 2.840000 -12.859587 -21.237312 616.392395
2.920000 -6.800000 2.880000 11.098959 -24.129707 705.429688
2.920000 -6.800000 2.920000 29.763340 -8.644981 960.592102
2.920000 -6.800000 2.960000 33.030907 14.253296 1294.197266
2.920000 -6.800000 3.000000 23.057068 32.429413 1583.295166
2.920000 -6.800000 3.040000 7.969391 41.728622 1804.789185
2.920000 -6.800000 3.080000 -7.321856 44.761620 2057.212158
2.920000 -6.800000 3.120000 -23.202614 43.510803 2431.551270
2.920000 -6.800000 3.160000 -39.883430 35.695747 2864.874512
2.920000 -6.800000 3.200000 -52.728607 18.831316 3134.924316
2.960000 -7.200000 2.800000 0.177689 -78.840523 6215.859863
2.960000 -7.200000 2.840000 25.878157 -67.903015 5280.498535
2.960000 -7.200000 2.880000 39.718452 -47.797997 3862.203857
2.960000 -7.200000 2.920000 41.459732 -27.747866 2488.853516
2.960000 -7.200000 2.960000 35.516567 -12.402309 1415.243774
2.960000 -7.200000 3.000000 25.101604 -2.551319 636.599792
2.960000 -7.200000 3.040000 11.804190 0.347408 139.459595
2.960000 -7.200000 3.080000 -0.113409 -6.237108 38.914383
2.960000 -7.200000 3.120000 -2.728741 -20.420673 424.449921
2.960000 -7.200000 3.160000 8.905745 -32.231419 1118.176636
2.960000 -7.200000 3.200000 28.682753 -29.299780 1681.177490
2.960000 -7.160000 2.800000 50.645561 -54.250595 5508.099609
2.960000 -7.160000 2.840000 62.735283 -23.605106 4492.916992
2.960000 -7.160000 2.880000 53.420677 7.337723 2907.611084
2.960000 -7.160000 2.920000 28.458733 24.030132 1387.346680
2.960000 -7.160000 2.960000 1.877872 20.820259 437.009583
2.960000 -7.160000 3.000000 -13.512571 3.272682 193.300034
2.960000 -7.160000 3.040000 -12.911442 -17.161980 461.238861
2.960000 -7.160000 3.080000 0.241692 -30.248856 915.051697
2.960000 -7.160000 3.120000 18.043594 -30.787029 1273.412476
2.960000 -7.160000 3.160000 31.760384 -19.041407 1371.297119
2.960000 -7.160000 3.200000 34.306038 -0.254402 1176.968994
2.960000 -7.120000 2.800000 67.362053 -1.512749 4539.934570
2.960000 -7.120000 2.840000 53.312553 39.617004 4411.735352
2.960000 -7.120000 2.880000 10.465172 62.765602 4049.040527
2.960000 -7.120000 2.920000 -39.292515 48.955750 3940.567383
2.960000 -7.120000 2.960000 -65.245628 3.577148 4269.788086
2.960000 -7.120000 3.000000 -51.602711 -45.361641 4720.518555
2.960000 -7.120000 3.040000 -9.825462 -68.142006 4739.872559
2.960000 -7.120000 3.080000 31.197569 -55.136162 4013.284668
2.960000 -7.120000 3.120000 47.669319 -21.278149 2725.123535
2.960000 -7.120000 3.160000 36.389622 8.609430 1398.326904
2.960000 -7.120000 3.200000 12.051744 18.834122 499.968689
2.960000 -7.080000 2.800000 42.511078 43.818420 3727.245605
2.960000 -7.080000 2.840000 -3.490367 77.325638 5991.437012
2.960000 -7.080000 2.880000 -72.151680 65.835022 9540.115234
2.960000 -7.080000 2.920000 -117.586380 0.905342 13827.375977
2.960000 -7.080000 2.960000 -102.051834 -82.399094 17204.187500
2.960000 -7.080000 3.000000 -30.916557 -129.813934 17807.492188
2.960000 -7.080000 3.040000 48.628212 -112.119858 14935.565430
2.960000 -7.080000 3.080000 85.735916 -48.755371 9727.733398
2.960000 -7.080000 3.120000 66.173546 10.729153 4494.052734
2.960000 -7.080000 3.160000 18.765509 28.919466 1188.479858
2.960000 -7.080000 3.200000 -14.600597 7.348711 267.181000
2.960000 -7.040000 2.800000 -1.431639 55.598377 3093.229004
2.960000 -7.040000 2.840000 -71.105957 60.566544 8724.363281
2.960000 -7.040000 2.880000 -135.825867 -1.291489 18450.333984
2.960000 -7.040000 2.920000 -135.328400 -106.703598 29699.433594
2.960000 -7.040000 2.960000 -52.005997 -186.377487 37441.191406
2.960000 -7.040000 3.000000 65.631271 -181.753357 37341.746094
2.960000 -7.040000 3.040000 139.862167 -97.242363 29017.503906
2.960000 -7.040000 3.080000 128.805756 2.721407 16598.328125
2.960000 -7.040000 3.120000 58.908985 49.757092 5946.036621
2.960000 -7.040000 3.160000 -4.010538 27.571461 776.269836
2.960000 -7.040000 3.200000 -14.688211 -22.935040 741.759644
2.960000 -7.000000 2.800000 -33.204273 36.301521 2420.324219
2.960000 -7.000000 2.840000 -103.936676 1.358065 10804.677734
2.960000 -7.000000 2.880000 -128.872665 -98.715050 26352.824219
2.960000 -7.000000 2.920000 -60.880692 -201.481171 44301.121094
2.960000 -7.000000 2.960000 72.941910 -225.237701 56052.546875
2.960000 -7.000000 3.000000 185.341064 -143.212967 54861.261719
2.960000 -7.000000 3.040000 202.059387 -11.823809 40967.796875
2.960000 -7.000000 3.080000 125.697739 77.005569 21729.779297
2.960000 -7.000000 3.120000 29.450363 74.915894 6479.714844
2.960000 -7.000000 3.160000 -11.538555 12.819099 297.467590
2.960000 -7.000000 3.200000 16.281557 -37.060417 1638.563599
2.960000 -6.960000 2.800000 -39.065819 9.518774 1616.745239
2.960000 -6.960000 2.840000 -84.959930 -57.652302 10541.977539
2.960000 -6.960000 2.880000 -53.651424 -159.458740 28305.564453
2.960000 -6.960000 2.920000 62.471783 -212.519073 49067.078125
2.960000 -6.960000 2.960000 192.857361 -159.009613 62478.015625
2.960000 -6.960000 3.000000 245.114304 -24.976046 60704.828125
2.960000 -6.960000 3.040000 186.762482 97.694977 44424.531250
2.960000 -6.960000 3.080000 73.261734 131.189270 22577.906250
2.960000 -6.960000 3.120000 -4.689764 77.154114 5974.750977
2.960000 -6.960000 3.160000 -2.244783 6.340021 45.234921
2.960000 -6.960000 3.200000 47.882652 -12.884121 2458.748779
2.960000 -6.920000 2.800000 -29.450459 -4.568268 888.198608
2.960000 -6.920000 2.840000 -37.231678 -80.108864 7803.627930
2.960000 -6.920000 2.880000 34.608780 -146.934845 22787.617188
2.960000 -6.920000 2.920000 150.833008 -134.177002 40754.062500
2.960000 -6.920000 2.960000 227.110626 -30.925941 52535.652344
2.960000 -6.920000 3.000000 204.388580 97.052490 51193.875000
2.960000 -6.920000 3.040000 103.070580 163.388733 37319.421875
2.960000 -6.920000 3.080000 3.399876 136.907944 18755.343750
2.960000 -6.920000 3.120000 -28.345839 64.026894 4902.929688
2.960000 -6.920000 3.160000 4.614132 18.803902 374.876953
2.960000 -6.920000 3.200000 43.531063 33.088005 2989.769531
2.960000 -6.880000 2.800000 -22.526442 -5.568357 538.447205
2.960000 -6.880000 2.840000 0.465088 -64.403564 4148.035645
2.960000 -6.880000 2.880000 77.182678 -84.158554 13039.828125
2.960000 -6.880000 2.920000 152.701675 -30.178677 24228.552734
2.960000 -6.880000 2.960000 164.646362 69.649567 31959.486328
2.960000 -6.880000 3.000000 100.711647 146.784790 31688.611328
2.960000 -6.880000 3.040000 9.751675 153.143051 23547.890625
2.960000 -6.880000 3.080000 -44.375206 101.773270 12326.958008
2.960000 -6.880000 3.120000 -39.863129 48.628586 3953.808105
2.960000 -6.880000 3.160000 -9.653690 36.596512 1432.498413
2.960000 -6.880000 3.200000 -1.538374 58.636391 3440.593018
2.960000 -6.840000 2.800000 -24.132362 -6.657406 626.691956
2.960000 -6.840000 2.840000 8.619783 -37.972855 1516.238403
2.960000 -6.840000 2.880000 61.292656 -27.583313 4517.628906
2.960000 -6.840000 2.920000 89.996773 25.757248 8762.854492
2.960000 -6.840000 2.960000 68.961227 85.782700 12114.322266
2.960000 -6.840000 3.000000 13.437126 111.664734 12649.569336
2.960000 -6.840000 3.040000 -36.627193 93.877983 10154.626953
2.960000 -6.840000 3.080000 -54.311111 58.100460 6325.360352
2.960000 -6.840000 3.120000 -46.765820 36.078472 3488.698242
2.960000 -6.840000 3.160000 -40.966949 35.128166 2912.278809
2.960000 -6.840000 3.200000 -52.470108 36.413513 4079.056152
2.960000 -6.800000 2.800000 -24.853975 -15.704005 864.335876
2.960000 -6.800000 2.840000 -1.254169 -26.552132 706.588623
2.960000 -6.800000 2.880000 22.896061 -13.760025 713.567871
2.960000 -6.800000 2.920000 29.369518 13.403603 1042.225098
2.960000 -6.800000 2.960000 15.521896 36.561222 1577.652100
2.960000 -6.800000 3.000000 -7.172768 44.863873 2064.215576
2.960000 -6.800000 3.040000 -26.773998 40.944725 2393.317383
2.960000 -6.800000 3.080000 -40.811600 32.601891 2728.469971
2.960000 -6.800000 3.120000 -53.116150 22.067734 3308.310303
2.960000 -6.800000 3.160000 -63.929874 5.458466 4116.823730
2.960000 -6.800000 3.200000 -66.592896 -18.523302 4777.726562
3.000000 -7.200000 2.800000 39.326492 -63.135262 5532.634277
3.000000 -7.200000 2.840000 57.221947 -39.143604 4806.572754
3.000000 -7.200000 2.880000 56.984924 -12.107830 3393.881104
3.000000 -7.200000 2.920000 43.487106 6.089149 1928.206177
3.000000 -7.200000 2.960000 26.527697 11.976509 847.155457
3.000000 -7.200000 3.000000 12.816823 8.715851 240.237000
3.000000 -7.200000 3.040000 4.677769 0.079483 21.887836
3.000000 -7.200000 3.080000 3.851292 -11.331408 143.233246
3.000000 -7.200000 3.120000 12.430353 -20.780758 586.353577
3.000000 -7.200000 3.160000 28.148941 -20.326515 1205.530029
3.000000 -7.200000 3.200000 40.760696 -5.065776 1687.096436
3.000000 -7.160000 2.800000 68.456055 -18.869045 5042.272461
3.000000 -7.160000 2.840000 64.875778 16.361105 4476.552246
3.000000 -7.160000 2.880000 38.293060 40.620445 3116.379150
3.000000 -7.160000 2.920000 3.839245 40.514252 1656.144287
3.000000 -7.160000 2.960000 -19.011389 18.864529 717.303345
3.000000 -7.160000 3.000000 -20.297287 -8.995567 492.900085
3.000000 -7.160000 3.040000 -4.075539 -27.325638 763.300537
3.000000 -7.160000 3.080000 17.659073 -29.163212 1162.335815
3.000000 -7.160000 3.120000 33.670837 -16.880333 1418.671021
3.000000 -7.160000 3.160000 37.687851 2.321282 1425.762451
3.000000 -7.160000 3.200000 28.345816 19.955647 1201.713135
3.000000 -7.120000 2.800000 56.487911 33.096779 4286.280762
3.000000 -7.120000 2.840000 23.664457 64.883118 4769.825195
3.000000 -7.120000 2.880000 -28.476460 63.883175 4891.968750
3.000000 -7.120000 2.920000 -66.977905 23.395424 5033.385254
3.000000 -7.120000 2.960000 -65.027054 -33.310963 5338.137695
3.000000 -7.120000 3.000000 -24.376999 -70.279350 5533.425293
3.000000 -7.120000 3.040000 26.454636 -66.994698 5188.137207
3.000000 -7.120000 3.080000 55.646244 -32.299110 4139.736816
3.000000 -7.120000 3.120000 51.341599 6.343153 2676.195312
3.000000 -7.120000 3.160000 25.629940 25.821613 1323.649536
3.000000 -7.120000 3.200000 -0.117676 21.726587 472.058441
3.000000 -7.080000 2.800000 12.618345 59.287792 3674.264893
3.000000 -7.080000 2.840000 -45.595997 67.114990 6583.416992
3.000000 -7.080000 2.880000 -101.405823 21.093784 10728.087891
3.000000 -7.080000 2.920000 -107.373840 -61.126114 15265.542969
3.000000 -7.080000 2.960000 -48.805210 -126.587425 18406.324219
3.000000 -7.080000 3.000000 39.074802 -129.969467 18418.902344
3.000000 -7.080000 3.040000 98.563652 -72.189957 14926.183594
3.000000 -7.080000 3.080000 96.748230 1.503761 9362.481445
3.000000 -7.080000 3.120000 49.241631 41.105247 4114.379883
3.000000 -7.080000 3.160000 0.946981 31.406557 987.268616
3.000000 -7.080000 3.200000 -14.543453 -3.145490 221.406128
3.000000 -7.040000 2.800000 -32.046799 47.028671 3238.693115
3.000000 -7.040000 2.840000 -96.013603 15.729443 9466.027344
3.000000 -7.040000 2.880000 -120.106628 -72.450661 19674.701172
3.000000 -7.040000 2.920000 -63.673325 -163.865234 30906.107422
3.000000 -7.040000 2.960000 50.653988 -188.367584 38048.175781
3.000000 -7.040000 3.000000 148.937164 -122.074211 37084.390625
3.000000 -7.040000 3.040000 167.314194 -11.366890 28123.246094
3.000000 -7.040000 3.080000 105.733055 66.426559 15591.966797
3.000000 -7.040000 3.120000 23.741991 68.633286 5274.209961
3.000000 -7.040000 3.160000 -15.264246 17.824213 550.699768
3.000000 -7.040000 3.200000 3.378258 -27.642618 775.526917
3.000000 -7.000000 2.800000 -50.668457 12.485880 2723.189697
3.000000 -7.000000 2.840000 -92.776299 -55.114178 11645.013672
3.000000 -7.000000 2.880000 -60.490257 -154.185806 27432.335938
3.000000 -7.000000 2.920000 52.661461 -205.476440 44993.796875
3.000000 -7.000000 2.960000 179.084717 -154.145966 55832.312500
3.000000 -7.000000 3.000000 230.373703 -25.097485 53701.925781
3.000000 -7.000000 3.040000 174.848816 93.764366 39363.867188
3.000000 -7.000000 3.080000 64.833099 127.070816 20350.322266
3.000000 -7.000000 3.120000 -12.516125 74.675049 5733.016113
3.000000 -7.000000 3.160000 -12.161683 3.248409 158.458710
3.000000 -7.000000 3.200000 37.224850 -20.515188 1806.562378
3.000000 -6.960000 2.800000 -41.075985 -16.309168 1953.225586
3.000000 -6.960000 2.840000 -42.740051 -97.622139 11356.793945
3.000000 -6.960000 2.880000 39.204990 -166.180710 29153.060547
3.000000 -6.960000 2.920000 165.859741 -147.726151 49332.468750
3.000000 -6.960000 2.960000 246.523285 -32.203850 61810.820312
3.000000 -6.960000 3.000000 218.136276 108.154724 59280.878906
3.000000 -6.960000 3.040000 103.873360 178.962494 42817.250000
3.000000 -6.960000 3.080000 -7.535303 145.974487 21365.332031
3.000000 -6.960000 3.120000 -41.950455 60.445038 5413.443359
3.000000 -6.960000 3.160000 -1.536104 5.481655 32.408157
3.000000 -6.960000 3.200000 48.737488 19.019590 2737.087646
3.000000 -6.920000 2.800000 -22.431797 -24.440268 1100.512207
3.000000 -6.920000 2.840000 13.211296 -90.587273 8380.591797
3.000000 -6.920000 2.880000 109.842743 -106.072441 23316.789062
3.000000 -6.920000 2.920000 199.612167 -31.198845 40818.382812
3.000000 -6.920000 2.960000 206.417542 96.910606 51999.867188
3.000000 -6.920000 3.000000 117.361633 191.055084 50275.800781
3.000000 -6.920000 3.040000 -2.869926 190.780365 36405.386719
3.000000 -6.920000 3.080000 -70.441528 114.795502 18140.015625
3.000000 -6.920000 3.120000 -56.484055 38.496861 4672.457031
3.000000 -6.920000 3.160000 -5.333164 21.136917 475.211884
3.000000 -6.920000 3.200000 16.527184 55.532440 3356.999512
3.000000 -6.880000 2.800000 -13.601325 -19.468273 564.009705
3.000000 -6.880000 2.840000 37.740330 -53.993973 4339.681641
3.000000 -6.880000 2.880000 111.603661 -27.025379 13185.748047
3.000000 -6.880000 2.920000 143.538910 60.070908 24211.931641
3.000000 -6.880000 2.960000 97.219833 149.565323 31821.480469
3.000000 -6.880000 3.000000 0.768333 177.628632 31552.521484
3.000000 -6.880000 3.040000 -78.113869 131.866364 23490.515625
3.000000 -6.880000 3.080000 -93.869507 59.424213 12342.721680
3.000000 -6.880000 3.120000 -60.601696 19.144871 4039.091797
3.000000 -6.880000 3.160000 -30.456528 27.275034 1671.527588
3.000000 -6.880000 3.200000 -38.724144 49.799950 3979.594238
3.000000 -6.840000 2.800000 -15.735888 -18.201061 578.896790
3.000000 -6.840000 2.840000 27.838875 -25.355818 1417.920410
3.000000 -6.840000 2.880000 64.757690 12.874035 4359.299316
3.000000 -6.840000 2.920000 57.538910 73.119995 8657.259766
3.000000 -6.840000 2.960000 5.179199 110.310959 12195.332031
3.000000 -6.840000 3.000000 -55.908680 99.044556 12935.604492
3.000000 -6.840000 3.040000 -86.677681 54.874313 10524.210938
3.000000 -6.840000 3.080000 -80.079529 15.381950 6649.335449
3.000000 -6.840000 3.120000 -61.538452 2.554280 3793.505615
3.000000 -6.840000 3.160000 -58.054321 5.465017 3400.170654
3.000000 -6.840000 3.200000 -70.394417 -1.709942 4958.297852
3.000000 -6.800000 2.800000 -15.607033 -26.733955 958.283813
3.000000 -6.800000 2.840000 10.187542 -23.286293 646.037476
3.000000 -6.800000 2.880000 22.974174 0.964256 528.742493
3.000000 -6.800000 2.920000 11.972893 26.988911 871.751465
3.000000 -6.800000 2.960000 -13.742134 36.854866 1547.127441
3.000000 -6.800000 3.000000 -36.939400 28.592934 2182.075195
3.000000 -6.800000 3.040000 -49.145309 12.995483 2584.144043
3.000000 -6.800000 3.080000 -54.554951 -1.248867 2977.802246
3.000000 -6.800000 3.120000 -59.191887 -15.900681 3756.510986
3.000000 -6.800000 3.160000 -60.327271 -36.499519 4971.594727
3.000000 -6.800000 3.200000 -49.286438 -60.584221 6099.600586
3.040000 -7.200000 2.800000 58.694473 -23.692554 4006.378418
3.040000 -7.200000 2.840000 60.360737 5.708730 3676.008057
3.040000 -7.200000 2.880000 43.400005 27.176052 2622.098145
3.040000 -7.200000 2.920000 20.286997 31.531590 1405.803467
3.040000 -7.200000 2.960000 3.876256 22.250866 510.126404
3.040000 -7.200000 3.000000 -1.486126 8.857800 80.669182
3.040000 -7.200000 3.040000 1.372990 -2.006771 5.912230
3.040000 -7.200000 3.080000 9.047764 -8.369204 151.905609
3.040000 -7.200000 3.120000 19.831848 -8.623375 467.664795
3.040000 -7.200000 3.160000 29.911160 0.123199 894.692688
3.040000 -7.200000 3.200000 31.263622 17.109095 1270.135254
3.040000 -7.160000 2.800000 58.587212 20.509832 3853.114746
3.040000 -7.160000 2.840000 38.627571 48.826893 3876.154785
3.040000 -7.160000 2.880000 3.194294 55.124256 3048.887207
3.040000 -7.160000 2.920000 -25.695650 35.191475 1898.706299
3.040000 -7.160000 2.960000 -31.704744 3.285366 1015.984436
3.040000 -7.160000 3.000000 -15.569214 -20.592892 666.467651
3.040000 -7.160000 3.040000 8.846996 -25.611010 734.193176
3.040000 -7.160000 3.080000 27.122383 -14.370642 942.139038
3.040000 -7.160000 3.120000 32.726524 3.669958 1084.494019
3.040000 -7.160000 3.160000 26.311457 19.966227 1090.942871
3.040000 -7.160000 3.200000 11.439896 28.954010 969.205933
3.040000 -7.120000 2.800000 26.009060 51.957207 3376.022461
3.040000 -7.120000 2.840000 -15.168116 64.006958 4326.962402
3.040000 -7.120000 2.880000 -57.514786 38.602585 4798.110352
3.040000 -7.120000 2.920000 -69.029419 -13.227024 4940.014648
3.040000 -7.120000 2.960000 -39.237064 -58.024914 4906.437988
3.040000 -7.120000 3.000000 11.595711 -67.307289 4664.731445
3.040000 -7.120000 3.040000 49.944405 -39.742233 4073.888672
3.040000 -7.120000 3.080000 55.768150 1.054619 3111.198975
3.040000 -7.120000 3.120000 34.505444 28.164865 1983.885254
3.040000 -7.120000 3.160000 6.909564 30.988836 1008.050049
3.040000 -7.120000 3.200000 -9.842337 17.211834 393.118805
3.040000 -7.080000 2.800000 -18.100885 50.503838 2878.279785
3.040000 -7.080000 2.840000 -67.663666 31.826767 5591.314453
3.040000 -7.080000 2.880000 -90.708702 -29.412453 9093.161133
3.040000 -7.080000 2.920000 -57.384895 -96.114639 12531.049805
3.040000 -7.080000 2.960000 18.319832 -119.285286 14564.595703
3.040000 -7.080000 3.000000 87.052498 -80.832756 14112.072266
3.040000 -7.080000 3.040000 105.160675 -9.502651 11149.068359
3.040000 -7.080000 3.080000 69.853989 44.652420 6873.417969
3.040000 -7.080000 3.120000 16.944197 52.131397 3004.788330
3.040000 -7.080000 3.160000 -13.460908 23.527277 734.728821
3.040000 -7.080000 3.200000 -9.058619 -7.462641 137.749588
3.040000 -7.040000 2.800000 -45.325634 20.268160 2465.211426
3.040000 -7.040000 2.840000 -80.390984 -31.306484 7442.806641
3.040000 -7.040000 2.880000 -58.947472 -108.724518 15295.825195
3.040000 -7.040000 2.920000 25.240654 -151.634216 23630.025391
3.040000 -7.040000 2.960000 122.035355 -117.321037 28656.853516
3.040000 -7.040000 3.000000 164.550751 -22.649296 27589.939453
3.040000 -7.040000 3.040000 127.082550 67.651886 20726.751953
3.040000 -7.040000 3.080000 46.168343 96.372971 11419.264648
3.040000 -7.040000 3.120000 -14.315983 60.430809 3856.829834
3.040000 -7.040000 3.160000 -18.959486 6.315875 399.352386
3.040000 -7.040000 3.200000 15.039182 -16.887053 511.349548
3.040000 -7.000000 2.800000 -42.492859 -14.660948 2020.586426
3.040000 -7.000000 2.840000 -43.274551 -83.003891 8762.333008
3.040000 -7.000000 2.880000 25.554617 -140.955704 20521.548828
3.040000 -7.000000 2.920000 132.186646 -126.433258 33458.679688
3.040000 -7.000000 2.960000 201.059875 -30.232357 41339.070312
3.040000 -7.000000 3.000000 178.642792 87.999847 39657.218750
3.040000 -7.000000 3.040000 82.900322 148.903229 29044.634766
3.040000 -7.000000 3.080000 -12.461875 121.995392 15038.173828
3.040000 -7.000000 3.120000 -43.897766 48.318634 4261.704102
3.040000 -7.000000 3.160000 -10.340641 -2.392319 112.652046
3.040000 -7.000000 3.200000 35.651947 4.443479 1290.805786
3.040000 -6.960000 2.800000 -20.671593 -31.469746 1417.659668
3.040000 -6.960000 2.840000 15.225693 -90.120468 8353.520508
3.040000 -6.960000 2.880000 105.801498 -101.244843 21444.476562
3.040000 -6.960000 2.920000 188.411407 -28.655996 36320.027344
3.040000 -6.960000 2.960000 192.370270 92.756241 45610.039062
3.040000 -6.960000 3.000000 105.671432 180.946838 43908.210938
3.040000 -6.960000 3.040000 -10.407087 178.286667 31894.441406
3.040000 -6.960000 3.080000 -75.291870 101.943878 16061.419922
3.040000 -6.960000 3.120000 -59.666100 24.332443 4152.111328
3.040000 -6.960000 3.160000 -4.903061 4.560158 44.835045
3.040000 -6.960000 3.200000 23.678537 38.716919 2059.672852
3.040000 -6.920000 2.800000 -2.381311 -27.236576 747.501709
3.040000 -6.920000 2.840000 53.087036 -56.719780 6035.367188
3.040000 -6.920000 2.880000 128.463486 -21.947784 16984.572266
3.040000 -6.920000 2.920000 156.511353 74.116234 29989.019531
3.040000 -6.920000 2.960000 99.888725 168.991638 38535.929688
3.040000 -6.920000 3.000000 -9.363331 193.739563 37622.691406
3.040000 -6.920000 3.040000 -95.734467 135.676636 27573.238281
3.040000 -6.920000 3.080000 -107.794205 48.623398 13983.826172
3.040000 -6.920000 3.120000 -61.292816 0.901144 3757.621338
3.040000 -6.920000 3.160000 -17.145792 13.507362 476.427002
3.040000 -6.920000 3.200000 -19.729738 48.402218 2732.037109
3.040000 -6.880000 2.800000 0.221253 -17.759087 315.434113
3.040000 -6.880000 2.840000 51.610733 -17.507978 2970.197021
3.040000 -6.880000 2.880000 90.036552 36.744442 9456.734375
3.040000 -6.880000 2.920000 69.952438 113.593300 17796.781250
3.040000 -6.880000 2.960000 -7.030006 154.232422 23837.062500
3.040000 -6.880000 3.000000 -89.744781 126.494507 24054.986328
3.040000 -6.880000 3.040000 -123.540199 54.731594 18257.728516
3.040000 -6.880000 3.080000 -99.178406 -4.691013 9858.362305
3.040000 -6.880000 3.120000 -56.281700 -16.791019 3449.568115
3.040000 -6.880000 3.160000 -40.328281 3.449581 1638.269897
3.040000 -6.880000 3.200000 -58.855473 13.471853 3645.457275
3.040000 -6.840000 2.800000 -5.137115 -18.846943 381.597198
3.040000 -6.840000 2.840000 28.505705 -3.536148 825.079529
3.040000 -6.840000 2.880000 35.547749 41.023155 2946.541748
3.040000 -6.840000 2.920000 0.180977 79.506592 6321.331055
3.040000 -6.840000 2.960000 -55.774021 78.791893 9318.904297
3.040000 -6.840000 3.000000 -93.129654 39.162724 10206.851562
3.040000 -6.840000 3.040000 -92.035797 -7.946083 8533.728516
3.040000 -6.840000 3.080000 -67.459747 -32.144897 5584.111816
3.040000 -6.840000 3.120000 -49.252464 -31.878597 3442.050049
3.040000 -6.840000 3.160000 -50.024921 -30.044712 3405.177490
3.040000 -6.840000 3.200000 -55.091473 -45.157597 5074.278809
3.040000 -6.800000 2.800000 -2.234473 -29.685398 886.215698
3.040000 -6.800000 2.840000 15.569286 -14.774675 460.693726
3.040000 -6.800000 2.880000 12.625736 9.178952 243.662384
3.040000 -6.800000 2.920000 -9.004333 21.531067 544.664856
3.040000 -6.800000 2.960000 -32.158745 13.850342 1226.016846
3.040000 -6.800000 3.000000 -42.893219 -4.920631 1864.040894
3.040000 -6.800000 3.040000 -42.179916 -21.575371 2244.642090
3.040000 -6.800000 3.080000 -39.339241 -33.296097 2656.206055
3.040000 -6.800000 3.120000 -37.248100 -47.035866 3599.793457
3.040000 -6.800000 3.160000 -28.093336 -66.095795 5157.889648
3.040000 -6.800000 3.200000 -4.582420 -81.616821 6682.304199
3.080000 -7.200000 2.800000 45.014427 16.567965 2300.796143
3.080000 -7.200000 2.840000 30.939098 38.569744 2444.853027
3.080000 -7.200000 2.880000 6.357671 43.886292 1966.426514
3.080000 -7.200000 2.920000 -12.667143 31.944202 1180.888550
3.080000 -7.200000 2.960000 -17.337029 13.947527 495.106079
3.080000 -7.200000 3.000000 -10.826645 1.210868 118.682442
3.080000 -7.200000 3.040000 -1.319569 -3.207903 12.031902
3.080000 -7.200000 3.080000 6.672997 -2.267996 49.672688
3.080000 -7.200000 3.120000 13.003644 2.122427 173.599457
3.080000 -7.200000 3.160000 16.336714 10.824242 384.052429
3.080000 -7.200000 3.200000 12.010505 22.167793 635.663330
3.080000 -7.160000 2.800000 25.616697 41.229065 2356.051025
3.080000 -7.160000 2.840000 -1.819963 53.609924 2877.336182
3.080000 -7.160000 2.880000 -31.172813 41.188053 2668.199951
3.080000 -7.160000 2.920000 -42.441483 11.725742 1938.772461
3.080000 -7.160000 2.960000 -30.290323 -14.955938 1141.183716
3.080000 -7.160000 3.000000 -6.224407 -24.068623 618.041809
3.080000 -7.160000 3.040000 13.558130 -15.624691 427.953857
3.080000 -7.160000 3.080000 20.861843 0.187902 435.251801
3.080000 -7.160000 3.120000 17.401966 13.897994 495.982666
3.080000 -7.160000 3.160000 8.144282 21.907230 546.256104
3.080000 -7.160000 3.200000 -3.731827 23.490797 565.744080
3.080000 -7.120000 2.800000 -6.568992 45.334518 2098.370117
3.080000 -7.120000 2.840000 -41.111816 38.567951 3177.668213
3.080000 -7.120000 2.880000 -61.205029 3.183027 3756.187012
3.080000 -7.120000 2.920000 -47.679619 -38.435299 3750.618164
3.080000 -7.120000 2.960000 -7.838768 -57.272308 3341.563477
3.080000 -7.120000 3.000000 31.153625 -42.346123 2763.742432
3.080000 -7.120000 3.040000 45.720924 -7.958088 2153.733887
3.080000 -7.120000 3.080000 33.325935 21.120077 1556.675537
3.080000 -7.120000 3.120000 9.635907 30.239983 1007.307251
3.080000 -7.120000 3.160000 -8.084605 22.308203 563.016724
3.080000 -7.120000 3.200000 -13.567881 9.144247 267.704651
3.080000 -7.080000 2.800000 -31.718338 25.900478 1676.887695
3.080000 -7.080000 2.840000 -59.253849 -4.091006 3527.754883
3.080000 -7.080000 2.880000 -52.126396 -53.982929 5631.317871
3.080000 -7.080000 2.920000 -4.293682 -85.773659 7375.556152
3.080000 -7.080000 2.960000 54.816978 -71.590828 8130.147461
3.080000 -7.080000 3.000000 84.704895 -19.444063 7552.991211
3.080000 -7.080000 3.040000 68.413391 33.782280 5821.634766
3.080000 -7.080000 3.080000 24.790377 54.535835 3588.719971
3.080000 -7.080000 3.120000 -11.214062 38.881023 1637.489136
3.080000 -7.080000 3.160000 -19.033768 10.023855 462.761963
3.080000 -7.080000 3.200000 -5.197915 -6.475599 68.951706
3.080000 -7.040000 2.800000 -35.040840 -3.217359 1238.211914
3.080000 -7.040000 2.840000 -40.075851 -48.341583 3942.982422
3.080000 -7.040000 2.880000 1.654329 -89.958023 8095.182617
3.080000 -7.040000 2.920000 71.222641 -85.618912 12403.262695
3.080000 -7.040000 2.960000 119.332260 -26.794773 14958.148438
3.080000 -7.040000 3.000000 109.353111 49.460159 14404.410156
3.080000 -7.040000 3.040000 50.372803 91.547203 10918.309570
3.080000 -7.040000 3.080000 -11.644382 77.660355 6166.722656
3.080000 -7.040000 3.120000 -35.195152 31.437798 2227.033936
3.080000 -7.040000 3.160000 -16.865726 -3.763700 298.618164
3.080000 -7.040000 3.200000 12.705526 -4.448504 181.219589
3.080000 -7.000000 2.800000 -18.689457 -22.257938 844.711670
3.080000 -7.000000 2.840000 4.454047 -64.110260 4129.963867
3.080000 -7.000000 2.880000 67.604218 -74.163971 10070.625000
3.080000 -7.000000 2.920000 127.245384 -24.860966 16809.455078
3.080000 -7.000000 2.960000 132.185791 60.826355 21172.929688
3.080000 -7.000000 3.000000 71.829643 124.756508 20723.683594
3.080000 -7.000000 3.040000 -11.560091 124.235580 15568.115234
3.080000 -7.000000 3.080000 -59.867401 69.281189 8383.989258
3.080000 -7.000000 3.120000 -49.734024 10.835640 2590.884277
3.080000 -7.000000 3.160000 -8.509919 -7.127898 123.225662
3.080000 -7.000000 3.200000 16.944492 15.677527 532.900696
3.080000 -6.960000 2.800000 0.729588 -22.118523 489.761322
3.080000 -6.960000 2.840000 42.426571 -43.445683 3687.541260
3.080000 -6.960000 2.880000 99.755920 -15.906847 10204.271484
3.080000 -6.960000 2.920000 120.537354 59.263596 18041.427734
3.080000 -6.960000 2.960000 74.675713 133.563721 23415.730469
3.080000 -6.960000 3.000000 -13.299428 151.909821 23253.468750
3.080000 -6.960000 3.040000 -82.981964 102.986534 17492.232422
3.080000 -6.960000 3.080000 -91.551666 29.480995 9250.836914
3.080000 -6.960000 3.120000 -50.040886 -12.068647 2649.742676
3.080000 -6.960000 3.160000 -8.116724 -1.853262 69.315788
3.080000 -6.960000 3.200000 -4.815353 30.866440 975.924744
3.080000 -6.920000 2.800000 7.772896 -11.349180 189.221802
3.080000 -6.920000 2.840000 49.712330 -7.685444 2530.381836
3.080000 -6.920000 2.880000 79.217888 41.388824 7988.508301
3.080000 -6.920000 2.920000 56.870342 108.347336 14973.380859
3.080000 -6.920000 2.960000 -15.414654 140.898315 20089.947266
3.080000 -6.920000 3.000000 -90.828979 110.157646 20384.609375
3.080000 -6.920000 3.040000 -118.543533 38.947701 15569.492188
3.080000 -6.920000 3.080000 -89.365387 -19.038162 8348.624023
3.080000 -6.920000 3.120000 -41.141617 -28.759853 2519.761719
3.080000 -6.920000 3.160000 -19.822769 -2.919144 401.463562
3.080000 -6.920000 3.200000 -36.465603 16.377884 1597.975342
3.080000 -6.880000 2.800000 2.398429 -6.362261 46.230827
3.080000 -6.880000 2.840000 30.856144 12.920918 1119.051758
3.080000 -6.880000 2.880000 30.637192 58.730614 4387.922363
3.080000 -6.880000 2.920000 -12.999165 94.104179 9024.575195
3.080000 -6.880000 2.960000 -75.055954 84.586243 12788.228516
3.080000 -6.880000 3.000000 -111.622925 32.329529 13504.875977
3.080000 -6.880000 3.040000 -100.478546 -25.009279 10721.402344
3.080000 -6.880000 3.080000 -60.417850 -49.961540 6146.472168
3.080000 -6.880000 3.120000 -30.212492 -39.165176 2446.705566
3.080000 -6.880000 3.160000 -30.036968 -21.755505 1375.521484
3.080000 -6.880000 3.200000 -44.932991 -26.325785 2712.020508
3.080000 -6.840000 2.800000 -1.338400 -14.098425 200.556900
3.080000 -6.840000 2.840000 12.156984 7.545153 204.721588
3.080000 -6.840000 2.880000 -2.466187 35.545551 1269.568237
3.080000 -6.840000 2.920000 -39.499744 41.561642 3287.600098
3.080000 -6.840000 2.960000 -71.079224 15.438934 5290.616699
3.080000 -6.840000 3.000000 -74.133018 -24.725098 6107.035156
3.080000 -6.840000 3.040000 -51.855160 -51.299873 5320.634766
3.080000 -6.840000 3.080000 -27.492546 -54.179497 3691.258057
3.080000 -6.840000 3.120000 -18.494852 -47.530350 2601.193604
3.080000 -6.840000 3.160000 -19.609684 -50.663914 2951.372070
3.080000 -6.840000 3.200000 -12.183788 -65.544098 4444.473633
3.080000 -6.800000 2.800000 8.842129 -24.640663 685.345520
3.080000 -6.800000 2.840000 14.027668 -7.286589 249.869843
3.080000 -6.800000 2.880000 1.290939 5.680172 33.930878
3.080000 -6.800000 2.920000 -17.052067 1.805172 294.031616
3.080000 -6.800000 2.960000 -25.460533 -14.645546 862.730774
3.080000 -6.800000 3.000000 -20.904221 -29.982943 1335.963379
3.080000 -6.800000 3.040000 -12.674980 -37.442738 1562.613770
3.080000 -6.800000 3.080000 -8.022308 -42.889519 1903.868286
3.080000 -6.800000 3.120000 -2.091777 -53.857048 2904.957031
3.080000 -6.800000 3.160000 15.250401 -66.300385 4628.315918
3.080000 -6.800000 3.200000 44.052776 -66.322517 6339.323242
3.120000 -7.200000 2.800000 9.376369 31.514507 1081.080444
3.120000 -7.200000 2.840000 -9.643118 38.115807 1545.804443
3.120000 -7.200000 2.880000 -27.553093 28.260401 1557.823242
3.120000 -7.200000 2.920000 -32.625565 9.802970 1160.525757
3.120000 -7.200000 2.960000 -24.826534 -4.516009 636.751160
3.120000 -7.200000 3.000000 -13.152845 -8.729652 249.204178
3.120000 -7.200000 3.040000 -5.258607 -6.359793 68.099915
3.120000 -7.200000 3.080000 -1.425417 -3.223793 12.424654
3.120000 -7.200000 3.120000 1.621742 -0.296577 2.718006
3.120000 -7.200000 3.160000 3.692266 4.978899 38.422256
3.120000 -7.200000 3.200000 0.681389 11.902882 142.142883
3.120000 -7.160000 2.800000 -8.385374 31.899786 1087.910889
3.120000 -7.160000 2.840000 -30.293179 29.354431 1779.359375
3.120000 -7.160000 2.880000 -43.618980 9.398465 1990.946655
3.120000 -7.160000 2.920000 -38.053513 -14.105952 1647.047729
3.120000 -7.160000 2.960000 -18.905315 -25.760775 1021.028442
3.120000 -7.160000 3.000000 -0.246820 -21.581112 465.805298
3.120000 -7.160000 3.040000 8.357048 -9.379689 157.818817
3.120000 -7.160000 3.080000 7.693792 1.285657 60.847351
3.120000 -7.160000 3.120000 3.512070 7.302130 65.655731
3.120000 -7.160000 3.160000 -1.327313 10.576621 113.626678
3.120000 -7.160000 3.200000 -7.670481 11.604562 193.502121
3.120000 -7.120000 2.800000 -21.963497 20.590117 906.348145
3.120000 -7.120000 2.840000 -41.229408 6.605158 1743.492188
3.120000 -7.120000 2.880000 -42.209316 -21.041037 2224.351562
3.120000 -7.120000 2.920000 -20.511759 -41.392067 2134.035400
3.120000 -7.120000 2.960000 9.044371 -39.294121 1625.828613
3.120000 -7.120000 3.000000 26.493286 -18.160934 1031.713745
3.120000 -7.120000 3.040000 23.856728 5.241349 596.615173
3.120000 -7.120000 3.080000 9.054941 16.775696 363.415955
3.120000 -7.120000 3.120000 -4.629333 15.118243 249.992004
3.120000 -7.120000 3.160000 -10.663691 8.119761 179.644806
3.120000 -7.120000 3.200000 -11.266804 2.467850 133.031143
3.120000 -7.080000 2.800000 -24.155897 4.150902 600.737366
3.120000 -7.080000 2.840000 -33.134933 -18.970917 1457.819580
3.120000 -7.080000 2.880000 -16.425236 -44.682407 2266.305908
3.120000 -7.080000 2.920000 18.305405 -48.735260 2710.213379
3.120000 -7.080000 2.960000 45.810741 -24.137966 2681.265381
3.120000 -7.080000 3.000000 46.122498 12.086904 2273.377930
3.120000 -7.080000 3.040000 21.808060 34.654427 1676.520752
3.120000 -7.080000 3.080000 -6.382977 32.045799 1067.675659
3.120000 -7.080000 3.120000 -19.354963 13.778828 564.470703
3.120000 -7.080000 3.160000 -14.806242 -1.854127 222.662598
3.120000 -7.080000 3.200000 -4.591483 -5.102029 47.112411
3.120000 -7.040000 2.800000 -15.310678 -7.370687 288.743896
3.120000 -7.040000 2.840000 -9.229460 -31.289646 1064.224854
3.120000 -7.040000 2.880000 21.236008 -42.246918 2235.770020
3.120000 -7.040000 2.920000 54.443329 -22.019178 3448.920410
3.120000 -7.040000 2.960000 61.716026 20.334690 4222.367676
3.120000 -7.040000 3.000000 34.440224 54.898102 4199.930664
3.120000 -7.040000 3.040000 -7.433655 57.631943 3376.700195
3.120000 -7.040000 3.080000 -33.725788 31.312111 2117.877197
3.120000 -7.040000 3.120000 -30.689465 0.871737 942.603210
3.120000 -7.040000 3.160000 -10.426718 -10.732567 223.904434
3.120000 -7.040000 3.200000 4.021296 -1.761142 19.272438
3.120000 -7.000000 2.800000 -3.696195 -8.000465 77.669304
3.120000 -7.000000 2.840000 14.576725 -22.596603 723.087402
3.120000 -7.000000 2.880000 45.305466 -12.311886 2204.167725
3.120000 -7.000000 2.920000 59.295940 25.849340 4184.196777
3.120000 -7.000000 2.960000 36.998058 66.666428 5813.269043
3.120000 -7.000000 3.000000 -10.618854 78.213379 6230.092773
3.120000 -7.000000 3.040000 -50.168037 51.500328 5169.115723
3.120000 -7.000000 3.080000 -55.679546 8.902347 3179.463623
3.120000 -7.000000 3.120000 -31.106678 -16.910532 1253.591553
3.120000 -7.000000 3.160000 -4.064512 -12.380909 169.807175
3.120000 -7.000000 3.200000 1.534077 7.554821 59.428711
3.120000 -6.960000 2.800000 1.036664 -1.187882 2.485736
3.120000 -6.960000 2.840000 22.147301 -1.605253 493.079773
3.120000 -6.960000 2.880000 38.806412 24.015457 2082.679688
3.120000 -6.960000 2.920000 26.364712 61.630936 4493.470215
3.120000 -6.960000 2.960000 -16.244951 80.014084 6666.151855
3.120000 -6.960000 3.000000 -61.648743 60.002571 7400.875977
3.120000 -6.960000 3.040000 -77.645660 14.090166 6227.381348
3.120000 -6.960000 3.080000 -56.645832 -24.074093 3788.312256
3.120000 -6.960000 3.120000 -21.733316 -30.411802 1397.214844
3.120000 -6.960000 3.160000 -3.749811 -11.028749 135.694397
3.120000 -6.960000 3.200000 -12.729409 6.713829 207.113358
3.120000 -6.920000 2.800000 -3.179217 2.931808 18.702921
3.120000 -6.920000 2.840000 11.728898 13.358858 316.026123
3.120000 -6.920000 2.880000 9.557402 40.191216 1706.677734
3.120000 -6.920000 2.920000 -20.047035 59.992386 4000.969971
3.120000 -6.920000 2.960000 -60.948799 49.620125 6176.913086
3.120000 -6.920000 3.000000 -83.086517 10.230003 7008.021973
3.120000 -6.920000 3.040000 -70.421860 -31.702129 5964.263184
3.120000 -6.920000 3.080000 -36.141373 -48.438488 3652.485840
3.120000 -6.920000 3.120000 -9.497789 -36.219326 1402.047607
3.120000 -6.920000 3.160000 -7.835414 -16.565350 335.804504
3.120000 -6.920000 3.200000 -21.970201 -13.371592 661.489197
3.120000 -6.880000 2.800000 -8.087296 -2.559114 71.953415
3.120000 -6.880000 2.840000 -2.216529 11.366333 134.106522
3.120000 -6.880000 2.880000 -16.318138 28.088314 1055.234985
3.120000 -6.880000 2.920000 -45.282589 26.500698 2752.799805
3.120000 -6.880000 2.960000 -66.710625 -0.250391 4450.370117
3.120000 -6.880000 3.000000 -62.191055 -36.083397 5169.738770
3.120000 -6.880000 3.040000 -35.492355 -56.732353 4478.267090
3.120000 -6.880000 3.080000 -8.463905 -52.894753 2869.492432
3.120000 -6.880000 3.120000 0.952836 -37.721508 1423.819946
3.120000 -6.880000 3.160000 -4.585653 -31.519897 1014.532104
3.120000 -6.880000 3.200000 -7.212683 -40.586678 1699.301270
3.120000 -6.840000 2.800000 -2.869835 -13.186367 182.116226
3.120000 -6.840000 2.840000 -3.390156 -0.532487 11.776699
3.120000 -6.840000 2.880000 -18.715004 4.778616 373.086548
3.120000 -6.840000 2.920000 -35.085297 -7.987009 1294.770386
3.120000 -6.840000 2.960000 -36.029175 -31.835592 2311.606445
3.120000 -6.840000 3.000000 -19.521904 -49.148323 2796.662354
3.120000 -6.840000 3.040000 0.674875 -50.086109 2509.073975
3.120000 -6.840000 3.080000 10.684826 -41.791790 1860.719238
3.120000 -6.840000 3.120000 11.268237 -38.511909 1610.140259
3.120000 -6.840000 3.160000 15.237144 -44.429092 2206.114746
3.120000 -6.840000 3.200000 31.107002 -48.929981 3361.788574
3.120000 -6.800000 2.800000 13.893694 -15.866118 444.768433
3.120000 -6.800000 2.840000 9.613359 -4.767539 115.146111
3.120000 -6.800000 2.880000 -1.718877 -5.057392 28.531754
3.120000 -6.800000 2.920000 -6.519059 -16.393009 311.228882
3.120000 -6.800000 2.960000 0.375519 -27.143986 736.936951
3.120000 -6.800000 3.000000 11.072380 -28.842503 954.487549
3.120000 -6.800000 3.040000 15.986067 -25.779390 920.131287
3.120000 -6.800000 3.080000 16.841173 -28.007919 1068.068604
3.120000 -6.800000 3.120000 24.861393 -36.409416 1943.734497
3.120000 -6.800000 3.160000 45.532959 -38.707531 3571.523193
3.120000 -6.800000 3.200000 68.434372 -22.703644 5198.718750
3.160000 -7.200000 2.800000 -19.796478 14.523596 602.835388
3.160000 -7.200000 2.840000 -30.942364 9.518778 1048.036987
3.160000 -7.200000 2.880000 -34.863808 -3.557989 1228.144409
3.160000 -7.200000 2.920000 -28.497246 -15.475109 1051.572021
3.160000 -7.200000 2.960000 -17.589199 -19.453093 687.802734
3.160000 -7.200000 3.000000 -9.716726 -16.885355 379.529968
3.160000 -7.200000 3.040000 -6.636165 -13.822216 235.092331
3.160000 -7.200000 3.080000 -4.305143 -13.199233 192.754013
3.160000 -7.200000 3.120000 0.384123 -12.086435 146.229477
3.160000 -7.200000 3.160000 4.859437 -6.786946 69.676758
3.160000 -7.200000 3.200000 4.036625 0.971372 17.237904
3.160000 -7.160000 2.800000 -20.202908 3.381325 419.590820
3.160000 -7.160000 2.840000 -29.484388 -3.476443 881.414795
3.160000 -7.160000 2.880000 -29.553774 -16.925201 1159.887939
3.160000 -7.160000 2.920000 -19.272436 -26.497093 1073.522705
3.160000 -7.160000 2.960000 -6.337868 -26.314053 732.597961
3.160000 -7.160000 3.000000 1.419595 -19.510204 382.663330
3.160000 -7.160000 3.040000 3.128656 -12.885759 175.831299
3.160000 -7.160000 3.080000 3.166447 -9.126197 93.313850
3.160000 -7.160000 3.120000 4.097591 -5.585006 47.982544
3.160000 -7.160000 3.160000 3.487864 -0.041662 12.166927
3.160000 -7.160000 3.200000 -1.738282 4.705738 25.165596
3.160000 -7.120000 2.800000 -13.776824 -2.729258 197.249725
3.160000 -7.120000 2.840000 -21.216551 -11.090540 573.142090
3.160000 -7.120000 2.880000 -17.447462 -23.515934 857.413086
3.160000 -7.120000 2.920000 -4.421466 -28.664867 841.223999
3.160000 -7.120000 2.960000 7.818659 -22.633926 573.426025
3.160000 -7.120000 3.000000 11.533321 -11.343744 261.698029
3.160000 -7.120000 3.040000 7.630720 -3.134526 68.053146
3.160000 -7.120000 3.080000 2.340402 -0.687732 5.950455
3.160000 -7.120000 3.120000 -0.549638 -0.676153 0.759285
3.160000 -7.120000 3.160000 -2.563990 0.103033 6.584661
3.160000 -7.120000 3.200000 -6.309546 0.446758 40.009964
3.160000 -7.080000 2.800000 -7.097361 -1.336265 52.158131
3.160000 -7.080000 2.840000 -12.111965 -10.816797 263.702820
3.160000 -7.080000 2.880000 -5.175635 -20.341597 440.567749
3.160000 -7.080000 2.920000 7.637260 -19.546021 440.374664
3.160000 -7.080000 2.960000 14.783431 -8.499393 290.789490
3.160000 -7.080000 3.000000 10.739083 3.346023 126.523781
3.160000 -7.080000 3.040000 0.391478 7.118616 50.827950
3.160000 -7.080000 3.080000 -7.206484 2.517693 58.272186
3.160000 -7.080000 3.120000 -7.958044 -3.801295 77.780304
3.160000 -7.080000 3.160000 -5.223448 -6.268906 66.583588
3.160000 -7.080000 3.200000 -4.259657 -5.578303 49.262150
3.160000 -7.040000 2.800000 -5.704362 4.297859 51.011337
3.160000 -7.040000 2.840000 -7.864380 -5.112431 87.985420
3.160000 -7.040000 2.880000 0.034212 -10.277801 105.634354
3.160000 -7.040000 2.920000 8.531599 -4.633123 94.254013
3.160000 -7.040000 2.960000 7.502236 6.667772 100.742729
3.160000 -7.040000 3.000000 -3.430057 12.372478 164.843506
3.160000 -7.040000 3.040000 -14.804183 6.655317 263.457092
3.160000 -7.040000 3.080000 -17.105581 -5.405090 321.815918
3.160000 -7.040000 3.120000 -9.916975 -13.547584 281.883423
3.160000 -7.040000 3.160000 -1.339272 -12.680486 162.588379
3.160000 -7.040000 3.200000 0.937539 -7.051713 50.605640
3.160000 -7.000000 2.800000 -10.594913 8.192890 179.375641
3.160000 -7.000000 2.840000 -10.468947 0.216071 109.645546
3.160000 -7.000000 2.880000 -4.606956 -1.150816 22.548420
3.160000 -7.000000 2.920000 -2.827452 5.023905 33.234108
3.160000 -7.000000 2.960000 -10.270172 10.197810 209.471771
3.160000 -7.000000 3.000000 -21.404457 5.618622 489.719696
3.160000 -7.000000 3.040000 -25.420303 -7.985116 709.953918
3.160000 -7.000000 3.080000 -17.387541 -20.548290 724.558838
3.160000 -7.000000 3.120000 -3.495599 -22.547522 520.609924
3.160000 -7.000000 3.160000 5.016854 -14.372672 231.742523
3.160000 -7.000000 3.200000 2.892808 -5.617992 39.930168
3.160000 -6.960000 2.800000 -17.910847 5.676662 353.022919
3.160000 -6.960000 2.840000 -16.668341 -0.272122 277.907623
3.160000 -6.960000 2.880000 -14.493568 -0.468023 210.282562
3.160000 -6.960000 2.920000 -17.701077 1.233784 314.850311
3.160000 -6.960000 2.960000 -25.014790 -2.810548 633.638855
3.160000 -6.960000 3.000000 -28.195328 -14.825881 1014.783264
3.160000 -6.960000 3.040000 -20.775410 -27.924801 1211.412109
3.160000 -6.960000 3.080000 -5.622870 -32.277187 1073.433472
3.160000 -6.960000 3.120000 6.930468 -25.016893 673.876343
3.160000 -6.960000 3.160000 8.844494 -13.468184 259.617065
3.160000 -6.960000 3.200000 2.088375 -8.239600 72.252327
3.160000 -6.920000 2.800000 -21.188183 -3.489759 461.117493
3.160000 -6.920000 2.840000 -19.704920 -7.380798 442.760071
3.160000 -6.920000 2.880000 -20.401287 -9.060803 498.310669
3.160000 -6.920000 2.920000 -23.683361 -13.766921 750.429749
3.160000 -6.920000 2.960000 -24.085865 -23.899162 1151.298828
3.160000 -6.920000 3.000000 -16.306274 -34.856995 1480.904785
3.160000 -6.920000 3.040000 -1.918169 -38.799927 1509.113647
3.160000 -6.920000 3.080000 10.972358 -32.664890 1187.387695
3.160000 -6.920000 3.120000 15.168836 -21.789082 704.857666
3.160000 -6.920000 3.160000 11.301885 -15.069613 354.825836
3.160000 -6.920000 3.200000 7.055609 -16.524475 322.839905
3.160000 -6.880000 2.800000 -15.366474 -14.046097 433.421356
3.160000 -6.880000 2.840000 -14.434229 -15.587164 451.306641
3.160000 -6.880000 2.880000 -16.057539 -19.523670 639.018250
3.160000 -6.880000 2.920000 -15.149973 -28.270531 1028.744629
3.160000 -6.880000 2.960000 -6.796308 -37.436230 1447.661133
3.160000 -6.880000 3.000000 7.161238 -39.745163 1630.961304
3.160000 -6.880000 3.040000 18.902384 -33.003689 1446.543701
3.160000 -6.880000 3.080000 22.428890 -22.993601 1031.760742
3.160000 -6.880000 3.120000 19.774986 -17.679783 703.624756
3.160000 -6.880000 3.160000 18.654152 -18.947250 706.975708
3.160000 -6.880000 3.200000 24.059305 -20.951242 1017.804688
3.160000 -6.840000 2.800000 -1.130730 -17.506697 307.763000
3.160000 -6.840000 2.840000 -2.561624 -16.537394 280.047302
3.160000 -6.840000 2.880000 -4.188230 -22.109200 506.357971
3.160000 -6.840000 2.920000 1.577903 -30.810503 951.776917
3.160000 -6.840000 2.960000 14.652449 -33.609730 1344.308105
3.160000 -6.840000 3.000000 26.303514 -26.461765 1392.099854
3.160000 -6.840000 3.040000 28.814686 -15.701496 1076.823120
3.160000 -6.840000 3.080000 24.703697 -11.197338 735.653015
3.160000 -6.840000 3.120000 24.250273 -14.707602 804.389282
3.160000 -6.840000 3.160000 33.482990 -17.148508 1415.181885
3.160000 -6.840000 3.200000 46.329815 -8.596448 2220.350586
3.160000 -6.800000 2.800000 13.469818 -7.969039 244.941589
3.160000 -6.800000 2.840000 7.101974 -6.293396 90.044861
3.160000 -6.800000 2.880000 5.208491 -13.551865 210.781418
3.160000 -6.800000 2.920000 13.651542 -19.982355 585.659119
3.160000 -6.800000 2.960000 25.595896 -16.317463 921.409485
3.160000 -6.800000 3.000000 29.739534 -5.457090 914.219727
3.160000 -6.800000 3.040000 24.662239 0.728633 608.756897
3.160000 -6.800000 3.080000 21.564079 -3.607741 478.025330
3.160000 -6.800000 3.120000 30.932007 -9.396945 1045.091675
3.160000 -6.800000 3.160000 48.197533 -1.753167 2326.075684
3.160000 -6.800000 3.200000 56.128410 22.170147 3641.913818
3.200000 -7.200000 2.800000 -20.810364 -15.087532 660.704834
3.200000 -7.200000 2.840000 -20.061651 -19.480663 781.966064
3.200000 -7.200000 2.880000 -15.618322 -23.726971 806.901123
3.200000 -7.200000 2.920000 -9.345865 -24.630360 693.999817
3.200000 -7.200000 2.960000 -4.800722 -22.577307 532.781677
3.200000 -7.200000 3.000000 -2.895126 -20.883970 444.521973
3.200000 -7.200000 3.040000 -0.756936 -21.473331 461.676910
3.200000 -7.200000 3.080000 4.599696 -22.011963 505.683716
3.200000 -7.200000 3.120000 11.957184 -18.221977 475.014709
3.200000 -7.200000 3.160000 16.188271 -9.099408 344.859314
3.200000 -7.200000 3.200000 13.408482 0.934239 180.660187
3.200000 -7.160000 2.800000 -4.680393 -19.237289 391.979370
3.200000 -7.160000 2.840000 -5.579145 -19.015839 392.728973
3.200000 -7.160000 2.880000 -4.519457 -20.558250 443.067139
3.200000 -7.160000 2.920000 -1.710088 -21.184828 451.721344
3.200000 -7.160000 2.960000 0.970978 -20.519369 421.987305
3.200000 -7.160000 3.000000 3.276674 -19.968838 409.491089
3.200000 -7.160000 3.040000 6.893048 -19.492874 427.486267
3.200000 -7.160000 3.080000 12.201994 -16.466433 420.032043
3.200000 -7.160000 3.120000 15.923274 -8.822079 331.379730
3.200000 -7.160000 3.160000 13.537352 1.053603 184.369965
3.200000 -7.160000 3.200000 4.547594 7.007319 69.783142
3.200000 -7.120000 2.800000 6.904208 -8.094580 113.190308
3.200000 -7.120000 2.840000 0.202061 -6.594380 43.526676
3.200000 -7.120000 2.880000 -3.833506 -10.198285 118.700783
3.200000 -7.120000 2.920000 -3.454136 -14.920805 234.561478
3.200000 -7.120000 2.960000 0.022986 -17.929241 321.458221
3.200000 -7.120000 3.000000 4.836946 -18.395161 361.777954
3.200000 -7.120000 3.040000 9.795938 -16.002197 352.030701
3.200000 -7.120000 3.080000 13.170491 -10.399570 281.612885
3.200000 -7.120000 3.120000 12.325737 -2.794869 159.735092
3.200000 -7.120000 3.160000 5.996184 2.947807 44.643795
3.200000 -7.120000 3.200000 -3.057946 2.538284 15.793922
3.200000 -7.080000 2.800000 3.563881 7.904563 75.183365
3.200000 -7.080000 2.840000 -8.906951 4.862396 102.976677
3.200000 -7.080000 2.880000 -14.881742 -5.550516 252.274490
3.200000 -7.080000 2.920000 -12.093645 -16.261602 410.695984
3.200000 -7.080000 2.960000 -3.762252 -21.757401 487.539032
3.200000 -7.080000 3.000000 4.972460 -20.792934 457.071472
3.200000 -7.080000 3.040000 10.423334 -15.449697 347.339050
3.200000 -7.080000 3.080000 11.283250 -8.853100 205.689102
3.200000 -7.080000 3.120000 8.043281 -3.870390 79.674286
3.200000 -7.080000 3.160000 2.594885 -2.671581 13.870771
3.200000 -7.080000 3.200000 -1.963441 -5.954474 39.310863
3.200000 -7.040000 2.800000 -12.161065 14.684534 363.527039
3.200000 -7.040000 2.840000 -25.557247 3.098246 662.772034
3.200000 -7.040000 2.880000 -27.232361 -14.654806 956.364868
3.200000 -7.040000 2.920000 -17.072815 -28.355013 1095.487793
3.200000 -7.040000 2.960000 -2.160742 -31.821638 1017.285461
3.200000 -7.040000 3.000000 9.307429 -26.238686 775.096863
3.200000 -7.040000 3.040000 13.589382 -17.496670 490.804749
3.200000 -7.040000 3.080000 12.286205 -10.920494 270.208038
3.200000 -7.040000 3.120000 9.177597 -8.251116 152.309204
3.200000 -7.040000 3.160000 6.923075 -8.414530 118.733276
3.200000 -7.040000 3.200000 6.311350 -9.836091 136.581818
3.200000 -7.000000 2.800000 -27.872482 6.317007 816.779846
3.200000 -7.000000 2.840000 -35.631035 -12.718825 1431.339233
3.200000 -7.000000 2.880000 -28.334530 -33.078648 1897.042480
3.200000 -7.000000 2.920000 -9.940786 -43.667130 2005.637451
3.200000 -7.000000 2.960000 9.027026 -40.603088 1730.098022
3.200000 -7.000000 3.000000 19.791801 -29.018099 1233.765381
3.200000 -7.000000 3.040000 21.078114 -17.557833 752.564331
3.200000 -7.000000 3.080000 17.825529 -11.286966 445.145081
3.200000 -7.000000 3.120000 15.303471 -9.347656 321.574890
3.200000 -7.000000 3.160000 14.854887 -8.306770 289.670105
3.200000 -7.000000 3.200000 14.791058 -6.582811 262.108795
3.200000 -6.960000 2.800000 -31.990339 -11.182292 1148.425537
3.200000 -6.960000 2.840000 -30.467173 -31.821072 1940.829224
3.200000 -6.960000 2.880000 -14.802227 -48.021301 2525.151367
3.200000 -6.960000 2.920000 7.683274 -50.892876 2649.117432
3.200000 -6.960000 2.960000 25.699144 -40.276184 2282.617188
3.200000 -6.960000 3.000000 32.413544 -24.155767 1634.138916
3.200000 -6.960000 3.040000 29.538700 -11.634583 1007.898315
3.200000 -6.960000 3.080000 23.955570 -6.139193 611.559021
3.200000 -6.960000 3.120000 20.866524 -4.744408 457.921204
3.200000 -6.960000 3.160000 20.258923 -3.110258 420.097656
3.200000 -6.960000 3.200000 19.257219 -0.209517 370.884369
3.200000 -6.920000 2.800000 -22.161726 -25.813725 1157.490479
3.200000 -6.920000 2.840000 -13.383911 -41.369202 1890.539917
3.200000 -6.920000 2.880000 5.158982 -49.593376 2486.117920
3.200000 -6.920000 2.920000 25.868891 -44.994541 2693.708252
3.200000 -6.920000 2.960000 39.252678 -29.659513 2420.459473
3.200000 -6.920000 3.000000 40.721359 -12.007244 1802.403076
3.200000 -6.920000 3.040000 33.565292 -0.384494 1126.776733
3.200000 -6.920000 3.080000 25.432594 2.910629 655.288574
3.200000 -6.920000 3.120000 21.682327 2.005453 474.145172
3.200000 -6.920000 3.160000 21.766165 2.356624 479.319611
3.200000 -6.920000 3.200000 21.607801 5.523499 497.406128
3.200000 -6.880000 2.800000 -5.411680 -28.705574 853.296265
3.200000 -6.880000 2.840000 4.210214 -36.392029 1342.105713
3.200000 -6.880000 2.880000 19.516527 -38.449287 1859.242432
3.200000 -6.880000 2.920000 35.411789 -30.659210 2193.981934
3.200000 -6.880000 2.960000 44.058388 -14.434464 2149.495117
3.200000 -6.880000 3.000000 41.182251 2.454119 1702.000488
3.200000 -6.880000 3.040000 30.494631 11.485140 1061.830933
3.200000 -6.880000 3.080000 21.026598 10.684637 556.279297
3.200000 -6.880000 3.120000 19.129055 6.205077 404.423706
3.200000 -6.880000 3.160000 22.925264 6.101486 562.795898
3.200000 -6.880000 3.200000 24.949776 12.384086 775.856934
3.200000 -6.840000 2.800000 7.890932 -19.038422 424.728302
3.200000 -6.840000 2.840000 12.174579 -22.042624 634.097656
3.200000 -6.840000 2.880000 22.179565 -23.539715 1046.051270
3.200000 -6.840000 2.920000 34.807003 -16.774580 1492.914062
3.200000 -6.840000 2.960000 40.984226 -1.289624 1681.369873
3.200000 -6.840000 3.000000 35.067875 14.138996 1429.667114
3.200000 -6.840000 3.040000 22.185783 19.358688 866.967773
3.200000 -6.840000 3.080000 14.225854 13.734645 391.015381
3.200000 -6.840000 3.120000 17.589941 7.601602 367.190399
3.200000 -6.840000 3.160000 25.983934 11.565266 808.920227
3.200000 -6.840000 3.200000 26.869747 24.762045 1335.142212
3.200000 -6.800000 2.800000 10.405070 -2.962510 117.041954
3.200000 -6.800000 2.840000 8.006975 -8.122524 130.087051
3.200000 -6.800000 2.880000 15.939717 -13.673030 441.026337
3.200000 -6.800000 2.920000 29.080736 -8.542312 918.660278
3.200000 -6.800000 2.960000 34.345100 7.227387 1231.821045
3.200000 -6.800000 3.000000 25.809807 21.118404 1112.133057
3.200000 -6.800000 3.040000 12.568438 21.921970 638.538391
3.200000 -6.800000 3.080000 9.120853 13.216169 257.857086
3.200000 -6.800000 3.120000 18.383289 10.255599 443.122620
3.200000 -6.800000 3.160000 27.041876 22.564468 1240.418335
3.200000 -6.800000 3.200000 19.820740 41.709435 2132.538574
