#kx 	ky 	kz 	real 	imag 	intensity
-9.200000 2.800000 2.800000 9.600108 -14.738785 309.393860
-9.200000 2.800000 2.840000 0.972093 -3.121417 10.688206
-9.200000 2.800000 2.880000 -14.389271 -7.595059 264.736023
-9.200000 2.800000 2.920000 -18.268929 -27.735739 1103.024902
-9.200000 2.800000 2.960000 -0.149740 -46.684578 2179.472168
-9.200000 2.800000 3.000000 31.188133 -44.656868 2966.935547
-9.200000 2.800000 3.040000 52.822556 -17.210129 3086.410889
-9.200000 2.800000 3.080000 46.806366 18.575394 2535.881104
-9.200000 2.800000 3.120000 16.661959 37.190582 1660.760254
-9.200000 2.800000 3.160000 -14.424868 26.431198 906.685059
-9.200000 2.800000 3.200000 -23.196823 -1.867251 541.579224
-9.200000 2.840000 2.800000 4.886483 -9.879615 121.484505
-9.200000 2.840000 2.840000 -2.335035 -7.435020 60.731911
-9.200000 2.840000 2.880000 -7.297846 -14.908099 275.509979
-9.200000 2.840000 2.920000 -1.310845 -26.862686 723.322205
-9.200000 2.840000 2.960000 16.996334 -31.525192 1282.713135
-9.200000 2.840000 3.000000 37.849915 -19.139303 1798.928955
-9.200000 2.840000 3.040000 45.408344 8.391131 2132.328857
-9.200000 2.840000 3.080000 30.354805 35.618641 2190.101807
-9.200000 2.840000 3.120000 -0.107364 44.069061 1942.093628
-9.200000 2.840000 3.160000 -25.605623 28.002510 1439.788574
-9.200000 2.840000 3.200000 -28.877132 0.966977 834.823853
-9.200000 2.880000 2.800000 -0.376235 -13.659831 186.732544
-9.200000 2.880000 2.840000 -0.562538 -16.924646 286.760101
-9.200000 2.880000 2.880000 3.849518 -20.296391 426.762268
-9.200000 2.880000 2.920000 12.465960 -20.802755 588.154785
-9.200000 2.880000 2.960000 23.596817 -14.897247 778.737732
-9.200000 2.880000 3.000000 31.745617 0.319778 1007.886414
-9.200000 2.880000 3.040000 28.348862 21.907366 1283.590576
-9.200000 2.880000 3.080000 9.160678 38.646923 1577.502686
-9.200000 2.880000 3.120000 -18.178677 37.960903 1771.494385
-9.200000 2.880000 3.160000 -36.803383 18.200054 1685.730957
-9.200000 2.880000 3.200000 -34.509399 -6.725336 1236.128784
-9.200000 2.920000 2.800000 2.782082 -22.192772 500.259125
-9.200000 2.920000 2.840000 10.928841 -24.382141 713.928406
-9.200000 2.920000 2.880000 19.133427 -19.361168 740.942871
-9.200000 2.920000 2.920000 23.461987 -10.649092 663.867920
-9.200000 2.920000 2.960000 24.619247 -0.676043 606.564392
-9.200000 2.920000 3.000000 22.283361 11.391123 626.305847
-9.200000 2.920000 3.040000 12.473761 24.292200 745.705688
-9.200000 2.920000 3.080000 -6.658482 30.654709 984.046570
-9.200000 2.920000 3.120000 -27.948196 22.443941 1284.832153
-9.200000 2.920000 3.160000 -38.133141 1.321272 1455.882080
-9.200000 2.920000 3.200000 -30.295570 -19.166477 1285.175415
-9.200000 2.960000 2.800000 15.121035 -24.851049 846.220337
-9.200000 2.960000 2.840000 27.249775 -20.936766 1180.898438
-9.200000 2.960000 2.880000 32.985897 -8.695010 1163.672607
-9.200000 2.960000 2.920000 30.245491 3.856709 929.663940
-9.200000 2.960000 2.960000 23.025547 12.729957 692.227661
-9.200000 2.960000 3.000000 13.842888 18.955643 550.941895
-9.200000 2.960000 3.040000 1.390961 22.556705 510.739746
-9.200000 2.960000 3.080000 -14.130220 19.401802 576.093079
-9.200000 2.960000 3.120000 -26.496309 6.296246 741.697083
-9.200000 2.960000 3.160000 -27.572510 -12.195851 908.982056
-9.200000 2.960000 3.200000 -16.480253 -25.201252 906.701843
-9.200000 3.000000 2.800000 26.962404 -15.522219 967.910522
-9.200000 3.000000 2.840000 37.227890 -6.287455 1425.447876
-9.200000 3.000000 2.880000 38.236835 8.510595 1534.485718
-9.200000 3.000000 2.920000 30.036335 20.901691 1339.062134
-9.200000 3.000000 2.960000 17.169657 26.897327 1018.263367
-9.200000 3.000000 3.000000 3.637687 26.500835 715.527039
-9.200000 3.000000 3.040000 -8.358385 20.519476 490.911499
-9.200000 3.000000 3.080000 -16.506433 9.593866 364.504608
-9.200000 3.000000 3.120000 -17.963181 -3.879712 337.727997
-9.200000 3.000000 3.160000 -12.077980 -14.998274 370.825806
-9.200000 3.000000 3.200000 -2.563821 -19.504993 387.017944
-9.200000 3.040000 2.800000 27.754969 -0.109084 770.350159
-9.200000 3.040000 2.840000 34.689255 9.752794 1298.461304
-9.200000 3.040000 2.880000 33.344437 24.210777 1698.013184
-9.200000 3.040000 2.920000 21.931761 36.299007 1798.620117
-9.200000 3.040000 2.960000 4.192039 39.305553 1562.499756
-9.200000 3.040000 3.000000 -12.093678 30.960331 1104.799194
-9.200000 3.040000 3.040000 -19.716099 15.386462 625.467773
-9.200000 3.040000 3.080000 -16.880175 0.583313 285.280548
-9.200000 3.040000 3.120000 -8.246536 -7.287011 121.105888
-9.200000 3.040000 3.160000 -0.742598 -8.200432 67.798538
-9.200000 3.040000 3.200000 2.391169 -7.116017 56.355389
-9.200000 3.080000 2.800000 17.691223 8.829370 390.937164
-9.200000 3.080000 2.840000 25.111910 17.124729 923.864380
-9.200000 3.080000 2.880000 23.819210 33.164986 1667.270996
-9.200000 3.080000 2.920000 8.160343 46.374481 2217.183838
-9.200000 3.080000 2.960000 -15.251918 44.496960 2212.600342
-9.200000 3.080000 3.000000 -31.196495 25.952242 1646.740234
-9.200000 3.080000 3.040000 -29.359716 2.938251 870.626221
-9.200000 3.080000 3.080000 -14.165050 -9.286888 286.894928
-9.200000 3.080000 3.120000 -0.170119 -6.537938 42.773571
-9.200000 3.080000 3.160000 2.580247 1.462141 8.795530
-9.200000 3.080000 3.200000 -2.147561 2.524080 10.983000
-9.200000 3.120000 2.800000 8.320848 5.415315 98.562134
-9.200000 3.120000 2.840000 19.504801 16.213074 643.301025
-9.200000 3.120000 2.880000 15.666864 37.477707 1650.029175
-9.200000 3.120000 2.920000 -8.011036 49.973057 2561.483154
-9.200000 3.120000 2.960000 -35.813431 38.564884 2769.852051
-9.200000 3.120000 3.000000 -45.390713 9.268851 2146.228516
-9.200000 3.120000 3.040000 -30.072182 -15.241703 1136.645630
-9.200000 3.120000 3.080000 -5.580839 -17.817608 348.612915
-9.200000 3.120000 3.120000 6.424571 -3.260090 51.903297
-9.200000 3.120000 3.160000 0.330558 8.513341 72.586243
-9.200000 3.120000 3.200000 -9.537664 4.711331 113.163681
-9.200000 3.160000 2.800000 10.540389 -2.494844 117.324051
-9.200000 3.160000 2.840000 21.788027 17.032429 764.821777
-9.200000 3.160000 2.880000 8.524557 42.323395 1863.937866
-9.200000 3.160000 2.920000 -24.430573 47.210812 2825.713623
-9.200000 3.160000 2.960000 -50.319473 22.354944 3031.792969
-9.200000 3.160000 3.000000 -46.724098 -13.320755 2360.583984
-9.200000 3.160000 3.040000 -18.401249 -30.750959 1284.227539
-9.200000 3.160000 3.080000 7.922705 -19.574278 445.921600
-9.200000 3.160000 3.120000 11.219811 3.025316 135.036713
-9.200000 3.160000 3.160000 -3.578155 12.262529 163.172821
-9.200000 3.160000 3.200000 -13.849670 2.126866 196.336929
-9.200000 3.200000 2.800000 22.275541 -0.943382 497.089722
-9.200000 3.200000 2.840000 23.874380 27.187233 1309.131592
-9.200000 3.200000 2.880000 -2.903715 47.789219 2292.240967
-9.200000 3.200000 2.920000 -39.138062 37.598000 2945.397461
-9.200000 3.200000 2.960000 -53.686539 1.291498 2883.912354
-9.200000 3.200000 3.000000 -34.157166 -31.423283 2154.134521
-9.200000 3.200000 3.040000 0.626859 -34.721687 1205.988525
-9.200000 3.200000 3.080000 19.946236 -11.424179 528.364197
-9.200000 3.200000 3.120000 11.675342 12.081329 282.272095
-9.200000 3.200000 3.160000 -8.076818 14.276365 269.049591
-9.200000 3.200000 3.200000 -14.971230 -0.518827 224.406891
-9.160000 2.800000 2.800000 22.960281 -1.122623 528.434753
-9.160000 2.800000 2.840000 4.796965 5.240205 50.470619
-9.160000 2.800000 2.880000 -9.086787 -8.667616 157.697266
-9.160000 2.800000 2.920000 -2.381917 -30.116907 912.701599
-9.160000 2.800000 2.960000 23.109009 -37.578495 1946.169678
-9.160000 2.800000 3.000000 47.781082 -20.187231 2690.556152
-9.160000 2.800000 3.040000 51.065887 11.745205 2745.674805
-9.160000 2.800000 3.080000 29.669384 35.220306 2120.742188
-9.160000 2.800000 3.120000 0.373196 34.508190 1190.954468
-9.160000 2.800000 3.160000 -14.994961 14.239611 427.615356
-9.160000 2.800000 3.200000 -8.339607 -5.969458 105.183472
-9.160000 2.840000 2.800000 11.101614 4.299082 141.727936
-9.160000 2.840000 2.840000 -1.644398 -1.540415 5.076921
-9.160000 2.840000 2.880000 -1.224723 -16.052176 259.172272
-9.160000 2.840000 2.920000 14.690074 -24.268076 804.737793
-9.160000 2.840000 2.960000 35.054390 -14.832607 1448.816528
-9.160000 2.840000 3.000000 43.330223 10.334922 1984.318848
-9.160000 2.840000 3.040000 30.392881 36.391319 2248.055420
-9.160000 2.840000 3.080000 2.358345 46.368752 2155.622803
-9.160000 2.840000 3.120000 -23.433418 34.330421 1727.703003
-9.160000 2.840000 3.160000 -31.588839 10.125602 1100.382568
-9.160000 2.840000 3.200000 -20.519234 -8.493279 493.174713
-9.160000 2.880000 2.800000 2.688871 -2.952224 15.945657
-9.160000 2.880000 2.840000 2.784414 -13.261522 183.620941
-9.160000 2.880000 2.880000 14.089245 -17.804386 515.502991
-9.160000 2.880000 2.920000 27.794203 -9.540352 863.536011
-9.160000 2.880000 2.960000 32.922878 9.752778 1179.032593
-9.160000 2.880000 3.000000 22.993929 30.812098 1478.106201
-9.160000 2.880000 3.040000 -0.015533 41.993153 1763.425171
-9.160000 2.880000 3.080000 -25.926704 35.964443 1965.635254
-9.160000 2.880000 3.120000 -41.588455 14.967701 1953.631714
-9.160000 2.880000 3.160000 -39.273514 -9.303293 1628.960205
-9.160000 2.880000 3.200000 -22.755716 -22.925268 1043.390625
-9.160000 2.920000 2.800000 7.441320 -13.194613 229.471069
-9.160000 2.920000 2.840000 18.819952 -16.792114 636.165649
-9.160000 2.920000 2.880000 30.243933 -6.844483 961.542480
-9.160000 2.920000 2.920000 31.196892 11.567126 1107.044434
-9.160000 2.920000 2.960000 18.822254 28.366436 1158.931885
-9.160000 2.920000 3.000000 -2.500282 35.224010 1246.982422
-9.160000 2.920000 3.040000 -24.800419 28.645611 1435.631836
-9.160000 2.920000 3.080000 -39.633495 10.410385 1679.190063
-9.160000 2.920000 3.120000 -40.897507 -12.593585 1831.204468
-9.160000 2.920000 3.160000 -28.377132 -30.246372 1720.104736
-9.160000 2.920000 3.200000 -9.624189 -34.546673 1286.097656
-9.160000 2.960000 2.800000 21.404289 -12.732548 620.261353
-9.160000 2.960000 2.840000 34.265369 -4.300756 1192.612061
-9.160000 2.960000 2.880000 35.711754 14.723752 1492.118164
-9.160000 2.960000 2.920000 21.700382 31.628075 1471.241699
-9.160000 2.960000 2.960000 -1.305437 36.184761 1311.041138
-9.160000 2.960000 3.000000 -22.807438 26.249933 1209.238281
-9.160000 2.960000 3.040000 -34.726192 6.534596 1248.609375
-9.160000 2.960000 3.080000 -33.877644 -15.288235 1381.424805
-9.160000 2.960000 3.120000 -21.916712 -31.561909 1476.496338
-9.160000 2.960000 3.160000 -4.739304 -37.010738 1392.255859
-9.160000 2.960000 3.200000 9.422379 -31.437656 1077.107422
-9.160000 3.000000 2.800000 30.262346 1.668684 918.594116
-9.160000 3.000000 2.840000 35.389523 17.365240 1553.969971
-9.160000 3.000000 2.880000 25.237270 35.100723 1868.980591
-9.160000 3.000000 2.920000 2.931059 42.269779 1795.325317
-9.160000 3.000000 2.960000 -20.391392 33.052361 1508.267334
-9.160000 3.000000 3.000000 -33.353638 11.314147 1240.474976
-9.160000 3.000000 3.040000 -30.841757 -12.794243 1114.906616
-9.160000 3.000000 3.080000 -15.938607 -29.032642 1096.933594
-9.160000 3.000000 3.120000 2.672077 -32.416744 1057.985352
-9.160000 3.000000 3.160000 15.969463 -25.290419 894.629028
-9.160000 3.000000 3.200000 19.816132 -15.161914 622.562744
-9.160000 3.040000 2.800000 24.104385 18.832777 935.694946
-9.160000 3.040000 2.840000 20.923275 32.681328 1505.852661
-9.160000 3.040000 2.880000 5.697937 43.091637 1889.355591
-9.160000 3.040000 2.920000 -16.340187 40.715424 1924.747437
-9.160000 3.040000 2.960000 -33.632217 22.838236 1652.711182
-9.160000 3.040000 3.000000 -35.526562 -3.204124 1272.402954
-9.160000 3.040000 3.040000 -20.359406 -23.829315 982.341675
-9.160000 3.040000 3.080000 2.406449 -28.683018 828.506531
-9.160000 3.040000 3.120000 18.904345 -18.557516 701.755615
-9.160000 3.040000 3.160000 21.692968 -4.480856 490.662933
-9.160000 3.040000 3.200000 15.253208 1.988282 236.613617
-9.160000 3.080000 2.800000 8.010542 24.667728 672.665588
-9.160000 3.080000 2.840000 3.255384 32.926918 1094.779419
-9.160000 3.080000 2.880000 -10.491714 38.334076 1579.577393
-9.160000 3.080000 2.920000 -29.189487 31.600174 1850.597168
-9.160000 3.080000 2.960000 -40.269325 10.331276 1728.353760
-9.160000 3.080000 3.000000 -32.882835 -14.978222 1305.628052
-9.160000 3.080000 3.040000 -9.586617 -27.727793 860.733704
-9.160000 3.080000 3.080000 13.661634 -20.103468 590.789673
-9.160000 3.080000 3.120000 21.272316 -1.116441 453.757843
-9.160000 3.080000 3.160000 12.563570 11.597437 292.343842
-9.160000 3.080000 3.200000 1.814414 8.957255 83.524521
-9.160000 3.120000 2.800000 -3.322664 17.071732 302.484131
-9.160000 3.120000 2.840000 -4.830596 24.369728 617.218323
-9.160000 3.120000 2.880000 -17.544205 30.143787 1216.447021
-9.160000 3.120000 2.920000 -35.525558 21.605316 1728.854980
-9.160000 3.120000 2.960000 -42.146996 -1.930879 1780.097534
-9.160000 3.120000 3.000000 -27.362156 -24.478760 1347.897217
-9.160000 3.120000 3.040000 -0.440623 -27.767429 771.224304
-9.160000 3.120000 3.080000 17.352003 -10.224644 405.635345
-9.160000 3.120000 3.120000 13.801662 10.560316 302.006165
-9.160000 3.120000 3.160000 -1.925351 15.732237 251.210251
-9.160000 3.120000 3.200000 -9.532743 4.678617 112.762627
-9.160000 3.160000 2.800000 -1.497540 8.054965 67.125092
-9.160000 3.160000 2.840000 -3.409655 20.190506 419.282257
-9.160000 3.160000 2.880000 -20.559793 26.245560 1111.534546
-9.160000 3.160000 2.920000 -39.543175 12.741443 1726.007080
-9.160000 3.160000 2.960000 -40.383690 -13.956426 1825.624268
-9.160000 3.160000 3.000000 -18.710083 -31.725128 1356.551025
-9.160000 3.160000 3.040000 7.718029 -25.201630 694.690125
-9.160000 3.160000 3.080000 16.546011 -2.263851 278.895508
-9.160000 3.160000 3.120000 3.894328 14.146156 215.279526
-9.160000 3.160000 3.160000 -12.389437 10.407347 261.811005
-9.160000 3.160000 3.200000 -12.983242 -3.857633 183.445908
-9.160000 3.200000 2.800000 6.346171 10.396277 148.356476
-9.160000 3.200000 2.840000 -4.033206 25.127464 647.656189
-9.160000 3.200000 2.880000 -27.330864 24.323792 1338.623047
-9.160000 3.200000 2.920000 -42.732296 2.008918 1830.084839
-9.160000 3.200000 2.960000 -33.839478 -25.425793 1791.581177
-9.160000 3.200000 3.000000 -6.909530 -34.662247 1249.212891
-9.160000 3.200000 3.040000 14.498181 -19.287827 582.217529
-9.160000 3.200000 3.080000 13.406296 3.769464 193.937622
-9.160000 3.200000 3.120000 -3.852554 12.418835 169.069611
-9.160000 3.200000 3.160000 -15.984351 2.359139 261.065033
-9.160000 3.200000 3.200000 -10.580538 -10.036242 212.673950
-9.120000 2.800000 2.800000 17.586769 15.350979 544.947021
-9.120000 2.800000 2.840000 0.492827 8.687063 75.707947
-9.120000 2.800000 2.880000 -1.192565 -9.145329 85.059265
-9.120000 2.800000 2.920000 15.113114 -19.656212 614.772888
-9.120000 2.800000 2.960000 35.064133 -10.643411 1342.775635
-9.120000 2.800000 3.000000 40.700203 12.447480 1811.446289
-9.120000 2.800000 3.040000 26.862921 31.966047 1743.444702
-9.120000 2.800000 3.080000 4.994926 34.459660 1212.417480
-9.120000 2.800000 3.120000 -8.474327 21.992929 555.503174
-9.120000 2.800000 3.160000 -7.001188 8.245720 117.008530
-9.120000 2.800000 3.200000 2.066672 4.647791 25.873096
-9.120000 2.840000 2.800000 2.410074 13.571100 189.983215
-9.120000 2.840000 2.840000 -1.831495 -1.490446 5.575805
-9.120000 2.840000 2.880000 10.900129 -11.153990 243.224304
-9.120000 2.840000 2.920000 28.289738 -3.071068 809.740723
-9.120000 2.840000 2.960000 33.084557 19.458652 1473.227051
-9.120000 2.840000 3.000000 18.113243 40.428165 1962.526123
-9.120000 2.840000 3.040000 -8.024901 44.871220 2077.825439
-9.120000 2.840000 3.080000 -28.822920 30.797785 1779.264160
-9.120000 2.840000 3.120000 -33.440926 9.378527 1206.252319
-9.120000 2.840000 3.160000 -23.936867 -5.418131 602.329712
-9.120000 2.840000 3.200000 -11.181026 -7.639232 183.373199
-9.120000 2.880000 2.800000 -2.697525 1.674276 10.079843
-9.120000 2.880000 2.840000 8.284630 -8.763035 145.425873
-9.120000 2.880000 2.880000 24.529804 -0.950747 602.615234
-9.120000 2.880000 2.920000 27.717838 21.932247 1249.302002
-9.120000 2.880000 2.960000 9.884794 43.096409 1955.009521
-9.120000 2.880000 3.000000 -20.357605 46.256809 2554.124512
-9.120000 2.880000 3.040000 -45.364498 28.187449 2852.469971
-9.120000 2.880000 3.080000 -52.090759 -0.132692 2713.464844
-9.120000 2.880000 3.120000 -40.417332 -22.995029 2162.332031
-9.120000 2.880000 3.160000 -20.816999 -31.062973 1398.255737
-9.120000 2.880000 3.200000 -5.313419 -25.749306 691.259155
-9.120000 2.920000 2.800000 6.040398 -6.401732 77.468582
-9.120000 2.920000 2.840000 22.655762 -1.953518 517.099792
-9.120000 2.920000 2.880000 27.281120 20.265167 1154.936523
-9.120000 2.920000 2.920000 8.856737 42.586681 1892.067261
-9.120000 2.920000 2.960000 -24.754459 45.615902 2693.593750
-9.120000 2.920000 3.000000 -53.586750 23.760233 3436.088379
-9.120000 2.920000 3.040000 -61.180000 -11.462228 3874.375000
-9.120000 2.920000 3.080000 -45.631443 -41.224548 3781.691895
-9.120000 2.920000 3.120000 -18.588709 -52.769447 3130.154541
-9.120000 2.920000 3.160000 4.690604 -46.049026 2142.514648
-9.120000 2.920000 3.200000 15.284880 -30.561012 1167.603027
-9.120000 2.960000 2.800000 18.087986 -0.127152 327.191406
-9.120000 2.960000 2.840000 26.228550 17.345520 988.803894
-9.120000 2.960000 2.880000 12.311599 39.758598 1732.321533
-9.120000 2.960000 2.920000 -20.344618 45.664471 2499.147461
-9.120000 2.960000 2.960000 -52.127453 24.626755 3323.748291
-9.120000 2.960000 3.000000 -62.505375 -14.474166 4116.423340
-9.120000 2.960000 3.040000 -45.179420 -50.589249 4600.452148
-9.120000 2.960000 3.080000 -11.327528 -65.967087 4479.969727
-9.120000 2.960000 3.120000 19.897980 -57.375053 3687.826416
-9.120000 2.960000 3.160000 34.854172 -35.624916 2483.947754
-9.120000 2.960000 3.200000 32.640465 -15.794469 1314.865112
-9.120000 3.000000 2.800000 18.735611 16.441038 621.330872
-9.120000 3.000000 2.840000 12.126551 34.602356 1344.376221
-9.120000 3.000000 2.880000 -13.242902 43.515198 2068.946777
-9.120000 3.000000 2.920000 -43.641834 28.962029 2743.408691
-9.120000 3.000000 2.960000 -58.167595 -6.921616 3431.377686
-9.120000 3.000000 3.000000 -44.626854 -45.934116 4101.499023
-9.120000 3.000000 3.040000 -8.996462 -66.627319 4520.136230
-9.120000 3.000000 3.080000 28.866568 -59.525169 4376.524414
-9.120000 3.000000 3.120000 49.615314 -33.026085 3552.401855
-9.120000 3.000000 3.160000 47.505592 -5.853068 2291.039551
-9.120000 3.000000 3.200000 32.275841 7.296253 1094.965210
-9.120000 3.040000 2.800000 4.176601 28.283873 817.421509
-9.120000 3.040000 2.840000 -10.717572 35.941765 1406.676758
-9.120000 3.040000 2.880000 -33.399734 29.323517 1975.410889
-9.120000 3.040000 2.920000 -49.375046 3.960036 2453.577148
-9.120000 3.040000 2.960000 -44.079178 -30.664675 2883.296143
-9.120000 3.040000 3.000000 -15.050293 -55.380829 3293.547363
-9.120000 3.040000 3.040000 23.734756 -54.778152 3563.984619
-9.120000 3.040000 3.080000 50.689354 -29.629648 3447.326660
-9.120000 3.040000 3.120000 52.656940 2.853315 2780.894775
-9.120000 3.040000 3.160000 34.838226 22.341366 1712.838623
-9.120000 3.040000 3.200000 15.463053 21.364386 695.542969
-9.120000 3.080000 2.800000 -14.401235 24.652758 815.154053
-9.120000 3.080000 2.840000 -25.993204 21.618509 1143.006592
-9.120000 3.080000 2.880000 -37.680470 8.814482 1497.512817
-9.120000 3.080000 2.920000 -39.764271 -14.113613 1780.391357
-9.120000 3.080000 2.960000 -23.858625 -37.319271 1961.962036
-9.120000 3.080000 3.000000 6.966343 -45.162983 2088.225098
-9.120000 3.080000 3.040000 36.288475 -29.282640 2174.326416
-9.120000 3.080000 3.080000 45.896656 1.647539 2109.217285
-9.120000 3.080000 3.120000 31.732470 26.950657 1733.287598
-9.120000 3.080000 3.160000 8.380414 31.314348 1050.819702
-9.120000 3.080000 3.200000 -3.877272 18.334742 351.195984
-9.120000 3.120000 2.800000 -22.373779 9.972510 600.036987
-9.120000 3.120000 2.840000 -25.908588 5.093017 697.193787
-9.120000 3.120000 2.880000 -29.917110 -4.114288 911.960876
-9.120000 3.120000 2.920000 -27.150005 -19.361298 1111.982666
-9.120000 3.120000 2.960000 -11.044428 -32.240742 1161.444824
-9.120000 3.120000 3.000000 13.322508 -29.916906 1072.510498
-9.120000 3.120000 3.040000 29.785177 -9.259388 972.893066
-9.120000 3.120000 3.080000 25.548748 16.503239 925.095398
-9.120000 3.120000 3.120000 5.085231 28.342834 829.175842
-9.120000 3.120000 3.160000 -12.662633 19.912828 556.863037
-9.120000 3.120000 3.200000 -12.692526 4.334751 179.890289
-9.120000 3.160000 2.800000 -16.782253 -1.239497 283.180359
-9.120000 3.160000 2.840000 -17.850807 -1.298185 320.336578
-9.120000 3.160000 2.880000 -22.466415 -6.373697 545.363831
-9.120000 3.160000 2.920000 -21.082644 -18.356663 781.444946
-9.120000 3.160000 2.960000 -7.602785 -27.332832 804.886108
-9.120000 3.160000 3.000000 10.491425 -21.817844 586.088318
-9.120000 3.160000 3.040000 17.798653 -3.159969 326.777435
-9.120000 3.160000 3.080000 7.475576 13.405938 235.603424
-9.120000 3.160000 3.120000 -10.081695 13.952115 296.302063
-9.120000 3.160000 3.160000 -17.421688 1.082276 304.686554
-9.120000 3.160000 3.200000 -8.889086 -8.397308 149.530640
-9.120000 3.200000 2.800000 -8.815407 -0.106709 77.722778
-9.120000 3.200000 2.840000 -14.916170 1.356851 224.333176
-9.120000 3.200000 2.880000 -22.297497 -6.568807 540.327576
-9.120000 3.200000 2.920000 -19.785006 -20.652414 817.968628
-9.120000 3.200000 2.960000 -5.417126 -28.170429 822.918335
-9.120000 3.200000 3.000000 9.504419 -20.961275 529.709045
-9.120000 3.200000 3.040000 11.854836 -5.447832 170.216034
-9.120000 3.200000 3.080000 1.110678 3.540639 13.769730
-9.120000 3.200000 3.120000 -9.893013 -1.182082 99.269020
-9.120000 3.200000 3.160000 -9.309926 -11.327688 214.991241
-9.120000 3.200000 3.200000 0.221053 -12.775751 163.268677
-9.080000 2.800000 2.800000 2.250486 17.467146 310.165894
-9.080000 2.800000 2.840000 -1.442006 4.606935 23.303232
-9.080000 2.800000 2.880000 8.694288 -3.524967 88.016037
-9.080000 2.800000 2.920000 21.567383 2.842058 473.229309
-9.080000 2.800000 2.960000 23.201004 18.929441 896.610352
-9.080000 2.800000 3.000000 10.848633 30.446135 1044.659912
-9.080000 2.800000 3.040000 -4.758055 28.243662 820.343506
-9.080000 2.800000 3.080000 -11.033558 17.018694 411.375366
-9.080000 2.800000 3.120000 -6.296124 9.284374 125.840790
-9.080000 2.800000 3.160000 -0.281885 11.716844 137.363876
-9.080000 2.800000 3.200000 -2.624460 18.747883 358.370911
-9.080000 2.840000 2.800000 -7.182273 8.925009 131.240829
-9.080000 2.840000 2.840000 3.819417 -1.235758 16.115040
-9.080000 2.840000 2.880000 19.088350 7.022280 413.677521
-9.080000 2.840000 2.920000 19.634140 29.110416 1232.915771
-9.080000 2.840000 2.960000 -0.758335 45.903160 2107.675049
-9.080000 2.840000 3.000000 -29.096895 41.657673 2581.990967
-9.080000 2.840000 3.040000 -45.239204 18.598812 2392.501465
-9.080000 2.840000 3.080000 -40.247086 -5.916262 1654.830078
-9.080000 2.840000 3.120000 -23.040022 -16.033695 787.921997
-9.080000 2.840000 3.160000 -9.947704 -10.867278 217.054550
-9.080000 2.840000 3.200000 -8.915756 -2.230557 84.466095
-9.080000 2.880000 2.800000 -5.329514 -1.343914 30.209820
-9.080000 2.880000 2.840000 12.950607 2.845720 175.816360
-9.080000 2.880000 2.880000 17.187563 27.273693 1039.266602
-9.080000 2.880000 2.920000 -5.829401 50.249474 2558.991455
-9.080000 2.880000 2.960000 -44.659580 47.838890 4283.037598
-9.080000 2.880000 3.000000 -72.364006 15.828049 5487.076660
-9.080000 2.880000 3.040000 -69.859375 -26.289589 5571.474609
-9.080000 2.880000 3.080000 -41.482323 -52.485023 4475.460938
-9.080000 2.880000 3.120000 -9.118286 -51.679356 2753.898926
-9.080000 2.880000 3.160000 7.802992 -33.880653 1208.785400
-9.080000 2.880000 3.200000 6.868631 -17.513718 353.908417
-9.080000 2.920000 2.800000 3.643206 -2.617971 20.126722
-9.080000 2.920000 2.840000 14.243145 16.814404 485.591309
-9.080000 2.920000 2.880000 -3.148277 42.937157 1853.510986
-9.080000 2.920000 2.920000 -44.406364 46.551723 4138.988281
-9.080000 2.920000 2.960000 -81.472153 13.857043 6829.729004
-9.080000 2.920000 3.000000 -85.643417 -39.877625 8925.019531
-9.080000 2.920000 3.040000 -51.809978 -82.212685 9443.199219
-9.080000 2.920000 3.080000 -1.938465 -89.857399 8078.109863
-9.080000 2.920000 3.120000 34.092289 -65.596634 5465.202637
-9.080000 2.920000 3.160000 41.817940 -32.159988 2783.004883
-9.080000 2.920000 3.200000 29.330761 -11.175271 985.180176
-9.080000 2.960000 2.800000 7.852574 7.039384 111.215851
-9.080000 2.960000 2.840000 0.874992 29.492048 870.546509
-9.080000 2.960000 2.880000 -32.679203 39.003807 2589.227295
-9.080000 2.960000 2.920000 -71.630814 14.215599 5333.056641
-9.080000 2.960000 2.960000 -83.869904 -39.519653 8595.963867
-9.080000 2.960000 3.000000 -53.528221 -91.665192 11267.778320
-9.080000 2.960000 3.040000 4.796078 -110.115273 12148.375000
-9.080000 2.960000 3.080000 57.309952 -86.242447 10722.190430
-9.080000 2.960000 3.120000 77.395645 -39.865150 7579.316406
-9.080000 2.960000 3.160000 63.934402 -1.279884 4089.246094
-9.080000 2.960000 3.200000 37.213009 12.413091 1538.892822
-9.080000 3.000000 2.800000 -0.732326 17.907688 321.221619
-9.080000 3.000000 2.840000 -20.983000 27.998299 1224.191040
-9.080000 3.000000 2.880000 -52.433975 14.033416 2946.258545
-9.080000 3.000000 2.920000 -68.759674 -28.532173 5541.977539
-9.080000 3.000000 2.960000 -48.406097 -79.114105 8602.191406
-9.080000 3.000000 3.000000 5.487512 -105.554100 11171.780273
-9.080000 3.000000 3.040000 64.685089 -89.177719 12136.826172
-9.080000 3.000000 3.080000 96.483627 -39.978432 10907.366211
-9.080000 3.000000 3.120000 88.142807 11.342682 7897.810547
-9.080000 3.000000 3.160000 54.425972 37.435352 4363.592285
-9.080000 3.000000 3.200000 22.873539 33.552677 1648.980957
-9.080000 3.040000 2.800000 -17.662029 17.607840 621.983276
-9.080000 3.040000 2.840000 -36.402390 10.125680 1427.663330
-9.080000 3.040000 2.880000 -49.648163 -17.114967 2757.862305
-9.080000 3.040000 2.920000 -39.154976 -55.591137 4623.486816
-9.080000 3.040000 2.960000 0.514771 -82.296211 6772.931641
-9.080000 3.040000 3.000000 53.207207 -75.977524 8603.590820
-9.080000 3.040000 3.040000 90.017426 -35.273479 9347.355469
-9.080000 3.040000 3.080000 90.520172 17.668343 8506.071289
-9.080000 3.040000 3.120000 58.774399 52.984955 6261.835449
-9.080000 3.040000 3.160000 19.622040 55.724514 3490.245850
-9.080000 3.040000 3.200000 -1.921363 35.723564 1279.864746
-9.080000 3.080000 2.800000 -29.629427 3.456306 889.848999
-9.080000 3.080000 2.840000 -34.932930 -12.864887 1385.814941
-9.080000 3.080000 2.880000 -28.739771 -35.702919 2100.672852
-9.080000 3.080000 2.920000 -4.930498 -54.728367 3019.503906
-9.080000 3.080000 2.960000 31.694752 -55.062016 4036.382812
-9.080000 3.080000 3.000000 63.674007 -29.208521 4907.516602
-9.080000 3.080000 3.040000 71.461105 13.208351 5281.149902
-9.080000 3.080000 3.080000 49.465733 49.148708 4862.454102
-9.080000 3.080000 3.120000 12.642546 59.065250 3648.537842
-9.080000 3.080000 3.160000 -14.501225 42.853569 2046.713867
-9.080000 3.080000 3.200000 -18.059631 19.472485 705.327942
-9.080000 3.120000 2.800000 -27.299011 -14.490733 955.217407
-9.080000 3.120000 2.840000 -19.928436 -26.331985 1090.516113
-9.080000 3.120000 2.880000 -6.448506 -34.989529 1265.850342
-9.080000 3.120000 2.920000 13.058611 -36.076950 1472.073730
-9.080000 3.120000 2.960000 33.205170 -23.869051 1672.314819
-9.080000 3.120000 3.000000 42.733986 1.370438 1828.071655
-9.080000 3.120000 3.040000 32.822067 28.499775 1889.525269
-9.080000 3.120000 3.080000 7.267405 41.476013 1773.074829
-9.080000 3.120000 3.120000 -17.501156 33.119720 1403.206299
-9.080000 3.120000 3.160000 -25.570223 13.000002 822.836365
-9.080000 3.120000 3.200000 -16.121861 -0.344379 260.032990
-9.080000 3.160000 2.800000 -14.396208 -23.237139 747.215393
-9.080000 3.160000 2.840000 -4.623253 -25.379293 665.482971
-9.080000 3.160000 2.880000 3.900300 -24.140640 597.982849
-9.080000 3.160000 2.920000 12.249472 -19.846992 543.952637
-9.080000 3.160000 2.960000 18.700994 -10.212578 454.023956
-9.080000 3.160000 3.000000 17.732899 3.611834 327.501038
-9.080000 3.160000 3.040000 6.532288 14.029357 239.493637
-9.080000 3.160000 3.080000 -8.873880 12.986135 247.385468
-9.080000 3.160000 3.120000 -17.056953 1.386452 292.861908
-9.080000 3.160000 3.160000 -12.477265 -9.662376 249.043671
-9.080000 3.160000 3.200000 -2.421095 -9.320917 92.741196
-9.080000 3.200000 2.800000 -3.519493 -19.622284 397.420868
-9.080000 3.200000 2.840000 0.962840 -17.976002 324.063690
-9.080000 3.200000 2.880000 3.248519 -17.111412 303.353302
-9.080000 3.200000 2.920000 6.413897 -16.536564 314.596008
-9.080000 3.200000 2.960000 9.809748 -13.374573 275.110352
-9.080000 3.200000 3.000000 9.743179 -8.033125 159.460632
-9.080000 3.200000 3.040000 5.254177 -5.103453 53.651604
-9.080000 3.200000 3.080000 0.937765 -7.701380 60.190651
-9.080000 3.200000 3.120000 2.108810 -12.433626 159.042145
-9.080000 3.200000 3.160000 7.628372 -12.268323 208.703812
-9.080000 3.200000 3.200000 9.627432 -5.136282 119.068848
-9.040000 2.800000 2.800000 -4.891848 5.652449 55.880348
-9.040000 2.800000 2.840000 4.375378 1.481138 21.337700
-9.040000 2.800000 2.880000 13.127502 9.919315 270.724121
-9.040000 2.800000 2.920000 9.467724 24.470093 688.423279
-9.040000 2.800000 2.960000 -6.603527 30.666702 984.053223
-9.040000 2.800000 3.000000 -21.775354 21.135376 920.870178
-9.040000 2.800000 3.040000 -22.652866 4.199772 530.790405
-9.040000 2.800000 3.080000 -10.026579 -4.012814 116.634964
-9.040000 2.800000 3.120000 1.365868 3.670460 15.337870
-9.040000 2.800000 3.160000 -1.961361 17.628086 314.596344
-9.040000 2.800000 3.200000 -17.975967 21.251396 774.757202
-9.040000 2.840000 2.800000 -4.791163 -0.747190 23.513540
-9.040000 2.840000 2.840000 10.458370 7.769470 169.742172
-9.040000 2.840000 2.880000 9.418726 31.099068 1055.864502
-9.040000 2.840000 2.920000 -15.687916 47.536278 2505.808350
-9.040000 2.840000 2.960000 -49.467613 37.609360 3861.508789
-9.040000 2.840000 3.000000 -65.905228 3.768536 4357.700684
-9.040000 2.840000 3.040000 -52.397057 -30.388058 3668.885742
-9.040000 2.840000 3.080000 -21.529949 -41.498863 2185.694336
-9.040000 2.840000 3.120000 1.262527 -27.410816 752.946838
-9.040000 2.840000 3.160000 1.629135 -7.191406 54.370407
-9.040000 2.840000 3.200000 -12.110333 -1.035460 147.732346
-9.040000 2.880000 2.800000 -0.767949 -2.618848 7.448110
-9.040000 2.880000 2.840000 6.849241 20.186005 454.386902
-9.040000 2.880000 2.880000 -15.806404 45.457634 2316.238770
-9.040000 2.880000 2.920000 -60.153839 42.883942 5457.516602
-9.040000 2.880000 2.960000 -93.592247 2.082458 8763.845703
-9.040000 2.880000 3.000000 -87.423027 -54.827610 10648.852539
-9.040000 2.880000 3.040000 -42.983822 -90.712410 10076.349609
-9.040000 2.880000 3.080000 9.197845 -85.095253 7325.802734
-9.040000 2.880000 3.120000 36.314247 -50.174938 3836.249023
-9.040000 2.880000 3.160000 30.285347 -16.974623 1205.340088
-9.040000 2.880000 3.200000 9.972500 -6.552475 142.385681
-9.040000 2.920000 2.800000 1.031564 1.417328 3.072942
-9.040000 2.920000 2.840000 -9.465199 27.316973 835.806946
-9.040000 2.920000 2.880000 -50.151215 34.831779 3728.396973
-9.040000 2.920000 2.920000 -93.041763 0.347130 8656.889648
-9.040000 2.920000 2.960000 -99.328217 -65.390549 14142.018555
-9.040000 2.920000 3.000000 -54.013203 -121.984940 17797.751953
-9.040000 2.920000 3.040000 18.753784 -131.980316 17770.509766
-9.040000 2.920000 3.080000 74.735306 -91.897346 14030.488281
-9.040000 2.920000 3.120000 85.635254 -33.353542 8445.855469
-9.040000 2.920000 3.160000 59.119980 5.507143 3525.500732
-9.040000 2.920000 3.200000 26.322376 10.621235 805.678101
-9.040000 2.960000 2.800000 -4.389549 6.461996 61.025536
-9.040000 2.960000 2.840000 -30.125546 19.066641 1271.085205
-9.040000 2.960000 2.880000 -69.408875 -1.395210 4819.538574
-9.040000 2.960000 2.920000 -85.427391 -58.889053 10765.759766
-9.040000 2.960000 2.960000 -50.817337 -122.265839 17531.337891
-9.040000 2.960000 3.000000 25.097397 -147.467255 22376.470703
-9.040000 2.960000 3.040000 99.874344 -113.976974 22965.636719
-9.040000 2.960000 3.080000 130.844940 -42.512505 18927.710938
-9.040000 2.960000 3.120000 108.132324 22.185326 12184.788086
-9.040000 2.960000 3.160000 58.781773 47.469124 5708.614258
-9.040000 2.960000 3.200000 20.296471 35.100399 1643.984619
-9.040000 3.000000 2.800000 -15.528189 4.770786 263.885040
-9.040000 3.000000 2.840000 -40.974022 -3.949115 1694.465942
-9.040000 3.000000 2.880000 -57.738136 -43.104122 5191.657715
-9.040000 3.000000 2.920000 -37.222744 -97.010620 10796.593750
-9.040000 3.000000 2.960000 25.391457 -128.480331 17151.921875
-9.040000 3.000000 3.000000 100.780807 -108.094696 21841.234375
-9.040000 3.000000 3.040000 145.002533 -40.665825 22679.443359
-9.040000 3.000000 3.080000 133.598877 35.889893 19136.744141
-9.040000 3.000000 3.120000 80.307526 79.612244 12787.408203
-9.040000 3.000000 3.160000 23.912479 76.038757 6353.699219
-9.040000 3.000000 3.200000 -4.069268 44.850525 2028.128540
-9.040000 3.040000 2.800000 -24.219398 -7.196535 638.369385
-9.040000 3.040000 2.840000 -33.346931 -29.712763 1994.866089
-9.040000 3.040000 2.880000 -21.629490 -65.174408 4715.538574
-9.040000 3.040000 2.920000 20.981411 -91.162910 8750.895508
-9.040000 3.040000 2.960000 80.663895 -81.747902 13189.382812
-9.040000 3.040000 3.000000 124.537712 -30.523800 16441.343750
-9.040000 3.040000 3.040000 124.388908 39.438164 17027.968750
-9.040000 3.040000 3.080000 79.839600 90.231461 14516.078125
-9.040000 3.040000 3.120000 19.732319 97.534416 9902.326172
-9.040000 3.040000 3.160000 -20.636457 68.200592 5077.184082
-9.040000 3.040000 3.200000 -26.510641 31.568665 1699.394653
-9.040000 3.080000 2.800000 -22.012899 -24.357933 1077.876709
-9.040000 3.080000 2.840000 -11.195408 -43.826355 2046.086548
-9.040000 3.080000 2.880000 15.751068 -57.806396 3589.675781
-9.040000 3.080000 2.920000 53.882263 -51.998306 5607.122070
-9.040000 3.080000 2.960000 85.467773 -18.928850 7663.041504
-9.040000 3.080000 3.000000 89.824928 31.575314 9065.517578
-9.040000 3.080000 3.040000 59.884682 74.750458 9173.805664
-9.040000 3.080000 3.080000 10.742756 87.597397 7788.710449
-9.040000 3.080000 3.120000 -29.770716 66.854576 5355.829590
-9.040000 3.080000 3.160000 -42.187263 31.655451 2781.832764
-9.040000 3.080000 3.200000 -29.740044 7.298523 937.738647
-9.040000 3.120000 2.800000 -7.963483 -36.140743 1369.570435
-9.040000 3.120000 2.840000 12.260736 -40.487251 1789.543213
-9.040000 3.120000 2.880000 34.245995 -32.678810 2240.692871
-9.040000 3.120000 2.920000 50.409542 -11.724918 2678.595459
-9.040000 3.120000 2.960000 51.947906 17.777706 3014.631836
-9.040000 3.120000 3.000000 34.319328 44.248882 3135.779785
-9.040000 3.120000 3.040000 3.384491 54.201515 2949.259033
-9.040000 3.120000 3.080000 -25.371197 42.295303 2432.590332
-9.040000 3.120000 3.120000 -37.043205 17.347286 1673.127441
-9.040000 3.120000 3.160000 -29.309490 -3.335539 870.171997
-9.040000 3.120000 3.200000 -14.453648 -8.076922 274.144592
-9.040000 3.160000 2.800000 9.679497 -35.276100 1338.095825
-9.040000 3.160000 2.840000 25.161316 -25.924999 1305.197388
-9.040000 3.160000 2.880000 31.748756 -10.264942 1113.352539
-9.040000 3.160000 2.920000 28.524614 5.491142 843.806274
-9.040000 3.160000 2.960000 17.420565 16.340961 570.503052
-9.040000 3.160000 3.000000 2.439003 18.655176 353.964325
-9.040000 3.160000 3.040000 -10.242920 11.457144 236.183563
-9.040000 3.160000 3.080000 -14.461296 -1.281544 210.771439
-9.040000 3.160000 3.120000 -8.883881 -11.358105 207.929871
-9.040000 3.160000 3.160000 0.289022 -12.160467 147.960495
-9.040000 3.160000 3.200000 3.521825 -5.176392 39.198280
-9.040000 3.200000 2.800000 20.234562 -24.218712 995.983521
-9.040000 3.200000 2.840000 25.503658 -11.851423 790.892822
-9.040000 3.200000 2.880000 21.582577 -1.692268 468.671387
-9.040000 3.200000 2.920000 13.720476 1.618907 190.872330
-9.040000 3.200000 2.960000 7.648083 -1.387366 60.417953
-9.040000 3.200000 3.000000 6.502731 -7.137904 93.235191
-9.040000 3.200000 3.040000 10.397346 -11.453850 239.295486
-9.040000 3.200000 3.080000 16.825851 -11.009434 404.316925
-9.040000 3.200000 3.120000 21.202646 -4.875191 473.319702
-9.040000 3.200000 3.160000 18.952312 3.787849 373.537964
-9.040000 3.200000 3.200000 9.371246 8.352448 157.583649
-9.000000 2.800000 2.800000 3.013470 -4.394981 28.396860
-9.000000 2.800000 2.840000 11.600487 7.059427 184.406799
-9.000000 2.800000 2.880000 5.786552 23.875576 603.527344
-9.000000 2.800000 2.920000 -14.234940 30.370815 1125.019897
-9.000000 2.800000 2.960000 -33.623348 17.510036 1437.130859
-9.000000 2.800000 3.000000 -35.576103 -6.359222 1306.098877
-9.000000 2.800000 3.040000 -18.130447 -21.555241 793.341553
-9.000000 2.800000 3.080000 2.501305 -15.598330 249.564423
-9.000000 2.800000 3.120000 6.833260 4.041266 63.025269
-9.000000 2.800000 3.160000 -8.821541 16.621845 354.105316
-9.000000 2.800000 3.200000 -28.487427 8.317307 880.711121
-9.000000 2.840000 2.800000 6.210625 -0.623439 38.960533
-9.000000 2.840000 2.840000 6.584969 23.341215 588.174133
-9.000000 2.840000 2.880000 -19.002884 42.116600 2134.917480
-9.000000 2.840000 2.920000 -57.092682 32.782108 4334.240723
-9.000000 2.840000 2.960000 -78.462875 -6.534920 6199.127930
-9.000000 2.840000 3.000000 -63.651138 -51.318825 6685.089355
-9.000000 2.840000 3.040000 -21.861179 -70.521133 5451.141602
-9.000000 2.840000 3.080000 16.122341 -53.910282 3166.248535
-9.000000 2.840000 3.120000 25.237169 -20.569477 1060.018066
-9.000000 2.840000 3.160000 7.545460 -0.213816 56.979679
-9.000000 2.840000 3.200000 -12.577642 -5.780235 191.608200
-9.000000 2.880000 2.800000 3.132221 4.782698 32.685005
-9.000000 2.880000 2.840000 -14.531189 30.564777 1145.361084
-9.000000 2.880000 2.880000 -58.118027 32.048996 4404.843262
-9.000000 2.880000 2.920000 -96.447144 -8.310799 9371.121094
-9.000000 2.880000 2.960000 -93.711754 -73.293617 14153.846680
-9.000000 2.880000 3.000000 -42.288338 -120.865189 16396.697266
-9.000000 2.880000 3.040000 27.494980 -118.710129 14848.068359
-9.000000 2.880000 3.080000 71.614334 -71.853844 10291.587891
-9.000000 2.880000 3.120000 68.877243 -17.316429 5043.933594
-9.000000 2.880000 3.160000 35.835152 8.954323 1364.338013
-9.000000 2.880000 3.200000 7.506964 1.216537 57.834469
-9.000000 2.920000 2.800000 -5.406897 5.730064 62.068169
-9.000000 2.920000 2.840000 -38.430420 17.072142 1768.355225
-9.000000 2.920000 2.880000 -81.266083 -10.919771 6723.417480
-9.000000 2.920000 2.920000 -92.782959 -76.960922 14531.661133
-9.000000 2.920000 2.960000 -47.330521 -142.514038 22550.429688
-9.000000 2.920000 3.000000 38.162766 -160.206589 27122.546875
-9.000000 2.920000 3.040000 113.565186 -113.961220 25884.210938
-9.000000 2.920000 3.080000 135.237396 -33.776314 19429.994141
-9.000000 2.920000 3.120000 100.456673 29.284792 10949.141602
-9.000000 2.920000 3.160000 45.554375 44.780243 4080.471191
-9.000000 2.920000 3.200000 11.385852 23.173862 666.665527
-9.000000 2.960000 2.800000 -14.244615 -1.152637 204.237610
-9.000000 2.960000 2.840000 -46.882973 -13.168013 2371.409668
-9.000000 2.960000 2.880000 -65.397018 -63.081589 8256.056641
-9.000000 2.960000 2.920000 -35.559700 -127.657623 17560.960938
-9.000000 2.960000 2.960000 44.040562 -159.594604 27410.007812
-9.000000 2.960000 3.000000 132.869232 -126.079514 33550.277344
-9.000000 2.960000 3.040000 177.156097 -39.428837 32938.917969
-9.000000 2.960000 3.080000 152.741425 49.865181 25816.480469
-9.000000 2.960000 3.120000 83.532700 92.894730 15607.142578
-9.000000 2.960000 3.160000 19.168493 79.315964 6658.453125
-9.000000 2.960000 3.200000 -6.496773 39.090324 1570.261475
-9.000000 3.000000 2.800000 -17.241724 -14.507412 507.742035
-9.000000 3.000000 2.840000 -31.597281 -43.006561 2847.952393
-9.000000 3.000000 2.880000 -15.978107 -90.527863 8450.593750
-9.000000 3.000000 2.920000 42.986313 -123.318665 17055.316406
-9.000000 3.000000 2.960000 122.859238 -105.266647 26175.460938
-9.000000 3.000000 3.000000 176.268402 -31.273308 32048.568359
-9.000000 3.000000 3.040000 167.123749 62.499565 31836.542969
-9.000000 3.000000 3.080000 100.866150 123.936752 25534.298828
-9.000000 3.000000 3.120000 20.575281 125.024704 16054.518555
-9.000000 3.000000 3.160000 -28.031267 81.082413 7360.109375
-9.000000 3.000000 3.200000 -31.019972 33.023766 2052.807617
-9.000000 3.040000 2.800000 -10.652425 -28.978584 953.232544
-9.000000 3.040000 2.840000 -0.434779 -55.401810 3069.549561
-9.000000 3.040000 2.880000 36.790962 -77.118576 7300.849609
-9.000000 3.040000 2.920000 93.450172 -67.939003 13348.642578
-9.000000 3.040000 2.960000 138.914520 -15.565615 19539.533203
-9.000000 3.040000 3.000000 140.043457 61.683384 23417.009766
-9.000000 3.040000 3.040000 89.100159 123.256508 23131.005859
-9.000000 3.040000 3.080000 13.283676 135.988373 18669.292969
-9.000000 3.040000 3.120000 -44.883797 99.736282 11961.880859
-9.000000 3.040000 3.160000 -60.069824 45.764687 5702.790039
-9.000000 3.040000 3.200000 -40.681160 9.433653 1743.950562
-9.000000 3.080000 2.800000 4.802758 -37.621784 1438.465210
-9.000000 3.080000 2.840000 29.487644 -45.561699 2945.389648
-9.000000 3.080000 2.880000 63.121952 -36.341835 5305.109863
-9.000000 3.080000 2.920000 90.676849 -2.253357 8227.368164
-9.000000 3.080000 2.960000 92.156662 49.170601 10910.598633
-9.000000 3.080000 3.000000 58.385334 94.401169 12320.427734
-9.000000 3.080000 3.040000 2.201210 108.400528 11755.520508
-9.000000 3.080000 3.080000 -47.535469 84.040398 9322.409180
-9.000000 3.080000 3.120000 -66.630989 38.847366 5948.806641
-9.000000 3.080000 3.160000 -53.512218 1.385630 2865.477539
-9.000000 3.080000 3.200000 -28.029858 -11.349104 914.475098
-9.000000 3.120000 2.800000 23.565456 -35.277077 1799.802979
-9.000000 3.120000 2.840000 44.662743 -22.304573 2492.254639
-9.000000 3.120000 2.880000 56.347733 2.725492 3182.495117
-9.000000 3.120000 2.920000 51.623291 32.820236 3742.131836
-9.000000 3.120000 2.960000 28.818108 56.419289 4013.619629
-9.000000 3.120000 3.000000 -4.782253 62.035378 3871.258057
-9.000000 3.120000 3.040000 -34.377964 45.999783 3297.824219
-9.000000 3.120000 3.080000 -46.132370 17.043861 2418.688721
-9.000000 3.120000 3.120000 -37.353233 -8.307762 1464.282959
-9.000000 3.120000 3.160000 -18.887575 -17.807215 673.837402
-9.000000 3.120000 3.200000 -6.058553 -12.792967 200.366058
-9.000000 3.160000 2.800000 37.404121 -21.904945 1878.894897
-9.000000 3.160000 2.840000 42.992302 0.538035 1848.627441
-9.000000 3.160000 2.880000 33.330849 20.397526 1527.004517
-9.000000 3.160000 2.920000 14.662064 29.034950 1058.004395
-9.000000 3.160000 2.960000 -3.555073 24.422192 609.081970
-9.000000 3.160000 3.000000 -13.506660 10.807240 299.226288
-9.000000 3.160000 3.040000 -12.191774 -3.929173 164.077759
-9.000000 3.160000 3.080000 -2.626476 -12.103264 153.387375
-9.000000 3.160000 3.120000 7.560078 -10.450394 166.365509
-9.000000 3.160000 3.160000 10.767719 -2.661332 123.026466
-9.000000 3.160000 3.200000 5.243286 2.753836 35.075661
-9.000000 3.200000 2.800000 40.061676 -3.619589 1618.039307
-9.000000 3.200000 2.840000 31.790751 14.046230 1207.948364
-9.000000 3.200000 2.880000 15.367765 18.759029 588.069397
-9.000000 3.200000 2.920000 3.363388 10.051683 112.348717
-9.000000 3.200000 2.960000 3.522079 -3.322496 23.444027
-9.000000 3.200000 3.000000 14.247576 -10.633026 316.054657
-9.000000 3.200000 3.040000 26.963913 -6.454185 768.709106
-9.000000 3.200000 3.080000 32.375275 6.568367 1091.301880
-9.000000 3.200000 3.120000 26.253067 20.014738 1089.813232
-9.000000 3.200000 3.160000 11.860687 25.052265 768.291870
-9.000000 3.200000 3.200000 -1.928564 17.957747 326.200012
-8.960000 2.800000 2.800000 15.079013 -0.582977 227.716492
-8.960000 2.800000 2.840000 10.310951 17.979023 429.560974
-8.960000 2.800000 2.880000 -9.834429 27.699501 863.978333
-8.960000 2.800000 2.920000 -32.760567 17.685684 1386.038208
-8.960000 2.800000 2.960000 -40.629154 -7.725327 1710.408813
-8.960000 2.800000 3.000000 -26.220951 -30.292801 1605.192139
-8.960000 2.800000 3.040000 -0.868889 -32.997902 1089.616577
-8.960000 2.800000 3.080000 14.569363 -15.697214 458.668854
-8.960000 2.800000 3.120000 8.472029 4.184961 89.289169
-8.960000 2.800000 3.160000 -10.771819 7.578035 173.458710
-8.960000 2.800000 3.200000 -22.767178 -8.481796 590.285217
-8.960000 2.840000 2.800000 10.773825 11.764687 254.483154
-8.960000 2.840000 2.840000 -11.203520 32.006165 1149.913330
-8.960000 2.840000 2.880000 -48.613091 27.547062 3122.073242
-8.960000 2.840000 2.920000 -74.872345 -8.655361 5680.783203
-8.960000 2.840000 2.960000 -66.197815 -57.624153 7702.693848
-8.960000 2.840000 3.000000 -23.558380 -86.847137 8097.422363
-8.960000 2.840000 3.040000 25.569199 -76.968102 6577.873047
-8.960000 2.840000 3.080000 49.271118 -38.554901 3914.123535
-8.960000 2.840000 3.120000 37.774067 -2.719955 1434.278320
-8.960000 2.840000 3.160000 9.986504 6.222441 138.449020
-8.960000 2.840000 3.200000 -5.664600 -9.432895 121.067200
-8.960000 2.880000 2.800000 -3.567332 15.193893 243.580261
-8.960000 2.880000 2.840000 -40.813786 21.008636 2107.127930
-8.960000 2.880000 2.880000 -79.358963 -11.428337 6428.452148
-8.960000 2.880000 2.920000 -83.537949 -73.534531 12385.916016
-8.960000 2.880000 2.960000 -37.053230 -127.600601 17654.855469
-8.960000 2.880000 3.000000 38.560730 -134.851990 19671.988281
-8.960000 2.880000 3.040000 97.701538 -88.209717 17326.544922
-8.960000 2.880000 3.080000 106.772934 -19.443489 11778.507812
-8.960000 2.880000 3.120000 70.512047 27.025913 5702.348633
-8.960000 2.880000 3.160000 24.883265 30.205402 1531.543213
-8.960000 2.880000 3.200000 4.008801 5.832003 50.082741
-8.960000 2.920000 2.800000 -16.731493 4.863508 303.596588
-8.960000 2.920000 2.840000 -53.751957 -13.526360 3072.235352
-8.960000 2.920000 2.880000 -69.370224 -69.442154 9634.441406
-8.960000 2.920000 2.920000 -33.106766 -133.894043 19023.673828
-8.960000 2.920000 2.960000 49.592316 -159.415375 27872.660156
-8.960000 2.920000 3.000000 134.171387 -118.796631 32114.601562
-8.960000 2.920000 3.040000 169.161743 -30.936672 29572.773438
-8.960000 2.920000 3.080000 137.143661 51.657104 21476.841797
-8.960000 2.920000 3.120000 67.691902 84.249046 11680.095703
-8.960000 2.920000 3.160000 10.619141 63.377735 4129.503418
-8.960000 2.920000 3.200000 -5.239161 23.246578 567.852173
-8.960000 2.960000 2.800000 -18.530781 -13.516951 526.097778
-8.960000 2.960000 2.840000 -36.276146 -50.032692 3819.229004
-8.960000 2.960000 2.880000 -15.800579 -105.832970 11450.275391
-8.960000 2.960000 2.920000 53.657303 -140.116074 22511.619141
-8.960000 2.960000 2.960000 142.063492 -114.484009 33288.625000
-8.960000 2.960000 3.000000 195.439224 -28.706493 39020.554688
-8.960000 2.960000 3.040000 177.660187 72.732285 36853.128906
-8.960000 2.960000 3.080000 100.746460 132.828217 27793.185547
-8.960000 2.960000 3.120000 15.364002 125.908646 16089.040039
-8.960000 2.960000 3.160000 -30.432150 74.404182 6462.098145
-8.960000 2.960000 3.200000 -26.854454 24.744457 1333.449829
-8.960000 3.000000 2.800000 -6.915765 -29.350956 909.306458
-8.960000 3.000000 2.840000 2.824896 -64.579498 4178.491699
-8.960000 3.000000 2.880000 49.337421 -93.551277 11186.023438
-8.960000 3.000000 2.920000 120.591660 -81.408417 21169.679688
-8.960000 3.000000 2.960000 175.338287 -14.264156 30946.982422
-8.960000 3.000000 3.000000 172.320938 81.461136 36330.421875
-8.960000 3.000000 3.040000 105.405823 153.509399 34675.523438
-8.960000 3.000000 3.080000 11.996707 162.909866 26683.546875
-8.960000 3.000000 3.120000 -55.081383 113.903770 16008.028320
-8.960000 3.000000 3.160000 -68.052048 47.704834 6906.832031
-8.960000 3.000000 3.200000 -41.143253 6.490759 1734.897339
-8.960000 3.040000 2.800000 12.587414 -34.797749 1369.326294
-8.960000 3.040000 2.840000 40.335770 -49.479706 4075.215576
-8.960000 3.040000 2.880000 85.662506 -41.886887 9092.576172
-8.960000 3.040000 2.920000 125.715889 2.858540 15812.655273
-8.960000 3.040000 2.960000 128.882462 74.538284 22166.644531
-8.960000 3.040000 3.000000 80.893471 137.683258 25500.433594
-8.960000 3.040000 3.040000 1.293209 155.443634 24164.394531
-8.960000 3.040000 3.080000 -67.576302 118.684799 18652.638672
-8.960000 3.040000 3.120000 -91.991196 53.863720 11363.679688
-8.960000 3.040000 3.160000 -71.392502 1.394018 5098.832520
-8.960000 3.040000 3.200000 -34.254181 -16.178543 1435.094116
-8.960000 3.080000 2.800000 31.939470 -27.908142 1798.994141
-8.960000 3.080000 2.840000 57.247421 -16.700064 3556.159424
-8.960000 3.080000 2.880000 77.129646 13.279438 6125.325684
-8.960000 3.080000 2.920000 76.022949 57.532249 9089.448242
-8.960000 3.080000 2.960000 44.392281 97.838837 11543.112305
-8.960000 3.080000 3.000000 -9.636116 111.244102 12468.104492
-8.960000 3.080000 3.040000 -61.002510 87.289818 11340.818359
-8.960000 3.080000 3.080000 -83.928131 38.525330 8528.131836
-8.960000 3.080000 3.120000 -71.221199 -7.239964 5124.875977
-8.960000 3.080000 3.160000 -39.081245 -27.956102 2308.887451
-8.960000 3.080000 3.200000 -12.270094 -23.170973 687.449219
-8.960000 3.120000 2.800000 44.451843 -11.306028 2103.792480
-8.960000 3.120000 2.840000 50.769287 14.318962 2782.553223
-8.960000 3.120000 2.880000 41.039696 40.790901 3348.154297
-8.960000 3.120000 2.920000 16.930016 58.263329 3681.240967
-8.960000 3.120000 2.960000 -13.954628 58.985802 3674.056396
-8.960000 3.120000 3.000000 -39.633701 41.340134 3279.836914
-8.960000 3.120000 3.040000 -49.025192 12.688126 2564.458008
-8.960000 3.120000 3.080000 -39.202389 -13.099937 1708.435669
-8.960000 3.120000 3.120000 -18.548885 -24.239830 931.630493
-8.960000 3.120000 3.160000 -1.135464 -19.658770 387.756500
-8.960000 3.120000 3.200000 4.399832 -9.336903 106.536270
-8.960000 3.160000 2.800000 45.887775 9.706089 2199.896240
-8.960000 3.160000 2.840000 31.462746 31.259377 1967.052979
-8.960000 3.160000 2.880000 7.994360 36.823105 1419.850830
-8.960000 3.160000 2.920000 -10.846565 26.207222 804.466431
-8.960000 3.160000 2.960000 -16.557674 8.227631 341.850494
-8.960000 3.160000 3.000000 -9.437040 -6.321091 129.013916
-8.960000 3.160000 3.040000 3.676237 -10.796448 130.078003
-8.960000 3.160000 3.080000 14.185608 -5.123714 227.483917
-8.960000 3.160000 3.120000 16.271210 5.145288 291.226257
-8.960000 3.160000 3.160000 9.888123 12.145342 245.284302
-8.960000 3.160000 3.200000 1.011046 10.574181 112.835510
-8.960000 3.200000 2.800000 35.277046 27.961275 2026.302856
-8.960000 3.200000 2.840000 11.847174 33.750389 1279.444336
-8.960000 3.200000 2.880000 -5.081581 20.255524 436.108704
-8.960000 3.200000 2.920000 -3.774820 0.565903 14.569514
-8.960000 3.200000 2.960000 12.685922 -9.011391 242.137756
-8.960000 3.200000 3.000000 30.525116 -1.322300 933.531189
-8.960000 3.200000 3.040000 36.493675 17.932594 1653.366211
-8.960000 3.200000 3.080000 26.611252 35.992462 2003.615967
-8.960000 3.200000 3.120000 7.159405 42.182007 1830.578735
-8.960000 3.200000 3.160000 -10.605394 33.842957 1257.820068
-8.960000 3.200000 3.200000 -17.351505 16.741583 581.355347
-8.920000 2.800000 2.800000 16.465786 12.292490 422.227417
-8.920000 2.800000 2.840000 -0.351444 23.172930 537.108215
-8.920000 2.800000 2.880000 -21.910011 18.500675 822.323608
-8.920000 2.800000 2.920000 -34.440063 -1.418705 1188.130615
-8.920000 2.800000 2.960000 -28.692226 -24.904087 1443.457397
-8.920000 2.800000 3.000000 -8.091980 -36.683102 1411.130005
-8.920000 2.800000 3.040000 12.880032 -29.900534 1059.937134
-8.920000 2.800000 3.080000 20.034513 -12.036652 546.262695
-8.920000 2.800000 3.120000 11.238862 1.226440 127.816177
-8.920000 2.800000 3.160000 -1.968335 -0.476257 4.101162
-8.920000 2.800000 3.200000 -4.894326 -13.191623 197.973328
-8.920000 2.840000 2.800000 0.450532 23.262104 541.328491
-8.920000 2.840000 2.840000 -31.264950 23.002079 1506.592773
-8.920000 2.840000 2.880000 -57.630814 -4.367996 3340.390137
-8.920000 2.840000 2.920000 -57.120575 -47.830322 5550.500000
-8.920000 2.840000 2.960000 -23.993786 -81.436996 7207.686035
-8.920000 2.840000 3.000000 24.363472 -82.949783 7474.245117
-8.920000 2.840000 3.040000 58.962616 -51.756737 6155.349609
-8.920000 2.840000 3.080000 61.314865 -10.025284 3860.019043
-8.920000 2.840000 3.120000 37.439602 15.018435 1627.277100
-8.920000 2.840000 3.160000 11.324556 12.697826 289.480377
-8.920000 2.840000 3.200000 3.732021 -4.425161 33.510036
-8.920000 2.880000 2.800000 -19.408070 15.887098 629.073059
-8.920000 2.880000 2.840000 -52.937649 -6.807320 2848.734375
-8.920000 2.880000 2.880000 -62.153130 -57.341476 7151.056641
-8.920000 2.880000 2.920000 -28.214947 -108.329956 12531.461914
-8.920000 2.880000 2.960000 38.521194 -124.157730 16899.023438
-8.920000 2.880000 3.000000 101.442368 -88.989990 18209.771484
-8.920000 2.880000 3.040000 123.687637 -21.628334 15766.416992
-8.920000 2.880000 3.080000 96.462265 37.500137 10711.228516
-8.920000 2.880000 3.120000 44.934113 57.365448 5309.869141
-8.920000 2.880000 3.160000 6.379007 38.874237 1551.898071
-8.920000 2.880000 3.200000 0.074847 9.748741 95.043556
-8.920000 2.920000 2.800000 -26.756180 -5.831659 749.901428
-8.920000 2.920000 2.840000 -42.942230 -47.598003 4109.604980
-8.920000 2.920000 2.880000 -18.868362 -101.957672 10751.381836
-8.920000 2.920000 2.920000 48.462357 -130.281525 19321.875000
-8.920000 2.920000 2.960000 127.218918 -102.374336 26665.158203
-8.920000 2.920000 3.000000 169.978119 -24.003716 29468.738281
-8.920000 2.920000 3.040000 149.628662 62.800522 26332.642578
-8.920000 2.920000 3.080000 81.334564 110.036888 18723.429688
-8.920000 2.920000 3.120000 10.426069 99.706512 10050.091797
-8.920000 2.920000 3.160000 -23.738697 54.557873 3540.087402
-8.920000 2.920000 3.200000 -16.191177 15.137287 491.291687
-8.920000 2.960000 2.800000 -15.251095 -27.094805 966.724304
-8.920000 2.960000 2.840000 -3.432695 -69.632477 4860.464844
-8.920000 2.960000 2.880000 48.783371 -100.614975 12503.190430
-8.920000 2.960000 2.920000 123.467117 -85.248901 22511.503906
-8.920000 2.960000 2.960000 176.516602 -14.365872 31364.490234
-8.920000 2.960000 3.000000 169.109406 81.050751 35167.214844
-8.920000 2.960000 3.040000 99.998779 148.510345 32055.078125
-8.920000 2.960000 3.080000 9.215179 152.879196 23456.968750
-8.920000 2.960000 3.120000 -52.085968 102.457123 13210.410156
-8.920000 2.960000 3.160000 -60.041512 39.327400 5151.627441
-8.920000 2.960000 3.200000 -31.558365 3.401468 1007.500427
-8.920000 3.000000 2.800000 8.205053 -34.761314 1275.671875
-8.920000 3.000000 2.840000 40.729263 -56.985035 4906.166992
-8.920000 3.000000 2.880000 95.587883 -50.354683 11672.636719
-8.920000 3.000000 2.920000 142.965515 1.486540 20441.347656
-8.920000 3.000000 2.960000 145.768890 83.694534 28253.345703
-8.920000 3.000000 3.000000 89.980225 153.773163 31742.626953
-8.920000 3.000000 3.040000 0.565655 170.860535 29193.642578
-8.920000 3.000000 3.080000 -74.031616 127.436752 21720.806641
-8.920000 3.000000 3.120000 -97.758141 55.205742 12604.328125
-8.920000 3.000000 3.160000 -72.377014 -0.892845 5239.229492
-8.920000 3.000000 3.200000 -30.660009 -17.435236 1244.023682
-8.920000 3.040000 2.800000 30.909210 -25.641582 1612.869995
-8.920000 3.040000 2.840000 63.004227 -19.064587 4332.990723
-8.920000 3.040000 2.880000 92.833000 14.594240 8830.958008
-8.920000 3.040000 2.920000 96.388535 71.127686 14349.897461
-8.920000 3.040000 2.960000 58.358704 125.282257 19101.382812
-8.920000 3.040000 3.000000 -11.091110 144.745056 21074.144531
-8.920000 3.040000 3.040000 -78.174751 114.651077 19256.160156
-8.920000 3.040000 3.080000 -108.261810 51.396252 14362.193359
-8.920000 3.040000 3.120000 -91.537727 -8.371696 8449.240234
-8.920000 3.040000 3.160000 -48.859276 -35.555325 3651.409912
-8.920000 3.040000 3.200000 -12.382388 -28.847452 985.499023
-8.920000 3.080000 2.800000 43.358719 -5.265371 1907.702637
-8.920000 3.080000 2.840000 54.939014 19.816360 3410.983643
-8.920000 3.080000 2.880000 50.451546 53.055233 5360.215820
-8.920000 3.080000 2.920000 24.229925 82.493660 7392.293457
-8.920000 3.080000 2.960000 -19.070934 92.266357 8876.781250
-8.920000 3.080000 3.000000 -62.376663 72.696999 9175.701172
-8.920000 3.080000 3.040000 -84.507584 29.984474 8040.600586
-8.920000 3.080000 3.080000 -74.960556 -14.802921 5838.211426
-8.920000 3.080000 3.120000 -42.697826 -39.569080 3388.816406
-8.920000 3.080000 3.160000 -9.549198 -37.288239 1481.599854
-8.920000 3.080000 3.200000 7.191509 -19.766811 442.444641
-8.920000 3.120000 2.800000 42.274689 18.085480 2114.233887
-8.920000 3.120000 2.840000 28.196056 40.521599 2437.017578
-8.920000 3.120000 2.880000 4.000875 50.196320 2535.677490
-8.920000 3.120000 2.920000 -20.504490 44.701035 2418.616699
-8.920000 3.120000 2.960000 -37.132549 27.341087 2126.361328
-8.920000 3.120000 3.000000 -41.062073 4.717926 1708.352661
-8.920000 3.120000 3.040000 -31.720179 -14.885544 1227.749146
-8.920000 3.120000 3.080000 -13.910938 -23.996361 769.339539
-8.920000 3.120000 3.120000 3.220695 -20.142099 416.077026
-8.920000 3.120000 3.160000 11.414402 -8.482473 202.240936
-8.920000 3.120000 3.200000 9.635712 1.472905 95.016388
-8.920000 3.160000 2.800000 28.758812 37.022205 2197.712891
-8.920000 3.160000 2.840000 0.958927 40.226597 1619.098633
-8.920000 3.160000 2.880000 -18.023746 23.701992 886.639893
-8.920000 3.160000 2.920000 -18.191969 1.900238 334.558624
-8.920000 3.160000 2.960000 -4.203974 -10.297337 123.708534
-8.920000 3.160000 3.000000 11.492265 -8.022636 196.434845
-8.920000 3.160000 3.040000 19.189716 3.415237 379.909058
-8.920000 3.160000 3.080000 16.833858 15.372324 519.687134
-8.920000 3.160000 3.120000 8.068596 21.843546 542.242737
-8.920000 3.160000 3.160000 -1.692413 20.978615 442.966522
-8.920000 3.160000 3.200000 -7.490503 14.337747 261.678619
-8.920000 3.200000 2.800000 6.868065 45.472336 2114.903809
-8.920000 3.200000 2.840000 -16.001867 27.970146 1038.388916
-8.920000 3.200000 2.880000 -14.474094 1.447294 211.594070
-8.920000 3.200000 2.920000 7.680910 -11.011141 180.241608
-8.920000 3.200000 2.960000 30.601711 0.326252 936.571167
-8.920000 3.200000 3.000000 36.118744 25.929180 1976.886108
-8.920000 3.200000 3.040000 21.113914 47.462505 2698.486816
-8.920000 3.200000 3.080000 -3.536674 52.657261 2785.295166
-8.920000 3.200000 3.120000 -23.849545 41.694962 2307.270508
-8.920000 3.200000 3.160000 -31.951439 23.025177 1551.053223
-8.920000 3.200000 3.200000 -27.700912 6.006777 803.421936
-8.880000 2.800000 2.800000 5.609891 19.276545 403.056061
-8.880000 2.800000 2.840000 -10.251066 16.915150 391.206635
-8.880000 2.800000 2.880000 -21.444164 5.104156 485.904602
-8.880000 2.800000 2.920000 -22.916857 -11.311195 653.125427
-8.880000 2.800000 2.960000 -13.747311 -25.152803 821.652100
-8.880000 2.800000 3.000000 1.953068 -30.060593 907.453674
-8.880000 2.800000 3.040000 16.477383 -24.042467 849.544373
-8.880000 2.800000 3.080000 22.750767 -11.388960 647.305786
-8.880000 2.800000 3.120000 19.355122 -0.430161 374.805756
-8.880000 2.800000 3.160000 12.075050 2.632404 152.736389
-8.880000 2.800000 3.200000 9.278671 -0.867390 86.846107
-8.880000 2.840000 2.800000 -16.115738 20.283442 671.135010
-8.880000 2.840000 2.840000 -37.042404 1.362621 1373.996338
-8.880000 2.840000 2.880000 -40.550060 -30.217352 2557.395752
-8.880000 2.840000 2.920000 -20.746674 -58.841850 3892.787842
-8.880000 2.840000 2.960000 14.886974 -68.231987 4877.226074
-8.880000 2.840000 3.000000 48.650734 -52.097595 5081.053223
-8.880000 2.840000 3.040000 63.381115 -19.124504 4382.912598
-8.880000 2.840000 3.080000 53.864731 12.198133 3050.203613
-8.880000 2.840000 3.120000 30.312418 26.170221 1603.723145
-8.880000 2.840000 3.160000 10.452688 20.799858 541.892761
-8.880000 2.840000 3.200000 5.821846 8.183749 100.867630
-8.880000 2.880000 2.800000 -31.095036 2.047466 971.093384
-8.880000 2.880000 2.840000 -40.728783 -34.716873 2864.094971
-8.880000 2.880000 2.880000 -19.420794 -74.747620 5964.374023
-8.880000 2.880000 2.920000 29.151863 -92.685089 9440.356445
-8.880000 2.880000 2.960000 81.853271 -72.748024 11992.232422
-8.880000 2.880000 3.000000 109.785759 -21.683247 12523.076172
-8.880000 2.880000 3.040000 98.094627 33.895538 10771.462891
-8.880000 2.880000 3.080000 56.676819 65.308220 7477.425293
-8.880000 2.880000 3.120000 12.693581 61.631687 3959.591797
-8.880000 2.880000 3.160000 -9.721277 35.875290 1381.539551
-8.880000 2.880000 3.200000 -6.325126 12.683826 200.886673
-8.880000 2.920000 2.800000 -26.550116 -22.793396 1224.447510
-8.880000 2.920000 2.840000 -12.121884 -63.841499 4222.677246
-8.880000 2.920000 2.880000 35.709927 -88.903854 9179.094727
-8.880000 2.920000 2.920000 97.153946 -73.457474 14834.890625
-8.880000 2.920000 2.960000 137.310455 -15.871016 19106.050781
-8.880000 2.920000 3.000000 129.996796 57.185413 20169.337891
-8.880000 2.920000 3.040000 77.740250 107.167404 17528.398438
-8.880000 2.920000 3.080000 11.053124 110.507950 12334.178711
-8.880000 2.920000 3.120000 -33.653347 74.598541 6697.490234
-8.880000 2.920000 3.160000 -39.929188 29.861292 2486.036865
-8.880000 2.920000 3.200000 -20.013569 4.938257 424.929321
-8.880000 2.960000 2.800000 -4.503214 -37.180870 1402.696045
-8.880000 2.960000 2.840000 31.450851 -62.175812 4854.987793
-8.880000 2.960000 2.880000 86.791946 -54.756207 10531.083984
-8.880000 2.960000 2.920000 130.607819 -4.489364 17078.556641
-8.880000 2.960000 2.960000 131.168442 70.306816 22148.208984
-8.880000 2.960000 3.000000 80.482788 130.835159 23595.318359
-8.880000 2.960000 3.040000 3.224072 143.992065 20744.109375
-8.880000 2.960000 3.080000 -59.302666 106.381653 14833.861328
-8.880000 2.960000 3.120000 -78.472855 46.024773 8276.268555
-8.880000 2.960000 3.160000 -57.129349 0.093714 3263.771240
-8.880000 2.960000 3.200000 -22.837494 -12.575110 679.684570
-8.880000 3.000000 2.800000 21.736122 -32.388000 1521.441528
-8.880000 3.000000 2.840000 60.872154 -29.382343 4568.741211
-8.880000 3.000000 2.880000 96.585861 6.447886 9370.403320
-8.880000 3.000000 2.920000 101.755737 67.077164 14853.576172
-8.880000 3.000000 2.960000 62.467468 123.404182 19130.777344
-8.880000 3.000000 3.000000 -7.862198 142.683350 20420.353516
-8.880000 3.000000 3.040000 -74.114296 112.269318 18097.328125
-8.880000 3.000000 3.080000 -102.990570 50.191368 13126.230469
-8.880000 3.000000 3.120000 -86.338844 -7.559587 7511.543457
-8.880000 3.000000 3.160000 -44.899025 -33.390587 3130.853760
-8.880000 3.000000 3.200000 -9.620747 -26.197491 778.867310
-8.880000 3.040000 2.800000 38.365570 -11.853781 1612.429077
-8.880000 3.040000 2.840000 58.896858 12.681964 3629.672119
-8.880000 3.040000 2.880000 60.781563 52.645523 6465.949219
-8.880000 3.040000 2.920000 33.833157 91.551682 9526.392578
-8.880000 3.040000 2.960000 -16.775604 107.455894 11828.190430
-8.880000 3.040000 3.000000 -69.400032 87.285156 12435.062500
-8.880000 3.040000 3.040000 -97.704414 38.175140 11003.494141
-8.880000 3.040000 3.080000 -88.501663 -14.850296 8053.075684
-8.880000 3.040000 3.120000 -51.487534 -45.409286 4712.969727
-8.880000 3.040000 3.160000 -11.688190 -44.045120 2076.586426
-8.880000 3.040000 3.200000 9.834137 -22.921055 622.085022
-8.880000 3.080000 2.800000 38.779778 14.038511 1700.950928
-8.880000 3.080000 2.840000 31.405399 39.101978 2515.263916
-8.880000 3.080000 2.880000 9.508818 57.142220 3355.650879
-8.880000 3.080000 2.920000 -20.649479 60.357834 4069.468994
-8.880000 3.080000 2.960000 -48.990314 45.492222 4469.593262
-8.880000 3.080000 3.000000 -64.227676 16.074150 4383.572754
-8.880000 3.080000 3.040000 -58.928314 -16.821068 3755.494385
-8.880000 3.080000 3.080000 -35.222038 -38.642815 2733.858887
-8.880000 3.080000 3.120000 -5.614010 -40.111420 1640.443115
-8.880000 3.080000 3.160000 14.496588 -24.238510 797.656433
-8.880000 3.080000 3.200000 17.890503 -4.181686 337.556610
-8.880000 3.120000 2.800000 24.090805 34.848690 1794.798096
-8.880000 3.120000 2.840000 -1.324270 40.033508 1604.435425
-8.880000 3.120000 2.880000 -21.239632 28.248056 1249.074707
-8.880000 3.120000 2.920000 -27.593506 10.001307 861.427673
-8.880000 3.120000 2.960000 -22.863712 -4.562542 543.566101
-8.880000 3.120000 3.000000 -13.595812 -12.145958 332.370392
-8.880000 3.120000 3.040000 -3.773926 -14.071510 212.249908
-8.880000 3.120000 3.080000 5.320107 -11.276506 155.463135
-8.880000 3.120000 3.120000 11.587730 -3.745335 148.303024
-8.880000 3.120000 3.160000 11.844667 6.221481 179.002975
-8.880000 3.120000 3.200000 5.825497 13.351366 212.195389
-8.880000 3.160000 2.800000 0.181657 43.343956 1878.731445
-8.880000 3.160000 2.840000 -22.115150 23.211712 1027.863403
-8.880000 3.160000 2.880000 -19.363302 -3.721027 388.783508
-8.880000 3.160000 2.920000 1.851209 -15.332285 238.505936
-8.880000 3.160000 2.960000 21.396109 -5.452045 487.518250
-8.880000 3.160000 3.000000 24.899933 14.170921 820.821655
-8.880000 3.160000 3.040000 13.919891 27.905272 972.467529
-8.880000 3.160000 3.080000 -0.397675 29.897919 894.043701
-8.880000 3.160000 3.120000 -9.928585 24.740841 710.685974
-8.880000 3.160000 3.160000 -14.438457 18.511316 551.137878
-8.880000 3.160000 3.200000 -16.521076 12.696383 434.144104
-8.880000 3.200000 2.800000 -24.350195 36.321030 1912.149170
-8.880000 3.200000 2.840000 -26.766073 2.834276 724.455811
-8.880000 3.200000 2.880000 -0.675657 -15.922882 253.994690
-8.880000 3.200000 2.920000 28.899492 -3.637632 848.413025
-8.880000 3.200000 2.960000 35.858124 28.356686 2089.906738
-8.880000 3.200000 3.000000 15.383354 54.088188 3162.179688
-8.880000 3.200000 3.040000 -15.780716 56.771450 3472.028564
-8.880000 3.200000 3.080000 -37.596832 39.886292 3004.437988
-8.880000 3.200000 3.120000 -42.976170 18.201553 2178.247803
-8.880000 3.200000 3.160000 -37.656082 2.265758 1423.114136
-8.880000 3.200000 3.200000 -29.045614 -6.926773 891.627869
-8.840000 2.800000 2.800000 -4.830313 13.125853 195.619934
-8.840000 2.800000 2.840000 -9.476821 6.020752 126.059586
-8.840000 2.800000 2.880000 -11.325039 -0.243004 128.315552
-8.840000 2.800000 2.920000 -12.252560 -7.274649 203.045731
-8.840000 2.800000 2.960000 -9.540009 -16.715612 370.423462
-8.840000 2.800000 3.000000 0.714117 -24.857693 618.414856
-8.840000 2.800000 3.040000 16.617874 -24.265434 864.965027
-8.840000 2.800000 3.080000 29.127850 -11.867989 989.280762
-8.840000 2.800000 3.120000 29.661985 5.779527 913.236328
-8.840000 2.800000 3.160000 19.016031 17.376305 663.545410
-8.840000 2.800000 3.200000 7.133428 17.720058 364.886230
-8.840000 2.840000 2.800000 -22.577660 4.699547 531.836426
-8.840000 2.840000 2.840000 -24.119238 -15.343944 817.174194
-8.840000 2.840000 2.880000 -13.703066 -32.573708 1248.820435
-8.840000 2.840000 2.920000 4.771807 -41.294765 1728.027832
-8.840000 2.840000 2.960000 25.798889 -38.629936 2157.854736
-8.840000 2.840000 3.000000 42.872295 -24.294010 2428.232666
-8.840000 2.840000 3.040000 49.200394 -1.965755 2424.542969
-8.840000 2.840000 3.080000 41.215870 19.846178 2092.618652
-8.840000 2.840000 3.120000 22.820248 31.385376 1505.805542
-8.840000 2.840000 3.160000 4.654213 28.894562 856.557373
-8.840000 2.840000 3.200000 -3.626751 18.628368 360.169434
-8.840000 2.880000 2.800000 -27.337017 -16.260866 1011.728271
-8.840000 2.880000 2.840000 -13.805826 -43.372269 2071.754395
-8.840000 2.880000 2.880000 16.462137 -56.661381 3481.513916
-8.840000 2.880000 2.920000 50.528740 -47.695934 4828.055664
-8.840000 2.880000 2.960000 73.011635 -18.817640 5684.802246
-8.840000 2.880000 3.000000 73.798050 18.119905 5774.483398
-8.840000 2.880000 3.040000 53.009716 47.509315 5067.165039
-8.840000 2.880000 3.080000 21.111147 57.807270 3787.360840
-8.840000 2.880000 3.120000 -6.499859 47.829453 2329.904541
-8.840000 2.880000 3.160000 -18.518764 27.528959 1100.788330
-8.840000 2.880000 3.200000 -14.916953 11.303830 350.292053
-8.840000 2.920000 2.800000 -13.937251 -35.257164 1437.314575
-8.840000 2.920000 2.840000 17.796551 -54.288548 3263.963623
-8.840000 2.920000 2.880000 59.167389 -46.591045 5671.505859
-8.840000 2.920000 2.920000 88.367966 -10.965780 7929.145996
-8.840000 2.920000 2.960000 88.587555 37.470638 9251.803711
-8.840000 2.920000 3.000000 58.444901 75.863686 9171.105469
-8.840000 2.920000 3.040000 12.813397 87.055634 7742.866211
-8.840000 2.920000 3.080000 -26.294979 69.315247 5496.029297
-8.840000 2.920000 3.120000 -42.949303 36.373806 3167.696289
-8.840000 2.920000 3.160000 -36.185616 7.818282 1370.524292
-8.840000 2.920000 3.200000 -18.735016 -3.781798 365.302826
-8.840000 2.960000 2.800000 10.274467 -39.514507 1666.960938
-8.840000 2.960000 2.840000 48.997047 -36.982616 3768.424561
-8.840000 2.960000 2.880000 80.445282 -4.814254 6494.620605
-8.840000 2.960000 2.920000 83.794922 44.927029 9040.026367
-8.840000 2.960000 2.960000 53.007595 87.804108 10519.367188
-8.840000 2.960000 3.000000 1.548840 101.940338 10394.231445
-8.840000 2.960000 3.040000 -45.653305 81.541473 8733.236328
-8.840000 2.960000 3.080000 -67.566757 39.906677 6157.809570
-8.840000 2.960000 3.120000 -59.366543 0.129614 3524.403320
-8.840000 2.960000 3.160000 -33.547646 -19.933281 1522.780273
-8.840000 2.960000 3.200000 -9.550699 -17.940168 413.065491
-8.840000 3.000000 2.800000 31.741749 -25.880314 1677.329346
-8.840000 3.000000 2.840000 58.110260 -2.023404 3380.896484
-8.840000 3.000000 2.880000 62.957523 38.761692 5466.118164
-8.840000 3.000000 2.920000 38.292515 76.799995 7364.555664
-8.840000 3.000000 2.960000 -7.237190 91.678688 8457.358398
-8.840000 3.000000 3.000000 -52.661633 74.707542 8354.464844
-8.840000 3.000000 3.040000 -76.818939 34.397163 7084.314453
-8.840000 3.000000 3.080000 -70.774796 -8.689238 5084.574707
-8.840000 3.000000 3.120000 -42.515263 -34.528027 2999.732178
-8.840000 3.000000 3.160000 -10.753489 -35.553841 1379.713135
-8.840000 3.000000 3.200000 7.976796 -19.712831 452.225006
-8.840000 3.040000 2.800000 39.308094 -1.086424 1546.306519
-8.840000 3.040000 2.840000 40.342052 27.857246 2403.507324
-8.840000 3.040000 2.880000 21.291489 53.257149 3289.651367
-8.840000 3.040000 2.920000 -11.054260 62.346928 4009.336182
-8.840000 3.040000 2.960000 -43.327492 49.980019 4375.273438
-8.840000 3.040000 3.000000 -61.946739 20.712038 4266.386719
-8.840000 3.040000 3.040000 -59.214920 -13.142700 3679.137207
-8.840000 3.040000 3.080000 -37.313728 -36.922287 2755.569580
-8.840000 3.040000 3.120000 -7.874025 -41.093575 1750.682129
-8.840000 3.040000 3.160000 14.205560 -26.984962 929.986084
-8.840000 3.040000 3.200000 20.013790 -5.940144 435.837097
-8.840000 3.080000 2.800000 29.240986 23.167915 1391.787598
-8.840000 3.080000 2.840000 9.464741 35.893475 1377.922852
-8.840000 3.080000 2.880000 -12.222717 33.318119 1259.491821
-8.840000 3.080000 2.920000 -26.345585 20.206104 1102.376465
-8.840000 3.080000 2.960000 -30.689655 4.027397 958.074829
-8.840000 3.080000 3.000000 -27.038879 -10.735619 846.354492
-8.840000 3.080000 3.040000 -16.757416 -21.671089 750.447083
-8.840000 3.080000 3.080000 -1.454819 -25.304749 642.446838
-8.840000 3.080000 3.120000 13.631544 -18.360062 522.910889
-8.840000 3.080000 3.160000 20.511127 -2.784850 428.461761
-8.840000 3.080000 3.200000 14.994635 12.768494 387.873474
-8.840000 3.120000 2.800000 5.863416 35.804317 1316.328735
-8.840000 3.120000 2.840000 -14.933512 22.064627 709.857544
-8.840000 3.120000 2.880000 -16.436867 0.975260 271.121735
-8.840000 3.120000 2.920000 -3.331652 -9.570093 102.686584
-8.840000 3.120000 2.960000 8.766353 -5.254330 104.456917
-8.840000 3.120000 3.000000 10.438665 4.079323 125.606613
-8.840000 3.120000 3.040000 5.690796 8.133865 98.544922
-8.840000 3.120000 3.080000 3.351418 7.139328 62.202003
-8.840000 3.120000 3.120000 4.959520 8.395918 95.088280
-8.840000 3.120000 3.160000 3.843881 14.668056 229.927307
-8.840000 3.120000 3.200000 -4.681124 19.707996 410.318054
-8.840000 3.160000 2.800000 -20.529282 30.769194 1368.194702
-8.840000 3.160000 2.840000 -21.887812 -0.622646 479.463989
-8.840000 3.160000 2.880000 2.714342 -16.762177 288.338196
-8.840000 3.160000 2.920000 28.059757 -4.032091 803.607727
-8.840000 3.160000 2.960000 30.822067 23.763206 1514.689819
-8.840000 3.160000 3.000000 10.891628 41.653168 1853.613892
-8.840000 3.160000 3.040000 -12.556677 38.302113 1624.722046
-8.840000 3.160000 3.080000 -23.000099 23.328423 1073.219849
-8.840000 3.160000 3.120000 -21.358040 12.452719 611.236084
-8.840000 3.160000 3.160000 -19.453428 9.793831 474.355011
-8.840000 3.160000 3.200000 -23.087549 7.123300 583.776306
-8.840000 3.200000 2.800000 -37.699829 9.948902 1520.257812
-8.840000 3.200000 2.840000 -13.635204 -18.185129 516.617676
-8.840000 3.200000 2.880000 22.364906 -11.411642 630.414612
-8.840000 3.200000 2.920000 35.507706 23.717159 1823.300781
-8.840000 3.200000 2.960000 13.528458 55.357063 3247.423828
-8.840000 3.200000 3.000000 -24.306984 57.902477 3943.526367
-8.840000 3.200000 3.040000 -49.041622 33.900616 3554.332520
-8.840000 3.200000 3.080000 -49.472382 5.974201 2483.207764
-8.840000 3.200000 3.120000 -37.179569 -8.627299 1456.750610
-8.840000 3.200000 3.160000 -28.085611 -12.033709 933.611694
-8.840000 3.200000 3.200000 -24.515259 -15.886326 853.373291
-8.800000 2.800000 2.800000 -3.398370 2.333460 16.993952
-8.800000 2.800000 2.840000 0.260328 2.634329 7.007460
-8.800000 2.800000 2.880000 -3.284725 6.090096 47.878693
-8.800000 2.800000 2.920000 -12.508244 1.804323 159.711746
-8.800000 2.800000 2.960000 -15.191402 -13.423143 410.959473
-8.800000 2.800000 3.000000 -1.677848 -28.448433 812.128540
-8.800000 2.800000 3.040000 22.329075 -27.388939 1248.741577
-8.800000 2.800000 3.080000 38.597561 -6.496736 1531.979248
-8.800000 2.800000 3.120000 33.466721 20.101446 1524.089478
-8.800000 2.800000 3.160000 11.514463 33.099087 1228.132446
-8.800000 2.800000 3.200000 -9.104803 26.354900 777.478210
-8.800000 2.840000 2.800000 -13.242841 -7.890421 237.631577
-8.800000 2.840000 2.840000 -5.430601 -14.097986 228.244644
-8.800000 2.840000 2.880000 0.308109 -15.481997 239.787170
-8.800000 2.840000 2.920000 4.346492 -17.851257 337.559387
-8.800000 2.840000 2.960000 12.503756 -21.256824 608.196533
-8.800000 2.840000 3.000000 26.366943 -18.279150 1029.343018
-8.800000 2.840000 3.040000 37.713306 -3.043199 1431.554565
-8.800000 2.840000 3.080000 35.184826 19.239399 1608.126465
-8.800000 2.840000 3.120000 16.837286 34.414917 1467.880615
-8.800000 2.840000 3.160000 -5.833714 32.480179 1088.994263
-8.800000 2.840000 3.200000 -18.164890 17.704428 643.409973
-8.800000 2.880000 2.800000 -11.507698 -23.747044 696.349182
-8.800000 2.880000 2.840000 6.439045 -30.015705 942.403870
-8.800000 2.880000 2.880000 22.671318 -24.917973 1134.894043
-8.800000 2.880000 2.920000 32.579094 -13.824695 1252.519531
-8.800000 2.880000 2.960000 36.804031 -0.796551 1355.171265
-8.800000 2.880000 3.000000 35.921574 13.572863 1474.582031
-8.800000 2.880000 3.040000 27.716951 27.934826 1548.583862
-8.800000 2.880000 3.080000 11.174334 36.726875 1473.729126
-8.800000 2.880000 3.120000 -8.363906 33.802128 1212.538818
-8.800000 2.880000 3.160000 -21.058468 19.801247 835.548462
-8.800000 2.880000 3.200000 -21.257219 3.826616 466.512390
-8.800000 2.920000 2.800000 2.762631 -34.905743 1226.042969
-8.800000 2.920000 2.840000 28.637157 -30.782759 1767.665039
-8.800000 2.920000 2.880000 45.205585 -11.093443 2166.609375
-8.800000 2.920000 2.920000 46.076271 13.168801 2296.439941
-8.800000 2.920000 2.960000 34.101032 31.938707 2182.961426
-8.800000 2.920000 3.000000 15.899129 40.960587 1930.552002
-8.800000 2.920000 3.040000 -3.042147 40.158401 1621.951904
-8.800000 2.920000 3.080000 -18.561844 30.647959 1283.839355
-8.800000 2.920000 3.120000 -26.458382 15.070581 927.168396
-8.800000 2.920000 3.160000 -24.175339 -0.782491 585.059326
-8.800000 2.920000 3.200000 -14.368699 -9.961964 305.700256
-8.800000 2.960000 2.800000 23.056988 -33.189869 1633.192139
-8.800000 2.960000 2.840000 45.168236 -13.467636 2221.546875
-8.800000 2.960000 2.880000 48.129578 16.171234 2577.965088
-8.800000 2.960000 2.920000 31.905716 39.727486 2596.247803
-8.800000 2.960000 2.960000 6.771634 47.741684 2325.123291
-8.800000 2.960000 3.000000 -15.784874 40.661121 1902.489014
-8.800000 2.960000 3.040000 -29.208872 24.544945 1455.612549
-8.800000 2.960000 3.080000 -31.870993 5.993135 1051.677856
-8.800000 2.960000 3.120000 -24.917723 -9.411308 709.465576
-8.800000 2.960000 3.160000 -11.949825 -17.074730 434.344727
-8.800000 2.960000 3.200000 0.750402 -15.197681 231.532639
-8.800000 3.000000 2.800000 38.565479 -16.888317 1772.511353
-8.800000 3.000000 2.840000 43.870548 11.111125 2048.082031
-8.800000 3.000000 2.880000 28.934494 34.860435 2052.455078
-8.800000 3.000000 2.920000 3.845508 42.671631 1835.656006
-8.800000 3.000000 2.960000 -18.231628 34.315693 1509.958984
-8.800000 3.000000 3.000000 -29.788319 17.133965 1180.916748
-8.800000 3.000000 3.040000 -30.057642 -1.092455 904.655334
-8.800000 3.000000 3.080000 -21.398359 -15.174167 688.145142
-8.800000 3.000000 3.120000 -7.275446 -21.530195 516.481445
-8.800000 3.000000 3.160000 6.984408 -18.127825 377.399994
-8.800000 3.000000 3.200000 14.806125 -6.982856 267.981598
-8.800000 3.040000 2.800000 39.437389 7.482820 1611.300293
-8.800000 3.040000 2.840000 25.588737 26.894110 1378.076660
-8.800000 3.040000 2.880000 4.499122 31.089348 986.789673
-8.800000 3.040000 2.920000 -11.229454 22.327681 624.625977
-8.800000 3.040000 2.960000 -17.164219 9.444429 383.807678
-8.800000 3.040000 3.000000 -16.161694 -1.627581 263.849365
-8.800000 3.040000 3.040000 -11.237850 -10.101109 228.321671
-8.800000 3.040000 3.080000 -2.456768 -15.450354 244.749130
-8.800000 3.040000 3.120000 9.160892 -14.328973 289.241394
-8.800000 3.040000 3.160000 17.876268 -4.460119 339.453644
-8.800000 3.040000 3.200000 16.714428 9.742402 374.286499
-8.800000 3.080000 2.800000 22.729937 27.289934 1261.390503
-8.800000 3.080000 2.840000 2.934767 24.673141 617.376770
-8.800000 3.080000 2.880000 -4.969534 11.333486 153.144165
-8.800000 3.080000 2.920000 -0.457251 1.981592 4.135786
-8.800000 3.080000 2.960000 5.450825 2.466627 35.795746
-8.800000 3.080000 3.000000 4.826277 6.106894 60.587097
-8.800000 3.080000 3.040000 1.217463 4.833083 24.840904
-8.800000 3.080000 3.080000 2.722002 0.306982 7.503533
-8.800000 3.080000 3.120000 9.598753 1.333697 93.914803
-8.800000 3.080000 3.160000 12.393611 11.328941 281.946503
-8.800000 3.080000 3.200000 3.356711 21.886311 490.278107
-8.800000 3.120000 2.800000 -4.076272 30.408447 941.289612
-8.800000 3.120000 2.840000 -9.675431 8.130789 159.723694
-8.800000 3.120000 2.880000 5.659655 -4.773331 54.816376
-8.800000 3.120000 2.920000 22.315620 3.969732 513.745667
-8.800000 3.120000 2.960000 21.383377 23.134632 992.459961
-8.800000 3.120000 3.000000 4.323498 32.115620 1050.105713
-8.800000 3.120000 3.040000 -11.003126 23.830219 688.948120
-8.800000 3.120000 3.080000 -11.847091 10.623753 253.217682
-8.800000 3.120000 3.120000 -4.255380 7.828253 79.389793
-8.800000 3.120000 3.160000 -3.913866 15.269085 248.463303
-8.800000 3.120000 3.200000 -16.028069 18.330418 592.903198
-8.800000 3.160000 2.800000 -25.915974 13.617471 857.073242
-8.800000 3.160000 2.840000 -6.299065 -10.163836 142.981781
-8.800000 3.160000 2.880000 23.210609 -3.305649 549.659668
-8.800000 3.160000 2.920000 31.112122 27.104609 1702.623901
-8.800000 3.160000 2.960000 8.437953 50.862980 2658.241699
-8.800000 3.160000 3.000000 -23.770473 46.396355 2717.657227
-8.800000 3.160000 3.040000 -38.388847 21.260138 1925.697021
-8.800000 3.160000 3.080000 -30.074074 0.538887 904.740295
-8.800000 3.160000 3.120000 -16.958641 -1.790240 290.800476
-8.800000 3.160000 3.160000 -16.795753 4.181379 299.581238
-8.800000 3.160000 3.200000 -26.372440 -0.067249 695.510132
-8.800000 3.200000 2.800000 -29.550364 -13.664156 1059.933105
-8.800000 3.200000 2.840000 7.652020 -18.731655 409.428314
-8.800000 3.200000 2.880000 30.128454 11.985213 1051.369141
-8.800000 3.200000 2.920000 14.327234 48.406189 2548.428711
-8.800000 3.200000 2.960000 -25.935551 55.812782 3787.719482
-8.800000 3.200000 3.000000 -55.365402 28.885468 3899.698242
-8.800000 3.200000 3.040000 -53.354088 -6.423019 2887.913818
-8.800000 3.200000 3.080000 -31.446056 -22.608334 1499.991211
-8.800000 3.200000 3.120000 -15.658100 -17.912498 566.033691
-8.800000 3.200000 3.160000 -16.246445 -12.381746 417.254608
-8.800000 3.200000 3.200000 -19.378353 -20.445410 793.535339
