#kx 	ky 	kz 	real 	imag 	intensity
1.800000 -2.200000 7.800000 -27.247431 0.714687 742.933289
1.800000 -2.200000 7.840000 -25.370316 -8.663803 718.714355
1.800000 -2.200000 7.880000 -18.144020 -17.943737 651.183167
1.800000 -2.200000 7.920000 -5.849885 -22.741581 551.400635
1.800000 -2.200000 7.960000 7.502504 -20.111485 460.759369
1.800000 -2.200000 8.000000 16.853195 -11.107067 407.397125
1.800000 -2.200000 8.040000 19.642300 0.026763 385.820648
1.800000 -2.200000 8.080000 17.094997 9.081192 374.706970
1.800000 -2.200000 8.120000 12.405113 14.534418 365.136169
1.800000 -2.200000 8.160000 7.860578 17.522554 368.828613
1.800000 -2.200000 8.200000 3.490961 19.651623 398.373077
1.800000 -2.160000 7.800000 -23.240330 -12.185524 688.599915
1.800000 -2.160000 7.840000 -17.443398 -15.029177 530.148315
1.800000 -2.160000 7.880000 -10.561041 -16.480350 383.137543
1.800000 -2.160000 7.920000 -2.856218 -14.722851 224.920303
1.800000 -2.160000 7.960000 2.939059 -8.865877 87.241844
1.800000 -2.160000 8.000000 3.868764 -1.192455 16.389284
1.800000 -2.160000 8.040000 0.102691 4.001919 16.025900
1.800000 -2.160000 8.080000 -4.474617 4.244780 38.040352
1.800000 -2.160000 8.120000 -5.559050 1.516394 33.202484
1.800000 -2.160000 8.160000 -2.643423 0.615909 7.367029
1.800000 -2.160000 8.200000 0.208568 4.453563 19.877722
1.800000 -2.120000 7.800000 -12.351296 -19.598278 536.647034
1.800000 -2.120000 7.840000 -8.308100 -15.651486 313.993530
1.800000 -2.120000 7.880000 -6.901875 -12.120249 194.536316
1.800000 -2.120000 7.920000 -7.041282 -9.177024 133.797424
1.800000 -2.120000 7.960000 -8.984766 -7.117859 131.389938
1.800000 -2.120000 8.000000 -12.415022 -7.755965 214.287750
1.800000 -2.120000 8.040000 -14.413777 -12.501939 364.055450
1.800000 -2.120000 8.080000 -10.955379 -19.142250 486.446075
1.800000 -2.120000 8.120000 -1.358057 -21.806479 477.366821
1.800000 -2.120000 8.160000 9.108529 -15.669966 328.513123
1.800000 -2.120000 8.200000 12.336297 -2.336472 157.643326
1.800000 -2.080000 7.800000 -0.048171 -18.493271 342.003387
1.800000 -2.080000 7.840000 -1.364707 -11.593151 136.263580
1.800000 -2.080000 7.880000 -6.557169 -8.660099 117.993774
1.800000 -2.080000 7.920000 -12.354397 -10.523434 263.373779
1.800000 -2.080000 7.960000 -16.185955 -16.755131 542.719543
1.800000 -2.080000 8.000000 -15.378963 -26.187654 922.305786
1.800000 -2.080000 8.040000 -7.323248 -35.463131 1311.263672
1.800000 -2.080000 8.080000 7.699246 -38.557251 1545.940063
1.800000 -2.080000 8.120000 23.785395 -30.202812 1477.954834
1.800000 -2.080000 8.160000 31.280838 -11.426243 1109.049805
1.800000 -2.080000 8.200000 23.735451 8.531837 636.163879
1.800000 -2.040000 7.800000 7.742197 -10.675730 173.912827
1.800000 -2.040000 7.840000 1.696543 -5.388251 31.911509
1.800000 -2.040000 7.880000 -6.718902 -7.086000 95.355042
1.800000 -2.040000 7.920000 -12.253225 -15.599480 393.485291
1.800000 -2.040000 7.960000 -10.849313 -27.950809 898.955322
1.800000 -2.040000 8.000000 -0.457039 -39.060051 1525.896484
1.800000 -2.040000 8.040000 17.499186 -42.474758 2110.326660
1.800000 -2.040000 8.080000 36.561020 -33.060692 2429.717529
1.800000 -2.040000 8.120000 46.674904 -11.575103 2312.529541
1.800000 -2.040000 8.160000 40.124035 12.934995 1777.252319
1.800000 -2.040000 8.200000 18.400385 27.118069 1073.963867
1.800000 -2.000000 7.800000 8.560153 -1.456187 75.396706
1.800000 -2.000000 7.840000 1.094570 0.444687 1.395830
1.800000 -2.000000 7.880000 -5.920921 -5.593487 66.344406
1.800000 -2.000000 7.920000 -6.544815 -17.264214 340.887665
1.800000 -2.000000 7.960000 2.319809 -28.782419 833.809204
1.800000 -2.000000 8.000000 19.330654 -33.103069 1469.487427
1.800000 -2.000000 8.040000 38.144386 -24.965858 2078.288330
1.800000 -2.000000 8.080000 49.140968 -4.637569 2436.341797
1.800000 -2.000000 8.120000 44.372437 20.008989 2369.272705
1.800000 -2.000000 8.160000 23.752636 36.254959 1878.609863
1.800000 -2.000000 8.200000 -2.637859 34.325882 1185.224365
1.800000 -1.960000 7.800000 4.688539 4.507307 42.298218
1.800000 -1.960000 7.840000 -1.794925 4.484673 23.334045
1.800000 -1.960000 7.880000 -5.482869 -2.511816 36.371071
1.800000 -1.960000 7.920000 -1.470953 -12.038426 147.087402
1.800000 -1.960000 7.960000 10.518399 -17.220348 407.177124
1.800000 -1.960000 8.000000 25.538769 -12.530724 809.247742
1.800000 -1.960000 8.040000 35.394592 2.722668 1260.190186
1.800000 -1.960000 8.080000 32.891998 22.737062 1598.857544
1.800000 -1.960000 8.120000 16.820362 37.215385 1667.909424
1.800000 -1.960000 8.160000 -5.634639 37.186657 1414.596558
1.800000 -1.960000 8.200000 -22.034733 21.596050 951.918823
1.800000 -1.920000 7.800000 0.353220 6.573761 43.339092
1.800000 -1.920000 7.840000 -5.636622 6.586572 75.154442
1.800000 -1.920000 7.880000 -7.672216 1.309176 60.576839
1.800000 -1.920000 7.920000 -3.151011 -3.750535 23.995386
1.800000 -1.920000 7.960000 5.351584 -3.131382 38.445007
1.800000 -1.920000 8.000000 11.895814 4.824799 164.789078
1.800000 -1.920000 8.040000 10.981512 16.669207 398.456055
1.800000 -1.920000 8.080000 1.269040 25.580597 655.977417
1.800000 -1.920000 8.120000 -12.917746 25.417400 812.912415
1.800000 -1.920000 8.160000 -23.548195 14.983263 779.015625
1.800000 -1.920000 8.200000 -23.786186 -0.304654 565.875488
1.800000 -1.880000 7.800000 -2.558866 7.435467 61.833961
1.800000 -1.880000 7.840000 -9.906799 7.084022 148.328033
1.800000 -1.880000 7.880000 -12.832350 3.031500 173.859192
1.800000 -1.880000 7.920000 -11.408415 0.347755 130.272873
1.800000 -1.880000 7.960000 -9.387275 1.383181 90.034111
1.800000 -1.880000 8.000000 -10.339079 4.353464 125.849205
1.800000 -1.880000 8.040000 -14.623139 5.475296 243.815079
1.800000 -1.880000 8.080000 -19.310259 2.340701 378.364990
1.800000 -1.880000 8.120000 -20.628122 -4.157520 442.804413
1.800000 -1.880000 8.160000 -16.762329 -10.432736 389.817657
1.800000 -1.880000 8.200000 -9.213428 -12.565493 242.778870
1.800000 -1.840000 7.800000 -5.883564 9.053343 116.579338
1.800000 -1.840000 7.840000 -14.591450 5.741044 245.869995
1.800000 -1.840000 7.880000 -18.559555 0.513476 344.720764
1.800000 -1.840000 7.920000 -20.145050 -3.401540 417.393494
1.800000 -1.840000 7.960000 -22.104195 -6.943722 536.810669
1.800000 -1.840000 8.000000 -23.759459 -12.745529 726.960327
1.800000 -1.840000 8.040000 -21.630051 -20.748978 898.379150
1.800000 -1.840000 8.080000 -13.703472 -26.881207 910.384399
1.800000 -1.840000 8.120000 -2.694130 -26.365223 702.383362
1.800000 -1.840000 8.160000 5.262957 -18.370050 365.157471
1.800000 -1.840000 8.200000 5.367370 -7.409673 83.711914
1.800000 -1.800000 7.800000 -12.063889 9.562494 236.978714
1.800000 -1.800000 7.840000 -18.982651 1.613862 362.945587
1.800000 -1.800000 7.880000 -21.508427 -5.703745 495.145142
1.800000 -1.800000 7.920000 -23.308556 -12.159317 691.137756
1.800000 -1.800000 7.960000 -24.450975 -20.992455 1038.533325
1.800000 -1.800000 8.000000 -20.373034 -32.783295 1489.804932
1.800000 -1.800000 8.040000 -7.488216 -41.874065 1809.510742
1.800000 -1.800000 8.080000 10.543524 -40.241688 1730.559326
1.800000 -1.800000 8.120000 23.292397 -25.750729 1205.635742
1.800000 -1.800000 8.160000 21.639000 -6.285226 507.750366
1.800000 -1.800000 8.200000 6.191696 5.152160 64.881851
1.840000 -2.200000 7.800000 -37.112473 -14.398937 1584.664917
1.840000 -2.200000 7.840000 -24.282211 -23.666992 1149.752319
1.840000 -2.200000 7.880000 -9.013813 -24.969528 704.726196
1.840000 -2.200000 7.920000 3.406937 -18.953787 370.853241
1.840000 -2.200000 7.960000 10.163095 -9.519718 193.913544
1.840000 -2.200000 8.000000 12.054272 -0.364411 145.438263
1.840000 -2.200000 8.040000 11.207987 7.393890 180.288574
1.840000 -2.200000 8.080000 8.396040 14.242728 273.348785
1.840000 -2.200000 8.120000 3.039841 19.798178 401.208466
1.840000 -2.200000 8.160000 -4.523438 22.206867 513.606445
1.840000 -2.200000 8.200000 -11.852785 20.248518 550.490967
1.840000 -2.160000 7.800000 -19.337425 -33.635883 1505.308716
1.840000 -2.160000 7.840000 -2.735633 -29.409325 872.392090
1.840000 -2.160000 7.880000 7.677476 -16.857178 343.108063
1.840000 -2.160000 7.920000 7.772613 -2.231291 65.392166
1.840000 -2.160000 7.960000 -0.564816 6.813896 46.748199
1.840000 -2.160000 8.000000 -10.328106 6.700064 151.560623
1.840000 -2.160000 8.040000 -14.616093 0.458569 213.840454
1.840000 -2.160000 8.080000 -11.730761 -5.114178 163.765564
1.840000 -2.160000 8.120000 -5.709965 -5.080831 58.418541
1.840000 -2.160000 8.160000 -2.296665 0.256432 5.340428
1.840000 -2.160000 8.200000 -4.343318 6.633657 62.869820
1.840000 -2.120000 7.800000 6.843882 -35.136253 1281.395020
1.840000 -2.120000 7.840000 17.731607 -17.507210 620.912292
1.840000 -2.120000 7.880000 13.934353 3.469347 206.202560
1.840000 -2.120000 7.920000 -3.908276 15.639398 259.865387
1.840000 -2.120000 7.960000 -25.101645 10.448246 739.258362
1.840000 -2.120000 8.000000 -35.103249 -9.318873 1319.079468
1.840000 -2.120000 8.040000 -26.415907 -30.109428 1604.377808
1.840000 -2.120000 8.080000 -4.871849 -37.276207 1413.250488
1.840000 -2.120000 8.120000 14.579176 -26.158031 896.794983
1.840000 -2.120000 8.160000 19.311539 -5.162903 399.591095
1.840000 -2.120000 8.200000 7.956100 11.431380 193.975983
1.840000 -2.080000 7.800000 25.645985 -18.292725 992.340332
1.840000 -2.080000 7.840000 23.441687 6.202067 587.978333
1.840000 -2.080000 7.880000 2.173205 23.836128 572.883850
1.840000 -2.080000 7.920000 -28.273918 20.014162 1199.981079
1.840000 -2.080000 7.960000 -47.784706 -7.405546 2338.220215
1.840000 -2.080000 8.000000 -40.316910 -42.841011 3460.805420
1.840000 -2.080000 8.040000 -7.829535 -62.439072 3959.939209
1.840000 -2.080000 8.080000 29.219593 -52.066341 3564.688477
1.840000 -2.080000 8.120000 46.686855 -18.716063 2529.953369
1.840000 -2.080000 8.160000 34.933426 14.868227 1441.408447
1.840000 -2.080000 8.200000 5.030477 27.824362 799.500854
1.840000 -2.040000 7.800000 26.422907 5.083411 724.011047
1.840000 -2.040000 7.840000 9.976919 26.535934 803.694763
1.840000 -2.040000 7.880000 -22.166454 29.490202 1361.023682
1.840000 -2.040000 7.920000 -50.128532 4.310056 2531.446533
1.840000 -2.040000 7.960000 -50.955223 -38.246098 4059.198730
1.840000 -2.040000 8.000000 -17.882824 -70.883110 5344.210938
1.840000 -2.040000 8.040000 30.874666 -69.450523 5776.620117
1.840000 -2.040000 8.080000 63.738087 -32.839245 5140.959961
1.840000 -2.040000 8.120000 59.651318 14.734257 3775.378174
1.840000 -2.040000 8.160000 24.167305 42.060730 2353.163574
1.840000 -2.040000 8.200000 -15.982596 34.507717 1446.225952
1.840000 -2.000000 7.800000 11.583248 19.730396 523.460205
1.840000 -2.000000 7.840000 -13.341585 30.212486 1090.792236
1.840000 -2.000000 7.880000 -43.259235 15.467505 2110.605225
1.840000 -2.000000 7.920000 -54.269478 -22.727755 3461.727051
1.840000 -2.000000 7.960000 -31.128225 -61.796188 4787.735352
1.840000 -2.000000 8.000000 17.144623 -73.047737 5629.909668
1.840000 -2.000000 8.040000 60.461422 -44.803982 5662.980469
1.840000 -2.000000 8.080000 69.649223 6.070600 4887.866211
1.840000 -2.000000 8.120000 39.532288 45.706093 3651.848633
1.840000 -2.000000 8.160000 -6.879903 49.139572 2462.030518
1.840000 -2.000000 8.200000 -36.855160 18.784935 1711.176636
1.840000 -1.960000 7.800000 -6.193914 18.623730 385.207886
1.840000 -1.960000 7.840000 -30.441019 16.447454 1197.174438
1.840000 -1.960000 7.880000 -47.353668 -8.476510 2314.221191
1.840000 -1.960000 7.920000 -38.629669 -43.338551 3370.481445
1.840000 -1.960000 7.960000 -2.962601 -63.254814 4009.948730
1.840000 -1.960000 8.000000 39.236797 -50.304634 4070.082520
1.840000 -1.960000 8.040000 59.512466 -9.641159 3634.685547
1.840000 -1.960000 8.080000 43.636673 32.260181 2944.878418
1.840000 -1.960000 8.120000 3.659109 47.349045 2255.321289
1.840000 -1.960000 8.160000 -31.121122 27.722281 1737.049072
1.840000 -1.960000 8.200000 -37.042625 -8.948839 1452.237793
1.840000 -1.920000 7.800000 -14.944259 7.204751 275.239319
1.840000 -1.920000 7.840000 -31.484575 -2.893341 999.649902
1.840000 -1.920000 7.880000 -34.104958 -25.785570 1828.043701
1.840000 -1.920000 7.920000 -16.143715 -45.576363 2337.824463
1.840000 -1.920000 7.960000 13.431628 -46.037567 2299.866211
1.840000 -1.920000 8.000000 35.234814 -23.907568 1813.063843
1.840000 -1.920000 8.040000 33.997765 7.104359 1206.319946
1.840000 -1.920000 8.080000 10.997314 25.969944 795.378906
1.840000 -1.920000 8.120000 -16.296820 20.526823 686.936768
1.840000 -1.920000 8.160000 -27.605186 -2.997405 771.030762
1.840000 -1.920000 8.200000 -15.543320 -25.076757 870.438538
1.840000 -1.880000 7.800000 -12.637362 -3.197348 169.925949
1.840000 -1.880000 7.840000 -20.112020 -13.987020 600.130127
1.840000 -1.880000 7.880000 -16.119291 -27.053864 991.743103
1.840000 -1.880000 7.920000 -3.234804 -32.952774 1096.349365
1.840000 -1.880000 7.960000 9.926686 -27.770603 869.745544
1.840000 -1.880000 8.000000 15.161716 -15.500870 470.154602
1.840000 -1.880000 8.040000 10.417263 -4.708061 130.685211
1.840000 -1.880000 8.080000 0.907120 -2.156654 5.474024
1.840000 -1.880000 8.120000 -5.001070 -7.955521 88.301010
1.840000 -1.880000 8.160000 -2.131914 -15.586628 247.488037
1.840000 -1.880000 8.200000 7.445454 -16.860163 339.699860
1.840000 -1.840000 7.800000 -6.570162 -6.024210 79.458130
1.840000 -1.840000 7.840000 -8.502738 -12.645906 232.215500
1.840000 -1.840000 7.880000 -7.125546 -17.037722 341.057373
1.840000 -1.840000 7.920000 -5.745657 -19.937069 430.499298
1.840000 -1.840000 7.960000 -3.957386 -23.805767 582.375427
1.840000 -1.840000 8.000000 1.119692 -28.153965 793.899475
1.840000 -1.840000 8.040000 10.157043 -29.041836 946.593750
1.840000 -1.840000 8.080000 19.324520 -23.261765 914.546753
1.840000 -1.840000 8.120000 23.187635 -12.265442 688.107544
1.840000 -1.840000 8.160000 19.539450 -1.392262 383.728485
1.840000 -1.840000 8.200000 10.969141 4.589172 141.382553
1.840000 -1.800000 7.800000 -4.515723 -4.124296 37.401573
1.840000 -1.800000 7.840000 -5.390882 -6.131230 66.653580
1.840000 -1.800000 7.880000 -10.119792 -8.538286 175.312515
1.840000 -1.800000 7.920000 -15.443561 -18.154245 568.080200
1.840000 -1.800000 7.960000 -11.700336 -34.354126 1317.103760
1.840000 -1.800000 8.000000 6.309929 -46.166435 2171.155029
1.840000 -1.800000 8.040000 31.032360 -41.276810 2666.782471
1.840000 -1.800000 8.080000 46.212486 -18.613594 2482.059814
1.840000 -1.800000 8.120000 40.552319 8.482902 1716.450195
1.840000 -1.800000 8.160000 17.958580 22.516769 829.515503
1.840000 -1.800000 8.200000 -5.604597 16.068174 289.597717
1.880000 -2.200000 7.800000 -33.764217 -39.233948 2679.324951
1.880000 -2.200000 7.840000 -11.747673 -38.887466 1650.242798
1.880000 -2.200000 7.880000 3.519177 -27.053200 744.260193
1.880000 -2.200000 7.920000 7.435228 -12.544344 212.643188
1.880000 -2.200000 7.960000 4.014521 -3.325349 27.174322
1.880000 -2.200000 8.000000 0.670383 -0.064653 0.453594
1.880000 -2.200000 8.040000 0.413878 2.362684 5.753572
1.880000 -2.200000 8.080000 -0.105270 7.573494 57.368893
1.880000 -2.200000 8.120000 -5.067675 13.178673 199.358734
1.880000 -2.200000 8.160000 -13.375557 13.984097 374.460480
1.880000 -2.200000 8.200000 -19.302011 8.802345 450.048950
1.880000 -2.160000 7.800000 2.433702 -50.441147 2550.232178
1.880000 -2.160000 7.840000 21.526688 -29.950899 1360.454590
1.880000 -2.160000 7.880000 21.630569 -2.643852 474.871490
1.880000 -2.160000 7.920000 3.551647 14.922276 235.288498
1.880000 -2.160000 7.960000 -18.728930 12.835073 515.511902
1.880000 -2.160000 8.000000 -29.013191 -3.818359 856.345154
1.880000 -2.160000 8.040000 -22.058743 -19.686216 874.135254
1.880000 -2.160000 8.080000 -6.646358 -22.562292 553.231140
1.880000 -2.160000 8.120000 3.690510 -12.689825 174.651520
1.880000 -2.160000 8.160000 2.482213 0.019461 6.161762
1.880000 -2.160000 8.200000 -6.354591 6.430934 81.737747
1.880000 -2.120000 7.800000 36.449783 -32.004105 2352.849365
1.880000 -2.120000 7.840000 39.171204 4.670829 1556.199829
1.880000 -2.120000 7.880000 12.762909 34.822731 1375.514404
1.880000 -2.120000 7.920000 -29.376535 35.850468 2148.236816
1.880000 -2.120000 7.960000 -58.671677 4.161179 3459.681152
1.880000 -2.120000 8.000000 -53.747772 -38.738037 4389.458496
1.880000 -2.120000 8.040000 -18.757080 -62.296249 4232.650879
1.880000 -2.120000 8.080000 19.863649 -51.562805 3053.287598
1.880000 -2.120000 8.120000 35.498375 -18.121468 1588.522217
1.880000 -2.120000 8.160000 21.971899 11.846150 623.095642
1.880000 -2.120000 8.200000 -5.158226 19.920206 423.421906
1.880000 -2.080000 7.800000 46.218582 4.842177 2159.604004
1.880000 -2.080000 7.840000 23.704243 44.184769 2514.185059
1.880000 -2.080000 7.880000 -27.998682 56.475567 3973.416016
1.880000 -2.080000 7.920000 -77.387024 23.103786 6522.536621
1.880000 -2.080000 7.960000 -86.638695 -40.447380 9142.253906
1.880000 -2.080000 8.000000 -44.320953 -91.758446 10383.958984
1.880000 -2.080000 8.040000 21.806301 -94.665306 9437.035156
1.880000 -2.080000 8.080000 65.927139 -49.278069 6774.715820
1.880000 -2.080000 8.120000 61.123741 8.774468 3813.103027
1.880000 -2.080000 8.160000 19.016880 38.898903 1874.766357
1.880000 -2.080000 8.200000 -24.186897 27.437099 1337.800415
1.880000 -2.040000 7.800000 26.478930 35.439728 1957.108154
1.880000 -2.040000 7.840000 -18.387867 59.669868 3898.606934
1.880000 -2.040000 7.880000 -77.199234 38.838123 7468.121582
1.880000 -2.040000 7.920000 -105.541718 -27.643787 11903.232422
1.880000 -2.040000 7.960000 -73.167282 -100.259048 15405.328125
1.880000 -2.040000 8.000000 5.570601 -127.186134 16207.343750
1.880000 -2.040000 8.040000 78.509468 -87.572380 13832.658203
1.880000 -2.040000 8.080000 96.887703 -10.629260 9500.208008
1.880000 -2.040000 8.120000 54.664207 48.161667 5307.721680
1.880000 -2.040000 8.160000 -9.301897 52.453983 2837.945801
1.880000 -2.040000 8.200000 -46.510323 11.167362 2287.920166
1.880000 -2.000000 7.800000 -6.999746 40.509758 1690.036987
1.880000 -2.000000 7.840000 -58.717846 38.139271 4902.389648
1.880000 -2.000000 7.880000 -99.189117 -12.422260 9992.793945
1.880000 -2.000000 7.920000 -87.678589 -87.709816 15380.546875
1.880000 -2.000000 7.960000 -18.200562 -135.628586 18726.373047
1.880000 -2.000000 8.000000 68.239975 -117.218735 18396.925781
1.880000 -2.000000 8.040000 113.322533 -41.973606 14603.779297
1.880000 -2.000000 8.080000 88.955650 37.247879 9300.512695
1.880000 -2.000000 8.120000 19.969156 67.027847 4891.499512
1.880000 -2.000000 8.160000 -38.425220 35.794853 2757.769043
1.880000 -2.000000 8.200000 -46.997902 -21.356522 2664.903809
1.880000 -1.960000 7.800000 -30.306871 20.531065 1340.031128
1.880000 -1.960000 7.840000 -69.309631 -5.291466 4831.824707
1.880000 -1.960000 7.880000 -76.748352 -63.678726 9945.290039
1.880000 -1.960000 7.920000 -32.204578 -116.946655 14713.655273
1.880000 -1.960000 7.960000 44.420883 -122.158180 16895.835938
1.880000 -1.960000 8.000000 103.595535 -68.532806 15428.781250
1.880000 -1.960000 8.040000 105.171478 9.789629 11156.876953
1.880000 -1.960000 8.080000 51.987282 59.654465 6261.333008
1.880000 -1.960000 8.120000 -12.593452 51.752899 2836.957520
1.880000 -1.960000 8.160000 -41.155045 2.602795 1700.512207
1.880000 -1.960000 8.200000 -19.871746 -42.751461 2222.573730
1.880000 -1.920000 7.800000 -30.210194 -6.529778 955.293823
1.880000 -1.920000 7.840000 -45.649384 -39.578220 3650.301758
1.880000 -1.920000 7.880000 -27.072744 -80.932846 7283.059082
1.880000 -1.920000 7.920000 22.865072 -98.450470 10215.306641
1.880000 -1.920000 7.960000 74.820183 -73.238213 10961.895508
1.880000 -1.920000 8.000000 94.094284 -17.511410 9160.383789
1.880000 -1.920000 8.040000 68.703560 32.919468 5803.870605
1.880000 -1.920000 8.080000 19.633549 46.637669 2560.548340
1.880000 -1.920000 8.120000 -16.263077 21.288475 717.686829
1.880000 -1.920000 8.160000 -15.972618 -16.233833 518.661865
1.880000 -1.920000 8.200000 12.919724 -33.400925 1282.541016
1.880000 -1.880000 7.800000 -12.616776 -21.306421 613.146606
1.880000 -1.880000 7.840000 -9.185358 -43.755695 1998.931763
1.880000 -1.880000 7.880000 13.190481 -58.502224 3596.499023
1.880000 -1.880000 7.920000 42.592773 -52.899357 4612.486328
1.880000 -1.880000 7.960000 61.395607 -27.937988 4549.951660
1.880000 -1.880000 8.000000 58.972290 2.325050 3483.136719
1.880000 -1.880000 8.040000 39.115181 21.034325 1972.440186
1.880000 -1.880000 8.080000 16.634178 20.598633 700.999573
1.880000 -1.880000 8.120000 6.014149 7.416882 91.180115
1.880000 -1.880000 8.160000 10.932695 -3.977230 135.342194
1.880000 -1.880000 8.200000 22.425941 -2.483859 509.092407
1.880000 -1.840000 7.800000 5.559727 -18.098099 358.451721
1.880000 -1.840000 7.840000 12.736809 -22.867071 685.129272
1.880000 -1.840000 7.880000 19.942091 -21.633293 865.686340
1.880000 -1.840000 7.920000 24.340712 -18.428310 932.072876
1.880000 -1.840000 7.960000 28.302588 -15.711273 1047.880493
1.880000 -1.840000 8.000000 33.948208 -11.102888 1275.755005
1.880000 -1.840000 8.040000 38.503883 -1.292931 1484.220703
1.880000 -1.840000 8.080000 36.474960 12.166542 1478.447510
1.880000 -1.840000 8.120000 26.101463 22.744999 1198.621338
1.880000 -1.840000 8.160000 12.168196 25.051231 775.629211
1.880000 -1.840000 8.200000 1.573889 20.079262 405.653870
1.880000 -1.800000 7.800000 12.130507 -6.188820 185.450714
1.880000 -1.800000 7.840000 10.117548 0.127968 102.381149
1.880000 -1.800000 7.880000 0.145003 -1.390846 1.955479
1.880000 -1.800000 7.920000 -4.145453 -16.167770 278.581573
1.880000 -1.800000 7.960000 9.860279 -32.564060 1157.643066
1.880000 -1.800000 8.000000 37.506027 -31.296623 2386.180664
1.880000 -1.800000 8.040000 57.583626 -5.452173 3345.600098
1.880000 -1.800000 8.080000 51.198769 29.859240 3512.888184
1.880000 -1.800000 8.120000 20.254017 49.451771 2855.702637
1.880000 -1.800000 8.160000 -13.439205 40.452652 1817.029175
1.880000 -1.800000 8.200000 -27.675694 12.968153 934.117004
1.920000 -2.200000 7.800000 -10.407932 -59.519585 3650.906006
1.920000 -2.200000 7.840000 11.418808 -44.016174 2067.812744
1.920000 -2.200000 7.880000 16.531513 -21.934223 754.401062
1.920000 -2.200000 7.920000 7.761368 -7.612851 118.194321
1.920000 -2.200000 7.960000 -2.422478 -6.236042 44.756618
1.920000 -2.200000 8.000000 -4.393064 -10.681580 133.395157
1.920000 -2.200000 8.040000 0.192974 -10.661949 113.714401
1.920000 -2.200000 8.080000 2.443693 -3.856753 20.846182
1.920000 -2.200000 8.120000 -2.628004 2.932745 15.507399
1.920000 -2.200000 8.160000 -10.706606 2.915981 123.134354
1.920000 -2.200000 8.200000 -14.120621 -2.451587 205.402222
1.920000 -2.160000 7.800000 34.217941 -47.794304 3455.163086
1.920000 -2.160000 7.840000 41.460400 -11.879215 1860.080444
1.920000 -2.160000 7.880000 20.788841 18.247520 765.147949
1.920000 -2.160000 7.920000 -13.755497 22.383560 690.237488
1.920000 -2.160000 7.960000 -36.754993 -0.252113 1350.993164
1.920000 -2.160000 8.000000 -32.692665 -29.699753 1950.885620
1.920000 -2.160000 8.040000 -8.500000 -42.665298 1892.577637
1.920000 -2.160000 8.080000 14.339111 -31.985458 1228.679688
1.920000 -2.160000 8.120000 19.508995 -9.985880 480.318695
1.920000 -2.160000 8.160000 7.987803 5.552130 94.631134
1.920000 -2.160000 8.200000 -7.401515 7.203694 106.675636
1.920000 -2.120000 7.800000 57.368183 -5.901797 3325.939697
1.920000 -2.120000 7.840000 36.026031 39.257866 2839.055176
1.920000 -2.120000 7.880000 -17.203583 56.158306 3449.718750
1.920000 -2.120000 7.920000 -68.642265 25.772423 5375.978516
1.920000 -2.120000 7.960000 -79.935654 -34.801643 7600.862793
1.920000 -2.120000 8.000000 -41.520737 -82.789719 8578.109375
1.920000 -2.120000 8.040000 17.746323 -84.713257 7491.268066
1.920000 -2.120000 8.080000 54.849674 -43.816738 4928.393555
1.920000 -2.120000 8.120000 48.243050 5.296272 2355.442383
1.920000 -2.120000 8.160000 12.019855 28.111639 934.741150
1.920000 -2.120000 8.200000 -21.767693 17.113836 766.715820
1.920000 -2.080000 7.800000 42.298191 39.649040 3361.183350
1.920000 -2.080000 7.840000 -11.490920 72.407181 5374.840820
1.920000 -2.080000 7.880000 -83.566711 51.194637 9604.286133
1.920000 -2.080000 7.920000 -120.566116 -25.015400 15161.958984
1.920000 -2.080000 7.960000 -86.850182 -109.308113 19491.218750
1.920000 -2.080000 8.000000 0.062737 -141.585068 20046.335938
1.920000 -2.080000 8.040000 79.987335 -99.436790 16285.649414
1.920000 -2.080000 8.080000 99.442612 -17.531925 10196.201172
1.920000 -2.080000 8.120000 54.754379 42.970329 4844.491211
1.920000 -2.080000 8.160000 -9.997199 45.806820 2198.208740
1.920000 -2.080000 8.200000 -45.052185 4.395924 2049.023438
1.920000 -2.040000 7.800000 -0.543397 58.369038 3407.239746
1.920000 -2.040000 7.840000 -72.547180 57.415604 8559.644531
1.920000 -2.040000 7.880000 -130.924423 -9.795719 17237.162109
1.920000 -2.040000 7.920000 -119.359291 -112.142197 26822.511719
1.920000 -2.040000 7.960000 -29.201061 -178.873505 32848.433594
1.920000 -2.040000 8.000000 84.237457 -157.681366 31959.363281
1.920000 -2.040000 8.040000 143.595764 -62.136276 24480.660156
1.920000 -2.040000 8.080000 113.671219 37.707802 14343.024414
1.920000 -2.040000 8.120000 28.836000 74.222633 6340.514648
1.920000 -2.040000 8.160000 -40.564308 36.271767 2961.104248
1.920000 -2.040000 8.200000 -49.124596 -29.674328 3293.791504
1.920000 -2.000000 7.800000 -40.825928 39.411175 3219.997070
1.920000 -2.000000 7.840000 -103.187454 -0.507790 10647.908203
1.920000 -2.000000 7.880000 -117.375046 -92.647354 22360.433594
1.920000 -2.000000 7.920000 -49.564774 -178.228088 34221.917969
1.920000 -2.000000 7.960000 69.576126 -188.878387 40515.882812
1.920000 -2.000000 8.000000 161.913269 -107.515778 37775.546875
1.920000 -2.000000 8.040000 165.121399 11.776958 27403.773438
1.920000 -2.000000 8.080000 85.334358 86.785507 14813.676758
1.920000 -2.000000 8.120000 -9.794514 75.032738 5725.844238
1.920000 -2.000000 8.160000 -50.499149 4.664480 2571.921387
1.920000 -2.000000 8.200000 -20.932850 -57.164688 3705.985840
1.920000 -1.960000 7.800000 -51.952801 -0.621067 2699.479248
1.920000 -1.960000 7.840000 -80.592766 -61.815956 10316.406250
1.920000 -1.960000 7.880000 -46.327229 -140.304871 21831.669922
1.920000 -1.960000 7.920000 48.416546 -174.339874 32738.554688
1.920000 -1.960000 7.960000 147.424469 -125.976364 37604.019531
1.920000 -1.960000 8.000000 182.690399 -18.890776 33732.644531
1.920000 -1.960000 8.040000 131.605225 76.457367 23165.664062
1.920000 -1.960000 8.080000 36.759895 99.946350 11340.562500
1.920000 -1.960000 8.120000 -30.615562 50.043686 3441.683350
1.920000 -1.960000 8.160000 -29.963530 -19.830572 1291.064697
1.920000 -1.960000 8.200000 20.138138 -50.859844 2992.268311
1.920000 -1.920000 7.800000 -30.790819 -32.155556 1982.054199
1.920000 -1.920000 7.840000 -22.878290 -84.689590 7695.742676
1.920000 -1.920000 7.880000 33.139618 -121.551697 15873.049805
1.920000 -1.920000 7.920000 109.774696 -104.927940 23060.357422
1.920000 -1.920000 7.960000 156.445374 -33.776642 25616.015625
1.920000 -1.920000 8.000000 139.917999 50.529320 22130.259766
1.920000 -1.920000 8.040000 72.791031 95.533127 14425.112305
1.920000 -1.920000 8.080000 3.673016 79.577736 6346.107422
1.920000 -1.920000 8.120000 -22.760044 27.368015 1267.027832
1.920000 -1.920000 8.160000 -0.354769 -13.689295 187.522644
1.920000 -1.920000 8.200000 38.708237 -13.685009 1685.607056
1.920000 -1.880000 7.800000 2.763407 -36.236469 1320.718140
1.920000 -1.880000 7.840000 27.000443 -59.320190 4247.909180
1.920000 -1.880000 7.880000 68.090820 -57.643990 7959.189453
1.920000 -1.880000 7.920000 101.195648 -24.480240 10839.841797
1.920000 -1.880000 7.960000 104.493156 24.879185 11537.792969
1.920000 -1.880000 8.000000 75.561050 63.679817 9764.591797
1.920000 -1.880000 8.040000 32.879269 73.136154 6429.943359
1.920000 -1.880000 8.080000 1.524097 55.251743 3055.077881
1.920000 -1.880000 8.120000 -5.156652 29.303280 885.273254
1.920000 -1.880000 8.160000 6.514992 15.815130 292.563477
1.920000 -1.880000 8.200000 18.166864 21.398458 787.928955
1.920000 -1.840000 7.800000 24.334423 -16.869030 876.728271
1.920000 -1.840000 7.840000 38.118916 -13.012811 1622.385010
1.920000 -1.840000 7.880000 46.198807 -1.144291 2135.639160
1.920000 -1.840000 7.920000 47.111004 11.748749 2357.479980
1.920000 -1.840000 7.960000 44.451031 22.814384 2496.390381
1.920000 -1.840000 8.000000 39.739769 33.879433 2727.065186
1.920000 -1.840000 8.040000 30.103493 45.359581 2963.711914
1.920000 -1.840000 8.080000 13.516479 52.491848 2938.089355
1.920000 -1.840000 8.120000 -5.708296 49.481796 2481.032959
1.920000 -1.840000 8.160000 -19.016493 36.812553 1716.791016
1.920000 -1.840000 8.200000 -21.843077 22.314396 975.052246
1.920000 -1.800000 7.800000 24.118511 6.719677 626.856628
1.920000 -1.800000 7.840000 14.774815 17.062107 509.410645
1.920000 -1.800000 7.880000 0.933714 11.662384 136.883026
1.920000 -1.800000 7.920000 1.876568 -5.553345 34.361145
1.920000 -1.800000 7.960000 23.028954 -13.155464 703.398926
1.920000 -1.800000 8.000000 45.998993 5.539753 2146.596436
1.920000 -1.800000 8.040000 44.613045 42.171165 3768.730957
1.920000 -1.800000 8.080000 11.717737 67.954819 4755.162598
1.920000 -1.800000 8.120000 -31.418669 60.296291 4622.775391
1.920000 -1.800000 8.160000 -53.938953 24.601555 3514.647217
1.920000 -1.800000 8.200000 -43.728146 -11.189013 2037.344727
1.960000 -2.200000 7.800000 24.536573 -58.929245 4074.699463
1.960000 -2.200000 7.840000 35.021751 -31.863840 2241.827393
1.960000 -2.200000 7.880000 25.201656 -9.533189 726.005188
1.960000 -2.200000 7.920000 7.725918 -4.379230 78.867470
1.960000 -2.200000 7.960000 -1.148440 -12.815186 165.547882
1.960000 -2.200000 8.000000 3.409559 -20.528049 433.025909
1.960000 -2.200000 8.040000 12.308640 -17.596115 461.125854
1.960000 -2.200000 8.080000 14.076477 -7.257419 250.817322
1.960000 -2.200000 8.120000 7.020571 0.069723 49.293274
1.960000 -2.200000 8.160000 -0.983878 -0.656183 1.398593
1.960000 -2.200000 8.200000 -3.288535 -4.519390 31.239349
1.960000 -2.160000 7.800000 57.371544 -22.345238 3790.803711
1.960000 -2.160000 7.840000 43.478901 16.222904 2153.597412
1.960000 -2.160000 7.880000 5.032379 32.214981 1063.129883
1.960000 -2.160000 7.920000 -30.978491 13.570778 1143.832886
1.960000 -2.160000 7.960000 -38.142467 -24.371666 2048.825928
1.960000 -2.160000 8.000000 -13.581860 -51.320827 2818.294189
1.960000 -2.160000 8.040000 20.493500 -48.137897 2737.240723
1.960000 -2.160000 8.080000 37.556843 -21.549932 1874.916016
1.960000 -2.160000 8.120000 28.980461 5.297068 867.926025
1.960000 -2.160000 8.160000 7.153536 14.897137 273.097748
1.960000 -2.160000 8.200000 -10.193395 7.787148 164.544983
1.960000 -2.120000 7.800000 53.084251 29.045887 3661.601318
1.960000 -2.120000 7.840000 6.125170 61.229824 3786.609131
1.960000 -2.120000 7.880000 -56.833740 45.956017 5342.029297
1.960000 -2.120000 7.920000 -89.513924 -16.082253 8271.381836
1.960000 -2.120000 7.960000 -63.292145 -83.921692 11048.746094
1.960000 -2.120000 8.000000 4.970146 -108.398178 11774.867188
1.960000 -2.120000 8.040000 65.423225 -74.000862 9756.326172
1.960000 -2.120000 8.080000 77.329956 -10.959946 6100.042480
1.960000 -2.120000 8.120000 41.251724 33.008968 2791.296875
1.960000 -2.120000 8.160000 -7.181232 33.122391 1148.662842
1.960000 -2.120000 8.200000 -32.252460 2.557705 1046.763062
1.960000 -2.080000 7.800000 11.754084 61.070473 3867.760986
1.960000 -2.080000 7.840000 -61.044823 62.457760 7627.442383
1.960000 -2.080000 7.880000 -120.840569 -2.132412 14606.990234
1.960000 -2.080000 7.920000 -112.079498 -101.556702 22875.578125
1.960000 -2.080000 7.960000 -27.093342 -166.363190 28410.759766
1.960000 -2.080000 8.000000 79.582886 -146.755142 27870.507812
1.960000 -2.080000 8.040000 134.074905 -57.488811 21281.042969
1.960000 -2.080000 8.080000 105.011215 34.071991 12188.255859
1.960000 -2.080000 8.120000 26.836845 65.883781 5060.889160
1.960000 -2.080000 8.160000 -35.221077 30.542065 2173.342041
1.960000 -2.080000 8.200000 -42.324089 -27.734280 2560.518799
1.960000 -2.040000 7.800000 -38.961685 51.702679 4191.179688
1.960000 -2.040000 7.840000 -110.866608 7.717886 12350.969727
1.960000 -2.040000 7.880000 -129.207016 -95.870453 25885.597656
1.960000 -2.040000 7.920000 -55.220989 -192.872925 40249.324219
1.960000 -2.040000 7.960000 76.529938 -206.169876 48362.851562
1.960000 -2.040000 8.000000 178.226654 -117.160553 45491.335938
1.960000 -2.040000 8.040000 181.137970 12.942825 32978.480469
1.960000 -2.040000 8.080000 93.835655 93.281723 17506.609375
1.960000 -2.040000 8.120000 -8.258410 79.274689 6352.677246
1.960000 -2.040000 8.160000 -50.605766 4.073590 2577.537842
1.960000 -2.040000 8.200000 -19.532711 -59.792664 3956.689453
1.960000 -2.000000 7.800000 -64.356255 8.880522 4220.591309
1.960000 -2.000000 7.840000 -102.742828 -69.936974 15447.269531
1.960000 -2.000000 7.880000 -59.998230 -172.594482 33388.644531
1.960000 -2.000000 7.920000 62.134743 -218.134872 51443.550781
1.960000 -2.000000 7.960000 190.144119 -156.196381 60552.093750
1.960000 -2.000000 8.000000 234.748322 -18.112766 55434.847656
1.960000 -2.000000 8.040000 167.336975 103.409966 38695.285156
1.960000 -2.000000 8.080000 45.056698 130.976242 19184.880859
1.960000 -2.000000 8.120000 -39.674213 65.237663 5829.996094
1.960000 -2.000000 8.160000 -37.404781 -23.204073 1937.546631
1.960000 -2.000000 8.200000 24.542587 -60.997963 4323.089844
1.960000 -1.960000 7.800000 -49.348640 -35.861423 3721.330078
1.960000 -1.960000 7.840000 -39.130775 -116.187157 15030.672852
1.960000 -1.960000 7.880000 46.163452 -174.611938 32620.392578
1.960000 -1.960000 7.920000 165.170807 -149.541153 49643.953125
1.960000 -1.960000 7.960000 236.718323 -37.857906 57468.785156
1.960000 -1.960000 8.000000 206.955536 93.524780 51577.476562
1.960000 -1.960000 8.040000 97.611969 159.617889 35005.968750
1.960000 -1.960000 8.080000 -11.163652 127.460052 16370.692383
1.960000 -1.960000 8.120000 -48.550003 40.271057 3978.860840
1.960000 -1.960000 8.160000 -8.971161 -24.948135 702.891235
1.960000 -1.960000 8.200000 52.904526 -24.346210 3391.626953
1.960000 -1.920000 7.800000 -8.699320 -52.514481 2833.448975
1.960000 -1.920000 7.840000 34.672726 -100.506958 11303.846680
1.960000 -1.920000 7.880000 117.144051 -101.118828 23947.746094
1.960000 -1.920000 7.920000 185.934662 -33.151409 35670.714844
1.960000 -1.920000 7.960000 188.312515 71.612129 40589.898438
1.960000 -1.920000 8.000000 117.049805 149.154144 35947.617188
1.960000 -1.920000 8.040000 18.941936 154.145523 24119.638672
1.960000 -1.920000 8.080000 -42.992699 95.995407 11063.490234
1.960000 -1.920000 8.120000 -40.039688 27.844517 2378.493652
1.960000 -1.920000 8.160000 3.721134 -0.068888 13.851585
1.960000 -1.920000 8.200000 38.700695 20.392700 1913.605957
1.960000 -1.880000 7.800000 27.070587 -34.678558 1935.419189
1.960000 -1.880000 7.840000 68.674179 -40.769939 6378.331055
1.960000 -1.880000 7.880000 110.899841 -9.353710 12386.266602
1.960000 -1.880000 7.920000 122.711426 50.030037 17561.097656
1.960000 -1.880000 7.960000 91.119614 106.035446 19546.300781
1.960000 -1.880000 8.000000 31.953499 128.141403 17441.244141
1.960000 -1.880000 8.040000 -21.944424 108.890701 12338.742188
1.960000 -1.880000 8.080000 -45.154655 67.588165 6607.103027
1.960000 -1.880000 8.120000 -36.592827 33.533501 2463.530762
1.960000 -1.880000 8.160000 -16.232742 23.728493 826.543335
1.960000 -1.880000 8.200000 -6.571229 33.080433 1137.496094
1.960000 -1.840000 7.800000 36.415157 -0.684977 1326.532959
1.960000 -1.840000 7.840000 48.900169 15.116322 2619.729736
1.960000 -1.840000 7.880000 48.843475 36.798828 3739.838867
1.960000 -1.840000 7.920000 37.680374 54.878174 4431.424805
1.960000 -1.840000 7.960000 21.166290 66.036255 4808.798828
1.960000 -1.840000 8.000000 2.325806 71.310608 5090.611816
1.960000 -1.840000 8.040000 -18.699532 70.174011 5274.064453
1.960000 -1.840000 8.080000 -39.353798 59.540314 5093.770508
1.960000 -1.840000 8.120000 -52.617538 39.317513 4314.472168
1.960000 -1.840000 8.160000 -52.655861 16.665150 3050.366943
1.960000 -1.840000 8.200000 -42.040634 1.746716 1770.465942
1.960000 -1.800000 7.800000 20.636240 24.583656 1030.210571
1.960000 -1.800000 7.840000 3.608947 31.653275 1014.954285
1.960000 -1.800000 7.880000 -9.678036 20.579430 517.177307
1.960000 -1.800000 7.920000 -3.340347 5.756338 44.293350
1.960000 -1.800000 7.960000 15.622894 9.633560 336.880310
1.960000 -1.800000 8.000000 21.447102 36.387684 1784.041626
1.960000 -1.800000 8.040000 -3.517225 63.144878 3999.646484
1.960000 -1.800000 8.080000 -47.452141 60.728294 5939.631348
1.960000 -1.800000 8.120000 -77.400948 23.592545 6547.514648
1.960000 -1.800000 8.160000 -70.437935 -22.747335 5478.943848
1.960000 -1.800000 8.200000 -35.657383 -45.544044 3345.708984
2.000000 -2.200000 7.800000 51.033539 -33.592297 3732.864502
2.000000 -2.200000 7.840000 45.335732 -5.968213 2090.948242
2.000000 -2.200000 7.880000 24.937794 6.451488 663.515259
2.000000 -2.200000 7.920000 7.846121 -0.135941 61.580090
2.000000 -2.200000 7.960000 6.218691 -13.425034 218.903641
2.000000 -2.200000 8.000000 16.245850 -18.128529 592.571167
2.000000 -2.200000 8.040000 24.430782 -10.442908 705.917419
2.000000 -2.200000 8.080000 22.295338 0.822264 497.758209
2.000000 -2.200000 8.120000 13.324021 5.815039 211.344208
2.000000 -2.200000 8.160000 6.166747 3.838157 52.760216
2.000000 -2.200000 8.200000 3.702989 1.276380 15.341269
2.000000 -2.160000 7.800000 56.515285 12.396803 3347.658203
2.000000 -2.160000 7.840000 25.598816 37.681984 2075.231201
2.000000 -2.160000 7.880000 -15.124341 31.008213 1190.255005
2.000000 -2.160000 7.920000 -35.719692 -4.282860 1294.239258
2.000000 -2.160000 7.960000 -21.191525 -40.992046 2129.428711
2.000000 -2.160000 8.000000 15.019707 -51.281086 2855.341309
2.000000 -2.160000 8.040000 43.550858 -30.228958 2810.467285
2.000000 -2.160000 8.080000 44.882900 2.442909 2020.442505
2.000000 -2.160000 8.120000 23.469095 22.154186 1041.606445
2.000000 -2.160000 8.160000 -1.042324 19.947746 398.998993
2.000000 -2.160000 8.200000 -13.483969 5.005884 206.876282
2.000000 -2.120000 7.800000 25.089539 49.743626 3103.913086
2.000000 -2.120000 7.840000 -30.518625 53.570633 3801.199219
2.000000 -2.120000 7.880000 -76.360909 8.145805 5897.342285
2.000000 -2.120000 7.920000 -72.090256 -62.352962 9084.896484
2.000000 -2.120000 7.960000 -13.848343 -107.415207 11729.802734
2.000000 -2.120000 8.000000 58.183491 -93.118393 12056.353516
2.000000 -2.120000 8.040000 92.784851 -32.069180 9637.460938
2.000000 -2.120000 8.080000 70.666557 28.341696 5797.013672
2.000000 -2.120000 8.120000 17.332222 47.420914 2549.149170
2.000000 -2.120000 8.160000 -23.715969 22.657124 1075.792480
2.000000 -2.120000 8.200000 -28.938942 -15.909220 1090.565674
2.000000 -2.080000 7.800000 -24.560360 51.720615 3278.233398
2.000000 -2.080000 7.840000 -87.023186 16.125172 7833.055664
2.000000 -2.080000 7.880000 -104.841492 -70.322693 15937.019531
2.000000 -2.080000 7.920000 -45.252739 -151.770813 25082.189453
2.000000 -2.080000 7.960000 62.424774 -163.681046 30688.335938
2.000000 -2.080000 8.000000 144.879654 -91.310341 29327.691406
2.000000 -2.080000 8.040000 146.031982 13.862179 21517.500000
2.000000 -2.080000 8.080000 74.360931 77.400604 11520.402344
2.000000 -2.080000 8.120000 -7.898006 64.433121 4214.005371
2.000000 -2.080000 8.160000 -41.363964 3.294889 1721.833862
2.000000 -2.080000 8.200000 -16.898294 -47.904366 2580.380371
2.000000 -2.040000 7.800000 -58.679893 16.218311 3706.363525
2.000000 -2.040000 7.840000 -97.130661 -58.528713 12859.975586
2.000000 -2.040000 7.880000 -58.239773 -157.506042 28200.025391
2.000000 -2.040000 7.920000 57.442417 -202.554504 44327.960938
2.000000 -2.040000 7.960000 179.303207 -144.602188 53059.433594
2.000000 -2.040000 8.000000 221.297775 -13.834690 49164.105469
2.000000 -2.040000 8.040000 156.423065 100.444778 34557.328125
2.000000 -2.040000 8.080000 40.284302 124.653000 17161.195312
2.000000 -2.040000 8.120000 -38.911495 60.844910 5216.207520
2.000000 -2.040000 8.160000 -35.672447 -22.959652 1799.669067
2.000000 -2.040000 8.200000 22.349773 -58.400406 3910.119873
2.000000 -2.000000 7.800000 -54.389050 -31.393393 3943.713867
2.000000 -2.000000 7.840000 -45.110474 -119.312424 16270.409180
2.000000 -2.000000 7.880000 47.383102 -185.116364 36513.226562
2.000000 -2.000000 7.920000 178.599350 -158.866730 57136.367188
2.000000 -2.000000 7.960000 257.500244 -35.840996 67590.953125
2.000000 -2.000000 8.000000 223.166824 108.889854 61660.429688
2.000000 -2.000000 8.040000 100.522034 179.610886 42364.750000
2.000000 -2.000000 8.080000 -19.579418 140.248154 20052.898438
2.000000 -2.000000 8.120000 -58.311157 41.066616 5086.658203
2.000000 -2.000000 8.160000 -11.790108 -31.286612 1117.858643
2.000000 -2.000000 8.200000 57.170341 -30.066504 4172.442383
2.000000 -1.960000 7.800000 -17.263937 -57.964386 3657.913574
2.000000 -1.960000 7.840000 35.910252 -121.387161 16024.388672
2.000000 -1.960000 7.880000 142.743500 -124.922806 35981.414062
2.000000 -1.960000 7.920000 233.514404 -36.913177 55891.558594
2.000000 -1.960000 7.960000 235.320480 101.162552 65609.585938
2.000000 -1.960000 8.000000 137.506531 201.321625 59438.445312
2.000000 -1.960000 8.040000 5.424591 201.228897 40522.496094
2.000000 -1.960000 8.080000 -73.342796 115.940651 18821.400391
2.000000 -1.960000 8.120000 -61.265335 21.288448 4206.639160
2.000000 -1.960000 8.160000 4.461514 -13.992790 215.703278
2.000000 -1.960000 8.200000 53.841087 17.100981 3191.306396
2.000000 -1.920000 7.800000 24.439598 -47.985332 2899.885986
2.000000 -1.920000 7.840000 89.735573 -64.720535 12241.220703
2.000000 -1.920000 7.880000 162.896362 -17.726974 26849.470703
2.000000 -1.920000 7.920000 185.239746 82.392418 41102.273438
2.000000 -1.920000 7.960000 127.681396 177.854950 47934.921875
2.000000 -1.920000 8.000000 19.677383 207.705658 43528.839844
2.000000 -1.920000 8.040000 -71.912285 157.925110 30111.716797
2.000000 -1.920000 8.080000 -96.704407 71.930496 14525.738281
2.000000 -1.920000 8.120000 -59.016876 12.153534 3630.700195
2.000000 -1.920000 8.160000 -7.347277 8.757351 130.673676
2.000000 -1.920000 8.200000 11.717855 41.392303 1850.630859
2.000000 -1.880000 7.800000 43.038368 -13.222202 2027.127808
2.000000 -1.880000 7.840000 83.893486 6.628147 7082.049316
2.000000 -1.880000 7.880000 103.235504 60.951263 14372.625977
2.000000 -1.880000 7.920000 77.971420 122.955605 21197.623047
2.000000 -1.880000 7.960000 14.428574 155.940094 24525.496094
2.000000 -1.880000 8.000000 -54.675259 140.845627 22826.875000
2.000000 -1.880000 8.040000 -94.392395 90.093559 17026.773438
2.000000 -1.880000 8.080000 -92.471649 36.466343 9880.799805
2.000000 -1.880000 8.120000 -64.851349 7.531820 4262.425781
2.000000 -1.880000 8.160000 -39.254627 7.378086 1595.361938
2.000000 -1.880000 8.200000 -32.750145 19.113468 1437.896729
2.000000 -1.840000 7.800000 31.448708 19.995384 1388.836548
2.000000 -1.840000 7.840000 33.975395 43.575062 3053.113525
2.000000 -1.840000 7.880000 19.866329 66.208138 4778.188477
2.000000 -1.840000 7.920000 -4.964058 78.024147 6112.409668
2.000000 -1.840000 7.960000 -31.883202 77.056046 6954.172852
2.000000 -1.840000 8.000000 -55.714287 65.757111 7428.079102
2.000000 -1.840000 8.040000 -73.828400 46.018223 7568.309570
2.000000 -1.840000 8.080000 -82.427032 19.604195 7178.540039
2.000000 -1.840000 8.120000 -77.369080 -7.848722 6047.577148
2.000000 -1.840000 8.160000 -59.857040 -26.912331 4307.138672
2.000000 -1.840000 8.200000 -39.172554 -31.363899 2518.183105
2.000000 -1.800000 7.800000 4.053995 32.585083 1078.222534
2.000000 -1.800000 7.840000 -15.492449 31.886322 1256.753540
2.000000 -1.800000 7.880000 -24.319939 17.219490 887.970215
2.000000 -1.800000 7.920000 -16.074944 7.489162 314.491364
2.000000 -1.800000 7.960000 -6.742531 17.000046 334.463287
2.000000 -1.800000 8.000000 -18.038921 36.205978 1636.275635
2.000000 -1.800000 8.040000 -51.305305 38.550621 4118.384766
2.000000 -1.800000 8.080000 -81.388947 8.439392 6695.383789
2.000000 -1.800000 8.120000 -79.756874 -39.298061 7905.497070
2.000000 -1.800000 8.160000 -43.830566 -70.954079 6955.600098
2.000000 -1.800000 8.200000 -1.146793 -66.144936 4376.467285
2.040000 -2.200000 7.800000 52.537529 2.415763 2766.027832
2.040000 -2.200000 7.840000 35.601158 19.906439 1663.708740
2.040000 -2.200000 7.880000 14.610704 19.269857 584.800049
2.040000 -2.200000 7.920000 4.842964 5.896305 58.220718
2.040000 -2.200000 7.960000 9.741413 -5.549923 125.696770
2.040000 -2.200000 8.000000 19.748222 -5.558478 420.888947
2.040000 -2.200000 8.040000 23.566200 2.868249 563.592651
2.040000 -2.200000 8.080000 18.862471 10.239050 460.630920
2.040000 -2.200000 8.120000 11.606078 11.477974 266.444946
2.040000 -2.200000 8.160000 7.058395 9.253639 135.450775
2.040000 -2.200000 8.200000 4.244873 7.661689 76.720428
2.040000 -2.160000 7.800000 32.625179 35.222507 2305.027344
2.040000 -2.160000 7.840000 -0.500290 40.403427 1632.687134
2.040000 -2.160000 7.880000 -27.588589 17.697464 1074.330444
2.040000 -2.160000 7.920000 -27.553207 -17.788372 1075.605469
2.040000 -2.160000 7.960000 -0.696655 -39.407513 1553.437378
2.040000 -2.160000 8.000000 31.242798 -32.127312 2008.276611
2.040000 -2.160000 8.040000 44.422035 -4.562531 1994.133911
2.040000 -2.160000 8.080000 32.501614 20.650450 1482.795898
2.040000 -2.160000 8.120000 8.655275 27.114395 810.104248
2.040000 -2.160000 8.160000 -9.081072 15.837571 333.294525
2.040000 -2.160000 8.200000 -12.824636 -0.733564 165.009399
2.040000 -2.120000 7.800000 -6.709076 43.294800 1919.451416
2.040000 -2.120000 7.840000 -48.244057 22.786730 2846.724121
2.040000 -2.120000 7.880000 -62.189796 -30.312218 4786.401367
2.040000 -2.120000 7.920000 -28.225193 -80.899437 7341.380371
2.040000 -2.120000 7.960000 35.137974 -89.405083 9227.946289
2.040000 -2.120000 8.000000 83.280151 -47.589077 9200.303711
2.040000 -2.120000 8.040000 83.274658 13.105957 7106.434570
2.040000 -2.120000 8.080000 41.091969 48.894764 4079.248047
2.040000 -2.120000 8.120000 -6.621625 40.319813 1669.533203
2.040000 -2.120000 8.160000 -26.175926 4.293261 703.611206
2.040000 -2.120000 8.200000 -12.896549 -26.424433 864.571655
2.040000 -2.080000 7.800000 -39.345097 19.168724 1915.476562
2.040000 -2.080000 7.840000 -68.898918 -32.905987 5829.865234
2.040000 -2.080000 7.880000 -43.896454 -103.967529 12736.145508
2.040000 -2.080000 7.920000 36.584511 -137.950348 20368.724609
2.040000 -2.080000 7.960000 122.607162 -99.000389 24833.593750
2.040000 -2.080000 8.000000 152.670029 -8.065331 23373.185547
2.040000 -2.080000 8.040000 107.343163 71.519318 16637.566406
2.040000 -2.080000 8.080000 25.968010 87.685036 8363.002930
2.040000 -2.080000 8.120000 -29.277637 42.029587 2623.666260
2.040000 -2.080000 8.160000 -26.664633 -17.577314 1019.964600
2.040000 -2.080000 8.200000 14.305064 -43.541756 2100.519287
2.040000 -2.040000 7.800000 -42.516766 -20.703674 2236.317627
2.040000 -2.040000 7.840000 -37.283714 -91.098198 9688.957031
2.040000 -2.040000 7.880000 35.851826 -146.027054 22609.253906
2.040000 -2.040000 7.920000 142.407547 -126.848251 36370.390625
2.040000 -2.040000 7.960000 207.556656 -27.835987 43854.609375
2.040000 -2.040000 8.000000 180.031570 89.895729 40492.609375
2.040000 -2.040000 8.040000 79.670235 147.027130 27964.322266
2.040000 -2.040000 8.080000 -18.446404 113.406929 13201.401367
2.040000 -2.040000 8.120000 -49.064461 30.704319 3350.076416
2.040000 -2.040000 8.160000 -9.310326 -29.327507 946.784790
2.040000 -2.040000 8.200000 48.552734 -28.508986 3170.130127
2.040000 -2.000000 7.800000 -15.106169 -48.078560 2539.744141
2.040000 -2.000000 7.840000 31.410671 -107.076904 12452.093750
2.040000 -2.000000 7.880000 129.941757 -112.544250 29551.066406
2.040000 -2.000000 7.920000 215.700012 -31.630184 47526.964844
2.040000 -2.000000 7.960000 217.862366 98.074539 57082.625000
2.040000 -2.000000 8.000000 124.644913 192.120941 52446.812500
2.040000 -2.000000 8.040000 -1.242508 189.633118 35962.261719
2.040000 -2.000000 8.080000 -74.622185 105.218521 16639.408203
2.040000 -2.000000 8.120000 -59.375500 13.173605 3698.993896
2.040000 -2.000000 8.160000 7.155809 -19.711037 439.730560
2.040000 -2.000000 8.200000 56.218185 11.984047 3304.101807
2.040000 -1.960000 7.800000 21.791069 -45.032597 2502.785400
2.040000 -1.960000 7.840000 90.102089 -66.009369 12475.623047
2.040000 -1.960000 7.880000 170.969086 -17.534185 29537.875000
2.040000 -1.960000 7.920000 197.055481 92.388428 47366.484375
2.040000 -1.960000 7.960000 132.223602 198.500183 56885.406250
2.040000 -1.960000 8.000000 9.365007 228.914001 52489.324219
2.040000 -1.960000 8.040000 -92.618942 166.716888 36372.789062
2.040000 -1.960000 8.080000 -114.137390 64.384293 17172.679688
2.040000 -1.960000 8.120000 -62.259262 -2.953995 3884.941895
2.040000 -1.960000 8.160000 2.684147 -0.887070 7.991537
2.040000 -1.960000 8.200000 25.011620 42.814644 2458.674805
2.040000 -1.920000 7.800000 42.352020 -16.897942 2079.234131
2.040000 -1.920000 7.840000 98.592552 2.722187 9727.901367
2.040000 -1.920000 7.880000 130.370209 74.350159 22524.335938
2.040000 -1.920000 7.920000 97.694954 162.098770 35820.316406
2.040000 -1.920000 7.960000 5.694878 207.601501 43130.812500
2.040000 -1.920000 8.000000 -93.719025 177.838684 40409.851562
2.040000 -1.920000 8.040000 -142.080109 93.942810 29012.009766
2.040000 -1.920000 8.080000 -121.120483 13.545933 14853.664062
2.040000 -1.920000 8.120000 -63.808170 -17.242325 4368.780273
2.040000 -1.920000 8.160000 -21.537458 1.783730 467.043823
2.040000 -1.920000 8.200000 -19.985811 33.321114 1509.729248
2.040000 -1.880000 7.800000 35.796333 14.492598 1491.412842
2.040000 -1.880000 7.840000 56.816319 50.638039 5792.304688
2.040000 -1.880000 7.880000 43.706413 103.057007 12530.998047
2.040000 -1.880000 7.920000 -8.711670 139.064178 19414.738281
2.040000 -1.880000 7.960000 -77.168701 132.374359 23477.978516
2.040000 -1.880000 8.000000 -125.805275 83.890709 22864.617188
2.040000 -1.880000 8.040000 -132.480942 20.995445 17992.007812
2.040000 -1.880000 8.080000 -103.382004 -23.679752 11248.569336
2.040000 -1.880000 8.120000 -64.784935 -35.510292 5458.068848
2.040000 -1.880000 8.160000 -40.954899 -24.307079 2268.137695
2.040000 -1.880000 8.200000 -37.733421 -11.296480 1551.421509
2.040000 -1.840000 7.800000 11.591455 29.582451 1009.483215
2.040000 -1.840000 7.840000 1.605587 51.010471 2604.645996
2.040000 -1.840000 7.880000 -22.927017 63.392761 4544.290039
2.040000 -1.840000 7.920000 -52.156826 60.020870 6322.839355
2.040000 -1.840000 7.960000 -76.376328 42.524750 7641.697754
2.040000 -1.840000 8.000000 -90.436424 16.253334 8442.917969
2.040000 -1.840000 8.040000 -92.247482 -13.664131 8696.305664
2.040000 -1.840000 8.080000 -80.681465 -41.677204 8246.488281
2.040000 -1.840000 8.120000 -57.427933 -60.389702 6944.883789
2.040000 -1.840000 8.160000 -30.112946 -63.650932 4958.230469
2.040000 -1.840000 8.200000 -10.153873 -52.770782 2887.856445
2.040000 -1.800000 7.800000 -12.100767 24.516685 747.496460
2.040000 -1.800000 7.840000 -28.111546 17.073809 1081.773926
2.040000 -1.800000 7.880000 -31.528954 2.602516 1000.847961
2.040000 -1.800000 7.920000 -24.944172 -3.082085 631.710999
2.040000 -1.800000 7.960000 -24.861919 3.299957 629.004761
2.040000 -1.800000 8.000000 -41.355309 5.981277 1746.037231
2.040000 -1.800000 8.040000 -62.600685 -13.105316 4090.594971
2.040000 -1.800000 8.080000 -63.806049 -51.511398 6724.635742
2.040000 -1.800000 8.120000 -33.348228 -83.756371 8127.233887
2.040000 -1.800000 8.160000 11.881693 -84.652573 7307.232910
2.040000 -1.800000 8.200000 40.359207 -55.141190 4669.416504
2.080000 -2.200000 7.800000 29.683792 26.824284 1600.669678
2.080000 -2.200000 7.840000 12.114271 31.175329 1118.656738
2.080000 -2.200000 7.880000 -1.587751 22.564537 511.679291
2.080000 -2.200000 7.920000 -3.909264 9.587927 107.210686
2.080000 -2.200000 7.960000 2.424469 2.080522 10.206619
2.080000 -2.200000 8.000000 9.181782 2.563025 90.874207
2.080000 -2.200000 8.040000 11.321896 6.504860 170.498520
2.080000 -2.200000 8.080000 9.997793 9.158661 183.836945
2.080000 -2.200000 8.120000 8.238562 10.063582 169.149597
2.080000 -2.200000 8.160000 6.286178 10.797351 156.098816
2.080000 -2.200000 8.200000 2.684877 10.543138 118.366318
2.080000 -2.160000 7.800000 2.931008 33.699039 1144.216064
2.080000 -2.160000 7.840000 -18.700638 25.750885 1012.821960
2.080000 -2.160000 7.880000 -28.072039 2.406828 793.832214
2.080000 -2.160000 7.920000 -16.624760 -20.615211 701.369568
2.080000 -2.160000 7.960000 7.506260 -26.949001 782.592590
2.080000 -2.160000 8.000000 26.584627 -13.692654 894.231140
2.080000 -2.160000 8.040000 28.439491 7.176125 860.301453
2.080000 -2.160000 8.080000 15.291732 20.145180 639.665344
2.080000 -2.160000 8.120000 -0.667890 18.572123 345.369812
2.080000 -2.160000 8.160000 -8.639450 7.328477 128.346680
2.080000 -2.160000 8.200000 -6.322843 -4.172115 57.384888
2.080000 -2.120000 7.800000 -20.362368 18.065964 741.005066
2.080000 -2.120000 7.840000 -37.867371 -7.044705 1483.565674
2.080000 -2.120000 7.880000 -28.603634 -43.846493 2740.682617
2.080000 -2.120000 7.920000 9.576252 -64.058487 4195.194336
2.080000 -2.120000 7.960000 52.703522 -48.532619 5133.076172
2.080000 -2.120000 8.000000 70.031990 -6.194321 4942.849121
2.080000 -2.120000 8.040000 50.788174 32.546509 3638.713867
2.080000 -2.120000 8.080000 12.860762 41.820595 1914.361328
2.080000 -2.120000 8.120000 -14.070909 21.089153 642.742859
2.080000 -2.120000 8.160000 -13.890048 -7.769734 253.302216
2.080000 -2.120000 8.200000 5.620521 -21.925230 512.305969
2.080000 -2.080000 7.800000 -23.412500 -9.393848 636.389587
2.080000 -2.080000 7.840000 -23.285284 -48.572041 2901.447754
2.080000 -2.080000 7.880000 16.167395 -82.284210 7032.076172
2.080000 -2.080000 7.920000 77.711533 -74.801407 11634.333008
2.080000 -2.080000 7.960000 117.979088 -19.862305 14313.576172
2.080000 -2.080000 8.000000 105.018661 48.516617 13382.781250
2.080000 -2.080000 8.040000 48.209644 83.330368 9268.120117
2.080000 -2.080000 8.080000 -9.118568 65.006569 4309.002441
2.080000 -2.080000 8.120000 -27.607319 16.607920 1037.987061
2.080000 -2.080000 8.160000 -4.022151 -19.564507 398.947632
2.080000 -2.080000 8.200000 31.505274 -19.777195 1383.719727
2.080000 -2.040000 7.800000 -4.559994 -28.389704 826.768799
2.080000 -2.040000 7.840000 22.246721 -66.364365 4899.145508
2.080000 -2.040000 7.880000 85.435547 -72.561249 12564.367188
2.080000 -2.040000 7.920000 143.701263 -21.415226 21108.664062
2.080000 -2.040000 7.960000 147.684860 64.947708 26029.023438
2.080000 -2.040000 8.000000 86.333664 129.570190 24241.935547
2.080000 -2.040000 8.040000 0.848522 128.901627 16616.349609
2.080000 -2.040000 8.080000 -49.575108 71.007034 7499.690430
2.080000 -2.040000 8.120000 -38.342968 6.909981 1517.931030
2.080000 -2.040000 8.160000 9.408247 -15.949938 342.915619
2.080000 -2.040000 8.200000 45.203022 7.143993 2094.349854
2.080000 -2.000000 7.800000 21.041517 -25.450912 1090.494385
2.080000 -2.000000 7.840000 68.360626 -42.322693 6464.385742
2.080000 -2.000000 7.880000 129.001846 -8.480661 16713.398438
2.080000 -2.000000 7.920000 150.597626 74.328964 28204.439453
2.080000 -2.000000 7.960000 101.613602 156.896515 34941.839844
2.080000 -2.000000 8.000000 5.399538 180.972046 32780.035156
2.080000 -2.000000 8.040000 -75.153717 130.755096 22744.976562
2.080000 -2.000000 8.080000 -90.588150 47.730770 10484.439453
2.080000 -2.000000 8.120000 -45.788902 -6.278309 2136.040771
2.080000 -2.000000 8.160000 9.348524 -2.336346 92.853416
2.080000 -2.000000 8.200000 28.141344 36.272663 2107.641357
2.080000 -1.960000 7.800000 34.151989 -4.560292 1187.154663
2.080000 -1.960000 7.840000 81.118759 8.977488 6660.848145
2.080000 -1.960000 7.880000 110.622772 69.830894 17113.751953
2.080000 -1.960000 7.920000 82.804764 148.564316 28927.984375
2.080000 -1.960000 7.960000 -1.271194 190.061111 36124.843750
2.080000 -1.960000 8.000000 -93.342102 160.407806 34443.414062
2.080000 -1.960000 8.040000 -135.816101 78.716682 24642.330078
2.080000 -1.960000 8.080000 -110.026566 2.056173 12110.072266
2.080000 -1.960000 8.120000 -49.590733 -23.217680 2998.301270
2.080000 -1.960000 8.160000 -7.287554 1.994431 57.086193
2.080000 -1.960000 8.200000 -8.557806 37.875694 1507.804321
2.080000 -1.920000 7.800000 27.065866 17.519281 1039.486328
2.080000 -1.920000 7.840000 52.287930 51.253906 5360.990234
2.080000 -1.920000 7.880000 42.334419 108.169487 13492.840820
2.080000 -1.920000 7.920000 -14.964981 150.125275 22761.548828
2.080000 -1.920000 7.960000 -93.920418 141.208618 28760.917969
2.080000 -1.920000 8.000000 -147.748505 79.884827 28211.207031
2.080000 -1.920000 8.040000 -146.074921 2.828772 21345.884766
2.080000 -1.920000 8.080000 -99.152847 -44.583633 11818.987305
2.080000 -1.920000 8.120000 -46.789066 -44.370972 4158.000000
2.080000 -1.920000 8.160000 -23.297068 -16.095078 801.804871
2.080000 -1.920000 8.200000 -31.519373 5.780123 1026.880737
2.080000 -1.880000 7.800000 7.962543 26.228018 751.311035
2.080000 -1.880000 7.840000 5.728987 57.392941 3326.770996
2.080000 -1.880000 7.880000 -25.318985 85.260567 7910.415039
2.080000 -1.880000 7.920000 -75.696640 86.075424 13138.959961
2.080000 -1.880000 7.960000 -119.295280 51.395187 16872.830078
2.080000 -1.880000 8.000000 -132.003754 -3.955761 17440.638672
2.080000 -1.880000 8.040000 -109.302071 -52.337502 14686.156250
2.080000 -1.880000 8.080000 -68.139130 -73.322952 10019.196289
2.080000 -1.880000 8.120000 -32.603710 -66.453804 5479.109863
2.080000 -1.880000 8.160000 -16.485260 -47.490925 2527.151855
2.080000 -1.880000 8.200000 -16.785696 -33.630745 1412.786621
2.080000 -1.840000 7.800000 -8.796068 20.038145 478.898071
2.080000 -1.840000 7.840000 -25.011242 30.877148 1578.960449
2.080000 -1.840000 7.880000 -48.294716 28.904831 3167.868896
2.080000 -1.840000 7.920000 -68.604088 12.767609 4869.532715
2.080000 -1.840000 7.960000 -78.726456 -12.688080 6358.842285
2.080000 -1.840000 8.000000 -76.000511 -40.878349 7447.117188
2.080000 -1.840000 8.040000 -60.575966 -65.659546 7980.623535
2.080000 -1.840000 8.080000 -34.889923 -80.831375 7751.018066
2.080000 -1.840000 8.120000 -5.389053 -81.121872 6609.800293
2.080000 -1.840000 8.160000 17.683161 -66.437653 4726.656250
2.080000 -1.840000 8.200000 25.895378 -45.028156 2698.105469
2.080000 -1.800000 7.800000 -15.629335 7.922954 307.049316
2.080000 -1.800000 7.840000 -25.419622 -1.815413 649.452942
2.080000 -1.800000 7.880000 -25.076841 -13.330582 806.552368
2.080000 -1.800000 7.920000 -20.993078 -17.634026 751.668213
2.080000 -1.800000 7.960000 -23.660137 -18.480625 901.335571
2.080000 -1.800000 8.000000 -32.269707 -28.517080 1854.557861
2.080000 -1.800000 8.040000 -31.997292 -52.422993 3771.996826
2.080000 -1.800000 8.080000 -9.595129 -76.532578 5949.301758
2.080000 -1.800000 8.120000 28.850410 -79.293938 7119.874512
2.080000 -1.800000 8.160000 59.233654 -53.697472 6392.043945
2.080000 -1.800000 8.200000 61.381329 -17.475828 4073.072021
2.120000 -2.200000 7.800000 0.111853 26.392612 696.582520
2.120000 -2.200000 7.840000 -9.958189 23.228525 638.729919
2.120000 -2.200000 7.880000 -15.673770 14.559063 457.633362
2.120000 -2.200000 7.920000 -15.243950 5.063387 258.015900
2.120000 -2.200000 7.960000 -10.496380 -1.857604 113.624680
2.120000 -2.200000 8.000000 -3.787201 -5.352505 42.992199
2.120000 -2.200000 8.040000 3.504236 -5.323036 40.614388
2.120000 -2.200000 8.080000 9.694842 -1.379980 95.894310
2.120000 -2.200000 8.120000 12.012384 5.496772 174.511871
2.120000 -2.200000 8.160000 8.879997 11.502389 211.159302
2.120000 -2.200000 8.200000 2.959080 12.292098 159.851822
2.120000 -2.160000 7.800000 -12.830147 13.506492 347.037994
2.120000 -2.160000 7.840000 -20.599304 6.099113 461.530518
2.120000 -2.160000 7.880000 -21.156111 -7.076154 497.652985
2.120000 -2.160000 7.920000 -11.783926 -18.139420 467.899475
2.120000 -2.160000 7.960000 2.713720 -20.081791 410.642609
2.120000 -2.160000 8.000000 14.000402 -12.340939 348.310059
2.120000 -2.160000 8.040000 16.643661 -0.689087 277.486328
2.120000 -2.160000 8.080000 11.476455 7.594646 189.387665
2.120000 -2.160000 8.120000 3.998233 8.808864 93.581940
2.120000 -2.160000 8.160000 -0.034743 4.528138 20.505243
2.120000 -2.160000 8.200000 1.682926 -0.350615 2.955171
2.120000 -2.120000 7.800000 -10.155123 -4.144957 120.307182
2.120000 -2.120000 7.840000 -13.165689 -15.978457 428.646484
2.120000 -2.120000 7.880000 -2.932426 -30.468704 936.941040
2.120000 -2.120000 7.920000 18.752880 -33.632847 1482.838867
2.120000 -2.120000 7.960000 37.965149 -18.933353 1799.824463
2.120000 -2.120000 8.000000 40.709255 5.303989 1685.375732
2.120000 -2.120000 8.040000 25.764675 22.464762 1168.484009
2.120000 -2.120000 8.080000 5.862947 22.071875 521.541809
2.120000 -2.120000 8.120000 -3.703182 8.345621 83.362946
2.120000 -2.120000 8.160000 1.941966 -4.649427 25.388407
2.120000 -2.120000 8.200000 14.564880 -5.977893 247.870941
2.120000 -2.080000 7.800000 5.843209 -11.592073 168.519257
2.120000 -2.080000 7.840000 11.460386 -24.997906 756.235718
2.120000 -2.080000 7.880000 33.908497 -31.206120 2123.607910
2.120000 -2.080000 7.920000 59.953136 -15.048409 3820.833252
2.120000 -2.080000 7.960000 67.340919 19.651073 4920.963867
2.120000 -2.080000 8.000000 46.324978 50.372772 4683.419922
2.120000 -2.080000 8.040000 10.699291 55.392548 3182.809082
2.120000 -2.080000 8.080000 -13.496218 33.757660 1321.727539
2.120000 -2.080000 8.120000 -11.089226 6.006703 159.051407
2.120000 -2.080000 8.160000 9.694731 -4.993176 118.919609
2.120000 -2.080000 8.200000 26.869835 5.865492 756.392029
2.120000 -2.040000 7.800000 21.093019 -1.994696 448.894287
2.120000 -2.040000 7.840000 36.145054 -10.112353 1408.724609
2.120000 -2.040000 7.880000 62.397446 1.189186 3894.855225
2.120000 -2.040000 7.920000 75.584053 37.545670 7122.626465
2.120000 -2.040000 7.960000 55.801792 78.781570 9320.375977
2.120000 -2.040000 8.000000 9.554094 94.433434 9008.954102
2.120000 -2.040000 8.040000 -32.664940 71.993530 6250.066406
2.120000 -2.040000 8.080000 -42.700562 29.770184 2709.601807
2.120000 -2.040000 8.120000 -19.729374 0.766632 389.835938
2.120000 -2.040000 8.160000 10.562551 3.110764 121.244324
2.120000 -2.040000 8.200000 21.178310 25.830051 1115.712402
2.120000 -2.000000 7.800000 21.819387 16.761223 757.024292
2.120000 -2.000000 7.840000 40.591297 20.326145 2060.805664
2.120000 -2.000000 7.880000 56.083038 48.419514 5489.756348
2.120000 -2.000000 7.920000 43.355286 90.278473 10029.883789
2.120000 -2.000000 7.960000 -2.465691 115.170570 13270.340820
2.120000 -2.000000 8.000000 -56.302185 99.680664 13106.169922
2.120000 -2.000000 8.040000 -82.619507 51.360466 9463.880859
2.120000 -2.000000 8.080000 -66.847260 4.178110 4486.012695
2.120000 -2.000000 8.120000 -28.091114 -11.135944 913.119995
2.120000 -2.000000 8.160000 -0.544380 6.774205 46.186203
2.120000 -2.000000 8.200000 -2.276367 32.189808 1041.365601
2.120000 -1.960000 7.800000 6.905272 28.892282 882.446777
2.120000 -1.960000 7.840000 19.673130 43.967426 2320.166504
2.120000 -1.960000 7.880000 14.932531 76.147797 6021.467285
2.120000 -1.960000 7.920000 -20.273022 102.820686 10983.088867
2.120000 -1.960000 7.960000 -72.631073 97.241020 14731.089844
2.120000 -1.960000 8.000000 -109.657616 54.422676 14986.621094
2.120000 -1.960000 8.040000 -106.994965 -1.023406 11448.969727
2.120000 -1.960000 8.080000 -70.204727 -34.580269 6124.498535
2.120000 -1.960000 8.120000 -29.562080 -31.049738 1838.002930
2.120000 -1.960000 8.160000 -12.858073 -5.499439 195.573883
2.120000 -1.960000 8.200000 -22.561594 13.649721 695.340393
2.120000 -1.920000 7.800000 -11.379532 25.058243 757.409302
2.120000 -1.920000 7.840000 -11.161149 43.629562 2028.109985
2.120000 -1.920000 7.880000 -32.185879 64.141724 5150.091309
2.120000 -1.920000 7.920000 -71.460999 65.307709 9371.771484
2.120000 -1.920000 7.960000 -107.369324 35.655754 12799.504883
2.120000 -1.920000 8.000000 -115.732285 -13.589142 13578.626953
2.120000 -1.920000 8.040000 -90.343369 -55.381157 11228.997070
2.120000 -1.920000 8.080000 -48.631607 -68.290649 7028.645996
2.120000 -1.920000 8.120000 -16.874241 -53.004250 3094.190430
2.120000 -1.920000 8.160000 -8.908264 -29.099268 926.124573
2.120000 -1.920000 8.200000 -17.715576 -16.368851 581.780884
2.120000 -1.880000 7.800000 -19.294409 10.359440 479.592194
2.120000 -1.880000 7.840000 -29.643036 22.141216 1368.943115
2.120000 -1.880000 7.880000 -52.569878 24.376286 3357.795410
2.120000 -1.880000 7.920000 -77.316116 7.810801 6038.790527
2.120000 -1.880000 7.960000 -88.380234 -25.171549 8444.672852
2.120000 -1.880000 8.000000 -76.748741 -60.599499 9562.667969
2.120000 -1.880000 8.040000 -46.734383 -82.133087 8929.947266
2.120000 -1.880000 8.080000 -12.871191 -82.026657 6894.040039
2.120000 -1.880000 8.120000 10.274912 -65.257355 4364.096191
2.120000 -1.880000 8.160000 17.053318 -44.429668 2264.811035
2.120000 -1.880000 8.200000 12.189940 -30.515026 1079.761475
2.120000 -1.840000 7.800000 -14.368345 -1.848223 209.865265
2.120000 -1.840000 7.840000 -26.359797 -1.772242 697.979736
2.120000 -1.840000 7.880000 -38.059544 -11.053469 1570.708008
2.120000 -1.840000 7.920000 -43.768307 -27.532286 2673.691406
2.120000 -1.840000 7.960000 -40.566986 -46.919342 3847.104980
2.120000 -1.840000 8.000000 -27.651047 -64.611374 4939.209961
2.120000 -1.840000 8.040000 -5.961462 -75.444717 5727.444336
2.120000 -1.840000 8.080000 20.164211 -74.088974 5895.771484
2.120000 -1.840000 8.120000 42.065353 -58.586521 5201.874023
2.120000 -1.840000 8.160000 50.504501 -34.482285 3739.732422
2.120000 -1.840000 8.200000 43.043999 -13.775541 2042.551270
2.120000 -1.800000 7.800000 -6.200646 -3.812037 52.979633
2.120000 -1.800000 7.840000 -10.895381 -11.967954 261.941254
2.120000 -1.800000 7.880000 -9.055658 -19.720945 470.920624
2.120000 -1.800000 7.920000 -6.196560 -23.873543 608.343384
2.120000 -1.800000 7.960000 -5.848545 -29.226757 888.408813
2.120000 -1.800000 8.000000 -2.580460 -40.842369 1674.757935
2.120000 -1.800000 8.040000 12.711616 -53.848476 3061.243652
2.120000 -1.800000 8.080000 39.831848 -54.508053 4557.704102
2.120000 -1.800000 8.120000 64.140762 -34.195831 5283.392578
2.120000 -1.800000 8.160000 68.016808 -1.716483 4629.232422
2.120000 -1.800000 8.200000 48.937603 21.433376 2854.278564
2.160000 -2.200000 7.800000 -15.724631 6.598383 290.802673
2.160000 -2.200000 7.840000 -17.846914 4.470786 338.500275
2.160000 -2.200000 7.880000 -20.492521 -0.166563 419.971161
2.160000 -2.200000 7.920000 -20.856897 -8.449450 506.403351
2.160000 -2.200000 7.960000 -15.135722 -18.301632 564.039795
2.160000 -2.200000 8.000000 -2.256658 -24.083771 585.120544
2.160000 -2.200000 8.040000 13.245540 -20.349899 589.562744
2.160000 -2.200000 8.080000 23.178850 -7.222537 589.424133
2.160000 -2.200000 8.120000 22.157932 8.197365 558.170776
2.160000 -2.200000 8.160000 12.721615 17.096146 454.117676
2.160000 -2.200000 8.200000 3.420334 16.597126 287.163269
2.160000 -2.160000 7.800000 -7.575789 -7.438307 112.720993
2.160000 -2.160000 7.840000 -10.108690 -5.825489 136.121933
2.160000 -2.160000 7.880000 -13.609873 -10.213137 289.536804
2.160000 -2.160000 7.920000 -11.548460 -19.231977 503.235901
2.160000 -2.160000 7.960000 -1.142086 -26.100616 682.546570
2.160000 -2.160000 8.000000 13.345541 -24.072636 757.595215
2.160000 -2.160000 8.040000 23.484150 -12.550438 709.018799
2.160000 -2.160000 8.080000 23.651117 1.918783 563.057068
2.160000 -2.160000 8.120000 15.798023 11.111038 373.032715
2.160000 -2.160000 8.160000 7.316376 12.160753 201.413284
2.160000 -2.160000 8.200000 3.948679 9.396319 103.882889
2.160000 -2.120000 7.800000 10.249564 -7.379251 159.506897
2.160000 -2.120000 7.840000 3.820786 -4.444212 34.349426
2.160000 -2.120000 7.880000 0.185537 -10.140409 102.862328
2.160000 -2.120000 7.920000 5.623866 -17.456127 336.344238
2.160000 -2.120000 7.960000 17.357693 -17.405066 604.225830
2.160000 -2.120000 8.000000 26.310976 -7.697482 751.518677
2.160000 -2.120000 8.040000 25.876724 5.305592 697.754150
2.160000 -2.120000 8.080000 17.883865 13.016228 489.254822
2.160000 -2.120000 8.120000 10.061112 12.812466 265.385254
2.160000 -2.120000 8.160000 7.859249 9.678474 155.440659
2.160000 -2.120000 8.200000 9.351001 10.023113 187.904022
2.160000 -2.080000 7.800000 21.164377 10.089588 549.730652
2.160000 -2.080000 7.840000 10.929276 10.114599 221.754181
2.160000 -2.080000 7.880000 8.757005 3.213374 87.010902
2.160000 -2.080000 7.920000 15.529082 0.226445 241.203674
2.160000 -2.080000 7.960000 22.513512 6.719871 552.014893
2.160000 -2.080000 8.000000 21.093138 17.671583 757.205322
2.160000 -2.080000 8.040000 11.790985 23.436703 688.306396
2.160000 -2.080000 8.080000 3.158670 20.216703 418.692291
2.160000 -2.080000 8.120000 2.152049 13.740772 193.440140
2.160000 -2.080000 8.160000 6.703862 12.436767 199.614929
2.160000 -2.080000 8.200000 8.521710 17.903048 393.138641
2.160000 -2.040000 7.800000 12.162855 32.174240 1183.116821
2.160000 -2.040000 7.840000 1.640346 26.880821 725.269287
2.160000 -2.040000 7.880000 1.563375 20.232939 411.815979
2.160000 -2.040000 7.920000 5.902546 21.370934 491.556854
2.160000 -2.040000 7.960000 4.495294 28.737274 846.038574
2.160000 -2.040000 8.000000 -5.235414 32.642975 1092.973389
2.160000 -2.040000 8.040000 -15.423016 26.720263 951.841797
2.160000 -2.040000 8.080000 -16.719742 15.431543 517.682312
2.160000 -2.040000 8.120000 -8.914015 9.329596 166.501007
2.160000 -2.040000 8.160000 -1.346460 13.454716 182.842331
2.160000 -2.040000 8.200000 -2.687338 21.792166 482.120270
2.160000 -2.000000 7.800000 -13.357971 39.751648 1758.628906
2.160000 -2.000000 7.840000 -20.118795 30.479578 1333.770630
2.160000 -2.000000 7.880000 -18.949600 25.352293 1001.826111
2.160000 -2.000000 7.920000 -19.205133 27.320843 1115.265625
2.160000 -2.000000 7.960000 -26.842506 29.105345 1567.641235
2.160000 -2.000000 8.000000 -37.167908 22.261820 1877.041992
2.160000 -2.000000 8.040000 -39.897396 7.682448 1650.822266
2.160000 -2.000000 8.080000 -30.846893 -4.400366 970.894043
2.160000 -2.000000 8.120000 -17.243883 -4.977397 322.125977
2.160000 -2.000000 8.160000 -10.586975 4.127999 129.124420
2.160000 -2.000000 8.200000 -14.816051 12.251713 369.619812
2.160000 -1.960000 7.800000 -36.881985 24.391394 1955.220825
2.160000 -1.960000 7.840000 -38.494659 15.050486 1708.355835
2.160000 -1.960000 7.880000 -37.477287 11.495227 1536.687378
2.160000 -1.960000 7.920000 -41.006596 10.674903 1795.494385
2.160000 -1.960000 7.960000 -48.682171 4.639600 2391.479736
2.160000 -1.960000 8.000000 -52.254623 -9.583473 2822.388672
2.160000 -1.960000 8.040000 -44.562538 -25.263180 2624.048096
2.160000 -1.960000 8.080000 -27.967731 -31.933634 1801.950928
2.160000 -1.960000 8.120000 -13.015930 -25.832779 836.746887
2.160000 -1.960000 8.160000 -8.527106 -13.718351 260.904694
2.160000 -1.960000 8.200000 -13.543488 -6.063769 220.195358
2.160000 -1.920000 7.800000 -40.529327 -3.151581 1652.558838
2.160000 -1.920000 7.840000 -39.162247 -9.295223 1620.082642
2.160000 -1.920000 7.880000 -39.070831 -12.264074 1676.937378
2.160000 -1.920000 7.920000 -42.429337 -16.881643 2085.238525
2.160000 -1.920000 7.960000 -45.056919 -27.525169 2787.760986
2.160000 -1.920000 8.000000 -40.046616 -42.176201 3382.563477
2.160000 -1.920000 8.040000 -25.100231 -52.817352 3419.694336
2.160000 -1.920000 8.080000 -5.974098 -52.252789 2766.043945
2.160000 -1.920000 8.120000 7.702810 -40.762665 1720.928101
2.160000 -1.920000 8.160000 10.319547 -26.042507 784.705200
2.160000 -1.920000 8.200000 4.404184 -16.671909 297.349426
2.160000 -1.880000 7.800000 -23.183998 -21.954163 1019.483032
2.160000 -1.880000 7.840000 -22.455711 -24.880932 1123.319824
2.160000 -1.880000 7.880000 -22.932734 -28.364435 1330.451416
2.160000 -1.880000 7.920000 -23.598396 -34.802052 1768.067139
2.160000 -1.880000 7.960000 -20.789471 -44.853226 2444.013916
2.160000 -1.880000 8.000000 -10.807383 -55.188187 3162.535400
2.160000 -1.880000 8.040000 6.193964 -59.593552 3589.756592
2.160000 -1.880000 8.080000 24.605778 -53.272659 3443.420654
2.160000 -1.880000 8.120000 36.170181 -37.259045 2696.518555
2.160000 -1.880000 8.160000 35.723686 -18.911999 1633.845459
2.160000 -1.880000 8.200000 25.437349 -7.302135 700.379883
2.160000 -1.840000 7.800000 -1.442125 -19.808712 394.464783
2.160000 -1.840000 7.840000 -3.030206 -22.457167 513.506470
2.160000 -1.840000 7.880000 -2.936616 -26.762897 724.876404
2.160000 -1.840000 7.920000 -1.051925 -32.224293 1039.511597
2.160000 -1.840000 7.960000 3.808538 -38.995804 1535.177734
2.160000 -1.840000 8.000000 14.169355 -45.259575 2249.199707
2.160000 -1.840000 8.040000 30.509787 -45.765034 3025.285400
2.160000 -1.840000 8.080000 47.553791 -35.200523 3500.439941
2.160000 -1.840000 8.120000 55.738869 -14.472382 3316.271484
2.160000 -1.840000 8.160000 48.806763 6.865371 2429.233398
2.160000 -1.840000 8.200000 30.930546 16.680712 1234.944824
2.160000 -1.800000 7.800000 6.140055 -4.041842 54.036762
2.160000 -1.800000 7.840000 4.202007 -9.199202 102.282181
2.160000 -1.800000 7.880000 5.914238 -13.422130 215.131775
2.160000 -1.800000 7.920000 8.252582 -16.625454 344.510834
2.160000 -1.800000 7.960000 11.891403 -21.440350 601.094055
2.160000 -1.800000 8.000000 21.300833 -26.738964 1168.697754
2.160000 -1.800000 8.040000 37.683849 -25.231020 2056.676758
2.160000 -1.800000 8.080000 53.175491 -10.241402 2932.519043
2.160000 -1.800000 8.120000 55.226265 14.579718 3262.508545
2.160000 -1.800000 8.160000 39.087959 34.575024 2723.300781
2.160000 -1.800000 8.200000 15.366543 36.186569 1545.598389
2.200000 -2.200000 7.800000 -10.265469 -14.299111 309.844421
2.200000 -2.200000 7.840000 -10.127240 -10.887500 221.098648
2.200000 -2.200000 7.880000 -14.383827 -13.218927 381.634521
2.200000 -2.200000 7.920000 -14.393979 -23.564514 762.472961
2.200000 -2.200000 7.960000 -2.867043 -34.672939 1210.432739
2.200000 -2.200000 8.000000 17.751150 -35.131493 1549.325195
2.200000 -2.200000 8.040000 35.609184 -20.025871 1669.049561
2.200000 -2.200000 8.080000 39.215309 3.516494 1550.206177
2.200000 -2.200000 8.120000 27.586395 21.965548 1243.494507
2.200000 -2.200000 8.160000 10.699549 27.090363 848.368103
2.200000 -2.200000 8.200000 -0.228997 22.272648 496.123260
2.200000 -2.160000 7.800000 9.551094 -14.147980 291.388733
2.200000 -2.160000 7.840000 2.181875 -5.893783 39.497257
2.200000 -2.160000 7.880000 -8.032347 -10.614122 177.178192
2.200000 -2.160000 7.920000 -7.625921 -25.067966 686.557617
2.200000 -2.160000 7.960000 8.100363 -35.387878 1317.917725
2.200000 -2.160000 8.000000 29.720024 -29.556267 1756.852783
2.200000 -2.160000 8.040000 41.721451 -8.685621 1816.119507
2.200000 -2.160000 8.080000 36.356091 14.060280 1519.456787
2.200000 -2.160000 8.120000 19.684471 25.638371 1044.804443
2.200000 -2.160000 8.160000 4.417305 24.089470 599.815125
2.200000 -2.160000 8.200000 -2.402682 17.720150 319.776611
2.200000 -2.120000 7.800000 21.931061 6.105639 518.250244
2.200000 -2.120000 7.840000 3.058971 10.919174 128.585663
2.200000 -2.120000 7.880000 -10.571196 -2.780793 119.482986
2.200000 -2.120000 7.920000 -5.458434 -22.633850 542.085693
2.200000 -2.120000 7.960000 15.632387 -30.350607 1165.530884
2.200000 -2.120000 8.000000 36.195267 -18.053696 1636.033203
2.200000 -2.120000 8.040000 41.025383 5.429084 1712.557007
2.200000 -2.120000 8.080000 28.918827 23.813480 1403.380371
2.200000 -2.120000 8.120000 11.280966 28.126652 918.368713
2.200000 -2.120000 8.160000 -0.333315 22.368446 500.458466
2.200000 -2.120000 8.200000 -4.115443 16.024559 273.723358
2.200000 -2.080000 7.800000 10.968745 32.440350 1172.689575
2.200000 -2.080000 7.840000 -14.822228 23.955112 793.545898
2.200000 -2.080000 7.880000 -23.493639 -1.538399 554.317749
2.200000 -2.080000 7.920000 -8.319471 -23.445475 618.903931
2.200000 -2.080000 7.960000 17.946480 -24.653463 929.869385
2.200000 -2.080000 8.000000 34.899536 -5.699407 1250.460938
2.200000 -2.080000 8.040000 32.104595 17.679644 1343.274902
2.200000 -2.080000 8.080000 15.790777 29.850813 1140.419678
2.200000 -2.080000 8.120000 -0.050727 27.781855 771.833984
2.200000 -2.080000 8.160000 -7.323403 19.630291 438.980560
2.200000 -2.080000 8.200000 -8.345911 13.662904 256.329163
2.200000 -2.040000 7.800000 -20.756157 41.873917 2184.242920
2.200000 -2.040000 7.840000 -41.531441 16.775711 2006.285034
2.200000 -2.040000 7.880000 -36.166111 -15.184480 1538.555908
2.200000 -2.040000 7.920000 -9.459214 -31.141722 1059.283569
2.200000 -2.040000 7.960000 17.908886 -21.737072 793.228516
2.200000 -2.040000 8.000000 27.408464 2.512638 757.537292
2.200000 -2.040000 8.040000 16.975544 22.419712 790.812622
2.200000 -2.040000 8.080000 -0.758599 26.917952 725.151611
2.200000 -2.040000 8.120000 -12.280038 19.534235 532.385681
2.200000 -2.040000 8.160000 -14.193972 10.742445 316.868958
2.200000 -2.040000 8.200000 -11.938322 6.548350 185.404419
2.200000 -2.000000 7.800000 -51.557934 22.319912 3156.398926
2.200000 -2.000000 7.840000 -56.046623 -11.913294 3283.150391
2.200000 -2.000000 7.880000 -34.345692 -38.669319 2674.942871
2.200000 -2.000000 7.920000 -1.924343 -40.925919 1678.633911
2.200000 -2.000000 7.960000 19.078075 -20.813976 797.194580
2.200000 -2.000000 8.000000 17.992880 3.905575 338.997223
2.200000 -2.000000 8.040000 2.120087 16.095863 263.571594
2.200000 -2.000000 8.080000 -12.763002 12.426116 317.302582
2.200000 -2.000000 8.120000 -17.046940 2.299526 295.885956
2.200000 -2.000000 8.160000 -13.047344 -3.746153 184.266846
2.200000 -2.000000 8.200000 -8.709538 -3.255756 86.455994
2.200000 -1.960000 7.800000 -57.757580 -15.169115 3566.040039
2.200000 -1.960000 7.840000 -44.188072 -44.541473 3936.528564
2.200000 -1.960000 7.880000 -13.879032 -55.969933 3325.260742
2.200000 -1.960000 7.920000 13.532034 -43.493893 2074.834717
2.200000 -1.960000 7.960000 22.021544 -18.882641 841.502502
2.200000 -1.960000 8.000000 11.590970 -0.732918 134.887756
2.200000 -1.960000 8.040000 -4.043766 1.220696 17.842142
2.200000 -1.960000 8.080000 -11.061830 -7.818414 183.491669
2.200000 -1.960000 8.120000 -6.888581 -15.422670 285.311310
2.200000 -1.960000 8.160000 0.491972 -14.367355 206.662933
2.200000 -1.960000 8.200000 2.461362 -7.637660 64.392151
2.200000 -1.920000 7.800000 -34.278481 -44.166672 3125.709229
2.200000 -1.920000 7.840000 -12.182926 -58.373329 3555.869141
2.200000 -1.920000 7.880000 13.833808 -53.688995 3073.882568
2.200000 -1.920000 7.920000 28.005274 -34.097939 1946.964844
2.200000 -1.920000 7.960000 24.394154 -14.418528 802.968628
2.200000 -1.920000 8.000000 11.267458 -7.385118 181.495590
2.200000 -1.920000 8.040000 2.722732 -13.188786 181.357330
2.200000 -1.920000 8.080000 5.750454 -20.982807 473.345917
2.200000 -1.920000 8.120000 15.005779 -20.207832 633.529907
2.200000 -1.920000 8.160000 19.495422 -10.431725 488.892395
2.200000 -1.920000 8.200000 13.835193 -0.552375 191.717667
2.200000 -1.880000 7.800000 0.236448 -45.040043 2028.661377
2.200000 -1.880000 7.840000 17.547903 -45.051670 2337.581787
2.200000 -1.880000 7.880000 30.776531 -33.338978 2058.682373
2.200000 -1.880000 7.920000 32.141491 -17.617382 1343.447632
2.200000 -1.880000 7.960000 23.806526 -8.827500 644.675415
2.200000 -1.880000 8.000000 16.134142 -10.992481 381.145203
2.200000 -1.880000 8.040000 17.812454 -17.367907 618.927734
2.200000 -1.880000 8.080000 27.285486 -17.065414 1035.726074
2.200000 -1.880000 8.120000 34.116825 -6.072489 1200.832886
2.200000 -1.880000 8.160000 29.377228 8.279707 931.575012
2.200000 -1.880000 8.200000 14.904114 14.161019 422.667084
2.200000 -1.840000 7.800000 19.423531 -21.714733 848.803162
2.200000 -1.840000 7.840000 25.478962 -17.844494 967.603455
2.200000 -1.840000 7.880000 27.741034 -10.332638 876.328369
2.200000 -1.840000 7.920000 24.446762 -4.543603 618.288513
2.200000 -1.840000 7.960000 20.144306 -4.923911 430.037964
2.200000 -1.840000 8.000000 21.670898 -9.130281 552.989868
2.200000 -1.840000 8.040000 30.302675 -8.972123 998.751099
2.200000 -1.840000 8.080000 38.502399 1.411378 1484.426758
2.200000 -1.840000 8.120000 36.132221 18.008526 1629.844360
2.200000 -1.840000 8.160000 21.027843 28.774035 1270.115234
2.200000 -1.840000 8.200000 3.034758 24.590214 613.888367
2.200000 -1.800000 7.800000 12.104828 2.591120 153.240753
2.200000 -1.800000 7.840000 11.432402 0.544531 130.996323
2.200000 -1.800000 7.880000 11.720140 -0.456652 137.570221
2.200000 -1.800000 7.920000 12.250582 -2.039238 154.235245
2.200000 -1.800000 7.960000 15.545430 -4.603703 262.854492
2.200000 -1.800000 8.000000 23.457802 -4.174721 567.696777
2.200000 -1.800000 8.040000 32.081779 4.466790 1049.192871
2.200000 -1.800000 8.080000 32.732399 20.595814 1495.597412
2.200000 -1.800000 8.120000 20.224659 34.737469 1615.728638
2.200000 -1.800000 8.160000 0.370381 35.644703 1270.682007
2.200000 -1.800000 8.200000 -12.691514 21.696251 631.801819
