#kx 	ky 	kz 	real 	imag 	intensity
5.800000 -6.200000 1.800000 -38.154839 4.642130 1477.341064
5.800000 -6.200000 1.840000 -28.489483 -5.664022 843.731812
5.800000 -6.200000 1.880000 -22.306034 -2.273709 502.728882
5.800000 -6.200000 1.920000 -29.385250 1.230846 865.007874
5.800000 -6.200000 1.960000 -40.402893 -9.598845 1724.531616
5.800000 -6.200000 2.000000 -37.098980 -31.570728 2373.045166
5.800000 -6.200000 2.040000 -13.926685 -45.059174 2224.281738
5.800000 -6.200000 2.080000 13.193602 -34.572895 1369.356201
5.800000 -6.200000 2.120000 21.526114 -6.379240 504.068268
5.800000 -6.200000 2.160000 4.373165 16.245239 283.032379
5.800000 -6.200000 2.200000 -22.158890 15.446986 729.625732
5.800000 -6.160000 1.800000 -33.978771 -15.302754 1388.731201
5.800000 -6.160000 1.840000 -20.296606 -16.003418 668.061584
5.800000 -6.160000 1.880000 -18.534891 -8.830010 421.511261
5.800000 -6.160000 1.920000 -27.200218 -9.643258 832.844299
5.800000 -6.160000 1.960000 -31.362837 -23.395836 1530.992676
5.800000 -6.160000 2.000000 -20.196308 -38.230019 1869.425171
5.800000 -6.160000 2.040000 0.038736 -38.648083 1493.675781
5.800000 -6.160000 2.080000 12.037706 -23.018940 674.777954
5.800000 -6.160000 2.120000 5.852816 -6.061113 70.992546
5.800000 -6.160000 2.160000 -10.595209 -3.649251 125.575485
5.800000 -6.160000 2.200000 -20.009865 -16.694801 679.111084
5.800000 -6.120000 1.800000 -18.043400 -26.111187 1007.358337
5.800000 -6.120000 1.840000 -7.995161 -17.857800 382.823608
5.800000 -6.120000 1.880000 -11.158034 -10.478439 234.299423
5.800000 -6.120000 1.920000 -18.426243 -13.682234 526.729980
5.800000 -6.120000 1.960000 -18.295712 -23.929607 907.359131
5.800000 -6.120000 2.000000 -9.398315 -30.347538 1009.301392
5.800000 -6.120000 2.040000 -0.516489 -27.849533 775.863281
5.800000 -6.120000 2.080000 0.810527 -22.348602 500.116974
5.800000 -6.120000 2.120000 -2.719965 -22.738426 524.434204
5.800000 -6.120000 2.160000 -1.811529 -29.752529 888.494629
5.800000 -6.120000 2.200000 7.933615 -34.801983 1274.120239
5.800000 -6.080000 1.800000 -2.290340 -22.509571 511.926453
5.800000 -6.080000 1.840000 -0.061635 -11.093435 123.068108
5.800000 -6.080000 1.880000 -6.585296 -5.982904 79.161270
5.800000 -6.080000 1.920000 -12.997854 -9.189192 253.385468
5.800000 -6.080000 1.960000 -14.732079 -15.796916 466.576691
5.800000 -6.080000 2.000000 -13.418521 -21.945326 661.654053
5.800000 -6.080000 2.040000 -10.925562 -28.567966 935.496643
5.800000 -6.080000 2.080000 -4.717009 -36.939678 1386.789917
5.800000 -6.080000 2.120000 8.751766 -43.029427 1928.124878
5.800000 -6.080000 2.160000 26.848097 -39.353790 2269.541016
5.800000 -6.080000 2.200000 39.735821 -23.504759 2131.409180
5.800000 -6.040000 1.800000 2.671126 -11.720627 144.508011
5.800000 -6.040000 1.840000 -1.350824 -3.221316 12.201604
5.800000 -6.040000 1.880000 -9.115078 -1.174798 84.464798
5.800000 -6.040000 1.920000 -16.549015 -4.715172 296.102753
5.800000 -6.040000 1.960000 -22.254234 -13.133438 667.738159
5.800000 -6.040000 2.000000 -23.402107 -27.118282 1283.059814
5.800000 -6.040000 2.040000 -14.257044 -44.031994 2142.079834
5.800000 -6.040000 2.080000 7.983208 -54.486305 3032.489258
5.800000 -6.040000 2.120000 36.006058 -47.709236 3572.607422
5.800000 -6.040000 2.160000 54.156128 -22.540430 3440.957275
5.800000 -6.040000 2.200000 50.623516 7.940104 2625.785645
5.800000 -6.000000 1.800000 -2.296326 -5.760542 38.456955
5.800000 -6.000000 1.840000 -7.864577 -2.262434 66.970177
5.800000 -6.000000 1.880000 -15.216460 -2.944789 240.212448
5.800000 -6.000000 1.920000 -23.399296 -9.083516 630.037292
5.800000 -6.000000 1.960000 -28.558895 -23.364777 1361.523193
5.800000 -6.000000 2.000000 -22.389023 -44.034439 2440.300293
5.800000 -6.000000 2.040000 0.851807 -60.082767 3610.664551
5.800000 -6.000000 2.080000 34.622364 -56.716751 4415.498047
5.800000 -6.000000 2.120000 60.082752 -29.127647 4458.356934
5.800000 -6.000000 2.160000 59.920120 9.234726 3675.701172
5.800000 -6.000000 2.200000 34.346905 34.928169 2399.687012
5.800000 -5.960000 1.800000 -7.102054 -9.000540 131.448883
5.800000 -5.960000 1.840000 -10.899442 -8.580093 192.415833
5.800000 -5.960000 1.880000 -16.807949 -11.281841 409.787079
5.800000 -5.960000 1.920000 -22.798000 -20.785023 951.765991
5.800000 -5.960000 1.960000 -21.334007 -38.347740 1925.689087
5.800000 -5.960000 2.000000 -4.114257 -56.137318 3168.325439
5.800000 -5.960000 2.040000 27.231247 -58.975769 4219.682129
5.800000 -5.960000 2.080000 56.575924 -37.088432 4576.386719
5.800000 -5.960000 2.120000 63.554596 1.527496 4041.520020
5.800000 -5.960000 2.160000 41.685871 33.722885 2874.944824
5.800000 -5.960000 2.200000 6.409740 39.599098 1609.173340
5.800000 -5.920000 1.800000 -4.351472 -14.747454 236.422699
5.800000 -5.920000 1.840000 -6.373208 -14.932680 263.602722
5.800000 -5.920000 1.880000 -10.129004 -18.840633 457.566162
5.800000 -5.920000 1.920000 -11.264100 -29.156044 976.954834
5.800000 -5.920000 1.960000 -2.375905 -42.983528 1853.228638
5.800000 -5.920000 2.000000 19.426107 -49.590496 2836.590820
5.800000 -5.920000 2.040000 45.239059 -37.712303 3468.790283
5.800000 -5.920000 2.080000 57.687653 -7.805338 3388.788574
5.800000 -5.920000 2.120000 45.298393 23.876671 2622.039795
5.800000 -5.920000 2.160000 14.910165 36.796410 1576.288696
5.800000 -5.920000 2.200000 -11.958908 24.282671 732.663635
5.800000 -5.880000 1.800000 2.696656 -14.290302 211.484695
5.800000 -5.880000 1.840000 1.118172 -14.862007 222.129562
5.800000 -5.880000 1.880000 0.021486 -18.958458 359.423584
5.800000 -5.880000 1.920000 3.200462 -26.113064 692.135071
5.800000 -5.880000 1.960000 13.935794 -31.676861 1197.629883
5.800000 -5.880000 2.000000 30.009712 -28.065781 1688.270874
5.800000 -5.880000 2.040000 41.863079 -11.621057 1887.566284
5.800000 -5.880000 2.080000 38.985771 11.009620 1641.102051
5.800000 -5.880000 2.120000 20.411190 25.571829 1070.535156
5.800000 -5.880000 2.160000 -1.786501 22.173346 494.848846
5.800000 -5.880000 2.200000 -11.961039 5.421876 172.463181
5.800000 -5.840000 1.800000 4.917459 -7.664036 82.918861
5.800000 -5.840000 1.840000 4.095351 -9.982994 116.432076
5.800000 -5.840000 1.880000 5.771552 -12.952052 201.066467
5.800000 -5.840000 1.920000 9.889664 -14.958300 321.556183
5.800000 -5.840000 1.960000 15.952980 -14.232420 457.059357
5.800000 -5.840000 2.000000 21.751627 -8.898492 552.316406
5.800000 -5.840000 2.040000 23.068308 0.536270 532.434448
5.800000 -5.840000 2.080000 17.034111 9.278585 376.253113
5.800000 -5.840000 2.120000 6.381746 11.162519 165.328506
5.800000 -5.840000 2.160000 -1.374384 4.951805 26.409306
5.800000 -5.840000 2.200000 -0.932124 -3.099836 10.477839
5.800000 -5.800000 1.800000 -1.042131 -3.666708 14.530787
5.800000 -5.800000 1.840000 1.236716 -7.777945 62.025887
5.800000 -5.800000 1.880000 5.142093 -8.231144 94.192848
5.800000 -5.800000 1.920000 7.025543 -6.237025 88.258736
5.800000 -5.800000 1.960000 6.637507 -4.867873 67.752686
5.800000 -5.800000 2.000000 6.162026 -5.161255 64.609123
5.800000 -5.800000 2.040000 6.903786 -5.779465 81.064468
5.800000 -5.800000 2.080000 8.208574 -5.441089 96.986145
5.800000 -5.800000 2.120000 9.090754 -4.242126 100.637436
5.800000 -5.800000 2.160000 9.358736 -2.522257 93.947716
5.800000 -5.800000 2.200000 8.513840 -0.061569 72.489258
5.840000 -6.200000 1.800000 -47.386604 0.401984 2245.651855
5.840000 -6.200000 1.840000 -41.904526 -10.087224 1857.741333
5.840000 -6.200000 1.880000 -39.316551 -15.764704 1794.317139
5.840000 -6.200000 1.920000 -39.078072 -25.522827 2178.510498
5.840000 -6.200000 1.960000 -31.185087 -40.598209 2620.724121
5.840000 -6.200000 2.000000 -10.073980 -49.521378 2553.852051
5.840000 -6.200000 2.040000 14.518827 -39.749966 1790.856201
5.840000 -6.200000 2.080000 24.022121 -13.735153 765.716736
5.840000 -6.200000 2.120000 9.728195 9.532484 185.506042
5.840000 -6.200000 2.160000 -16.398344 11.317259 396.986053
5.840000 -6.200000 2.200000 -31.629347 -8.445798 1071.747070
5.840000 -6.160000 1.800000 -36.317749 -27.229063 2060.400879
5.840000 -6.160000 1.840000 -24.407419 -28.982395 1435.701416
5.840000 -6.160000 1.880000 -19.207689 -28.415167 1176.357056
5.840000 -6.160000 1.920000 -15.535240 -31.992178 1264.843140
5.840000 -6.160000 1.960000 -6.216423 -36.382954 1362.363281
5.840000 -6.160000 2.000000 7.221821 -32.907833 1135.080200
5.840000 -6.160000 2.040000 14.532991 -19.487846 590.984009
5.840000 -6.160000 2.080000 8.209912 -5.733334 100.273773
5.840000 -6.160000 2.120000 -6.469629 -4.227432 59.727287
5.840000 -6.160000 2.160000 -14.935082 -16.921989 509.410400
5.840000 -6.160000 2.200000 -7.674228 -31.773634 1068.457642
5.840000 -6.120000 1.800000 -9.306269 -37.928032 1525.142334
5.840000 -6.120000 1.840000 2.469507 -28.296629 806.797668
5.840000 -6.120000 1.880000 4.997364 -18.268713 358.719543
5.840000 -6.120000 1.920000 2.763992 -12.359587 160.399033
5.840000 -6.120000 1.960000 -0.357777 -9.911911 98.373985
5.840000 -6.120000 2.000000 -4.008633 -9.551468 107.299675
5.840000 -6.120000 2.040000 -8.264638 -12.562897 226.130615
5.840000 -6.120000 2.080000 -9.857170 -20.505100 517.622925
5.840000 -6.120000 2.120000 -3.831263 -30.356529 936.197449
5.840000 -6.120000 2.160000 10.281145 -34.408936 1289.676758
5.840000 -6.120000 2.200000 25.222027 -26.816748 1355.288574
5.840000 -6.080000 1.800000 14.054991 -26.496908 899.628906
5.840000 -6.080000 1.840000 18.717581 -7.521674 406.923431
5.840000 -6.080000 1.880000 10.461914 9.404196 197.890533
5.840000 -6.080000 1.920000 -7.248695 16.633507 329.217133
5.840000 -6.080000 1.960000 -26.541985 9.396194 792.765381
5.840000 -6.080000 2.000000 -36.950909 -11.142284 1489.520142
5.840000 -6.080000 2.040000 -30.284559 -36.069954 2218.196289
5.840000 -6.080000 2.080000 -6.845100 -51.709419 2720.719482
5.840000 -6.080000 2.120000 22.362558 -47.869335 2791.557129
5.840000 -6.080000 2.160000 41.470467 -25.817188 2386.326660
5.840000 -6.080000 2.200000 40.687996 1.380456 1657.418701
5.840000 -6.040000 1.800000 19.302414 -5.885681 407.224426
5.840000 -6.040000 1.840000 12.564686 16.437057 428.048157
5.840000 -6.040000 1.880000 -10.713358 30.678505 1055.946655
5.840000 -6.040000 1.920000 -42.206177 24.249310 2369.390381
5.840000 -6.040000 1.960000 -63.760147 -6.341827 4105.575195
5.840000 -6.040000 2.000000 -57.875755 -48.289913 5681.518555
5.840000 -6.040000 2.040000 -22.124807 -77.292549 6463.645508
5.840000 -6.040000 2.080000 25.406410 -74.023895 6125.022949
5.840000 -6.040000 2.120000 57.085396 -39.740250 4838.029785
5.840000 -6.040000 2.160000 56.037060 3.363185 3151.463135
5.840000 -6.040000 2.200000 28.681761 28.911201 1658.500977
5.840000 -6.000000 1.800000 9.399204 6.392286 129.206360
5.840000 -6.000000 1.840000 -8.401568 24.693045 680.332825
5.840000 -6.000000 1.880000 -41.765076 25.390400 2388.993896
5.840000 -6.000000 1.920000 -72.292023 -3.172527 5236.201660
5.840000 -6.000000 1.960000 -74.937195 -52.946213 8418.884766
5.840000 -6.000000 2.000000 -38.343491 -95.762756 10640.729492
5.840000 -6.000000 2.040000 21.491323 -102.018181 10869.585938
5.840000 -6.000000 2.080000 69.384323 -64.840469 9018.470703
5.840000 -6.000000 2.120000 77.088104 -7.839287 6004.030273
5.840000 -6.000000 2.160000 45.497360 32.521778 3127.675781
5.840000 -6.000000 2.200000 2.755535 35.574753 1273.156006
5.840000 -5.960000 1.800000 -1.100111 4.802467 24.273937
5.840000 -5.960000 1.840000 -25.176298 13.592282 818.596130
5.840000 -5.960000 1.880000 -56.479404 -3.039292 3199.160400
5.840000 -5.960000 1.920000 -69.303223 -46.834610 6996.416992
5.840000 -5.960000 1.960000 -43.460224 -95.153641 10943.006836
5.840000 -5.960000 2.000000 15.118400 -114.139702 13256.437500
5.840000 -5.960000 2.040000 73.503380 -85.790741 12762.798828
5.840000 -5.960000 2.080000 95.281097 -25.410931 9724.203125
5.840000 -5.960000 2.120000 69.774651 28.354595 5672.484863
5.840000 -5.960000 2.160000 20.591398 44.057896 2365.103760
5.840000 -5.960000 2.200000 -14.935500 21.790604 697.899597
5.840000 -5.920000 1.800000 -2.333475 -1.879407 8.977276
5.840000 -5.920000 1.840000 -25.729904 -3.840438 676.776917
5.840000 -5.920000 1.880000 -44.005699 -31.239304 2912.395752
5.840000 -5.920000 1.920000 -34.115341 -72.770828 6459.449707
5.840000 -5.920000 1.960000 9.484346 -99.560402 10002.226562
5.840000 -5.920000 2.000000 65.152405 -87.103088 11831.784180
5.840000 -5.920000 2.040000 97.761475 -37.483688 10962.332031
5.840000 -5.920000 2.080000 86.492714 19.178837 7848.817383
5.840000 -5.920000 2.120000 42.503281 47.783901 4089.830078
5.840000 -5.920000 2.160000 -0.388247 36.436066 1327.737671
5.840000 -5.920000 2.200000 -14.344452 4.398124 225.106796
5.840000 -5.880000 1.800000 2.250819 -3.204945 15.337855
5.840000 -5.880000 1.840000 -14.620831 -12.628477 373.247131
5.840000 -5.880000 1.880000 -17.597998 -38.893654 1822.405762
5.840000 -5.880000 1.920000 4.993004 -64.115891 4135.777832
5.840000 -5.880000 1.960000 45.080441 -65.971283 6384.456055
5.840000 -5.880000 2.000000 78.066055 -36.586136 7432.854492
5.840000 -5.880000 2.040000 81.350861 8.600822 6691.936523
5.840000 -5.880000 2.080000 53.224010 41.514538 4556.252441
5.840000 -5.880000 2.120000 14.893003 43.833820 2143.205322
5.840000 -5.880000 2.160000 -7.236868 21.548792 516.722717
5.840000 -5.880000 2.200000 -3.534805 -1.762860 15.602525
5.840000 -5.840000 1.800000 3.212142 0.865787 11.067439
5.840000 -5.840000 1.840000 -4.947249 -10.223063 128.986282
5.840000 -5.840000 1.880000 0.748779 -26.832769 720.558167
5.840000 -5.840000 1.920000 20.700035 -35.030659 1655.638550
5.840000 -5.840000 1.960000 43.502319 -25.296999 2532.389893
5.840000 -5.840000 2.000000 53.810913 -0.792328 2896.241943
5.840000 -5.840000 2.040000 44.300758 24.022642 2539.644531
5.840000 -5.840000 2.080000 21.915398 34.328205 1658.710327
5.840000 -5.840000 2.120000 2.356178 26.796410 723.599121
5.840000 -5.840000 2.160000 -3.076597 11.781066 148.258972
5.840000 -5.840000 2.200000 3.299979 3.432248 22.670189
5.840000 -5.800000 1.800000 -1.785969 1.822368 6.510710
5.840000 -5.800000 1.840000 -3.120753 -5.721637 42.476231
5.840000 -5.800000 1.880000 2.302524 -12.233815 154.967850
5.840000 -5.800000 1.920000 11.476741 -13.202635 306.025146
5.840000 -5.800000 1.960000 19.370510 -7.682835 434.242615
5.840000 -5.800000 2.000000 21.930691 1.533289 483.306183
5.840000 -5.800000 2.040000 18.397171 9.732271 433.173004
5.840000 -5.800000 2.080000 11.646641 13.398169 315.155151
5.840000 -5.800000 2.120000 5.836380 12.622580 193.392853
5.840000 -5.800000 2.160000 2.833455 10.521195 118.724022
5.840000 -5.800000 2.200000 0.768539 9.592590 92.608444
5.880000 -6.200000 1.800000 -56.144066 -18.500885 3494.438965
5.880000 -6.200000 1.840000 -48.488556 -33.647915 3483.322266
5.880000 -6.200000 1.880000 -37.402252 -45.637802 3481.737549
5.880000 -6.200000 1.920000 -21.522739 -54.688858 3454.099365
5.880000 -6.200000 1.960000 0.060593 -55.820927 3115.979492
5.880000 -6.200000 2.000000 20.708426 -42.834919 2263.669189
5.880000 -6.200000 2.040000 27.853992 -18.229637 1108.164551
5.880000 -6.200000 2.080000 14.763631 3.491619 230.156204
5.880000 -6.200000 2.120000 -9.535093 6.228346 129.710297
5.880000 -6.200000 2.160000 -24.948950 -12.084158 768.476929
5.880000 -6.200000 2.200000 -17.736042 -35.201340 1553.701416
5.880000 -6.160000 1.800000 -27.814346 -46.499985 2935.886475
5.880000 -6.160000 1.840000 -12.040328 -47.925945 2441.865723
5.880000 -6.160000 1.880000 1.325289 -44.378540 1971.211182
5.880000 -6.160000 1.920000 12.312897 -36.970497 1518.425049
5.880000 -6.160000 1.960000 19.298115 -25.077110 1001.278687
5.880000 -6.160000 2.000000 18.114388 -10.742947 443.541931
5.880000 -6.160000 2.040000 7.085498 -1.180916 51.598850
5.880000 -6.160000 2.080000 -7.556313 -4.057854 73.564034
5.880000 -6.160000 2.120000 -13.825672 -18.901432 548.413330
5.880000 -6.160000 2.160000 -4.108438 -34.312553 1194.230591
5.880000 -6.160000 2.200000 16.232304 -36.229321 1576.051392
5.880000 -6.120000 1.800000 11.397829 -43.823467 2050.406738
5.880000 -6.120000 1.840000 24.144320 -26.944601 1308.959717
5.880000 -6.120000 1.880000 24.633972 -6.636488 650.875549
5.880000 -6.120000 1.920000 12.800659 8.890179 242.892151
5.880000 -6.120000 1.960000 -6.011776 12.533302 193.225113
5.880000 -6.120000 2.000000 -22.399101 1.928764 505.439850
5.880000 -6.120000 2.040000 -26.902960 -18.182953 1054.389038
5.880000 -6.120000 2.080000 -15.443787 -37.054527 1611.548462
5.880000 -6.120000 2.120000 7.072094 -43.387131 1932.457642
5.880000 -6.120000 2.160000 28.508766 -32.544724 1871.908813
5.880000 -6.120000 2.200000 36.779793 -10.390636 1460.718506
5.880000 -6.080000 1.800000 33.279343 -14.687110 1323.225830
5.880000 -6.080000 1.840000 30.020096 15.725982 1148.512695
5.880000 -6.080000 1.880000 4.407772 39.205681 1556.513916
5.880000 -6.080000 1.920000 -34.328529 38.759361 2680.735840
5.880000 -6.080000 1.960000 -64.450775 9.023567 4235.327148
5.880000 -6.080000 2.000000 -65.472038 -36.054905 5586.543945
5.880000 -6.080000 2.040000 -34.028870 -70.282913 6097.651855
5.880000 -6.080000 2.080000 11.897617 -73.310997 5516.055664
5.880000 -6.080000 2.120000 45.280197 -45.422733 4113.520508
5.880000 -6.080000 2.160000 49.430923 -6.590998 2486.857422
5.880000 -6.080000 2.200000 28.608932 19.275002 1189.996704
5.880000 -6.040000 1.800000 25.970053 16.151846 935.325806
5.880000 -6.040000 1.840000 -0.035034 46.445896 2157.222412
5.880000 -6.040000 1.880000 -49.650135 51.171196 5083.626953
5.880000 -6.040000 1.920000 -95.683853 14.149948 9355.620117
5.880000 -6.040000 1.960000 -103.791946 -51.924347 13468.906250
5.880000 -6.040000 2.000000 -60.820328 -108.766129 15529.182617
5.880000 -6.040000 2.040000 10.644188 -119.852341 14477.882812
5.880000 -6.040000 2.080000 67.116470 -79.502090 10825.203125
5.880000 -6.040000 2.120000 77.385559 -17.546673 6296.410645
5.880000 -6.040000 2.160000 45.300850 25.156387 2685.010742
5.880000 -6.040000 2.200000 2.763900 28.525711 821.355347
5.880000 -6.000000 1.800000 2.568560 26.943663 732.558411
5.880000 -6.000000 1.840000 -41.252609 41.831688 3451.667969
5.880000 -6.000000 1.880000 -95.205750 13.875620 9256.667969
5.880000 -6.000000 1.920000 -117.407623 -56.767212 17007.066406
5.880000 -6.000000 1.960000 -78.982803 -131.857910 23624.791016
5.880000 -6.000000 2.000000 6.442064 -160.639465 25846.537109
5.880000 -6.000000 2.040000 87.931923 -121.329948 22452.978516
5.880000 -6.000000 2.080000 116.179314 -40.929493 15172.856445
5.880000 -6.000000 2.120000 82.480759 26.249355 7492.104492
5.880000 -6.000000 2.160000 22.755459 42.644932 2336.401123
5.880000 -6.000000 2.200000 -15.858628 14.440815 460.033234
5.880000 -5.960000 1.800000 -14.312167 17.279644 503.424225
5.880000 -5.960000 1.840000 -61.575890 9.286276 3877.824951
5.880000 -5.960000 1.880000 -95.676720 -45.451752 11219.896484
5.880000 -5.960000 1.920000 -76.083382 -122.599121 20819.226562
5.880000 -5.960000 1.960000 2.118067 -169.105606 28601.191406
5.880000 -5.960000 2.000000 96.206985 -145.978653 30565.550781
5.880000 -5.960000 2.040000 146.644867 -63.880806 25585.474609
5.880000 -5.960000 2.080000 125.457642 23.022724 16269.666016
5.880000 -5.960000 2.120000 58.240379 61.262711 7145.061523
5.880000 -5.960000 2.160000 -0.255558 40.370338 1629.829590
5.880000 -5.960000 2.200000 -13.384646 -4.414061 198.632690
5.880000 -5.920000 1.800000 -14.627020 3.803436 228.415833
5.880000 -5.920000 1.840000 -50.494858 -22.365105 3049.928711
5.880000 -5.920000 1.880000 -53.587547 -82.255936 9637.664062
5.880000 -5.920000 1.920000 -1.677853 -135.352219 18323.037109
5.880000 -5.920000 1.960000 83.121223 -135.469711 25261.179688
5.880000 -5.920000 2.000000 146.915558 -72.196350 26796.494141
5.880000 -5.920000 2.040000 147.524185 16.353701 22030.828125
5.880000 -5.920000 2.080000 90.056534 73.582611 13524.580078
5.880000 -5.920000 2.120000 21.344419 70.896744 5481.932617
5.880000 -5.920000 2.160000 -11.333740 28.227270 925.232483
5.880000 -5.920000 2.200000 1.422564 -8.743742 78.476715
5.880000 -5.880000 1.800000 -6.928622 0.319845 48.108109
5.880000 -5.880000 1.840000 -24.979755 -31.344372 1606.457764
5.880000 -5.880000 1.880000 -5.497635 -75.589600 5744.011719
5.880000 -5.880000 1.920000 51.159111 -93.585754 11375.547852
5.880000 -5.880000 1.960000 110.408463 -61.284191 15945.780273
5.880000 -5.880000 2.000000 130.249756 6.828568 17011.626953
5.880000 -5.880000 2.040000 96.999680 67.472038 13961.414062
5.880000 -5.880000 2.080000 36.979973 84.307938 8475.346680
5.880000 -5.880000 2.120000 -6.921143 57.258301 3326.415039
5.880000 -5.880000 2.160000 -11.812987 18.831285 494.164001
5.880000 -5.880000 2.200000 9.234074 2.504507 91.540665
5.880000 -5.840000 1.800000 -4.519566 4.782285 43.296730
5.880000 -5.840000 1.840000 -8.794434 -20.832039 511.315918
5.880000 -5.840000 1.880000 14.758381 -43.475147 2107.898193
5.880000 -5.840000 1.920000 53.681862 -39.265335 4423.508789
5.880000 -5.840000 1.960000 79.907028 -4.319748 6403.793457
5.880000 -5.840000 2.000000 73.211174 40.403122 6992.288086
5.880000 -5.840000 2.040000 38.477013 66.224625 5866.181152
5.880000 -5.840000 2.080000 0.895096 60.578590 3670.566895
5.880000 -5.840000 2.120000 -16.270199 35.870510 1551.412842
5.880000 -5.840000 2.160000 -10.534758 15.941469 365.111572
5.880000 -5.840000 2.200000 1.241455 13.881372 194.233719
5.880000 -5.800000 1.800000 -9.333313 5.796297 120.707787
5.880000 -5.800000 1.840000 -8.848091 -9.820540 174.731735
5.880000 -5.800000 1.880000 5.739765 -19.538309 414.690430
5.880000 -5.800000 1.920000 24.393902 -14.076530 793.211182
5.880000 -5.800000 1.960000 33.753536 4.234974 1157.236206
5.880000 -5.800000 2.000000 27.709644 23.728046 1330.844604
5.880000 -5.800000 2.040000 11.478809 33.160904 1231.408569
5.880000 -5.800000 2.080000 -3.958046 30.200468 927.734436
5.880000 -5.800000 2.120000 -11.467718 21.440170 591.189453
5.880000 -5.800000 2.160000 -12.528687 14.727102 373.855530
5.880000 -5.800000 2.200000 -13.293438 11.749070 314.756165
5.920000 -6.200000 1.800000 -46.608467 -47.695938 4447.251953
5.920000 -6.200000 1.840000 -29.292107 -62.190815 4725.725098
5.920000 -6.200000 1.880000 -6.587837 -67.317749 4575.078613
5.920000 -6.200000 1.920000 16.565178 -60.848030 3976.887695
5.920000 -6.200000 1.960000 33.341728 -42.710514 2935.858887
5.920000 -6.200000 2.000000 36.093414 -18.072611 1629.353760
5.920000 -6.200000 2.040000 22.073332 1.450691 489.336456
5.920000 -6.200000 2.080000 -0.653728 3.824894 15.057175
5.920000 -6.200000 2.120000 -15.487814 -12.756219 402.593506
5.920000 -6.200000 2.160000 -9.489105 -35.052757 1318.738892
5.920000 -6.200000 2.200000 14.219652 -43.379524 2083.981689
5.920000 -6.160000 1.800000 -1.287365 -59.297791 3517.885254
5.920000 -6.160000 1.840000 18.720924 -52.934265 3152.509277
5.920000 -6.160000 1.880000 32.685547 -37.021103 2438.906982
5.920000 -6.160000 1.920000 35.554974 -16.429506 1534.084839
5.920000 -6.160000 1.960000 25.903767 1.188286 672.417175
5.920000 -6.160000 2.000000 7.736098 7.871082 121.801155
5.920000 -6.160000 2.040000 -9.429155 -0.398468 89.067749
5.920000 -6.160000 2.080000 -14.458981 -19.414755 585.994812
5.920000 -6.160000 2.120000 -2.075947 -36.786690 1357.570068
5.920000 -6.160000 2.160000 21.383797 -39.003250 1978.520264
5.920000 -6.160000 2.200000 40.296604 -21.813599 2099.649414
5.920000 -6.120000 1.800000 36.580006 -32.106270 2368.909424
5.920000 -6.120000 1.840000 42.215878 -5.154552 1808.749756
5.920000 -6.120000 1.880000 28.117439 21.269213 1242.969849
5.920000 -6.120000 1.920000 -1.602707 31.906456 1020.590576
5.920000 -6.120000 1.960000 -31.429543 18.567497 1332.568115
5.920000 -6.120000 2.000000 -43.636696 -12.602173 2062.976074
5.920000 -6.120000 2.040000 -30.297958 -43.853237 2841.072754
5.920000 -6.120000 2.080000 1.032578 -57.083244 3259.562988
5.920000 -6.120000 2.120000 32.231293 -45.436859 3103.364258
5.920000 -6.120000 2.160000 46.431202 -17.095419 2448.109863
5.920000 -6.120000 2.200000 38.254578 10.942230 1583.145142
5.920000 -6.080000 1.800000 39.592560 12.089989 1713.738647
5.920000 -6.080000 1.840000 17.076586 45.392685 2352.105713
5.920000 -6.080000 1.880000 -30.201698 55.970909 4044.885254
5.920000 -6.080000 1.920000 -77.518242 27.047058 6740.621094
5.920000 -6.080000 1.960000 -92.524239 -31.673523 9563.946289
5.920000 -6.080000 2.000000 -61.027721 -86.583969 11221.166016
5.920000 -6.080000 2.040000 -0.405952 -104.063446 10829.366211
5.920000 -6.080000 2.080000 52.433617 -75.955772 8518.563477
5.920000 -6.080000 2.120000 68.753281 -24.622757 5333.293945
5.920000 -6.080000 2.160000 47.682720 16.093174 2532.632080
5.920000 -6.080000 2.200000 12.356499 26.505363 855.217346
5.920000 -6.040000 1.800000 10.244001 39.344437 1652.924316
5.920000 -6.040000 1.840000 -39.804596 57.096020 4844.361328
5.920000 -6.040000 1.880000 -101.013298 27.853699 10979.514648
5.920000 -6.040000 1.920000 -128.278595 -47.905243 18750.310547
5.920000 -6.040000 1.960000 -91.054764 -129.350876 25022.617188
5.920000 -6.040000 2.000000 -3.754726 -163.252625 26665.517578
5.920000 -6.040000 2.040000 81.002159 -127.083984 22711.687500
5.920000 -6.040000 2.080000 113.032082 -48.139046 15093.619141
5.920000 -6.040000 2.120000 83.343491 19.405315 7322.703613
5.920000 -6.040000 2.160000 26.804914 38.442295 2196.313477
5.920000 -6.040000 2.200000 -11.291641 14.372872 334.080627
5.920000 -6.000000 1.800000 -23.571262 33.929459 1706.812500
5.920000 -6.000000 1.840000 -84.116135 20.605154 7500.096191
5.920000 -6.000000 1.880000 -126.044838 -49.577309 18345.210938
5.920000 -6.000000 1.920000 -101.272903 -145.189240 31336.117188
5.920000 -6.000000 1.960000 -6.244171 -201.812073 40767.101562
5.920000 -6.000000 2.000000 105.993538 -174.522583 41692.761719
5.920000 -6.000000 2.040000 165.146667 -78.641533 33457.914062
5.920000 -6.000000 2.080000 140.821381 20.949167 20269.529297
5.920000 -6.000000 2.120000 65.213188 63.496441 8284.557617
5.920000 -6.000000 2.160000 1.374481 39.803726 1586.225830
5.920000 -6.000000 2.200000 -11.404530 -8.525596 202.749084
5.920000 -5.960000 1.800000 -36.125759 9.569550 1396.646729
5.920000 -5.960000 1.840000 -84.179314 -33.224506 8190.024414
5.920000 -5.960000 1.880000 -83.749176 -119.449043 21281.998047
5.920000 -5.960000 1.920000 -7.421061 -191.734329 36817.125000
5.920000 -5.960000 1.960000 110.604965 -188.194489 47650.621094
5.920000 -5.960000 2.000000 195.294235 -98.973358 47935.566406
5.920000 -5.960000 2.040000 192.236206 20.114328 37359.343750
5.920000 -5.960000 2.080000 113.524651 92.708755 21482.759766
5.920000 -5.960000 2.120000 24.897837 84.920502 7831.394043
5.920000 -5.960000 2.160000 -12.845158 28.177160 958.950439
5.920000 -5.960000 2.200000 7.542576 -16.409279 326.154877
5.920000 -5.920000 1.800000 -26.155281 -7.979244 747.767090
5.920000 -5.920000 1.840000 -47.921043 -63.381584 6313.651367
5.920000 -5.920000 1.880000 -8.749357 -133.084076 17787.921875
5.920000 -5.920000 1.920000 86.425827 -155.537689 31661.396484
5.920000 -5.920000 1.960000 179.089096 -96.495369 41384.261719
5.920000 -5.920000 2.000000 203.479233 14.979961 41628.195312
5.920000 -5.920000 2.040000 143.843231 107.090889 32159.333984
5.920000 -5.920000 2.080000 48.153236 125.546455 18080.646484
5.920000 -5.920000 2.120000 -14.988085 77.352692 6208.081543
5.920000 -5.920000 2.160000 -14.941422 18.206764 554.732361
5.920000 -5.920000 2.200000 21.520149 -1.452017 465.225189
5.920000 -5.880000 1.800000 -12.705265 -7.137555 212.368469
5.920000 -5.880000 1.840000 -10.857979 -55.949524 3248.244873
5.920000 -5.880000 1.880000 42.400719 -92.469757 10348.477539
5.920000 -5.880000 1.920000 118.546829 -72.875114 19364.132812
5.920000 -5.880000 1.960000 161.188934 4.174000 25999.294922
5.920000 -5.880000 2.000000 135.117920 91.343803 26600.542969
5.920000 -5.880000 2.040000 58.446434 131.854034 20801.472656
5.920000 -5.880000 2.080000 -13.494392 107.855553 11814.918945
5.920000 -5.880000 2.120000 -37.043587 52.464653 4124.767090
5.920000 -5.880000 2.160000 -15.152553 15.703953 476.213989
5.920000 -5.880000 2.200000 12.911825 19.134396 532.840332
5.920000 -5.840000 1.800000 -11.760876 1.625895 140.961731
5.920000 -5.840000 1.840000 0.390371 -31.627235 1000.434448
5.920000 -5.840000 1.880000 43.510208 -42.143963 3669.251953
5.920000 -5.840000 1.920000 85.592529 -10.216034 7430.448242
5.920000 -5.840000 1.960000 90.692802 47.964428 10525.771484
5.920000 -5.840000 2.000000 51.438675 92.864822 11269.812500
5.920000 -5.840000 2.040000 -4.421494 96.071632 9249.308594
5.920000 -5.840000 2.080000 -39.508675 63.811699 5632.868164
5.920000 -5.840000 2.120000 -39.308060 27.845623 2320.502197
5.920000 -5.840000 2.160000 -20.812271 14.391726 640.272400
5.920000 -5.840000 2.200000 -11.447820 22.149895 621.670410
5.920000 -5.800000 1.800000 -20.107725 1.908404 407.962616
5.920000 -5.800000 1.840000 -9.368019 -19.060394 451.058411
5.920000 -5.800000 1.880000 16.474745 -22.092136 759.479736
5.920000 -5.800000 1.920000 36.413319 -1.699169 1328.817017
5.920000 -5.800000 1.960000 34.045105 28.158676 1951.980225
5.920000 -5.800000 2.000000 11.219872 46.819389 2317.940674
5.920000 -5.800000 2.040000 -15.414406 44.588310 2225.721436
5.920000 -5.800000 2.080000 -30.349398 28.728821 1746.431152
5.920000 -5.800000 2.120000 -31.549826 13.571583 1179.579346
5.920000 -5.800000 2.160000 -28.195057 6.288763 834.509766
5.920000 -5.800000 2.200000 -28.351189 2.593416 810.515747
5.960000 -6.200000 1.800000 -12.678971 -65.486832 4449.281250
5.960000 -6.200000 1.840000 12.435965 -68.163887 4800.968750
5.960000 -6.200000 1.880000 35.490906 -56.438904 4444.954102
5.960000 -6.200000 1.920000 48.104828 -34.270203 3488.521240
5.960000 -6.200000 1.960000 45.787254 -9.888908 2194.263184
5.960000 -6.200000 2.000000 29.857925 6.721363 936.672424
5.960000 -6.200000 2.040000 8.501365 7.751450 132.358170
5.960000 -6.200000 2.080000 -5.372227 -7.022308 78.173630
5.960000 -6.200000 2.120000 -1.427923 -27.235445 743.808411
5.960000 -6.200000 2.160000 19.232752 -36.582684 1708.191406
5.960000 -6.200000 2.200000 42.046616 -24.658009 2375.935303
5.960000 -6.160000 1.800000 33.047539 -48.737839 3467.516602
5.960000 -6.160000 1.840000 48.721870 -29.725262 3257.411621
5.960000 -6.160000 1.880000 49.604618 -3.990892 2476.545410
5.960000 -6.160000 1.920000 34.117233 16.435085 1434.097656
5.960000 -6.160000 1.960000 9.822529 21.467899 557.352783
5.960000 -6.160000 2.000000 -10.496973 8.863937 188.755829
5.960000 -6.160000 2.040000 -15.567490 -14.122469 441.790863
5.960000 -6.160000 2.080000 -1.934780 -33.944881 1155.998413
5.960000 -6.160000 2.120000 23.180990 -37.775116 1964.317627
5.960000 -6.160000 2.160000 44.777809 -21.376257 2461.996582
5.960000 -6.160000 2.200000 48.651558 6.920053 2414.861328
5.960000 -6.120000 1.800000 48.852715 -2.136902 2391.154053
5.960000 -6.120000 1.840000 38.369072 28.174988 2266.015625
5.960000 -6.120000 1.880000 6.000486 45.387299 2096.012695
5.960000 -6.120000 1.920000 -32.381783 34.505939 2239.239746
5.960000 -6.120000 1.960000 -53.251907 -1.800690 2839.008057
5.960000 -6.120000 2.000000 -42.604103 -43.160553 3677.942871
5.960000 -6.120000 2.040000 -6.423065 -65.339798 4310.544922
5.960000 -6.120000 2.080000 33.761745 -56.753635 4360.830566
5.960000 -6.120000 2.120000 55.918175 -25.001381 3751.911377
5.960000 -6.120000 2.160000 51.188965 10.130052 2722.927979
5.960000 -6.120000 2.200000 27.024418 30.389406 1653.835205
5.960000 -6.080000 1.800000 23.111925 38.194244 1992.961426
5.960000 -6.080000 1.840000 -18.335623 57.430889 3634.502197
5.960000 -6.080000 1.880000 -71.563881 38.266766 6585.734375
5.960000 -6.080000 1.920000 -99.924713 -20.675995 10412.445312
5.960000 -6.080000 1.960000 -77.229507 -88.275108 13756.891602
5.960000 -6.080000 2.000000 -11.904327 -122.129684 15057.373047
5.960000 -6.080000 2.040000 57.046867 -101.626022 13582.193359
5.960000 -6.080000 2.080000 89.719368 -43.620670 9952.328125
5.960000 -6.080000 2.120000 74.635895 12.574028 5728.622559
5.960000 -6.080000 2.160000 33.103226 36.354656 2417.484619
5.960000 -6.080000 2.200000 -2.259388 25.716633 666.450073
5.960000 -6.040000 1.800000 -21.200590 42.763283 2278.163330
5.960000 -6.040000 1.840000 -79.345428 30.093113 7201.291992
5.960000 -6.040000 1.880000 -120.106606 -35.299095 15671.623047
5.960000 -6.040000 1.920000 -99.612457 -124.583138 25443.599609
5.960000 -6.040000 1.960000 -14.431969 -179.295273 32355.076172
5.960000 -6.040000 2.000000 88.087135 -158.499542 32881.449219
5.960000 -6.040000 2.040000 144.964111 -74.782028 26606.945312
5.960000 -6.040000 2.080000 127.908966 15.195244 16591.597656
5.960000 -6.040000 2.120000 63.257198 57.397217 7295.913574
5.960000 -6.040000 2.160000 5.033087 41.515579 1748.875244
5.960000 -6.040000 2.200000 -11.505913 1.018500 133.423370
5.960000 -6.000000 1.800000 -48.396198 14.287088 2546.312744
5.960000 -6.000000 1.840000 -97.139465 -34.337463 10615.137695
5.960000 -6.000000 1.880000 -93.979797 -125.761917 24648.261719
5.960000 -6.000000 1.920000 -12.674652 -200.435822 40335.167969
5.960000 -6.000000 1.960000 110.059586 -195.866425 50476.769531
5.960000 -6.000000 2.000000 197.191147 -103.661324 49630.015625
5.960000 -6.000000 2.040000 194.239716 18.211830 38060.738281
5.960000 -6.000000 2.080000 114.613686 92.364143 21667.431641
5.960000 -6.000000 2.120000 25.096272 85.304565 7906.691406
5.960000 -6.000000 2.160000 -13.577482 29.048862 1028.184448
5.960000 -6.000000 2.200000 5.484187 -15.584455 272.951569
5.960000 -5.960000 1.800000 -42.739895 -17.840986 2144.999512
5.960000 -5.960000 1.840000 -61.550697 -86.251991 11227.894531
5.960000 -5.960000 1.880000 -9.012136 -166.165771 27692.283203
5.960000 -5.960000 1.920000 105.540306 -187.138245 46159.476562
5.960000 -5.960000 1.960000 212.296997 -112.846809 57804.417969
5.960000 -5.960000 2.000000 236.282257 19.231173 56199.144531
5.960000 -5.960000 2.040000 162.927490 124.480217 42040.691406
5.960000 -5.960000 2.080000 51.024456 142.019928 22773.156250
5.960000 -5.960000 2.120000 -19.787792 83.493904 7362.788574
5.960000 -5.960000 2.160000 -16.638947 15.288374 510.588928
5.960000 -5.960000 2.200000 26.865076 -5.346531 750.317688
5.960000 -5.920000 1.800000 -19.777464 -27.578224 1151.706543
5.960000 -5.920000 1.840000 -6.802031 -91.527512 8423.552734
5.960000 -5.920000 1.880000 71.370010 -132.500473 22650.052734
5.960000 -5.920000 1.920000 172.938293 -95.893852 39103.285156
5.960000 -5.920000 1.960000 222.594147 14.242832 49751.011719
5.960000 -5.920000 2.000000 177.831238 130.421326 48633.671875
5.960000 -5.920000 2.040000 69.240280 177.379608 36257.742188
5.960000 -5.920000 2.080000 -25.622707 136.609207 19318.599609
5.960000 -5.920000 2.120000 -50.322815 58.313869 5932.893066
5.960000 -5.920000 2.160000 -14.328794 11.254328 331.974243
5.960000 -5.920000 2.200000 25.612543 21.183678 1104.750610
5.960000 -5.880000 1.800000 -6.643354 -15.805802 293.957550
5.960000 -5.880000 1.840000 23.541496 -60.029057 4157.689453
5.960000 -5.880000 1.880000 94.827744 -62.392300 12885.099609
5.960000 -5.880000 1.920000 153.828339 1.565712 23665.609375
5.960000 -5.880000 1.960000 146.638504 98.548294 31214.617188
5.960000 -5.880000 2.000000 69.936966 162.492004 31294.832031
5.960000 -5.880000 2.040000 -23.640350 152.537247 23826.476562
5.960000 -5.880000 2.080000 -72.322525 88.059402 12985.005859
5.960000 -5.880000 2.120000 -58.729000 27.293758 4194.044922
5.960000 -5.880000 2.160000 -18.964531 12.305025 511.067078
5.960000 -5.880000 2.200000 -1.934941 34.771103 1212.773560
5.960000 -5.840000 1.800000 -13.492809 -4.574391 202.980957
5.960000 -5.840000 1.840000 17.124775 -29.921579 1188.558838
5.960000 -5.840000 1.880000 64.626343 -14.846104 4396.970703
5.960000 -5.840000 1.920000 85.488899 40.709488 8965.614258
5.960000 -5.840000 1.960000 54.758904 98.588913 12718.310547
5.960000 -5.840000 2.000000 -9.457504 116.094589 13567.398438
5.960000 -5.840000 2.040000 -62.425888 84.465775 11031.458984
5.960000 -5.840000 2.080000 -73.684647 34.359268 6609.986328
5.960000 -5.840000 2.120000 -51.779675 4.442284 2700.868652
5.960000 -5.840000 2.160000 -30.188652 5.906638 946.243103
5.960000 -5.840000 2.200000 -31.669205 17.592413 1312.431519
5.960000 -5.800000 1.800000 -25.831474 -10.582902 779.262878
5.960000 -5.800000 1.840000 -1.698226 -26.735563 717.674316
5.960000 -5.800000 1.880000 27.192822 -14.218697 941.620850
5.960000 -5.800000 1.920000 34.639980 18.980553 1560.189575
5.960000 -5.800000 1.960000 12.942154 46.960556 2372.792969
5.960000 -5.800000 2.000000 -21.453678 49.848316 2945.114990
5.960000 -5.800000 2.040000 -45.019421 30.070877 2931.005859
5.960000 -5.800000 2.080000 -48.366020 6.083309 2376.278564
5.960000 -5.800000 2.120000 -40.677708 -7.564014 1711.890259
5.960000 -5.800000 2.160000 -35.576050 -12.213903 1414.834717
5.960000 -5.800000 2.200000 -35.758957 -18.423763 1618.138062
6.000000 -6.200000 1.800000 27.910049 -52.321476 3516.507812
6.000000 -6.200000 1.840000 48.235714 -38.218262 3787.319580
6.000000 -6.200000 1.880000 55.842171 -14.763798 3336.317871
6.000000 -6.200000 1.920000 48.291748 7.285366 2385.169678
6.000000 -6.200000 1.960000 30.596935 19.078594 1300.165161
6.000000 -6.200000 2.000000 11.579837 17.149132 428.185333
6.000000 -6.200000 2.040000 0.206291 3.946756 15.619442
6.000000 -6.200000 2.080000 2.441784 -12.721262 167.792816
6.000000 -6.200000 2.120000 17.702751 -21.900272 793.009277
6.000000 -6.200000 2.160000 36.840027 -15.083734 1584.706665
6.000000 -6.200000 2.200000 45.727245 6.722474 2136.172607
6.000000 -6.160000 1.800000 51.742882 -13.853722 2869.251465
6.000000 -6.160000 1.840000 52.320526 12.151228 2885.089844
6.000000 -6.160000 1.880000 34.450970 33.003777 2276.118652
6.000000 -6.160000 1.920000 7.173393 36.437588 1379.155273
6.000000 -6.160000 1.960000 -14.474083 20.887672 645.793945
6.000000 -6.160000 2.000000 -19.205116 -4.247082 386.874176
6.000000 -6.160000 2.040000 -5.474640 -24.933954 651.673767
6.000000 -6.160000 2.080000 18.721703 -30.132877 1258.492432
6.000000 -6.160000 2.120000 40.292358 -16.818787 1906.345703
6.000000 -6.160000 2.160000 47.214355 8.613949 2303.395508
6.000000 -6.160000 2.200000 34.643925 32.892578 2282.123291
6.000000 -6.120000 1.800000 35.734867 29.985281 2176.097656
6.000000 -6.120000 1.840000 9.028413 50.229439 2604.508789
6.000000 -6.120000 1.880000 -29.744637 44.849350 2896.207520
6.000000 -6.120000 1.920000 -55.894501 10.652275 3237.666260
6.000000 -6.120000 1.960000 -50.436840 -34.161587 3710.888672
6.000000 -6.120000 2.000000 -15.132591 -62.848534 4178.933594
6.000000 -6.120000 2.040000 29.004608 -59.479729 4379.105469
6.000000 -6.120000 2.080000 57.324837 -28.848164 4118.353516
6.000000 -6.120000 2.120000 57.679329 9.325191 3413.864258
6.000000 -6.120000 2.160000 35.371082 34.970657 2474.060303
6.000000 -6.120000 2.200000 6.126513 39.097851 1566.176147
6.000000 -6.080000 1.800000 -8.398189 44.515625 2052.170410
6.000000 -6.080000 1.840000 -53.604370 38.484283 4354.468750
6.000000 -6.080000 1.880000 -87.789803 -7.537666 7763.865723
6.000000 -6.080000 1.920000 -78.262192 -73.406158 11513.434570
6.000000 -6.080000 1.960000 -20.948952 -117.425232 14227.543945
6.000000 -6.080000 2.000000 52.447552 -109.235535 14683.148438
6.000000 -6.080000 2.040000 98.101349 -54.596687 12604.673828
6.000000 -6.080000 2.080000 93.645599 9.999954 8869.497070
6.000000 -6.080000 2.120000 52.396011 47.002064 4954.536133
6.000000 -6.080000 2.160000 8.031916 44.713608 2063.818359
6.000000 -6.080000 2.200000 -13.695903 19.707750 575.973145
6.000000 -6.040000 1.800000 -45.352596 19.970804 2455.690918
6.000000 -6.040000 1.840000 -85.996094 -20.757561 7826.204590
6.000000 -6.040000 1.880000 -84.150642 -96.180519 16332.023438
6.000000 -6.040000 1.920000 -18.969631 -158.238922 25399.404297
6.000000 -6.040000 1.960000 80.260292 -156.949036 31074.714844
6.000000 -6.040000 2.000000 152.496796 -85.073616 30492.792969
6.000000 -6.040000 2.040000 153.977203 12.584526 23867.349609
6.000000 -6.040000 2.080000 93.327934 75.319595 14383.144531
6.000000 -6.040000 2.120000 21.010645 75.026299 6070.392578
6.000000 -6.040000 2.160000 -15.264073 33.405083 1348.891479
6.000000 -6.040000 2.200000 -6.917176 -4.380360 67.034882
6.000000 -6.000000 1.800000 -48.162148 -20.149328 2725.587891
6.000000 -6.000000 1.840000 -61.511246 -83.998146 10839.322266
6.000000 -6.000000 1.880000 -10.525703 -155.471954 24282.320312
6.000000 -6.000000 1.920000 94.614731 -172.141357 38584.593750
6.000000 -6.000000 1.960000 190.824646 -103.099083 47043.468750
6.000000 -6.000000 2.000000 211.718445 16.984219 45113.164062
6.000000 -6.000000 2.040000 145.112000 112.400627 33691.394531
6.000000 -6.000000 2.080000 43.642731 129.045197 18557.349609
6.000000 -6.000000 2.120000 -21.822838 77.004288 6405.896484
6.000000 -6.000000 2.160000 -21.460278 14.713078 677.018188
6.000000 -6.000000 2.200000 16.178482 -6.852373 308.698303
6.000000 -5.960000 1.800000 -21.938919 -42.122917 2255.656250
6.000000 -5.960000 1.840000 -1.256163 -105.060257 11039.235352
6.000000 -5.960000 1.880000 82.228226 -140.444031 26486.005859
6.000000 -5.960000 1.920000 184.306915 -96.380081 43258.160156
6.000000 -5.960000 1.960000 229.796051 19.446444 53184.390625
6.000000 -5.960000 2.000000 178.736755 137.089478 50740.351562
6.000000 -5.960000 2.040000 65.061279 181.350189 37120.859375
6.000000 -5.960000 2.080000 -31.563740 135.927338 19472.509766
6.000000 -5.960000 2.120000 -54.796112 53.739799 5890.580078
6.000000 -5.960000 2.160000 -15.841766 5.091726 276.887238
6.000000 -5.960000 2.200000 26.628166 15.578192 951.739319
6.000000 -5.920000 1.800000 3.803896 -33.757534 1154.040649
6.000000 -5.920000 1.840000 46.365707 -76.487259 8000.079590
6.000000 -5.920000 1.880000 128.986465 -67.721939 21223.769531
6.000000 -5.920000 1.920000 189.794968 14.936440 36245.226562
6.000000 -5.920000 1.960000 170.438461 128.627304 45594.250000
6.000000 -5.920000 2.000000 72.926064 196.614868 43975.617188
6.000000 -5.920000 2.040000 -37.582325 175.463867 32200.000000
6.000000 -5.920000 2.080000 -89.401909 93.091370 16658.703125
6.000000 -5.920000 2.120000 -66.040085 20.599380 4785.627441
6.000000 -5.920000 2.160000 -14.053909 6.522831 240.059692
6.000000 -5.920000 2.200000 7.209002 37.932549 1490.848022
6.000000 -5.880000 1.800000 5.828083 -13.398554 213.487793
6.000000 -5.880000 1.840000 51.301949 -32.875450 3712.685059
6.000000 -5.880000 1.880000 108.542206 2.132900 11785.958984
6.000000 -5.880000 1.920000 121.327782 83.943962 21767.019531
6.000000 -5.880000 1.960000 63.548378 156.956268 28673.666016
6.000000 -5.880000 2.000000 -31.730858 166.037033 28575.144531
6.000000 -5.880000 2.040000 -99.774239 107.450905 21500.595703
6.000000 -5.880000 2.080000 -102.337723 31.341072 11455.272461
6.000000 -5.880000 2.120000 -59.196041 -6.389881 3545.001953
6.000000 -5.880000 2.160000 -23.395300 5.833338 581.367920
6.000000 -5.880000 2.200000 -27.906281 31.759996 1787.457886
6.000000 -5.840000 1.800000 -10.679927 -8.101528 179.695587
6.000000 -5.840000 1.840000 26.784927 -13.907658 910.855225
6.000000 -5.840000 1.880000 57.437424 22.627380 3811.055908
6.000000 -5.840000 1.920000 44.608528 78.371628 8132.032715
6.000000 -5.840000 1.960000 -11.589539 107.901596 11777.072266
6.000000 -5.840000 2.000000 -72.325127 86.284134 12675.875000
6.000000 -5.840000 2.040000 -96.329071 32.099506 10309.667969
6.000000 -5.840000 2.080000 -77.381134 -12.266998 6138.319336
6.000000 -5.840000 2.120000 -45.671272 -21.771500 2559.863281
6.000000 -5.840000 2.160000 -33.978462 -8.972343 1235.038818
6.000000 -5.840000 2.200000 -45.563782 -5.032337 2101.382568
6.000000 -5.800000 1.800000 -20.504484 -24.669247 1029.005615
6.000000 -5.800000 1.840000 9.882240 -26.084976 778.084656
6.000000 -5.800000 1.880000 28.091446 0.559231 789.442078
6.000000 -5.800000 1.920000 15.675575 32.602745 1308.662598
6.000000 -5.800000 1.960000 -18.253716 42.939987 2177.040527
6.000000 -5.800000 2.000000 -47.460094 25.092102 2882.073975
6.000000 -5.800000 2.040000 -54.367878 -3.920547 2971.236816
6.000000 -5.800000 2.080000 -43.891201 -23.581139 2482.507568
6.000000 -5.800000 2.120000 -32.844025 -29.677456 1959.481445
6.000000 -5.800000 2.160000 -29.417255 -33.485992 1986.686523
6.000000 -5.800000 2.200000 -26.138571 -44.302895 2645.971191
6.040000 -6.200000 1.800000 46.007652 -12.702280 2278.052002
6.040000 -6.200000 1.840000 48.997368 9.439780 2489.851318
6.040000 -6.200000 1.880000 36.785385 27.373678 2102.482910
6.040000 -6.200000 1.920000 17.774986 32.459854 1369.592285
6.040000 -6.200000 1.960000 2.418273 25.322922 647.098389
6.040000 -6.200000 2.000000 -3.699389 12.472479 169.248199
6.040000 -6.200000 2.040000 -0.542530 0.596402 0.650034
6.040000 -6.200000 2.080000 9.225990 -5.693122 117.530533
6.040000 -6.200000 2.120000 21.398584 -3.200916 468.145264
6.040000 -6.200000 2.160000 29.447826 8.920319 946.746582
6.040000 -6.200000 2.200000 26.193928 26.084976 1366.547852
6.040000 -6.160000 1.800000 38.945415 24.247791 2104.700684
6.040000 -6.160000 1.840000 22.570583 43.430267 2395.619385
6.040000 -6.160000 1.880000 -4.148232 45.385326 2077.035645
6.040000 -6.160000 1.920000 -24.627766 28.102200 1396.260498
6.040000 -6.160000 1.960000 -27.369987 2.628798 756.026794
6.040000 -6.160000 2.000000 -13.050632 -16.433464 440.377747
6.040000 -6.160000 2.040000 8.623955 -20.600170 498.739594
6.040000 -6.160000 2.080000 26.605333 -10.148510 810.835999
6.040000 -6.160000 2.120000 33.553177 8.923666 1205.447510
6.040000 -6.160000 2.160000 26.846674 28.382153 1526.290527
6.040000 -6.160000 2.200000 8.705059 39.698406 1651.741577
6.040000 -6.120000 1.800000 3.552445 42.566124 1824.494751
6.040000 -6.120000 1.840000 -27.807257 43.501331 2665.609375
6.040000 -6.120000 1.880000 -53.893826 17.228172 3201.354248
6.040000 -6.120000 1.920000 -53.457329 -23.471390 3408.592285
6.040000 -6.120000 1.960000 -23.578472 -53.288692 3395.629150
6.040000 -6.120000 2.000000 18.067101 -54.207146 3264.834717
6.040000 -6.120000 2.040000 47.493183 -28.033907 3041.502441
6.040000 -6.120000 2.080000 51.436707 7.622679 2703.840088
6.040000 -6.120000 2.120000 33.444397 33.685104 2253.213867
6.040000 -6.120000 2.160000 7.183914 41.113922 1741.963257
6.040000 -6.120000 2.200000 -14.258245 32.326363 1248.291382
6.040000 -6.080000 1.800000 -33.525394 25.907959 1795.174316
6.040000 -6.080000 1.840000 -63.588699 -0.108320 4043.534424
6.040000 -6.080000 1.880000 -65.500824 -50.674767 6858.290039
6.040000 -6.080000 1.920000 -25.275543 -93.684303 9415.602539
6.040000 -6.080000 1.960000 38.322922 -96.553520 10791.228516
6.040000 -6.080000 2.000000 86.794548 -54.048920 10454.579102
6.040000 -6.080000 2.040000 92.310013 7.082027 8571.293945
6.040000 -6.080000 2.080000 58.159618 50.143513 5896.913086
6.040000 -6.080000 2.120000 12.445927 56.438782 3340.237305
6.040000 -6.080000 2.160000 -16.634079 35.083626 1507.553467
6.040000 -6.080000 2.200000 -20.641518 9.481958 515.979797
6.040000 -6.040000 1.800000 -43.184349 -12.575550 2023.032471
6.040000 -6.040000 1.840000 -52.762833 -59.154770 6283.203125
6.040000 -6.040000 1.880000 -15.976841 -110.902229 12554.564453
6.040000 -6.040000 1.920000 59.350807 -123.349525 18737.623047
6.040000 -6.040000 1.960000 128.482910 -74.967468 22127.978516
6.040000 -6.040000 2.000000 144.904312 10.004745 21097.355469
6.040000 -6.040000 2.040000 99.556076 79.104691 16168.964844
6.040000 -6.040000 2.080000 27.742479 94.237381 9650.329102
6.040000 -6.040000 2.120000 -22.072792 60.347385 4129.015137
6.040000 -6.040000 2.160000 -27.642658 15.436583 1002.404663
6.040000 -6.040000 2.200000 -5.133812 -5.590427 57.608902
6.040000 -6.000000 1.800000 -20.312635 -41.383278 2125.178711
6.040000 -6.000000 1.840000 -0.739208 -89.579445 8025.023438
6.040000 -6.000000 1.880000 66.589516 -114.391769 17519.640625
6.040000 -6.000000 1.920000 146.291946 -76.704330 27284.888672
6.040000 -6.000000 1.960000 180.169586 16.115608 32720.792969
6.040000 -6.000000 2.000000 138.043091 109.110779 30961.056641
6.040000 -6.000000 2.040000 46.856098 143.875610 22895.685547
6.040000 -6.000000 2.080000 -31.242254 107.597847 12553.375000
6.040000 -6.000000 2.120000 -51.794010 41.000893 4363.692383
6.040000 -6.000000 2.160000 -22.166780 -1.001766 492.369690
6.040000 -6.000000 2.200000 12.968588 3.085341 177.703598
6.040000 -5.960000 1.800000 11.784479 -39.683975 1713.691772
6.040000 -5.960000 1.840000 52.690723 -70.998291 7817.069336
6.040000 -5.960000 1.880000 123.950745 -56.271637 18530.285156
6.040000 -5.960000 1.920000 172.106354 20.786421 30052.673828
6.040000 -5.960000 1.960000 148.687073 120.949173 36736.546875
6.040000 -5.960000 2.000000 58.118530 177.487717 34879.652344
6.040000 -5.960000 2.040000 -41.078526 154.051758 25419.388672
6.040000 -5.960000 2.080000 -85.916306 76.901360 13295.430664
6.040000 -5.960000 2.120000 -62.523605 9.766603 4004.587646
6.040000 -5.960000 2.160000 -12.880339 -3.830616 180.576736
6.040000 -5.960000 2.200000 9.320515 24.939577 708.854492
6.040000 -5.920000 1.800000 24.235373 -16.248230 851.358276
6.040000 -5.920000 1.840000 69.517303 -24.902641 5452.796875
6.040000 -5.920000 1.880000 119.330170 18.328291 14575.615234
6.040000 -5.920000 1.920000 121.217171 101.661072 25028.576172
6.040000 -5.920000 1.960000 54.320091 169.187469 31575.072266
6.040000 -5.920000 2.000000 -44.536034 168.856491 30495.972656
6.040000 -5.920000 2.040000 -109.848724 101.314568 22331.382812
6.040000 -5.920000 2.080000 -105.405121 20.264553 11520.891602
6.040000 -5.920000 2.120000 -54.565701 -16.987473 3265.989990
6.040000 -5.920000 2.160000 -13.888428 -0.063844 192.892502
6.040000 -5.920000 2.200000 -18.103048 31.597048 1326.093750
6.040000 -5.880000 1.800000 10.558486 0.675695 111.938194
6.040000 -5.880000 1.840000 47.774151 7.279049 2335.354004
6.040000 -5.880000 1.880000 69.170151 55.945850 7914.448242
6.040000 -5.880000 1.920000 39.079185 116.161285 15020.626953
6.040000 -5.880000 1.960000 -34.922470 137.303772 20071.904297
6.040000 -5.880000 2.000000 -103.801659 96.909790 20166.292969
6.040000 -5.880000 2.040000 -121.074852 23.868317 15228.816406
6.040000 -5.880000 2.080000 -85.416733 -28.305286 8097.207031
6.040000 -5.880000 2.120000 -38.963097 -31.430656 2506.009033
6.040000 -5.880000 2.160000 -24.060682 -5.571203 609.954773
6.040000 -5.880000 2.200000 -43.538231 6.423030 1936.832886
6.040000 -5.840000 1.800000 -8.225749 -7.427572 122.831779
6.040000 -5.840000 1.840000 19.736965 4.366140 408.610962
6.040000 -5.840000 1.880000 23.550243 42.724518 2379.998291
6.040000 -5.840000 1.920000 -11.919460 73.723648 5577.250000
6.040000 -5.840000 1.960000 -64.322258 65.442680 8420.097656
6.040000 -5.840000 2.000000 -94.070267 20.129555 9254.414062
6.040000 -5.840000 2.040000 -82.502480 -28.030846 7592.387695
6.040000 -5.840000 2.080000 -48.150345 -47.094833 4536.378906
6.040000 -5.840000 2.120000 -25.016464 -37.262375 2014.308105
6.040000 -5.840000 2.160000 -27.232252 -25.967863 1415.925537
6.040000 -5.840000 2.200000 -37.608097 -35.695118 2688.510498
6.040000 -5.800000 1.800000 -6.428751 -30.689459 983.171753
6.040000 -5.800000 1.840000 16.813318 -16.817894 565.529236
6.040000 -5.800000 1.880000 16.382133 11.128448 392.216675
6.040000 -5.800000 1.920000 -8.726265 26.435875 775.003174
6.040000 -5.800000 1.960000 -36.731750 14.988167 1573.866577
6.040000 -5.800000 2.000000 -45.873631 -12.433113 2258.972168
6.040000 -5.800000 2.040000 -34.866089 -34.113110 2379.348389
6.040000 -5.800000 2.080000 -19.709238 -40.533398 2031.410400
6.040000 -5.800000 2.120000 -12.891071 -40.919792 1840.609131
6.040000 -5.800000 2.160000 -9.837357 -47.897446 2390.938965
6.040000 -5.800000 2.200000 2.598704 -60.036995 3611.193848
6.080000 -6.200000 1.800000 28.199282 24.815302 1410.998657
6.080000 -6.200000 1.840000 13.924602 38.658684 1688.388306
6.080000 -6.200000 1.880000 -5.578447 37.554287 1441.443481
6.080000 -6.200000 1.920000 -17.093513 24.261980 880.831909
6.080000 -6.200000 1.960000 -16.112751 9.880238 357.239868
6.080000 -6.200000 2.000000 -8.261873 2.642377 75.240707
6.080000 -6.200000 2.040000 -1.101351 2.293679 6.473938
6.080000 -6.200000 2.080000 3.124341 4.431717 29.401623
6.080000 -6.200000 2.120000 6.234767 7.486156 94.914841
6.080000 -6.200000 2.160000 7.999909 13.280406 240.367737
6.080000 -6.200000 2.200000 4.400567 21.363285 475.754944
6.080000 -6.160000 1.800000 3.522793 38.650383 1506.262085
6.080000 -6.160000 1.840000 -19.004372 40.672588 2015.425537
6.080000 -6.160000 1.880000 -36.717178 23.921413 1920.385254
6.080000 -6.160000 1.920000 -36.790932 -0.385890 1353.721558
6.080000 -6.160000 1.960000 -20.893223 -16.378563 704.784058
6.080000 -6.160000 2.000000 -1.273083 -16.909760 287.560699
6.080000 -6.160000 2.040000 11.173641 -6.490950 166.982681
6.080000 -6.160000 2.080000 13.994039 6.334524 235.959320
6.080000 -6.160000 2.120000 10.272682 16.786674 387.320435
6.080000 -6.160000 2.160000 2.324101 24.011337 581.945740
6.080000 -6.160000 2.200000 -9.388123 26.472652 788.938171
6.080000 -6.120000 1.800000 -25.151400 27.585136 1393.532715
6.080000 -6.120000 1.840000 -46.307495 12.716850 2306.102295
6.080000 -6.120000 1.880000 -49.459576 -17.934601 2767.899414
6.080000 -6.120000 1.920000 -27.539022 -43.529831 2653.243896
6.080000 -6.120000 1.960000 6.626537 -46.177788 2176.299072
6.080000 -6.120000 2.000000 31.855961 -25.366413 1658.257080
6.080000 -6.120000 2.040000 35.750793 3.858429 1293.006714
6.080000 -6.120000 2.080000 21.676418 24.842224 1087.003174
6.080000 -6.120000 2.120000 1.836439 30.912476 958.953674
6.080000 -6.120000 2.160000 -13.924194 25.622089 850.374634
6.080000 -6.120000 2.200000 -22.708584 15.347391 751.222229
6.080000 -6.080000 1.800000 -35.222267 -2.718394 1247.997803
6.080000 -6.080000 1.840000 -42.998219 -30.882084 2802.549805
6.080000 -6.080000 1.880000 -22.181625 -62.598202 4410.559570
6.080000 -6.080000 1.920000 21.460585 -70.843147 5479.308105
6.080000 -6.080000 1.960000 61.134972 -44.046112 5677.544922
6.080000 -6.080000 2.000000 71.045792 2.977558 5056.370117
6.080000 -6.080000 2.040000 47.261486 41.343105 3942.900391
6.080000 -6.080000 2.080000 8.863981 51.417809 2722.361084
6.080000 -6.080000 2.120000 -19.673071 35.803265 1668.903564
6.080000 -6.080000 2.160000 -27.295235 12.491926 901.078064
6.080000 -6.080000 2.200000 -20.392643 -2.540519 422.314117
6.080000 -6.040000 1.800000 -18.030048 -29.395529 1189.179688
6.080000 -6.040000 1.840000 -6.108353 -58.809628 3495.884277
6.080000 -6.040000 1.880000 35.363373 -73.626282 6671.397461
6.080000 -6.040000 1.920000 83.951233 -49.933327 9541.146484
6.080000 -6.040000 1.960000 104.078110 7.073071 10882.281250
6.080000 -6.040000 2.000000 77.964180 63.801003 10148.981445
6.080000 -6.040000 2.040000 22.054264 85.310043 7764.194336
6.080000 -6.040000 2.080000 -26.750126 63.838371 4790.906738
6.080000 -6.040000 2.120000 -41.874065 22.805302 2273.519043
6.080000 -6.040000 2.160000 -26.419424 -5.887661 732.650513
6.080000 -6.040000 2.200000 -4.974140 -8.694860 100.342674
6.080000 -6.000000 1.800000 11.978620 -31.858105 1158.426147
6.080000 -6.000000 1.840000 39.116989 -49.464493 3976.875000
6.080000 -6.000000 1.880000 84.704872 -36.909027 8537.191406
6.080000 -6.000000 1.920000 113.798592 15.655950 13195.227539
6.080000 -6.000000 1.960000 95.237488 81.969727 15789.214844
6.080000 -6.000000 2.000000 32.576946 118.171700 15025.808594
6.080000 -6.000000 2.040000 -35.274384 100.433395 11331.149414
6.080000 -6.000000 2.080000 -66.260605 46.035347 6509.720703
6.080000 -6.000000 2.120000 -50.311989 -2.548700 2537.791992
6.080000 -6.000000 2.160000 -14.581532 -15.172068 442.812683
6.080000 -6.000000 2.200000 4.596710 2.489768 27.328690
6.080000 -5.960000 1.800000 29.403780 -10.891546 983.208069
6.080000 -5.960000 1.840000 59.836006 -11.520283 3713.064453
6.080000 -5.960000 1.880000 90.658699 23.209555 8757.683594
6.080000 -5.960000 1.920000 85.782455 83.641251 14354.488281
6.080000 -5.960000 1.960000 31.949181 129.516724 17795.332031
6.080000 -5.960000 2.000000 -42.926254 124.004738 17219.837891
6.080000 -5.960000 2.040000 -90.532089 68.710991 12917.259766
6.080000 -5.960000 2.080000 -84.143967 4.242609 7098.206543
6.080000 -5.960000 2.120000 -41.435913 -25.697948 2377.319580
6.080000 -5.960000 2.160000 -5.886354 -12.233251 184.301590
6.080000 -5.960000 2.200000 -5.738499 14.955210 256.588654
6.080000 -5.920000 1.800000 21.400581 11.604860 592.657654
6.080000 -5.920000 1.840000 45.078789 23.133699 2567.265137
6.080000 -5.920000 1.880000 53.096733 63.714066 6878.745117
6.080000 -5.920000 1.920000 20.250023 108.054489 12085.835938
6.080000 -5.920000 1.960000 -44.350838 116.794800 15608.022461
6.080000 -5.920000 2.000000 -99.518837 74.533806 15459.287109
6.080000 -5.920000 2.040000 -107.772644 7.827847 11676.217773
6.080000 -5.920000 2.080000 -70.082054 -37.176205 6293.564453
6.080000 -5.920000 2.120000 -24.350056 -36.606533 1932.963379
6.080000 -5.920000 2.160000 -8.768265 -8.756251 153.554413
6.080000 -5.920000 2.200000 -26.820894 7.041889 768.948547
6.080000 -5.880000 1.800000 0.103880 13.436538 180.551331
6.080000 -5.880000 1.840000 15.195119 28.921917 1067.368896
6.080000 -5.880000 1.880000 6.541288 61.112518 3777.528320
6.080000 -5.880000 1.920000 -34.387112 79.395660 7486.144531
6.080000 -5.880000 1.960000 -83.263504 58.292923 10330.875977
6.080000 -5.880000 2.000000 -103.150673 5.354900 10668.736328
6.080000 -5.880000 2.040000 -80.037888 -43.219944 8274.027344
6.080000 -5.880000 2.080000 -36.758842 -56.421261 4534.571289
6.080000 -5.880000 2.120000 -10.200171 -37.349449 1499.024780
6.080000 -5.880000 2.160000 -15.258507 -17.543959 540.612549
6.080000 -5.880000 2.200000 -32.563362 -23.422691 1608.995117
6.080000 -5.840000 1.800000 -9.148798 -5.988163 119.558594
6.080000 -5.840000 1.840000 1.102222 9.970974 100.635216
6.080000 -5.840000 1.880000 -12.831238 30.718922 1108.292847
6.080000 -5.840000 1.920000 -45.005112 30.422853 2951.010010
6.080000 -5.840000 1.960000 -68.539734 1.143799 4699.003418
6.080000 -5.840000 2.000000 -62.471756 -37.415909 5302.670410
6.080000 -5.840000 2.040000 -33.124489 -57.453636 4398.152344
6.080000 -5.840000 2.080000 -6.691578 -51.037289 2649.582031
6.080000 -5.840000 2.120000 -1.269703 -36.386982 1325.624634
6.080000 -5.840000 2.160000 -8.895134 -36.217369 1390.821289
6.080000 -5.840000 2.200000 -6.533686 -52.528748 2801.958252
6.080000 -5.800000 1.800000 6.839892 -24.626329 653.240234
6.080000 -5.800000 1.840000 13.731093 -6.140824 226.252655
6.080000 -5.800000 1.880000 0.091867 8.223755 67.638580
6.080000 -5.800000 1.920000 -20.248632 2.707294 417.336548
6.080000 -5.800000 1.960000 -27.441408 -18.227531 1085.273804
6.080000 -5.800000 2.000000 -16.434818 -36.181011 1579.168823
6.080000 -5.800000 2.040000 -0.147736 -39.668285 1573.594727
6.080000 -5.800000 2.080000 7.551325 -35.298977 1303.040283
6.080000 -5.800000 2.120000 8.398037 -36.998451 1439.412354
6.080000 -5.800000 2.160000 16.303457 -46.951382 2470.234863
6.080000 -5.800000 2.200000 38.454529 -51.397503 4120.454102
6.120000 -6.200000 1.800000 -8.829782 32.367207 1125.601196
6.120000 -6.200000 1.840000 -26.601242 28.544794 1522.431396
6.120000 -6.200000 1.880000 -35.230415 11.575806 1375.181396
6.120000 -6.200000 1.920000 -28.340961 -4.954288 827.755066
6.120000 -6.200000 1.960000 -14.050688 -9.325932 284.394836
6.120000 -6.200000 2.000000 -5.435355 -2.778913 37.265442
6.120000 -6.200000 2.040000 -6.922178 3.767839 62.113167
6.120000 -6.200000 2.080000 -11.369020 2.687389 136.476685
6.120000 -6.200000 2.120000 -10.012839 -2.569543 106.859497
6.120000 -6.200000 2.160000 -3.151936 -3.065706 19.333252
6.120000 -6.200000 2.200000 0.596588 3.975429 16.159952
6.120000 -6.160000 1.800000 -26.479736 21.087376 1145.853882
6.120000 -6.160000 1.840000 -40.250847 8.704193 1695.893555
6.120000 -6.160000 1.880000 -38.985439 -11.986548 1663.541870
6.120000 -6.160000 1.920000 -22.466379 -24.698919 1114.774780
6.120000 -6.160000 1.960000 -3.959837 -21.241728 466.891296
6.120000 -6.160000 2.000000 3.806111 -8.228500 82.194702
6.120000 -6.160000 2.040000 0.293064 1.738796 3.109299
6.120000 -6.160000 2.080000 -5.308802 3.385396 39.644279
6.120000 -6.160000 2.120000 -6.140417 1.956767 41.533661
6.120000 -6.160000 2.160000 -4.821149 4.206815 40.940765
6.120000 -6.160000 2.200000 -8.201523 9.031059 148.825012
6.120000 -6.120000 1.800000 -30.413105 -0.966233 925.890564
6.120000 -6.120000 1.840000 -35.346966 -18.066853 1575.819092
6.120000 -6.120000 1.880000 -22.481184 -35.699879 1779.885010
6.120000 -6.120000 1.920000 1.326077 -37.967972 1443.325317
6.120000 -6.120000 1.960000 19.151012 -22.233948 861.109741
6.120000 -6.120000 2.000000 20.057541 -0.631546 402.703796
6.120000 -6.120000 2.040000 7.736504 12.462234 215.160767
6.120000 -6.120000 2.080000 -5.731998 12.944653 200.419830
6.120000 -6.120000 2.120000 -12.473190 7.395731 210.277313
6.120000 -6.120000 2.160000 -14.174564 3.291996 211.755508
6.120000 -6.120000 2.200000 -16.278076 1.164298 266.331360
6.120000 -6.080000 1.800000 -16.023876 -19.014591 618.319336
6.120000 -6.080000 1.840000 -10.966288 -34.231087 1292.026855
6.120000 -6.080000 1.880000 9.940529 -41.445099 1816.510254
6.120000 -6.080000 1.920000 33.251827 -28.624109 1925.023682
6.120000 -6.080000 1.960000 40.829159 -0.720685 1667.539673
6.120000 -6.080000 2.000000 26.392941 24.316113 1287.860596
6.120000 -6.080000 2.040000 0.565022 31.377251 984.851135
6.120000 -6.080000 2.080000 -19.476021 20.182249 786.638550
6.120000 -6.080000 2.120000 -24.628193 2.941444 615.200012
6.120000 -6.080000 2.160000 -18.977171 -8.170891 426.896484
6.120000 -6.080000 2.200000 -12.534986 -10.666693 270.904205
6.120000 -6.040000 1.800000 7.061576 -19.514095 430.665771
6.120000 -6.040000 1.840000 18.246864 -27.096268 1067.155762
6.120000 -6.040000 1.880000 38.739895 -20.500351 1921.043823
6.120000 -6.040000 1.920000 50.903648 5.161683 2617.824463
6.120000 -6.040000 1.960000 39.688541 36.421631 2901.715332
6.120000 -6.040000 2.000000 7.783543 51.825676 2746.484131
6.120000 -6.040000 2.040000 -25.263325 40.659607 2291.439209
6.120000 -6.040000 2.080000 -39.404190 12.243683 1702.597900
6.120000 -6.040000 2.120000 -30.553644 -12.737551 1095.770386
6.120000 -6.040000 2.160000 -12.078138 -20.219875 554.724792
6.120000 -6.040000 2.200000 -1.072145 -13.157273 174.263336
6.120000 -6.000000 1.800000 21.313919 -2.106222 458.719299
6.120000 -6.000000 1.840000 32.011185 -0.896580 1025.519775
6.120000 -6.000000 1.880000 43.254562 15.881283 2123.172363
6.120000 -6.000000 1.920000 37.524788 44.223228 3363.803711
6.120000 -6.000000 1.960000 8.060038 64.448471 4218.569824
6.120000 -6.000000 2.000000 -31.140764 57.961998 4329.340332
6.120000 -6.000000 2.040000 -55.114479 25.476049 3686.634766
6.120000 -6.000000 2.080000 -49.423065 -11.703976 2579.622559
6.120000 -6.000000 2.120000 -22.969553 -29.663477 1407.522217
6.120000 -6.000000 2.160000 0.497369 -22.398327 501.932434
6.120000 -6.000000 2.200000 4.070865 -5.458185 46.363731
6.120000 -5.960000 1.800000 15.829628 18.575090 595.611084
6.120000 -5.960000 1.840000 21.382038 24.816334 1073.041992
6.120000 -5.960000 1.880000 19.867659 43.102070 2252.512207
6.120000 -5.960000 1.920000 -1.108781 61.650890 3802.061768
6.120000 -5.960000 1.960000 -36.976261 60.551361 5033.710938
6.120000 -5.960000 2.000000 -65.770355 31.692951 5330.183105
6.120000 -5.960000 2.040000 -66.520172 -10.143665 4527.827148
6.120000 -5.960000 2.080000 -39.345039 -38.047939 2995.677734
6.120000 -5.960000 2.120000 -6.660392 -36.717205 1392.514038
6.120000 -5.960000 2.160000 6.925101 -16.096888 307.066833
6.120000 -5.960000 2.200000 -3.148540 -1.220984 11.404102
6.120000 -5.920000 1.800000 -3.300207 24.724689 622.201599
6.120000 -5.920000 1.840000 -2.696264 31.221989 982.082397
6.120000 -5.920000 1.880000 -13.400614 43.363884 2060.002930
6.120000 -5.920000 1.920000 -39.021622 45.593857 3601.486816
6.120000 -5.920000 1.960000 -65.432854 24.945282 4903.725586
6.120000 -5.920000 2.000000 -71.348953 -12.783232 5254.084473
6.120000 -5.920000 2.040000 -49.182461 -44.617714 4409.654785
6.120000 -5.920000 2.080000 -14.503606 -50.540611 2764.707764
6.120000 -5.920000 2.120000 7.161187 -32.560371 1111.460327
6.120000 -5.920000 2.160000 4.099487 -12.907745 183.415695
6.120000 -5.920000 2.200000 -11.097755 -12.385012 276.548706
6.120000 -5.880000 1.800000 -17.319489 11.475133 431.643372
6.120000 -5.880000 1.840000 -18.631075 16.925926 633.603882
6.120000 -5.880000 1.880000 -31.948544 21.024118 1462.722900
6.120000 -5.880000 1.920000 -51.388596 9.957248 2739.934570
6.120000 -5.880000 1.960000 -59.471169 -17.932926 3858.409668
6.120000 -5.880000 2.000000 -44.522400 -46.759876 4168.730469
6.120000 -5.880000 2.040000 -14.365957 -56.860458 3439.492432
6.120000 -5.880000 2.080000 9.552387 -44.333908 2056.743408
6.120000 -5.880000 2.120000 12.851910 -25.442024 812.468140
6.120000 -5.880000 2.160000 2.298157 -20.303156 417.499664
6.120000 -5.880000 2.200000 -1.687145 -32.546074 1062.093384
6.120000 -5.840000 1.800000 -11.525293 -7.568492 190.114456
6.120000 -5.840000 1.840000 -13.854176 -0.870252 192.695526
6.120000 -5.840000 1.880000 -26.033585 -2.024242 681.845032
6.120000 -5.840000 1.920000 -35.193954 -18.114197 1566.738525
6.120000 -5.840000 1.960000 -27.903597 -40.170425 2392.273926
6.120000 -5.840000 2.000000 -5.642403 -51.049465 2637.884521
6.120000 -5.840000 2.040000 15.438153 -43.504959 2131.018066
6.120000 -5.840000 2.080000 21.297550 -28.296413 1254.272705
6.120000 -5.840000 2.120000 15.108187 -22.585451 738.359924
6.120000 -5.840000 2.160000 13.630398 -30.899925 1140.593140
6.120000 -5.840000 2.200000 28.356480 -39.811489 2389.044678
6.120000 -5.800000 1.800000 10.329950 -11.918579 248.760391
6.120000 -5.800000 1.840000 3.548083 -2.827448 20.583355
6.120000 -5.800000 1.880000 -8.063169 -7.029615 114.430191
6.120000 -5.800000 1.920000 -9.556757 -22.063894 578.147034
6.120000 -5.800000 1.960000 3.497850 -33.227898 1116.328125
6.120000 -5.800000 2.000000 19.844929 -30.245407 1308.605835
6.120000 -5.800000 2.040000 25.765348 -19.057446 1027.039429
6.120000 -5.800000 2.080000 21.540890 -14.454942 672.955261
6.120000 -5.800000 2.120000 21.463936 -21.659897 929.851685
6.120000 -5.800000 2.160000 36.545197 -28.507755 2148.243652
6.120000 -5.800000 2.200000 59.639450 -18.322519 3892.578613
6.160000 -6.200000 1.800000 -32.753967 8.504071 1145.141602
6.160000 -6.200000 1.840000 -38.888214 -6.823167 1558.848877
6.160000 -6.200000 1.880000 -29.764471 -23.070036 1418.150391
6.160000 -6.200000 1.920000 -11.558290 -26.279425 824.202271
6.160000 -6.200000 1.960000 0.266316 -15.054239 226.701050
6.160000 -6.200000 2.000000 -2.988508 -2.277937 14.120174
6.160000 -6.200000 2.040000 -14.177731 -1.576337 203.492874
6.160000 -6.200000 2.080000 -18.100271 -12.970404 495.851196
6.160000 -6.200000 2.120000 -7.785007 -23.058800 592.314575
6.160000 -6.200000 2.160000 8.141105 -19.463455 445.103668
6.160000 -6.200000 2.200000 14.678016 -3.901860 230.668640
6.160000 -6.160000 1.800000 -28.557970 -9.932014 914.202576
6.160000 -6.160000 1.840000 -27.511894 -23.292454 1299.442627
6.160000 -6.160000 1.880000 -13.678147 -32.021248 1212.452026
6.160000 -6.160000 1.920000 2.563396 -26.425589 704.882690
6.160000 -6.160000 1.960000 7.534615 -11.307930 184.639694
6.160000 -6.160000 2.000000 -0.953353 -1.044545 1.999957
6.160000 -6.160000 2.040000 -11.340897 -4.135223 145.716003
6.160000 -6.160000 2.080000 -11.098827 -14.270945 326.843842
6.160000 -6.160000 2.120000 -0.339117 -17.690838 313.080750
6.160000 -6.160000 2.160000 8.612018 -8.532693 146.973694
6.160000 -6.160000 2.200000 5.020201 4.750615 47.770763
6.160000 -6.120000 1.800000 -12.372250 -19.111027 518.303894
6.160000 -6.120000 1.840000 -8.064521 -26.557798 770.353149
6.160000 -6.120000 1.880000 4.073668 -27.085636 750.226501
6.160000 -6.120000 1.920000 13.254353 -16.343338 442.782562
6.160000 -6.120000 1.960000 10.495817 -2.272605 115.326912
6.160000 -6.120000 2.000000 -1.356203 3.317448 12.844746
6.160000 -6.120000 2.040000 -10.683015 -2.643335 121.114029
6.160000 -6.120000 2.080000 -9.602398 -11.625355 227.354919
6.160000 -6.120000 2.120000 -1.972633 -13.228780 178.891891
6.160000 -6.120000 2.160000 1.623507 -6.456706 44.324829
6.160000 -6.120000 2.200000 -4.062284 -0.222551 16.551682
6.160000 -6.080000 1.800000 4.833381 -13.012301 192.681564
6.160000 -6.080000 1.840000 6.948412 -14.770539 266.449249
6.160000 -6.080000 1.880000 12.573535 -11.102840 281.366852
6.160000 -6.080000 1.920000 13.488586 -1.152618 183.270493
6.160000 -6.080000 1.960000 5.181249 7.572272 84.184647
6.160000 -6.080000 2.000000 -7.613471 7.112509 108.552719
6.160000 -6.080000 2.040000 -15.392462 -2.468060 243.019211
6.160000 -6.080000 2.080000 -13.342678 -13.105394 349.778412
6.160000 -6.080000 2.120000 -5.691613 -16.910227 318.350250
6.160000 -6.080000 2.160000 -0.754438 -13.652664 186.964417
6.160000 -6.080000 2.200000 -2.326066 -9.977791 104.966896
6.160000 -6.040000 1.800000 11.179306 3.836595 139.696350
6.160000 -6.040000 1.840000 7.851350 3.650125 74.967110
6.160000 -6.040000 1.880000 6.562471 5.626870 74.727699
6.160000 -6.040000 1.920000 2.103233 9.908989 102.611656
6.160000 -6.040000 1.960000 -7.646351 11.066846 180.941757
6.160000 -6.040000 2.000000 -18.058149 4.053840 342.530396
6.160000 -6.040000 2.040000 -21.451899 -9.596708 552.280762
6.160000 -6.040000 2.080000 -14.559585 -21.965282 694.455139
6.160000 -6.040000 2.120000 -2.230543 -25.572844 658.945679
6.160000 -6.040000 2.160000 6.607285 -20.188728 451.240967
6.160000 -6.040000 2.200000 6.983258 -12.946869 216.387314
6.160000 -6.000000 1.800000 2.441745 19.320194 379.232025
6.160000 -6.000000 1.840000 -5.181515 15.875386 278.876007
6.160000 -6.000000 1.880000 -9.706075 12.280226 245.011826
6.160000 -6.000000 1.920000 -14.672040 9.303842 301.830231
6.160000 -6.000000 1.960000 -21.278891 3.290852 463.620911
6.160000 -6.000000 2.000000 -25.254551 -8.689660 713.302551
6.160000 -6.000000 2.040000 -20.519695 -23.399555 968.597046
6.160000 -6.000000 2.080000 -6.403288 -32.391460 1090.208740
6.160000 -6.000000 2.120000 9.529314 -29.560799 964.648621
6.160000 -6.000000 2.160000 17.161327 -17.918499 615.583740
6.160000 -6.000000 2.200000 13.232092 -7.999873 239.086227
6.160000 -5.960000 1.800000 -14.663563 22.364653 715.197754
6.160000 -5.960000 1.840000 -22.282347 13.926695 690.455811
6.160000 -5.960000 1.880000 -25.434242 4.955973 671.462341
6.160000 -5.960000 1.920000 -26.805033 -3.612062 731.556763
6.160000 -5.960000 1.960000 -26.629566 -13.954452 903.860474
6.160000 -5.960000 2.000000 -21.287157 -26.308718 1145.291748
6.160000 -5.960000 2.040000 -8.020067 -35.600986 1331.751831
6.160000 -5.960000 2.080000 9.387461 -35.002880 1313.326050
6.160000 -5.960000 2.120000 21.496082 -23.614471 1019.724792
6.160000 -5.960000 2.160000 21.427601 -9.642540 552.120667
6.160000 -5.960000 2.200000 12.437922 -4.177108 172.150116
6.160000 -5.920000 1.800000 -27.140350 11.250576 863.174072
6.160000 -5.920000 1.840000 -31.255653 0.408453 977.082703
6.160000 -5.920000 1.880000 -30.890911 -10.906176 1073.193115
6.160000 -5.920000 1.920000 -26.910170 -21.942932 1205.649536
6.160000 -5.920000 1.960000 -18.479397 -32.196747 1378.118652
6.160000 -5.920000 2.000000 -4.680221 -38.665035 1516.889404
6.160000 -5.920000 2.040000 11.707282 -36.936916 1501.396240
6.160000 -5.920000 2.080000 23.734943 -26.186436 1249.076904
6.160000 -5.920000 2.120000 25.538313 -12.421098 806.489136
6.160000 -5.920000 2.160000 18.709307 -4.893172 373.981293
6.160000 -5.920000 2.200000 12.423558 -7.801876 215.214066
6.160000 -5.880000 1.800000 -25.429621 -4.688104 668.643921
6.160000 -5.880000 1.840000 -26.716862 -13.722803 902.106018
6.160000 -5.880000 1.880000 -23.992102 -24.862865 1193.782959
6.160000 -5.880000 1.920000 -14.938869 -35.763817 1502.220337
6.160000 -5.880000 1.960000 0.487373 -41.473827 1720.315918
6.160000 -5.880000 2.000000 17.517445 -37.582512 1719.306030
6.160000 -5.880000 2.040000 28.457560 -25.059299 1437.801270
6.160000 -5.880000 2.080000 28.847485 -11.315934 960.227722
6.160000 -5.880000 2.120000 22.242645 -4.827271 518.037781
6.160000 -5.880000 2.160000 17.923939 -7.525316 377.897949
6.160000 -5.880000 2.200000 22.729935 -12.513618 673.240540
6.160000 -5.840000 1.800000 -11.176150 -11.793341 263.989227
6.160000 -5.840000 1.840000 -14.013753 -17.739716 511.082764
6.160000 -5.840000 1.880000 -11.040056 -29.104723 968.967773
6.160000 -5.840000 1.920000 2.242625 -38.520905 1488.889526
6.160000 -5.840000 1.960000 21.234833 -36.819790 1806.614990
6.160000 -5.840000 2.000000 34.462593 -22.781708 1706.676514
6.160000 -5.840000 2.040000 34.194756 -6.111380 1206.630249
6.160000 -5.840000 2.080000 24.834755 1.062813 617.894653
6.160000 -5.840000 2.120000 19.342058 -3.628508 387.281281
6.160000 -5.840000 2.160000 26.299801 -9.850064 788.703247
6.160000 -5.840000 2.200000 40.746338 -4.764213 1682.961792
6.160000 -5.800000 1.800000 3.296282 -2.878716 19.152481
6.160000 -5.800000 1.840000 -4.776364 -9.562698 114.258850
6.160000 -5.800000 1.880000 -1.357860 -23.632374 560.332886
6.160000 -5.800000 1.920000 15.805239 -30.664940 1190.144165
6.160000 -5.800000 1.960000 34.226620 -21.096682 1616.531494
6.160000 -5.800000 2.000000 38.811817 -1.619857 1508.981079
6.160000 -5.800000 2.040000 28.350052 10.818794 920.771790
6.160000 -5.800000 2.080000 17.685057 7.226664 364.985901
6.160000 -5.800000 2.120000 21.872044 -2.825274 486.368469
6.160000 -5.800000 2.160000 38.958038 -0.844466 1518.441895
6.160000 -5.800000 2.200000 50.704811 20.274414 2982.029785
6.200000 -6.200000 1.800000 -25.435419 -21.187279 1095.861328
6.200000 -6.200000 1.840000 -17.123997 -32.629299 1357.902344
6.200000 -6.200000 1.880000 -0.293071 -34.258190 1173.709473
6.200000 -6.200000 1.920000 12.222123 -21.920189 629.875000
6.200000 -6.200000 1.960000 9.594798 -5.601686 123.439034
6.200000 -6.200000 2.000000 -4.699630 -0.665816 22.529829
6.200000 -6.200000 2.040000 -14.821959 -12.110479 366.354187
6.200000 -6.200000 2.080000 -7.901442 -28.317204 864.296814
6.200000 -6.200000 2.120000 12.553673 -31.699963 1162.482300
6.200000 -6.200000 2.160000 29.316610 -15.956367 1114.069336
6.200000 -6.200000 2.200000 27.818851 7.553126 830.938232
6.200000 -6.160000 1.800000 -5.683843 -26.334259 725.799316
6.200000 -6.160000 1.840000 2.742329 -28.940777 845.088928
6.200000 -6.160000 1.880000 13.393105 -22.618397 690.967102
6.200000 -6.160000 1.920000 15.631996 -8.593578 318.208893
6.200000 -6.160000 1.960000 5.288838 1.633455 30.639988
6.200000 -6.160000 2.000000 -8.561554 -2.139190 77.876343
6.200000 -6.160000 2.040000 -11.389095 -16.764437 410.757812
6.200000 -6.160000 2.080000 1.657007 -27.119656 738.221375
6.200000 -6.160000 2.120000 19.455334 -20.767395 809.794678
6.200000 -6.160000 2.160000 25.075317 -0.981084 629.734070
6.200000 -6.160000 2.200000 12.424128 15.801412 404.043579
6.200000 -6.120000 1.800000 9.863905 -14.208826 299.187347
6.200000 -6.120000 1.840000 11.062873 -11.319650 250.521637
6.200000 -6.120000 1.880000 11.192459 -5.075983 151.036743
6.200000 -6.120000 1.920000 5.198009 1.505819 29.286785
6.200000 -6.120000 1.960000 -5.569023 1.027440 32.069653
6.200000 -6.120000 2.000000 -12.253677 -9.090054 232.781677
6.200000 -6.120000 2.040000 -7.154886 -21.357258 507.324890
6.200000 -6.120000 2.080000 6.965424 -24.114719 630.036865
6.200000 -6.120000 2.120000 17.839451 -13.346552 496.376465
6.200000 -6.120000 2.160000 15.134369 2.228067 234.013397
6.200000 -6.120000 2.200000 0.846740 8.939651 80.634315
6.200000 -6.080000 1.800000 9.724486 5.169788 121.292343
6.200000 -6.080000 1.840000 1.531151 5.451830 32.066872
6.200000 -6.080000 1.880000 -5.182677 2.834209 34.892887
6.200000 -6.080000 1.920000 -10.636097 -2.364758 118.718636
6.200000 -6.080000 1.960000 -13.234357 -10.747626 290.659668
6.200000 -6.080000 2.000000 -9.921548 -20.355488 512.783020
6.200000 -6.080000 2.040000 -0.243753 -25.908813 671.325989
6.200000 -6.080000 2.080000 10.869292 -22.977924 646.126526
6.200000 -6.080000 2.120000 15.982733 -13.068373 426.230103
6.200000 -6.080000 2.160000 11.694100 -3.651556 150.085846
6.200000 -6.080000 2.200000 2.313757 -2.071965 9.646511
6.200000 -6.040000 1.800000 -5.212175 17.129951 320.602020
6.200000 -6.040000 1.840000 -17.768604 7.917210 378.405518
6.200000 -6.040000 1.880000 -22.069258 -6.216902 525.701965
6.200000 -6.040000 1.920000 -18.061104 -19.096020 690.861450
6.200000 -6.040000 1.960000 -9.126503 -27.061615 815.624023
6.200000 -6.040000 2.000000 1.115017 -29.604969 877.697449
6.200000 -6.040000 2.040000 10.413300 -27.639612 872.385010
6.200000 -6.040000 2.080000 17.255142 -22.122416 787.141235
6.200000 -6.040000 2.120000 20.033575 -14.520494 612.188843
6.200000 -6.040000 2.160000 17.920481 -7.731455 380.919006
6.200000 -6.040000 2.200000 12.651934 -5.156642 186.662384
6.200000 -6.000000 1.800000 -23.427448 13.818498 739.796204
6.200000 -6.000000 1.840000 -31.902555 -5.211977 1044.937744
6.200000 -6.000000 1.880000 -26.195042 -25.404161 1331.551636
6.200000 -6.000000 1.920000 -10.430349 -36.904716 1470.750366
6.200000 -6.000000 1.960000 6.152153 -37.047428 1410.360962
6.200000 -6.000000 2.000000 17.113388 -30.535479 1225.283447
6.200000 -6.000000 2.040000 22.526043 -23.291416 1049.912598
6.200000 -6.000000 2.080000 25.664776 -17.087414 950.660400
6.200000 -6.000000 2.120000 27.594606 -10.361059 868.813843
6.200000 -6.000000 2.160000 26.300034 -2.983477 700.592896
6.200000 -6.000000 2.200000 20.938183 1.636198 441.084656
6.200000 -5.960000 1.800000 -32.509407 -0.784583 1057.477173
6.200000 -5.960000 1.840000 -31.750704 -23.378326 1554.653320
6.200000 -5.960000 1.880000 -15.784016 -40.978806 1928.397583
6.200000 -5.960000 1.920000 6.642294 -44.485332 2023.064941
6.200000 -5.960000 1.960000 23.862974 -35.308773 1816.151001
6.200000 -5.960000 2.000000 30.938087 -22.300255 1454.466675
6.200000 -5.960000 2.040000 31.506819 -12.573301 1150.767578
6.200000 -5.960000 2.080000 31.224466 -6.250222 1014.032593
6.200000 -5.960000 2.120000 31.083809 0.180011 966.235596
6.200000 -5.960000 2.160000 28.112957 7.171454 841.768127
6.200000 -5.960000 2.200000 21.576828 10.798570 582.168640
6.200000 -5.920000 1.800000 -28.246166 -15.391397 1034.740967
6.200000 -5.920000 1.840000 -20.229471 -34.285568 1584.731689
6.200000 -5.920000 1.880000 -0.084082 -44.731804 2000.941406
6.200000 -5.920000 1.920000 22.129505 -40.469139 2127.466309
6.200000 -5.920000 1.960000 35.840908 -25.492723 1934.449707
6.200000 -5.920000 2.000000 38.183807 -9.409983 1546.550903
6.200000 -5.920000 2.040000 34.104279 1.220121 1164.590454
6.200000 -5.920000 2.080000 29.672485 6.720159 925.616882
6.200000 -5.920000 2.120000 26.537716 10.628692 817.219482
6.200000 -5.920000 2.160000 22.973732 14.188458 729.104736
6.200000 -5.920000 2.200000 18.613653 15.689751 592.636353
6.200000 -5.880000 1.800000 -16.300482 -20.507431 686.260437
6.200000 -5.880000 1.840000 -7.608387 -33.675678 1191.938843
6.200000 -5.880000 1.880000 10.790789 -39.402054 1668.963013
6.200000 -5.880000 1.920000 30.368240 -31.950466 1943.062256
6.200000 -5.880000 1.960000 41.188732 -14.525301 1907.495972
6.200000 -5.880000 2.000000 39.671402 3.469416 1585.857056
6.200000 -5.880000 2.040000 30.487032 14.073116 1127.511719
6.200000 -5.880000 2.080000 21.628416 16.213230 730.657227
6.200000 -5.880000 2.120000 17.805996 14.683186 532.649414
6.200000 -5.880000 2.160000 18.067703 14.787320 545.106750
6.200000 -5.880000 2.200000 18.565916 18.202528 676.025269
6.200000 -5.840000 1.800000 -6.680925 -14.600022 257.795410
6.200000 -5.840000 1.840000 -1.961932 -26.522810 707.308655
6.200000 -5.840000 1.880000 14.517751 -33.013268 1300.640991
6.200000 -5.840000 1.920000 34.227463 -25.073042 1800.176514
6.200000 -5.840000 1.960000 44.031174 -4.756930 1961.372681
6.200000 -5.840000 2.000000 37.925499 15.584105 1681.207886
6.200000 -5.840000 2.040000 22.674398 24.042988 1092.193604
6.200000 -5.840000 2.080000 11.509434 19.740221 522.143433
6.200000 -5.840000 2.120000 11.781408 12.901173 305.241821
6.200000 -5.840000 2.160000 18.658009 14.393883 555.305115
6.200000 -5.840000 2.200000 20.877872 25.270212 1074.469238
6.200000 -5.800000 1.800000 -6.463507 -3.731384 55.700146
6.200000 -5.800000 1.840000 -3.903080 -20.602295 439.688599
6.200000 -5.800000 1.880000 15.600103 -29.829185 1133.143555
6.200000 -5.800000 1.920000 38.442150 -18.928431 1836.084473
6.200000 -5.800000 1.960000 45.879372 6.814297 2151.351318
6.200000 -5.800000 2.000000 32.462826 28.219526 1850.176758
6.200000 -5.800000 2.040000 11.805935 30.783031 1086.975098
6.200000 -5.800000 2.080000 2.863636 19.007687 369.492554
6.200000 -5.800000 2.120000 10.574493 11.202491 237.315704
6.200000 -5.800000 2.160000 21.218651 19.932903 847.551758
6.200000 -5.800000 2.200000 17.454012 38.701477 1802.446777
