#kx 	ky 	kz 	real 	imag 	intensity
7.800000 3.800000 -2.200000 -17.462158 -3.344995 316.115967
7.800000 3.800000 -2.160000 -12.732480 -11.833406 302.145569
7.800000 3.800000 -2.120000 -7.048473 -12.852192 214.859802
7.800000 3.800000 -2.080000 -6.741267 -11.940073 188.010025
7.800000 3.800000 -2.040000 -8.276213 -16.379944 336.798248
7.800000 3.800000 -2.000000 -3.059463 -24.611847 615.103271
7.800000 3.800000 -1.960000 10.630578 -26.711224 826.498657
7.800000 3.800000 -1.920000 23.286682 -16.022337 798.984863
7.800000 3.800000 -1.880000 23.376839 1.659862 549.231689
7.800000 3.800000 -1.840000 10.136913 12.675600 263.427856
7.800000 3.800000 -1.800000 -4.893101 9.419832 112.675674
7.800000 3.840000 -2.200000 -10.242577 -20.344030 518.789978
7.800000 3.840000 -2.160000 -0.106003 -26.770807 716.687378
7.800000 3.840000 -2.120000 9.876574 -25.974070 772.198975
7.800000 3.840000 -2.080000 16.152927 -21.791525 735.787598
7.800000 3.840000 -2.040000 19.877464 -17.428783 698.876099
7.800000 3.840000 -2.000000 22.787838 -12.522565 676.100220
7.800000 3.840000 -1.960000 23.731815 -5.893799 597.935913
7.800000 3.840000 -1.920000 20.465477 0.641665 419.247498
7.800000 3.840000 -1.880000 13.995131 3.168420 205.902588
7.800000 3.840000 -1.840000 9.031084 0.549210 81.862106
7.800000 3.840000 -1.800000 9.043987 -3.170868 91.848114
7.800000 3.880000 -2.200000 5.638008 -26.686661 743.964966
7.800000 3.880000 -2.160000 20.154058 -28.382181 1211.734253
7.800000 3.880000 -2.120000 33.340904 -21.292250 1564.975708
7.800000 3.880000 -2.080000 40.081890 -7.925920 1669.378052
7.800000 3.880000 -2.040000 37.598511 6.428558 1454.974365
7.800000 3.880000 -2.000000 27.197433 15.303221 973.888916
7.800000 3.880000 -1.960000 14.909820 14.426633 430.430450
7.800000 3.880000 -1.920000 8.781342 5.487597 107.225685
7.800000 3.880000 -1.880000 12.992327 -3.564704 181.507660
7.800000 3.880000 -1.840000 23.445988 -3.950294 565.319153
7.800000 3.880000 -1.800000 29.955536 6.219578 936.017273
7.800000 3.920000 -2.200000 20.002857 -20.764359 831.272888
7.800000 3.920000 -2.160000 35.787037 -14.928877 1503.583374
7.800000 3.920000 -2.120000 46.049789 0.923603 2121.436035
7.800000 3.920000 -2.080000 43.801868 21.224176 2369.069336
7.800000 3.920000 -2.040000 27.955637 35.124352 2015.237793
7.800000 3.920000 -2.000000 7.254014 33.286869 1160.636353
7.800000 3.920000 -1.960000 -3.866003 16.717062 294.406158
7.800000 3.920000 -1.920000 3.398084 -1.345307 13.356824
7.800000 3.920000 -1.880000 23.230700 -4.840591 563.096741
7.800000 3.920000 -1.840000 38.299500 11.129007 1590.706543
7.800000 3.920000 -1.800000 34.078918 34.815659 2373.502930
7.800000 3.960000 -2.200000 25.938530 -7.827929 734.083801
7.800000 3.960000 -2.160000 37.110374 5.740386 1410.131958
7.800000 3.960000 -2.120000 37.141235 25.896442 2050.097168
7.800000 3.960000 -2.080000 22.267290 42.298637 2285.006836
7.800000 3.960000 -2.040000 -0.905103 43.147388 1862.516357
7.800000 3.960000 -2.000000 -16.704533 25.844378 946.973267
7.800000 3.960000 -1.960000 -12.021274 2.734273 151.987259
7.800000 3.960000 -1.920000 10.776709 -6.471409 158.016586
7.800000 3.960000 -1.880000 32.998447 8.618333 1163.173218
7.800000 3.960000 -1.840000 34.240829 38.375916 2645.145508
7.800000 3.960000 -1.800000 10.316274 59.903378 3694.840088
7.800000 4.000000 -2.200000 22.052479 5.174880 513.091187
7.800000 4.000000 -2.160000 23.087080 21.205729 982.696167
7.800000 4.000000 -2.120000 11.843091 35.330193 1388.481323
7.800000 4.000000 -2.080000 -7.635410 37.528431 1466.682617
7.800000 4.000000 -2.040000 -22.902952 23.716335 1087.009766
7.800000 4.000000 -2.000000 -21.193233 2.389097 454.860931
7.800000 4.000000 -1.960000 -1.434544 -9.029873 83.596519
7.800000 4.000000 -1.920000 21.541391 1.959651 467.871796
7.800000 4.000000 -1.880000 27.236038 30.493387 1671.648438
7.800000 4.000000 -1.840000 6.820326 56.041477 3187.164062
7.800000 4.000000 -1.800000 -28.197258 58.603432 4229.447754
7.800000 4.040000 -2.200000 10.601016 12.832277 277.048889
7.800000 4.040000 -2.160000 1.815105 22.065945 490.200531
7.800000 4.040000 -2.120000 -11.967070 21.950224 625.023071
7.800000 4.040000 -2.080000 -21.579800 10.694892 580.068481
7.800000 4.040000 -2.040000 -18.487469 -4.971155 366.498871
7.800000 4.040000 -2.000000 -2.444921 -12.523893 162.825546
7.800000 4.040000 -1.960000 15.617109 -2.856762 252.055191
7.800000 4.040000 -1.920000 20.157475 20.835932 840.459839
7.800000 4.040000 -1.880000 3.277498 43.181038 1875.343994
7.800000 4.040000 -1.840000 -27.675636 47.395409 3012.265625
7.800000 4.040000 -1.800000 -54.613384 28.344221 3786.016602
7.800000 4.080000 -2.200000 -4.166008 11.619221 152.361908
7.800000 4.080000 -2.160000 -14.452826 7.410429 263.798645
7.800000 4.080000 -2.120000 -17.656864 -4.904949 335.823395
7.800000 4.080000 -2.080000 -8.901006 -16.541759 352.857727
7.800000 4.080000 -2.040000 7.720057 -17.306953 359.129913
7.800000 4.080000 -2.000000 20.835732 -3.537127 446.638977
7.800000 4.080000 -1.960000 19.528944 18.052395 707.268616
7.800000 4.080000 -1.920000 1.497643 34.174534 1170.141724
7.800000 4.080000 -1.880000 -24.774811 33.925518 1764.732056
7.800000 4.080000 -1.840000 -45.608978 16.040775 2337.485352
7.800000 4.080000 -1.800000 -51.021832 -10.856497 2721.090820
7.800000 4.120000 -2.200000 -16.185019 0.459879 262.166321
7.800000 4.120000 -2.160000 -16.510204 -14.924369 495.323639
7.800000 4.120000 -2.120000 -2.166121 -27.141697 741.363770
7.800000 4.120000 -2.080000 19.430889 -23.914585 949.466858
7.800000 4.120000 -2.040000 32.799507 -3.724964 1089.682983
7.800000 4.120000 -2.000000 26.683060 21.486637 1173.661255
7.800000 4.120000 -1.960000 3.439766 35.149239 1247.301025
7.800000 4.120000 -1.920000 -22.903324 28.721340 1349.477661
7.800000 4.120000 -1.880000 -37.744236 7.100635 1475.046387
7.800000 4.120000 -1.840000 -35.900913 -17.041054 1579.273193
7.800000 4.120000 -1.800000 -22.408573 -33.536705 1626.854736
7.800000 4.160000 -2.200000 -18.905319 -17.333813 657.872192
7.800000 4.160000 -2.160000 -3.356769 -33.188713 1112.758667
7.800000 4.160000 -2.120000 23.249065 -31.884890 1557.165283
7.800000 4.160000 -2.080000 42.247169 -8.787314 1862.040283
7.800000 4.160000 -2.040000 37.650970 22.729134 1934.209106
7.800000 4.160000 -2.000000 10.683479 40.858013 1783.513916
7.800000 4.160000 -1.960000 -20.370796 33.328888 1525.784180
7.800000 4.160000 -1.920000 -35.311779 7.030089 1296.343872
7.800000 4.160000 -1.880000 -27.924376 -19.255749 1150.554688
7.800000 4.160000 -1.840000 -8.181573 -31.265110 1044.445190
7.800000 4.160000 -1.800000 9.529807 -28.837723 922.431458
7.800000 4.200000 -2.200000 -9.364439 -33.754913 1227.086914
7.800000 4.200000 -2.160000 17.716431 -38.713203 1812.584106
7.800000 4.200000 -2.120000 43.187920 -19.573822 2248.331055
7.800000 4.200000 -2.080000 46.644459 14.813286 2395.138916
7.800000 4.200000 -2.040000 22.798386 41.135170 2211.868652
7.800000 4.200000 -2.000000 -12.133603 40.603344 1795.855957
7.800000 4.200000 -1.960000 -33.346207 15.088031 1339.618164
7.800000 4.200000 -1.920000 -28.100315 -15.005772 1014.800903
7.800000 4.200000 -1.880000 -4.802146 -28.939384 860.548584
7.800000 4.200000 -1.840000 17.079971 -22.134180 781.647339
7.800000 4.200000 -1.800000 24.995825 -6.141708 662.511841
7.840000 3.800000 -2.200000 -2.235107 4.343255 23.859570
7.840000 3.800000 -2.160000 -5.670311 1.304878 33.855133
7.840000 3.800000 -2.120000 -8.321939 -4.430756 88.886261
7.840000 3.800000 -2.080000 -6.995881 -13.210484 223.459229
7.840000 3.800000 -2.040000 1.660564 -20.886391 438.998779
7.840000 3.800000 -2.000000 15.487173 -20.395695 655.836914
7.840000 3.800000 -1.960000 25.731159 -8.949995 742.194946
7.840000 3.800000 -1.920000 23.946573 6.977612 622.125427
7.840000 3.800000 -1.880000 10.720090 15.777810 363.859619
7.840000 3.800000 -1.840000 -3.629927 11.181395 138.199951
7.840000 3.800000 -1.800000 -8.263355 -1.639498 70.970993
7.840000 3.840000 -2.200000 0.524213 -3.414411 11.932999
7.840000 3.840000 -2.160000 5.629144 -9.486939 121.689285
7.840000 3.840000 -2.120000 14.996768 -10.392281 332.902527
7.840000 3.840000 -2.080000 23.450663 -4.011131 566.022766
7.840000 3.840000 -2.040000 25.555700 7.191025 704.804626
7.840000 3.840000 -2.000000 19.251566 17.142668 664.493896
7.840000 3.840000 -1.960000 7.839476 19.848913 455.436737
7.840000 3.840000 -1.920000 -1.644396 13.772533 192.386719
7.840000 3.840000 -1.880000 -3.341661 3.495361 23.384253
7.840000 3.840000 -1.840000 2.705711 -3.463457 19.316410
7.840000 3.840000 -1.800000 10.397570 -2.809143 116.000732
7.840000 3.880000 -2.200000 6.938959 -6.127108 85.690598
7.840000 3.880000 -2.160000 21.837564 -6.231596 515.711975
7.840000 3.880000 -2.120000 34.573795 8.209862 1262.749146
7.840000 3.880000 -2.080000 32.166317 31.114429 2002.779785
7.840000 3.880000 -2.040000 11.538666 46.617573 2306.338867
7.840000 3.880000 -2.000000 -15.346750 41.641960 1969.575562
7.840000 3.880000 -1.960000 -29.690159 18.044876 1207.123047
7.840000 3.880000 -1.920000 -21.372963 -7.381819 511.294800
7.840000 3.880000 -1.880000 1.985580 -16.347446 271.181549
7.840000 3.880000 -1.840000 21.324436 -4.398680 474.079956
7.840000 3.880000 -1.800000 22.534527 15.781502 756.860718
7.840000 3.920000 -2.200000 12.406129 -3.413608 165.564758
7.840000 3.920000 -2.160000 29.214325 9.946622 952.412109
7.840000 3.920000 -2.120000 29.828194 38.156143 2345.612305
7.840000 3.920000 -2.080000 4.507820 61.439137 3795.088135
7.840000 3.920000 -2.040000 -34.593250 57.649368 4520.142578
7.840000 3.920000 -2.000000 -59.607849 23.425966 4101.871582
7.840000 3.920000 -1.960000 -49.985401 -19.055840 2861.665283
7.840000 3.920000 -1.920000 -11.848169 -38.790802 1645.105469
7.840000 3.920000 -1.880000 25.617332 -22.356764 1156.072632
7.840000 3.920000 -1.840000 34.808544 14.427759 1419.795044
7.840000 3.920000 -1.800000 12.968060 40.948387 1844.940918
7.840000 3.960000 -2.200000 13.687401 2.436438 193.281174
7.840000 3.960000 -2.160000 20.104553 27.040661 1135.390381
7.840000 3.960000 -2.120000 0.191124 53.823723 2897.029785
7.840000 3.960000 -2.080000 -40.708328 56.637802 4865.008789
7.840000 3.960000 -2.040000 -74.305893 23.321602 6065.262695
7.840000 3.960000 -2.000000 -71.219124 -28.252384 5870.360840
7.840000 3.960000 -1.960000 -28.533588 -60.957264 4529.953613
7.840000 3.960000 -1.920000 23.969158 -49.411358 3016.002686
7.840000 3.960000 -1.880000 47.473606 -3.031946 2262.935791
7.840000 3.960000 -1.840000 27.085775 41.453552 2452.036133
7.840000 3.960000 -1.800000 -16.592491 51.798615 2958.407227
7.840000 4.000000 -2.200000 9.465451 7.836800 151.010193
7.840000 4.000000 -2.160000 -0.654580 31.273918 978.486450
7.840000 4.000000 -2.120000 -33.037865 39.626648 2661.771729
7.840000 4.000000 -2.080000 -66.734650 15.566708 4695.835938
7.840000 4.000000 -2.040000 -71.375824 -32.531662 6152.817383
7.840000 4.000000 -2.000000 -34.807655 -71.456757 6317.640625
7.840000 4.000000 -1.960000 21.475330 -69.297821 5263.377930
7.840000 4.000000 -1.920000 56.880093 -24.456482 3833.464355
7.840000 4.000000 -1.880000 45.446148 30.506084 2995.973633
7.840000 4.000000 -1.840000 -1.982677 55.599140 3095.195312
7.840000 4.000000 -1.800000 -48.035622 36.582275 3645.683594
7.840000 4.040000 -2.200000 0.828644 8.610206 74.822296
7.840000 4.040000 -2.160000 -19.108982 17.643232 676.436890
7.840000 4.040000 -2.120000 -44.553761 3.787877 1999.385620
7.840000 4.040000 -2.080000 -51.745800 -31.931133 3697.225098
7.840000 4.040000 -2.040000 -25.609999 -66.288101 5049.984375
7.840000 4.040000 -2.000000 22.642452 -70.100563 5426.769531
7.840000 4.040000 -1.960000 60.017090 -34.236984 4774.222168
7.840000 4.040000 -1.920000 57.724224 19.091087 3696.555664
7.840000 4.040000 -1.880000 16.107588 52.421753 3007.494629
7.840000 4.040000 -1.840000 -34.878136 43.422024 3101.956543
7.840000 4.040000 -1.800000 -60.604202 2.075528 3677.177246
7.840000 4.080000 -2.200000 -7.874368 1.658985 64.757904
7.840000 4.080000 -2.160000 -22.468533 -6.384714 545.599548
7.840000 4.080000 -2.120000 -26.056427 -28.952911 1517.208496
7.840000 4.080000 -2.080000 -7.430328 -51.648285 2722.755127
7.840000 4.080000 -2.040000 27.729610 -53.909645 3675.181152
7.840000 4.080000 -2.000000 56.938843 -26.748039 3957.489258
7.840000 4.080000 -1.960000 57.209370 16.350302 3540.244141
7.840000 4.080000 -1.920000 24.617155 47.240128 2837.634033
7.840000 4.080000 -1.880000 -20.719826 44.597191 2418.220703
7.840000 4.080000 -1.840000 -49.673443 10.620239 2580.240479
7.840000 4.080000 -1.800000 -46.218323 -31.692547 3140.550781
7.840000 4.120000 -2.200000 -10.116856 -11.977595 245.813553
7.840000 4.120000 -2.160000 -8.068787 -26.540556 769.506470
7.840000 4.120000 -2.120000 8.457822 -38.117371 1524.468750
7.840000 4.120000 -2.080000 33.412052 -33.941566 2268.395020
7.840000 4.120000 -2.040000 51.021217 -10.237383 2707.968506
7.840000 4.120000 -2.000000 46.831276 22.112471 2682.129883
7.840000 4.120000 -1.960000 19.728294 43.585106 2288.867188
7.840000 4.120000 -1.920000 -15.638482 39.942055 1839.929932
7.840000 4.120000 -1.880000 -38.693253 12.756031 1659.884155
7.840000 4.120000 -1.840000 -37.205582 -22.092480 1872.332886
7.840000 4.120000 -1.800000 -14.364164 -46.164238 2337.466309
7.840000 4.160000 -2.200000 -1.549077 -25.666306 661.158875
7.840000 4.160000 -2.160000 15.532146 -31.829838 1254.386108
7.840000 4.160000 -2.120000 36.285164 -22.477856 1821.867188
7.840000 4.160000 -2.080000 46.369556 1.823692 2153.461670
7.840000 4.160000 -2.040000 36.319851 28.563463 2135.002930
7.840000 4.160000 -2.000000 9.764114 41.573944 1823.730713
7.840000 4.160000 -1.960000 -18.464207 32.843758 1419.639404
7.840000 4.160000 -1.920000 -32.870007 7.943871 1143.542480
7.840000 4.160000 -1.880000 -27.436665 -18.942337 1111.582764
7.840000 4.160000 -1.840000 -7.574668 -35.187553 1295.539551
7.840000 4.160000 -1.800000 16.010082 -36.404083 1581.580078
7.840000 4.200000 -2.200000 15.284522 -30.698866 1176.036987
7.840000 4.200000 -2.160000 35.321060 -21.357487 1703.719482
7.840000 4.200000 -2.120000 44.412537 2.758301 1980.081665
7.840000 4.200000 -2.080000 33.195942 28.440269 1910.819580
7.840000 4.200000 -2.040000 6.460127 39.149879 1574.446289
7.840000 4.200000 -2.000000 -19.566973 28.020723 1168.027344
7.840000 4.200000 -1.960000 -29.553776 3.069121 882.845154
7.840000 4.200000 -1.920000 -20.056059 -19.848078 796.191650
7.840000 4.200000 -1.880000 0.126285 -29.270199 856.760498
7.840000 4.200000 -1.840000 18.944420 -24.529455 960.585205
7.840000 4.200000 -1.800000 29.913021 -12.208143 1043.827637
7.880000 3.800000 -2.200000 -1.125931 25.880100 671.047302
7.880000 3.800000 -2.160000 -15.107428 17.873571 547.698975
7.880000 3.800000 -2.120000 -19.211971 1.088814 370.285370
7.880000 3.800000 -2.080000 -9.300703 -13.815662 277.375610
7.880000 3.800000 -2.040000 8.421329 -16.168869 332.351105
7.880000 3.800000 -2.000000 21.030449 -4.323320 460.970886
7.880000 3.800000 -1.960000 19.241982 12.024868 514.851318
7.880000 3.800000 -1.920000 5.540292 19.546177 412.747864
7.880000 3.800000 -1.880000 -7.861763 12.736353 224.022003
7.880000 3.800000 -1.840000 -9.950908 -1.601704 101.586014
7.880000 3.800000 -1.800000 -0.442843 -11.253622 126.840126
7.880000 3.840000 -2.200000 -9.766018 18.112906 423.452454
7.880000 3.840000 -2.160000 -7.522308 7.534098 113.347748
7.880000 3.840000 -2.120000 2.550838 5.392593 35.586838
7.880000 3.840000 -2.080000 9.103958 14.561703 294.925232
7.880000 3.840000 -2.040000 3.363754 26.693027 723.832520
7.880000 3.840000 -2.000000 -12.288826 29.388878 1014.721375
7.880000 3.840000 -1.960000 -25.755230 17.608810 973.402039
7.880000 3.840000 -1.920000 -25.772133 -1.307804 665.913147
7.880000 3.840000 -1.880000 -12.002073 -13.854871 336.007202
7.880000 3.840000 -1.840000 4.850016 -12.279409 174.306549
7.880000 3.840000 -1.800000 12.953703 -0.991552 168.781586
7.880000 3.880000 -2.200000 -11.717233 7.731149 197.064209
7.880000 3.880000 -2.160000 2.776103 10.339090 114.603539
7.880000 3.880000 -2.120000 7.161575 30.202824 963.498718
7.880000 3.880000 -2.080000 -12.006802 49.926968 2636.865479
7.880000 3.880000 -2.040000 -46.132324 46.746513 4313.427734
7.880000 3.880000 -2.000000 -69.324692 14.917824 5028.454590
7.880000 3.880000 -1.960000 -60.978600 -26.261435 4408.052734
7.880000 3.880000 -1.920000 -25.190311 -47.908150 2929.742676
7.880000 3.880000 -1.880000 12.037444 -36.668343 1489.467407
7.880000 3.880000 -1.840000 25.599703 -5.811108 689.113770
7.880000 3.880000 -1.800000 12.538052 18.010349 481.575439
7.880000 3.920000 -2.200000 -7.610283 -0.052235 57.919132
7.880000 3.920000 -2.160000 2.715389 21.623882 474.965637
7.880000 3.920000 -2.120000 -16.942200 49.804520 2767.528320
7.880000 3.920000 -2.080000 -62.551674 51.572269 6572.411133
7.880000 3.920000 -2.040000 -100.376404 10.827160 10192.650391
7.880000 3.920000 -2.000000 -95.030991 -51.540150 11687.276367
7.880000 3.920000 -1.960000 -43.181259 -91.806366 10293.030273
7.880000 3.920000 -1.920000 20.354469 -80.973717 6971.046875
7.880000 3.920000 -1.880000 51.763000 -30.549969 3612.708740
7.880000 3.920000 -1.840000 35.684334 18.383537 1611.326172
7.880000 3.920000 -1.800000 -4.217022 32.065567 1045.983887
7.880000 3.960000 -2.200000 -1.834843 -2.404347 9.147534
7.880000 3.960000 -2.160000 -10.544453 27.562220 870.861450
7.880000 3.960000 -2.120000 -53.089539 39.717491 4395.978027
7.880000 3.960000 -2.080000 -100.205978 5.728775 10074.057617
7.880000 3.960000 -2.040000 -106.800095 -64.127853 15518.640625
7.880000 3.960000 -2.000000 -54.127266 -122.384583 17907.748047
7.880000 3.960000 -1.960000 27.933355 -123.393845 16006.313477
7.880000 3.960000 -1.920000 83.015259 -64.701752 11077.849609
7.880000 3.960000 -1.880000 76.167084 9.390556 5889.607422
7.880000 3.960000 -1.840000 22.640707 46.443695 2669.618408
7.880000 3.960000 -1.800000 -29.046438 30.069502 1747.870483
7.880000 4.000000 -2.200000 0.855700 -1.266165 2.335395
7.880000 4.000000 -2.160000 -26.520332 18.084974 1030.394287
7.880000 4.000000 -2.120000 -70.526237 0.658983 4974.384277
7.880000 4.000000 -2.080000 -88.833862 -58.607433 11326.286133
7.880000 4.000000 -2.040000 -49.910912 -122.614204 17525.341797
7.880000 4.000000 -2.000000 32.386738 -139.224838 20432.455078
7.880000 4.000000 -1.960000 103.908844 -88.000244 18541.089844
7.880000 4.000000 -1.920000 114.488182 -1.914080 13111.208008
7.880000 4.000000 -1.880000 61.149651 58.915260 7210.287598
7.880000 4.000000 -1.840000 -10.623832 57.930359 3468.792236
7.880000 4.000000 -1.800000 -48.192238 9.969717 2421.886963
7.880000 4.040000 -2.200000 -0.255301 -1.741689 3.098659
7.880000 4.040000 -2.160000 -30.568913 -3.634910 947.671021
7.880000 4.040000 -2.120000 -52.258621 -41.100742 4420.234375
7.880000 4.040000 -2.080000 -32.095375 -94.637878 9986.441406
7.880000 4.040000 -2.040000 32.692497 -119.972092 15462.101562
7.880000 4.040000 -2.000000 103.499496 -86.135147 18131.410156
7.880000 4.040000 -1.960000 128.785065 -7.225839 16637.806641
7.880000 4.040000 -1.920000 88.423080 64.765930 12013.266602
7.880000 4.040000 -1.880000 12.314042 82.263519 6918.922363
7.880000 4.040000 -1.840000 -45.019234 40.994362 3707.269043
7.880000 4.040000 -1.800000 -50.015858 -20.178673 2908.764648
7.880000 4.080000 -2.200000 -0.707184 -6.992064 49.389076
7.880000 4.080000 -2.160000 -16.629545 -23.595722 833.299927
7.880000 4.080000 -2.120000 -9.787680 -56.876244 3330.705566
7.880000 4.080000 -2.080000 30.358700 -79.027542 7167.002930
7.880000 4.080000 -2.040000 84.086571 -61.475288 10849.762695
7.880000 4.080000 -2.000000 112.185654 -3.427904 12597.372070
7.880000 4.080000 -1.960000 88.414848 61.277214 11572.082031
7.880000 4.080000 -1.920000 24.441042 89.044334 8526.257812
7.880000 4.080000 -1.880000 -37.351734 62.229477 5267.660156
7.880000 4.080000 -1.840000 -57.853603 3.137840 3356.885254
7.880000 4.080000 -1.800000 -31.205545 -46.133949 3102.127441
7.880000 4.120000 -2.200000 4.993401 -14.244871 227.850403
7.880000 4.120000 -2.160000 7.843301 -28.589657 878.885864
7.880000 4.120000 -2.120000 28.314590 -39.508270 2362.619385
7.880000 4.120000 -2.080000 58.949814 -29.659840 4354.786621
7.880000 4.120000 -2.040000 77.671631 5.960011 6068.403809
7.880000 4.120000 -2.000000 64.468140 50.524082 6708.824219
7.880000 4.120000 -1.960000 20.332108 74.950752 6031.009766
7.880000 4.120000 -1.920000 -29.751480 60.545113 4550.861328
7.880000 4.120000 -1.880000 -54.504200 15.073142 3197.907471
7.880000 4.120000 -1.840000 -40.073761 -32.576500 2667.134766
7.880000 4.120000 -1.800000 0.799928 -54.585270 2980.191650
7.880000 4.160000 -2.200000 17.295420 -16.412176 568.491089
7.880000 4.160000 -2.160000 28.388771 -16.369099 1073.869629
7.880000 4.160000 -2.120000 41.322487 -6.239825 1746.483398
7.880000 4.160000 -2.080000 46.379211 14.794941 2369.921631
7.880000 4.160000 -2.040000 34.916286 38.386383 2692.661621
7.880000 4.160000 -2.000000 7.494415 50.335651 2589.843994
7.880000 4.160000 -1.960000 -23.505524 40.277916 2174.820312
7.880000 4.160000 -1.920000 -40.557018 10.477718 1754.654297
7.880000 4.160000 -1.880000 -32.798752 -23.928617 1648.336914
7.880000 4.160000 -1.840000 -3.799949 -44.350498 1981.406250
7.880000 4.160000 -1.800000 30.867197 -40.684635 2608.023438
7.880000 4.200000 -2.200000 29.709810 -8.682505 958.058716
7.880000 4.200000 -2.160000 34.908962 3.920973 1234.009644
7.880000 4.200000 -2.120000 30.796799 19.383799 1324.174438
7.880000 4.200000 -2.080000 16.833450 30.234745 1197.504883
7.880000 4.200000 -2.040000 -1.939028 30.352098 925.009705
7.880000 4.200000 -2.000000 -17.410120 18.516613 645.977234
7.880000 4.200000 -1.960000 -22.493975 -0.893917 506.778015
7.880000 4.200000 -1.920000 -14.362435 -19.988026 605.800720
7.880000 4.200000 -1.880000 4.457473 -30.697906 962.230530
7.880000 4.200000 -1.840000 26.997776 -27.923874 1508.622559
7.880000 4.200000 -1.800000 44.338833 -11.730355 2103.533447
7.920000 3.800000 -2.200000 -21.450006 42.689827 2282.524170
7.920000 3.800000 -2.160000 -38.480824 21.288620 1933.979126
7.920000 3.800000 -2.120000 -34.538994 -5.259161 1220.600952
7.920000 3.800000 -2.080000 -13.689049 -18.809792 541.198303
7.920000 3.800000 -2.040000 6.997627 -11.973867 192.340286
7.920000 3.800000 -2.000000 12.032782 5.672363 176.963531
7.920000 3.800000 -1.960000 0.813004 16.598999 276.187744
7.920000 3.800000 -1.920000 -12.872356 11.318848 293.813873
7.920000 3.800000 -1.880000 -14.500687 -3.749417 224.328049
7.920000 3.800000 -1.840000 -2.210842 -13.755903 194.112686
7.920000 3.800000 -1.800000 12.922068 -10.157556 270.155762
7.920000 3.840000 -2.200000 -37.344490 23.690586 1955.854858
7.920000 3.840000 -2.160000 -32.987316 7.288179 1141.280640
7.920000 3.840000 -2.120000 -21.743710 4.104838 489.638611
7.920000 3.840000 -2.080000 -18.618958 11.814064 486.237701
7.920000 3.840000 -2.040000 -28.687241 16.276440 1087.880249
7.920000 3.840000 -2.000000 -41.747429 6.086853 1779.897583
7.920000 3.840000 -1.960000 -42.220695 -15.393684 2019.552734
7.920000 3.840000 -1.920000 -24.681595 -32.460197 1662.845581
7.920000 3.840000 -1.880000 0.307238 -31.773113 1009.625122
7.920000 3.840000 -1.840000 15.879612 -14.850075 472.686798
7.920000 3.840000 -1.800000 14.407157 3.885357 222.662170
7.920000 3.880000 -2.200000 -37.272659 0.069256 1389.255859
7.920000 3.880000 -2.160000 -25.365961 4.680285 665.337097
7.920000 3.880000 -2.120000 -31.970881 20.522881 1443.325806
7.920000 3.880000 -2.080000 -59.625286 22.063828 4041.987305
7.920000 3.880000 -2.040000 -85.151947 -6.804741 7297.158691
7.920000 3.880000 -2.000000 -80.240379 -53.597778 9311.240234
7.920000 3.880000 -1.960000 -39.452587 -85.542480 8874.022461
7.920000 3.880000 -1.920000 12.265244 -78.693222 6343.059082
7.920000 3.880000 -1.880000 40.838032 -39.828590 3254.061523
7.920000 3.880000 -1.840000 32.814323 0.168282 1076.808105
7.920000 3.880000 -1.800000 5.163908 14.656938 241.491760
7.920000 3.920000 -2.200000 -23.835537 -16.064932 826.214844
7.920000 3.920000 -2.160000 -25.816517 6.726757 711.741821
7.920000 3.920000 -2.120000 -60.497967 16.731693 3939.953369
7.920000 3.920000 -2.080000 -101.304474 -15.679466 10508.442383
7.920000 3.920000 -2.040000 -104.324768 -82.190590 17638.949219
7.920000 3.920000 -2.000000 -50.865730 -137.350327 21452.433594
7.920000 3.920000 -1.960000 30.357273 -137.310776 19775.814453
7.920000 3.920000 -1.920000 85.385963 -80.222618 13726.431641
7.920000 3.920000 -1.880000 81.691132 -8.727495 6749.609863
7.920000 3.920000 -1.840000 34.839828 28.182549 2008.069580
7.920000 3.920000 -1.800000 -9.480403 16.937618 376.760925
7.920000 3.960000 -2.200000 -7.073126 -19.533119 431.571869
7.920000 3.960000 -2.160000 -32.481731 1.875471 1058.580200
7.920000 3.960000 -2.120000 -79.393982 -17.055347 6594.289062
7.920000 3.960000 -2.080000 -98.208786 -84.315125 16754.005859
7.920000 3.960000 -2.040000 -51.441692 -157.297424 27388.728516
7.920000 3.960000 -2.000000 44.956375 -175.689453 32887.859375
7.920000 3.960000 -1.960000 128.683487 -116.633980 30162.925781
7.920000 3.960000 -1.920000 143.465134 -18.530762 20925.632812
7.920000 3.960000 -1.880000 87.725395 51.202332 10317.423828
7.920000 3.960000 -1.840000 13.136337 54.145565 3104.305664
7.920000 3.960000 -1.800000 -24.082348 9.551989 671.199951
7.920000 4.000000 -2.200000 4.217999 -14.482882 227.545380
7.920000 4.000000 -2.160000 -33.821686 -13.050432 1314.220215
7.920000 4.000000 -2.120000 -64.356277 -60.871292 7847.044922
7.920000 4.000000 -2.080000 -39.273174 -133.699921 19418.050781
7.920000 4.000000 -2.040000 47.889458 -170.718765 31438.296875
7.920000 4.000000 -2.000000 145.785828 -128.272842 37707.429688
7.920000 4.000000 -1.960000 184.863358 -24.113447 34755.917969
7.920000 4.000000 -1.920000 138.041916 73.147751 24406.164062
7.920000 4.000000 -1.880000 44.579990 101.875916 12366.078125
7.920000 4.000000 -1.840000 -25.817932 58.210300 4055.004639
7.920000 4.000000 -1.800000 -33.427402 -7.222745 1169.559326
7.920000 4.040000 -2.200000 8.853213 -8.679703 153.716629
7.920000 4.040000 -2.160000 -21.139170 -28.671049 1268.893555
7.920000 4.040000 -2.120000 -18.962713 -82.207985 7117.737305
7.920000 4.040000 -2.080000 39.461403 -125.502213 17308.007812
7.920000 4.040000 -2.040000 127.335960 -108.089745 27897.839844
7.920000 4.040000 -2.000000 181.766876 -22.595436 33549.753906
7.920000 4.040000 -1.960000 157.091431 80.849174 31214.304688
7.920000 4.040000 -1.920000 67.232262 133.603210 22369.996094
7.920000 4.040000 -1.880000 -24.569645 106.274460 11897.927734
7.920000 4.040000 -1.840000 -59.721218 31.159439 4537.534180
7.920000 4.040000 -1.800000 -30.889261 -30.348207 1875.160156
7.920000 4.080000 -2.200000 11.719191 -5.694149 169.762772
7.920000 4.080000 -2.160000 1.769211 -31.862774 1018.366516
7.920000 4.080000 -2.120000 27.815685 -65.540955 5069.329102
7.920000 4.080000 -2.080000 86.577621 -67.111252 11999.604492
7.920000 4.080000 -2.040000 137.713501 -14.415844 19172.824219
7.920000 4.080000 -2.000000 134.937012 69.718170 23068.621094
7.920000 4.080000 -1.960000 68.776062 130.210602 21684.947266
7.920000 4.080000 -1.920000 -20.528824 124.782700 15992.154297
7.920000 4.080000 -1.880000 -74.638542 60.177223 9192.209961
7.920000 4.080000 -1.840000 -64.751450 -14.527680 4403.803711
7.920000 4.080000 -1.800000 -11.467275 -50.482719 2680.003174
7.920000 4.120000 -2.200000 16.754702 -2.640605 287.692841
7.920000 4.120000 -2.160000 21.386215 -18.307030 792.517578
7.920000 4.120000 -2.120000 47.592300 -25.079350 2894.000977
7.920000 4.120000 -2.080000 79.650093 -2.343452 6349.628906
7.920000 4.120000 -2.040000 86.828629 47.911076 9834.681641
7.920000 4.120000 -2.000000 50.607655 95.540901 11689.198242
7.920000 4.120000 -1.960000 -14.350098 104.183929 11060.216797
7.920000 4.120000 -1.920000 -67.682480 62.751644 8518.686523
7.920000 4.120000 -1.880000 -74.918739 -3.000282 5621.818848
7.920000 4.120000 -1.840000 -35.029747 -50.523872 3779.744629
7.920000 4.120000 -1.800000 20.838800 -54.039436 3354.516357
7.920000 4.160000 -2.200000 22.026169 4.913205 509.291687
7.920000 4.160000 -2.160000 26.386047 3.562007 708.911377
7.920000 4.160000 -2.120000 35.896347 10.192913 1392.443237
7.920000 4.160000 -2.080000 39.611473 29.359436 2431.045410
7.920000 4.160000 -2.040000 25.051777 52.499168 3383.754150
7.920000 4.160000 -2.000000 -8.091358 61.068058 3794.777588
7.920000 4.160000 -1.960000 -42.685360 41.653549 3557.058105
7.920000 4.160000 -1.920000 -54.935421 0.009396 3017.900391
7.920000 4.160000 -1.880000 -33.443306 -40.032978 2721.093994
7.920000 4.160000 -1.840000 10.382349 -53.604137 2981.196777
7.920000 4.160000 -1.800000 50.323265 -33.411354 3648.749512
7.920000 4.200000 -2.200000 21.915346 16.588791 755.470398
7.920000 4.200000 -2.160000 16.806473 20.346254 696.427612
7.920000 4.200000 -2.120000 11.420437 22.443943 634.156982
7.920000 4.200000 -2.080000 4.968121 23.956512 598.596741
7.920000 4.200000 -2.040000 -4.397308 23.036310 550.007874
7.920000 4.200000 -2.000000 -15.110847 15.140629 457.576355
7.920000 4.200000 -1.960000 -20.102034 -1.791210 407.300201
7.920000 4.200000 -1.920000 -11.190542 -21.993004 608.920471
7.920000 4.200000 -1.880000 12.695992 -33.004036 1250.454590
7.920000 4.200000 -1.840000 41.361607 -24.298931 2301.220459
7.920000 4.200000 -1.800000 58.591431 3.386306 3444.422852
7.960000 3.800000 -2.200000 -50.970959 37.827530 4028.960449
7.960000 3.800000 -2.160000 -59.499672 3.879435 3555.260986
7.960000 3.800000 -2.120000 -42.203171 -24.580639 2385.315430
7.960000 3.800000 -2.080000 -13.501690 -30.563805 1116.441772
7.960000 3.800000 -2.040000 5.073864 -15.935799 279.693787
7.960000 3.800000 -2.000000 3.668583 1.422295 15.481422
7.960000 3.800000 -1.960000 -8.474205 4.946396 96.278976
7.960000 3.800000 -1.920000 -13.766373 -5.656724 221.511551
7.960000 3.800000 -1.880000 -4.072453 -16.088684 275.430634
7.960000 3.800000 -1.840000 12.292680 -13.148397 323.990326
7.960000 3.800000 -1.800000 20.473164 2.141898 423.738159
7.960000 3.840000 -2.200000 -62.293846 4.494171 3900.720703
7.960000 3.840000 -2.160000 -51.698811 -14.982786 2897.250977
7.960000 3.840000 -2.120000 -38.091866 -19.379442 1826.552979
7.960000 3.840000 -2.080000 -33.978741 -16.495911 1426.669922
7.960000 3.840000 -2.040000 -37.974792 -19.987091 1841.568604
7.960000 3.840000 -2.000000 -37.178242 -34.166542 2549.574219
7.960000 3.840000 -1.960000 -21.614563 -48.715538 2840.393066
7.960000 3.840000 -1.920000 4.098862 -48.831367 2401.303223
7.960000 3.840000 -1.880000 23.928345 -30.503016 1502.999634
7.960000 3.840000 -1.840000 25.449507 -5.324140 676.023804
7.960000 3.840000 -1.800000 11.488082 10.155466 235.109528
7.960000 3.880000 -2.200000 -49.364082 -27.051950 3168.620850
7.960000 3.880000 -2.160000 -40.598343 -23.473827 2199.246094
7.960000 3.880000 -2.120000 -50.644833 -19.942919 2962.619141
7.960000 3.880000 -2.080000 -67.770920 -37.784126 6020.537598
7.960000 3.880000 -2.040000 -65.041084 -76.117935 10024.283203
7.960000 3.880000 -2.000000 -28.266586 -108.441376 12558.532227
7.960000 3.880000 -1.960000 26.517891 -106.107666 11962.035156
7.960000 3.880000 -1.920000 64.812241 -66.060104 8564.564453
7.960000 3.880000 -1.880000 64.014862 -15.158680 4327.687988
7.960000 3.880000 -1.840000 32.933273 13.594050 1269.398682
7.960000 3.880000 -1.800000 1.790685 9.654395 96.413895
7.960000 3.920000 -2.200000 -21.866047 -41.433083 2194.824219
7.960000 3.920000 -2.160000 -33.280701 -27.628279 1870.926758
7.960000 3.920000 -2.120000 -63.331318 -42.529694 5819.630371
7.960000 3.920000 -2.080000 -72.340965 -94.662033 14194.115234
7.960000 3.920000 -2.040000 -29.496624 -150.174057 23422.298828
7.960000 3.920000 -2.000000 51.979248 -160.181290 28359.886719
7.960000 3.920000 -1.960000 120.825920 -106.981064 26043.851562
7.960000 3.920000 -1.920000 131.689850 -23.323677 17886.210938
7.960000 3.920000 -1.880000 85.048080 35.320366 8480.704102
7.960000 3.920000 -1.840000 24.526442 38.979774 2120.969238
7.960000 3.920000 -1.800000 -4.521510 5.563552 51.397163
7.960000 3.960000 -2.200000 4.119301 -36.366570 1339.495972
7.960000 3.960000 -2.160000 -26.632830 -34.168060 1876.763916
7.960000 3.960000 -2.120000 -51.635414 -78.771454 8871.158203
7.960000 3.960000 -2.080000 -23.085264 -146.816345 22087.968750
7.960000 3.960000 -2.040000 64.771721 -178.422058 36029.808594
7.960000 3.960000 -2.000000 160.472626 -131.986206 43171.820312
7.960000 3.960000 -1.960000 196.501892 -27.235062 39354.742188
7.960000 3.960000 -1.920000 149.275833 67.814682 26882.105469
7.960000 3.960000 -1.880000 59.827103 95.368179 12674.372070
7.960000 3.960000 -1.840000 -4.657486 55.800514 3135.389404
7.960000 3.960000 -1.800000 -10.054598 0.259572 101.162315
7.960000 4.000000 -2.200000 18.469765 -20.923944 778.943665
7.960000 4.000000 -2.160000 -13.589598 -41.034962 1868.545166
7.960000 4.000000 -2.120000 -9.990351 -100.432205 10186.434570
7.960000 4.000000 -2.080000 58.058323 -148.184174 25329.318359
7.960000 4.000000 -2.040000 159.118225 -125.903290 41170.250000
7.960000 4.000000 -2.000000 220.603073 -26.412575 49363.339844
7.960000 4.000000 -1.960000 191.979019 91.589294 45244.542969
7.960000 4.000000 -1.920000 91.904327 151.135681 31288.398438
7.960000 4.000000 -1.880000 -7.433413 122.906982 15161.381836
7.960000 4.000000 -1.840000 -43.852791 46.646252 4098.939941
7.960000 4.000000 -1.800000 -15.247757 -10.285103 338.277435
7.960000 4.040000 -2.200000 21.647121 -5.530859 499.188263
7.960000 4.040000 -2.160000 5.927031 -39.274788 1577.638550
7.960000 4.040000 -2.120000 39.196426 -86.030052 8937.529297
7.960000 4.040000 -2.080000 118.614334 -90.399292 22241.392578
7.960000 4.040000 -2.040000 189.251083 -21.115355 36261.832031
7.960000 4.040000 -2.000000 188.424561 91.077530 43798.933594
7.960000 4.040000 -1.960000 104.252083 172.703888 40695.128906
7.960000 4.040000 -1.920000 -9.329195 169.632492 28862.214844
7.960000 4.040000 -1.880000 -77.706284 93.473854 14775.627930
7.960000 4.040000 -1.840000 -68.399734 8.235125 4746.340820
7.960000 4.040000 -1.800000 -12.331480 -28.145229 944.219360
7.960000 4.080000 -2.200000 19.458237 5.775213 411.976074
7.960000 4.080000 -2.160000 22.202682 -23.873379 1062.897339
7.960000 4.080000 -2.120000 64.512787 -42.220882 5944.502930
7.960000 4.080000 -2.080000 121.445175 -11.417776 14879.295898
7.960000 4.080000 -2.040000 140.872131 67.881172 24452.810547
7.960000 4.080000 -2.000000 90.606865 147.260651 29895.302734
7.960000 4.080000 -1.960000 -7.035469 168.237305 28353.289062
7.960000 4.080000 -1.920000 -89.418221 113.665619 20915.492188
7.960000 4.080000 -1.880000 -105.599213 23.644218 11710.242188
7.960000 4.080000 -1.840000 -57.530060 -39.635323 4880.666504
7.960000 4.080000 -1.800000 7.278526 -43.953014 1984.844360
7.960000 4.120000 -2.200000 15.386205 14.575257 449.173401
7.960000 4.120000 -2.160000 24.487598 -1.138950 600.939636
7.960000 4.120000 -2.120000 53.530884 1.834976 2868.922607
7.960000 4.120000 -2.080000 75.488472 38.746475 7199.798828
7.960000 4.120000 -2.040000 58.435852 92.388008 11950.292969
7.960000 4.120000 -2.000000 -1.779541 121.749458 14826.097656
7.960000 4.120000 -1.960000 -71.132729 96.974091 14463.839844
7.960000 4.120000 -1.920000 -102.776398 28.268612 11362.102539
7.960000 4.120000 -1.880000 -76.278099 -39.968796 7415.853516
7.960000 4.120000 -1.840000 -14.146997 -65.440140 4482.549805
7.960000 4.120000 -1.800000 39.124146 -40.965904 3208.904053
7.960000 4.160000 -2.200000 8.628407 22.111752 563.378967
7.960000 4.160000 -2.160000 11.813602 15.744974 387.465393
7.960000 4.160000 -2.120000 21.987476 20.798027 916.007080
7.960000 4.160000 -2.080000 22.868042 40.511482 2164.127441
7.960000 4.160000 -2.040000 1.326271 59.928516 3593.186035
7.960000 4.160000 -2.000000 -36.101582 56.531914 4499.181641
7.960000 4.160000 -1.960000 -63.940392 21.836906 4565.224121
7.960000 4.160000 -1.920000 -57.982990 -26.944237 4088.019043
7.960000 4.160000 -1.880000 -17.201214 -58.175854 3680.311768
7.960000 4.160000 -1.840000 33.537350 -51.058109 3731.684082
7.960000 4.160000 -1.800000 63.004890 -11.969822 4112.893066
7.960000 4.200000 -2.200000 -1.719990 26.090025 683.647766
7.960000 4.200000 -2.160000 -5.705566 18.452278 373.040070
7.960000 4.200000 -2.120000 -3.400215 13.500441 193.823364
7.960000 4.200000 -2.080000 -1.653851 14.821009 222.397507
7.960000 4.200000 -2.040000 -7.020157 16.971075 337.299988
7.960000 4.200000 -2.000000 -16.791834 10.277943 387.601807
7.960000 4.200000 -1.960000 -19.033577 -7.830490 423.593628
7.960000 4.200000 -1.920000 -3.522491 -26.759666 728.487732
7.960000 4.200000 -1.880000 26.392178 -29.626156 1574.256104
7.960000 4.200000 -1.840000 53.312859 -8.054592 2907.137451
7.960000 4.200000 -1.800000 58.610172 28.894621 4270.051270
8.000000 3.800000 -2.200000 -68.412369 12.086217 4826.329102
8.000000 3.800000 -2.160000 -61.914509 -25.039104 4460.363281
8.000000 3.800000 -2.120000 -33.140385 -46.681458 3277.443604
8.000000 3.800000 -2.080000 -1.805387 -42.713646 1827.714966
8.000000 3.800000 -2.040000 13.121609 -22.694565 687.219910
8.000000 3.800000 -2.000000 9.082355 -6.071110 119.347557
8.000000 3.800000 -1.960000 -0.274239 -4.012715 16.177088
8.000000 3.800000 -1.920000 -0.290104 -10.643087 113.359467
8.000000 3.800000 -1.880000 10.128048 -11.561798 236.252533
8.000000 3.800000 -1.840000 19.021757 -0.008839 361.827332
8.000000 3.800000 -1.800000 15.277458 16.338825 500.357941
8.000000 3.840000 -2.200000 -65.687645 -28.027531 5100.409180
8.000000 3.840000 -2.160000 -48.009933 -45.988380 4419.884766
8.000000 3.840000 -2.120000 -29.892555 -50.295044 3423.156494
8.000000 3.840000 -2.080000 -18.668751 -48.925694 2742.245605
8.000000 3.840000 -2.040000 -10.995979 -50.024303 2623.342529
8.000000 3.840000 -2.000000 0.938232 -52.834789 2792.395264
8.000000 3.840000 -1.960000 18.722549 -48.987057 2750.265625
8.000000 3.840000 -1.920000 34.018280 -32.681171 2225.302246
8.000000 3.840000 -1.880000 36.042206 -8.849663 1377.357178
8.000000 3.840000 -1.840000 22.707729 9.635921 608.491943
8.000000 3.840000 -1.800000 3.706239 13.386773 192.941895
8.000000 3.880000 -2.200000 -37.577560 -55.796299 4525.299805
8.000000 3.880000 -2.160000 -29.130552 -55.676643 3948.477783
8.000000 3.880000 -2.120000 -30.560814 -62.518883 4842.573730
8.000000 3.880000 -2.080000 -24.826807 -83.592819 7604.129883
8.000000 3.880000 -2.040000 3.603569 -104.581512 10950.278320
8.000000 3.880000 -2.000000 48.957359 -101.705307 12740.792969
8.000000 3.880000 -1.960000 85.184036 -66.003967 11612.843750
8.000000 3.880000 -1.920000 88.359100 -14.999630 8032.319336
8.000000 3.880000 -1.880000 58.761070 20.863085 3888.131592
8.000000 3.880000 -1.840000 20.781904 24.394516 1026.979980
8.000000 3.880000 -1.800000 0.782390 5.191669 27.565556
8.000000 3.920000 -2.200000 -0.976579 -58.638981 3439.483643
8.000000 3.920000 -2.160000 -11.294737 -57.580067 3443.035156
8.000000 3.920000 -2.120000 -18.983343 -84.821457 7555.046875
8.000000 3.920000 -2.080000 8.097359 -125.119392 15720.429688
8.000000 3.920000 -2.040000 72.773071 -137.876465 24305.839844
8.000000 3.920000 -2.000000 138.263107 -96.153778 28362.236328
8.000000 3.920000 -1.960000 158.166626 -16.486496 25288.486328
8.000000 3.920000 -1.920000 118.763565 51.925671 16801.058594
8.000000 3.920000 -1.880000 51.982658 69.625381 7549.890625
8.000000 3.920000 -1.840000 6.136550 39.981377 1636.167725
8.000000 3.920000 -1.800000 3.422807 1.613316 14.318397
8.000000 3.960000 -2.200000 25.804243 -40.459808 2302.854980
8.000000 3.960000 -2.160000 5.815449 -54.676300 3023.317139
8.000000 3.960000 -2.120000 14.638517 -99.790405 10172.411133
8.000000 3.960000 -2.080000 75.617905 -132.623856 23307.156250
8.000000 3.960000 -2.040000 160.258331 -105.134186 36735.929688
8.000000 3.960000 -2.000000 206.820297 -14.642353 42989.035156
8.000000 3.960000 -1.960000 175.574539 86.266304 38268.292969
8.000000 3.960000 -1.920000 87.007729 133.248184 25325.421875
8.000000 3.960000 -1.880000 4.410896 106.148605 11286.982422
8.000000 3.960000 -1.840000 -22.412800 43.281059 2375.583740
8.000000 3.960000 -1.800000 2.539722 1.890783 10.025251
8.000000 4.000000 -2.200000 34.892471 -14.751968 1435.105103
8.000000 4.000000 -2.160000 22.609930 -44.911469 2528.249023
8.000000 4.000000 -2.120000 58.058258 -86.825119 10909.362305
8.000000 4.000000 -2.080000 137.046387 -85.206955 26041.937500
8.000000 4.000000 -2.040000 203.541702 -11.148048 41553.500000
8.000000 4.000000 -2.000000 196.813690 101.466652 49031.109375
8.000000 4.000000 -1.960000 109.609207 179.078766 44083.382812
8.000000 4.000000 -1.920000 -1.075470 172.139008 29632.994141
8.000000 4.000000 -1.880000 -63.196739 98.093513 13616.165039
8.000000 4.000000 -1.840000 -51.409710 22.168873 3134.417236
8.000000 4.000000 -1.800000 -2.341599 -3.461437 17.464630
8.000000 4.040000 -2.200000 29.581665 6.912981 922.864197
8.000000 4.040000 -2.160000 33.868904 -25.925602 1819.239502
8.000000 4.040000 -2.120000 84.021210 -44.754486 9062.527344
8.000000 4.040000 -2.080000 149.280975 -5.638702 22316.605469
8.000000 4.040000 -2.040000 168.586121 88.088272 36180.824219
8.000000 4.040000 -2.000000 107.533928 178.243713 43334.367188
8.000000 4.040000 -1.960000 -4.016647 199.277618 39727.703125
8.000000 4.040000 -1.920000 -93.616089 137.095200 27559.066406
8.000000 4.040000 -1.880000 -108.462585 41.623131 13496.618164
8.000000 4.040000 -1.840000 -58.416706 -19.070965 3776.213135
8.000000 4.040000 -1.800000 0.140619 -17.583239 309.190063
8.000000 4.080000 -2.200000 16.995731 20.230396 698.123779
8.000000 4.080000 -2.160000 31.879192 -2.423239 1022.154968
8.000000 4.080000 -2.120000 74.724663 3.133642 5593.595215
8.000000 4.080000 -2.080000 105.507622 56.910400 14370.652344
8.000000 4.080000 -2.040000 80.550186 131.958832 23901.464844
8.000000 4.080000 -2.000000 -2.110790 171.192413 29311.296875
8.000000 4.080000 -1.960000 -93.404572 137.767166 27704.207031
8.000000 4.080000 -1.920000 -132.819962 50.707291 20212.371094
8.000000 4.080000 -1.880000 -100.404770 -30.206976 10993.579102
8.000000 4.080000 -1.840000 -31.383221 -56.231037 4146.835938
8.000000 4.080000 -1.800000 19.128750 -28.194460 1160.836670
8.000000 4.120000 -2.200000 2.105137 25.474655 653.389648
8.000000 4.120000 -2.160000 15.538511 14.149904 441.665100
8.000000 4.120000 -2.120000 38.915703 28.315254 2316.185547
8.000000 4.120000 -2.080000 40.586761 69.041672 6414.037598
8.000000 4.120000 -2.040000 0.623032 105.642479 11160.720703
8.000000 4.120000 -2.000000 -64.277939 100.401207 14212.055664
8.000000 4.120000 -1.960000 -109.896698 44.892483 14092.619141
8.000000 4.120000 -1.920000 -101.877556 -28.257240 11177.507812
8.000000 4.120000 -1.880000 -46.281628 -71.476852 7250.929688
8.000000 4.120000 -1.840000 16.206783 -62.038662 4111.455566
8.000000 4.120000 -1.800000 46.115871 -18.006561 2450.909912
8.000000 4.160000 -2.200000 -12.167299 23.268187 689.451660
8.000000 4.160000 -2.160000 -5.590738 15.007767 256.489410
8.000000 4.160000 -2.120000 3.952576 21.721724 487.456146
8.000000 4.160000 -2.080000 -1.415771 39.151157 1534.817505
8.000000 4.160000 -2.040000 -27.380737 46.891598 2948.526855
8.000000 4.160000 -2.000000 -57.326588 27.235542 4028.112305
8.000000 4.160000 -1.960000 -64.381844 -15.181175 4375.490234
8.000000 4.160000 -1.920000 -35.848988 -53.477852 4145.030273
8.000000 4.160000 -1.880000 13.403229 -60.150028 3797.672363
8.000000 4.160000 -1.840000 52.131416 -30.376272 3640.402344
8.000000 4.160000 -1.800000 58.137348 14.740964 3597.247070
8.000000 4.200000 -2.200000 -22.368336 14.489975 710.301819
8.000000 4.200000 -2.160000 -18.296234 2.740427 342.262146
8.000000 4.200000 -2.120000 -9.043543 -0.639154 82.194183
8.000000 4.200000 -2.080000 -4.563919 3.763966 34.996796
8.000000 4.200000 -2.040000 -8.963518 6.329971 120.413193
8.000000 4.200000 -2.000000 -14.766288 -1.591728 220.576859
8.000000 4.200000 -1.960000 -9.311562 -17.051121 377.445892
8.000000 4.200000 -1.920000 11.927334 -25.791786 807.477539
8.000000 4.200000 -1.880000 38.342072 -14.567651 1682.330933
8.000000 4.200000 -1.840000 51.299751 15.759577 2880.028809
8.000000 4.200000 -1.800000 39.462471 49.099777 3968.074707
8.040000 3.800000 -2.200000 -62.601139 -16.744843 4199.292480
8.040000 3.800000 -2.160000 -43.874634 -46.726204 4108.321777
8.040000 3.800000 -2.120000 -10.238016 -57.148087 3370.720703
8.040000 3.800000 -2.080000 19.264900 -43.755203 2285.654297
8.040000 3.800000 -2.040000 29.918694 -18.705120 1245.009766
8.040000 3.800000 -2.000000 22.720695 0.285685 516.311584
8.040000 3.800000 -1.960000 11.223461 5.142742 152.413879
8.040000 3.800000 -1.920000 7.339621 2.402149 59.640350
8.040000 3.800000 -1.880000 10.517782 3.759661 124.758789
8.040000 3.800000 -1.840000 10.726448 12.776138 278.286377
8.040000 3.800000 -1.800000 1.045343 21.557350 465.812103
8.040000 3.840000 -2.200000 -45.961540 -52.154160 4832.519531
8.040000 3.840000 -2.160000 -23.513100 -65.005043 4778.521484
8.040000 3.840000 -2.120000 -0.129477 -65.473183 4286.754395
8.040000 3.840000 -2.080000 18.381618 -57.162323 3605.415039
8.040000 3.840000 -2.040000 30.735210 -44.729729 2945.401855
8.040000 3.840000 -2.000000 38.044029 -30.462093 2375.287354
8.040000 3.840000 -1.960000 40.350697 -14.629135 1842.190308
8.040000 3.840000 -1.920000 35.883968 1.400459 1289.620483
8.040000 3.840000 -1.880000 23.911291 13.401163 751.341003
8.040000 3.840000 -1.840000 7.901077 16.586655 337.544159
8.040000 3.840000 -1.800000 -5.199354 10.135408 129.759781
8.040000 3.880000 -2.200000 -9.943534 -67.601593 4668.849609
8.040000 3.880000 -2.160000 2.176275 -69.605576 4849.672363
8.040000 3.880000 -2.120000 14.675295 -75.221306 5873.608887
8.040000 3.880000 -2.080000 36.706974 -79.761879 7709.359375
8.040000 3.880000 -2.040000 66.960144 -70.088730 9396.091797
8.040000 3.880000 -2.000000 90.301117 -39.320724 9700.411133
8.040000 3.880000 -1.960000 89.878326 2.498528 8084.356445
8.040000 3.880000 -1.920000 63.413940 33.841911 5166.602539
8.040000 3.880000 -1.880000 27.196272 39.188316 2275.361328
8.040000 3.880000 -1.840000 3.124226 22.013136 494.338928
8.040000 3.880000 -1.800000 0.793872 0.845436 1.344994
8.040000 3.920000 -2.200000 25.794001 -56.759644 3886.987793
8.040000 3.920000 -2.160000 25.815586 -61.921486 4500.714844
8.040000 3.920000 -2.120000 40.659008 -79.791451 8019.830566
8.040000 3.920000 -2.080000 81.030556 -86.337479 14020.111328
8.040000 3.920000 -2.040000 128.121933 -56.835056 19645.453125
8.040000 3.920000 -2.000000 146.425354 5.655899 21472.373047
8.040000 3.920000 -1.960000 116.649315 67.103233 18109.906250
8.040000 3.920000 -1.920000 56.034622 90.349083 11302.835938
8.040000 3.920000 -1.880000 4.832361 67.685791 4604.717773
8.040000 3.920000 -1.840000 -8.683884 26.373043 770.947266
8.040000 3.920000 -1.800000 9.195087 2.159306 89.212227
8.040000 3.960000 -2.200000 45.195480 -28.681368 2865.252441
8.040000 3.960000 -2.160000 43.315575 -44.692966 3873.700195
8.040000 3.960000 -2.120000 73.130409 -65.905426 9691.582031
8.040000 3.960000 -2.080000 129.356781 -53.828026 19630.634766
8.040000 3.960000 -2.040000 170.429535 8.739286 29122.601562
8.040000 3.960000 -2.000000 154.838654 93.104088 32643.378906
8.040000 3.960000 -1.960000 82.786667 144.928101 27857.787109
8.040000 3.960000 -1.920000 0.236610 132.108658 17452.753906
8.040000 3.960000 -1.880000 -40.693329 73.559532 7066.952148
8.040000 3.960000 -1.840000 -26.804066 20.312508 1131.055908
8.040000 3.960000 -1.800000 9.247556 8.161253 152.123337
8.040000 4.000000 -2.200000 44.106316 1.564016 1947.813232
8.040000 4.000000 -2.160000 50.803211 -20.571434 3004.150146
8.040000 4.000000 -2.120000 93.799133 -29.112785 9645.832031
8.040000 4.000000 -2.080000 145.234604 11.633545 21228.429688
8.040000 4.000000 -2.040000 153.402786 95.161491 32588.123047
8.040000 4.000000 -2.000000 92.957214 169.239426 37283.027344
8.040000 4.000000 -1.960000 -5.268897 179.872147 32381.750000
8.040000 4.000000 -1.920000 -77.674828 121.205574 20724.169922
8.040000 4.000000 -1.880000 -83.643173 41.348862 8705.909180
8.040000 4.000000 -1.840000 -39.232399 -2.181906 1543.941895
8.040000 4.000000 -1.800000 3.268405 6.879048 58.003777
8.040000 4.040000 -2.200000 28.148981 22.700951 1307.698242
8.040000 4.040000 -2.160000 44.114929 4.716112 1968.368652
8.040000 4.040000 -2.120000 85.332809 15.792734 7531.099121
8.040000 4.040000 -2.080000 110.768585 73.482109 17669.300781
8.040000 4.040000 -2.040000 78.878792 147.617874 28012.900391
8.040000 4.040000 -2.000000 -7.345510 181.072876 32841.343750
8.040000 4.040000 -1.960000 -95.524857 141.986130 29285.058594
8.040000 4.040000 -1.920000 -127.931107 55.779362 19477.705078
8.040000 4.040000 -1.880000 -92.511818 -16.435528 8828.563477
8.040000 4.040000 -1.840000 -30.744930 -32.497177 2001.317261
8.040000 4.040000 -1.800000 4.267763 -3.172873 28.280922
8.040000 4.080000 -2.200000 6.123693 30.325777 957.152405
8.040000 4.080000 -2.160000 23.635603 21.227161 1009.234131
8.040000 4.080000 -2.120000 49.381981 43.293297 4312.889648
8.040000 4.080000 -2.080000 45.682289 93.942276 10912.023438
8.040000 4.080000 -2.040000 -6.903782 134.252106 18071.289062
8.040000 4.080000 -2.000000 -83.465240 122.404282 21949.253906
8.040000 4.080000 -1.960000 -131.597855 55.341572 20380.685547
8.040000 4.080000 -1.920000 -117.649841 -24.207163 14427.471680
8.040000 4.080000 -1.880000 -57.167221 -64.450562 7421.965820
8.040000 4.080000 -1.840000 0.759392 -49.457275 2446.598633
8.040000 4.080000 -1.800000 18.978542 -8.600998 434.162231
8.040000 4.120000 -2.200000 -14.023296 24.933203 818.317444
8.040000 4.120000 -2.160000 -1.512491 20.643421 428.438477
8.040000 4.120000 -2.120000 8.468271 38.652752 1565.746948
8.040000 4.120000 -2.080000 -7.994293 66.421791 4475.763184
8.040000 4.120000 -2.040000 -51.869434 72.884323 8002.562500
8.040000 4.120000 -2.000000 -93.980202 38.634518 10324.904297
8.040000 4.120000 -1.960000 -99.036758 -21.532555 10271.930664
8.040000 4.120000 -1.920000 -58.665131 -68.271645 8102.615234
8.040000 4.120000 -1.880000 -0.375301 -71.716782 5143.437500
8.040000 4.120000 -1.840000 36.883766 -36.832748 2717.063477
8.040000 4.120000 -1.800000 36.280861 4.181029 1333.781860
8.040000 4.160000 -2.200000 -25.911957 10.322906 777.991882
8.040000 4.160000 -2.160000 -17.480335 4.562469 326.378265
8.040000 4.160000 -2.120000 -12.254997 11.222316 276.125305
8.040000 4.160000 -2.080000 -21.601082 19.630455 851.961548
8.040000 4.160000 -2.040000 -40.680538 12.909595 1821.563721
8.040000 4.160000 -2.000000 -50.168335 -13.642876 2702.989746
8.040000 4.160000 -1.960000 -34.149761 -44.530010 3149.127930
8.040000 4.160000 -1.920000 3.130074 -56.056618 3152.141846
8.040000 4.160000 -1.880000 38.971642 -37.445610 2920.962402
8.040000 4.160000 -1.840000 51.229393 -0.553683 2624.757324
8.040000 4.160000 -1.800000 36.282135 30.982624 2276.316406
8.040000 4.200000 -2.200000 -25.980076 -6.461359 716.713501
8.040000 4.200000 -2.160000 -16.499836 -14.574919 484.672852
8.040000 4.200000 -2.120000 -6.231398 -14.377136 245.532349
8.040000 4.200000 -2.080000 -1.549143 -9.947632 101.355217
8.040000 4.200000 -2.040000 -1.729081 -8.653961 77.880768
8.040000 4.200000 -2.000000 0.454929 -12.959141 168.146286
8.040000 4.200000 -1.960000 10.895393 -16.775919 400.141052
8.040000 4.200000 -1.920000 26.754852 -10.737236 831.110352
8.040000 4.200000 -1.880000 37.262230 8.338999 1458.012695
8.040000 4.200000 -1.840000 32.476913 32.965775 2141.492188
8.040000 4.200000 -1.800000 11.947060 50.016048 2644.337158
8.080000 3.800000 -2.200000 -41.512558 -30.273994 2639.807129
8.080000 3.800000 -2.160000 -19.149992 -49.105061 2778.029053
8.080000 3.800000 -2.120000 12.790352 -49.302471 2594.326660
8.080000 3.800000 -2.080000 37.162231 -28.174644 2174.842041
8.080000 3.800000 -2.040000 40.636093 1.788417 1654.490601
8.080000 3.800000 -2.000000 25.042034 22.553904 1135.781982
8.080000 3.800000 -1.960000 5.089874 25.530352 677.705627
8.080000 3.800000 -1.920000 -5.510653 17.356457 331.613892
8.080000 3.800000 -1.880000 -5.710447 11.082396 155.428696
8.080000 3.800000 -1.840000 -5.150965 12.328336 178.520309
8.080000 3.800000 -1.800000 -11.624621 14.809928 354.465790
8.080000 3.840000 -2.200000 -19.167871 -54.697540 3359.228027
8.080000 3.840000 -2.160000 4.364831 -61.404976 3789.622803
8.080000 3.840000 -2.120000 30.015207 -54.097160 3827.415283
8.080000 3.840000 -2.080000 47.728630 -33.388199 3392.793945
8.080000 3.840000 -2.040000 50.464619 -7.521500 2603.250732
8.080000 3.840000 -2.000000 39.362267 12.782097 1712.770020
8.080000 3.840000 -1.960000 22.358921 21.584133 965.796143
8.080000 3.840000 -1.920000 7.640814 20.482903 477.931335
8.080000 3.840000 -1.880000 -1.671864 14.897137 224.719818
8.080000 3.840000 -1.840000 -6.995177 8.447301 120.289398
8.080000 3.840000 -1.800000 -9.879091 1.309149 99.310310
8.080000 3.880000 -2.200000 14.824493 -58.193832 3606.287842
8.080000 3.880000 -2.160000 31.633987 -57.858757 4348.344727
8.080000 3.880000 -2.120000 51.329609 -51.340023 5270.526367
8.080000 3.880000 -2.080000 69.926041 -33.722160 6026.835449
8.080000 3.880000 -2.040000 78.097198 -5.198898 6126.200684
8.080000 3.880000 -2.000000 68.319107 25.085003 5296.757812
8.080000 3.880000 -1.960000 42.733418 43.647270 3731.229248
8.080000 3.880000 -1.920000 13.642817 42.598553 2000.763184
8.080000 3.880000 -1.880000 -4.784283 25.970480 697.355164
8.080000 3.880000 -1.840000 -6.626434 6.544106 86.734955
8.080000 3.880000 -1.800000 2.586254 -4.084471 23.371613
8.080000 3.920000 -2.200000 42.859562 -39.200577 3373.627197
8.080000 3.920000 -2.160000 53.020107 -39.573044 4377.157715
8.080000 3.920000 -2.120000 73.523842 -35.951050 6698.233398
8.080000 3.920000 -2.080000 97.655304 -14.183380 9737.726562
8.080000 3.920000 -2.040000 105.617844 27.196100 11894.756836
8.080000 3.920000 -2.000000 82.779976 69.489410 11681.302734
8.080000 3.920000 -1.960000 36.561062 87.028297 8910.635742
8.080000 3.920000 -1.920000 -6.401886 69.844788 4919.278809
8.080000 3.920000 -1.880000 -21.925449 33.582504 1608.509888
8.080000 3.920000 -1.840000 -8.556725 6.126300 110.749084
8.080000 3.920000 -1.800000 13.013261 3.383376 180.792191
8.080000 3.960000 -2.200000 52.516251 -8.143492 2824.272949
8.080000 3.960000 -2.160000 61.370995 -12.026260 3911.029785
8.080000 3.960000 -2.120000 86.313248 -5.472137 7479.920898
8.080000 3.960000 -2.080000 109.578697 28.918119 12843.749023
8.080000 3.960000 -2.040000 102.282646 82.832565 17322.972656
8.080000 3.960000 -2.000000 54.424919 122.926247 18072.933594
8.080000 3.960000 -1.960000 -9.913162 119.302940 14331.461914
8.080000 3.960000 -1.920000 -50.452488 74.585861 8108.504395
8.080000 3.960000 -1.880000 -46.128963 23.475924 2679.000244
8.080000 3.960000 -1.840000 -13.238405 1.697411 178.136566
8.080000 3.960000 -1.800000 11.754241 14.563502 350.257782
8.080000 4.000000 -2.200000 41.880215 20.542459 2175.945068
8.080000 4.000000 -2.160000 52.887817 16.148273 3057.888184
8.080000 4.000000 -2.120000 77.363785 31.556313 6980.956055
8.080000 4.000000 -2.080000 86.840118 76.611443 13410.519531
8.080000 4.000000 -2.040000 54.482361 127.550171 19237.373047
8.080000 4.000000 -2.000000 -13.082953 143.876801 20871.697266
8.080000 4.000000 -1.960000 -75.000870 106.944519 17062.259766
8.080000 4.000000 -1.920000 -91.022293 40.984764 9964.808594
8.080000 4.000000 -1.880000 -58.483910 -6.966049 3468.893555
8.080000 4.000000 -1.840000 -13.884396 -9.705591 286.974945
8.080000 4.000000 -1.800000 2.973103 17.260757 306.773071
8.080000 4.040000 -2.200000 17.845140 35.792480 1599.550781
8.080000 4.040000 -2.160000 29.312857 34.201954 2029.017334
8.080000 4.040000 -2.120000 44.743488 56.340855 5176.271484
8.080000 4.040000 -2.080000 34.094994 98.328972 10831.055664
8.080000 4.040000 -2.040000 -15.777133 126.859200 16342.174805
8.080000 4.040000 -2.000000 -80.400536 109.179573 18384.425781
8.080000 4.040000 -1.960000 -115.140984 47.977081 15559.246094
8.080000 4.040000 -1.920000 -96.203217 -16.440762 9525.357422
8.080000 4.040000 -1.880000 -43.825676 -41.686150 3658.424805
8.080000 4.040000 -1.840000 -3.010784 -21.718529 480.759308
8.080000 4.040000 -1.800000 -0.767724 10.550042 111.892792
8.080000 4.080000 -2.200000 -8.391762 33.321514 1180.744995
8.080000 4.080000 -2.160000 0.165365 33.639839 1131.666138
8.080000 4.080000 -2.120000 3.780777 53.250832 2849.945312
8.080000 4.080000 -2.080000 -18.963814 77.992928 6442.523438
8.080000 4.080000 -2.040000 -65.134705 77.764046 10289.776367
8.080000 4.080000 -2.000000 -103.427299 37.754608 12122.616211
8.080000 4.080000 -1.960000 -101.540306 -21.900282 10790.055664
8.080000 4.080000 -1.920000 -58.263096 -61.131336 7131.628906
8.080000 4.080000 -1.880000 -6.517656 -56.451317 3229.230957
8.080000 4.080000 -1.840000 17.180017 -22.107988 783.916138
8.080000 4.080000 -1.800000 6.086563 5.829515 71.029488
8.080000 4.120000 -2.200000 -25.645020 16.291016 923.064209
8.080000 4.120000 -2.160000 -20.071995 14.980413 627.297729
8.080000 4.120000 -2.120000 -21.846592 24.605743 1082.716187
8.080000 4.120000 -2.080000 -40.418274 30.093521 2539.256836
8.080000 4.120000 -2.040000 -64.770775 13.789101 4385.392578
8.080000 4.120000 -2.000000 -70.937798 -23.239048 5572.224121
8.080000 4.120000 -1.960000 -45.829548 -57.662964 5425.364746
8.080000 4.120000 -1.920000 -2.606945 -64.128448 4119.254395
8.080000 4.120000 -1.880000 29.724319 -39.372486 2433.727783
8.080000 4.120000 -1.840000 32.818474 -5.203860 1104.132446
8.080000 4.120000 -1.800000 14.590216 12.905034 379.414307
8.080000 4.160000 -2.200000 -27.089941 -5.680321 766.130981
8.080000 4.160000 -2.160000 -21.158506 -9.822535 544.164612
8.080000 4.160000 -2.120000 -19.081247 -8.898468 443.276733
8.080000 4.160000 -2.080000 -22.837553 -11.436409 652.345276
8.080000 4.160000 -2.040000 -24.251429 -22.997952 1117.037598
8.080000 4.160000 -2.000000 -13.314196 -37.716553 1599.806152
8.080000 4.160000 -1.960000 9.803497 -42.158043 1873.409058
8.080000 4.160000 -1.920000 32.422089 -28.407038 1858.151611
8.080000 4.160000 -1.880000 40.074673 -2.788484 1613.755005
8.080000 4.160000 -1.840000 29.602989 19.268505 1247.612305
8.080000 4.160000 -1.800000 11.164908 27.027813 855.157837
8.080000 4.200000 -2.200000 -14.268210 -20.466536 622.460938
8.080000 4.200000 -2.160000 -5.804576 -24.668644 642.235107
8.080000 4.200000 -2.120000 3.419722 -24.860178 629.722961
8.080000 4.200000 -2.080000 11.839225 -21.943771 621.696350
8.080000 4.200000 -2.040000 19.210175 -16.678013 647.186890
8.080000 4.200000 -2.000000 25.276646 -8.788137 716.140198
8.080000 4.200000 -1.960000 28.563374 2.021243 819.951782
8.080000 4.200000 -1.920000 26.939631 14.484711 935.550537
8.080000 4.200000 -1.880000 19.468876 25.573776 1033.055176
8.080000 4.200000 -1.840000 7.547324 32.098457 1087.273071
8.080000 4.200000 -1.800000 -5.808205 32.453587 1086.970459
8.120000 3.800000 -2.200000 -23.365925 -25.070129 1174.477783
8.120000 3.800000 -2.160000 -4.539297 -36.176857 1329.370239
8.120000 3.800000 -2.120000 22.260960 -30.053150 1398.742188
8.120000 3.800000 -2.080000 38.780426 -3.861860 1518.835327
8.120000 3.800000 -2.040000 31.153725 27.319517 1716.910645
8.120000 3.800000 -2.000000 4.190711 42.475761 1821.752319
8.120000 3.800000 -1.960000 -22.048880 33.713566 1622.757568
8.120000 3.800000 -1.920000 -30.721127 12.848080 1108.860718
8.120000 3.800000 -1.880000 -22.942387 -1.318820 528.092346
8.120000 3.800000 -1.840000 -13.851163 -1.582750 194.359818
8.120000 3.800000 -1.800000 -14.974108 2.598195 230.974533
8.120000 3.840000 -2.200000 -3.825862 -40.855305 1683.793091
8.120000 3.840000 -2.160000 17.729452 -42.899620 2154.710938
8.120000 3.840000 -2.120000 39.940842 -27.535221 2353.459229
8.120000 3.840000 -2.080000 47.006641 1.708052 2212.541748
8.120000 3.840000 -2.040000 32.013901 28.422974 1832.755371
8.120000 3.840000 -2.000000 4.453021 36.772366 1372.036255
8.120000 3.840000 -1.960000 -17.662512 25.103588 942.154419
8.120000 3.840000 -1.920000 -23.434208 6.123281 586.656677
8.120000 3.840000 -1.880000 -16.815453 -6.086839 319.809082
8.120000 3.840000 -1.840000 -9.502689 -8.434635 161.444183
8.120000 3.840000 -1.800000 -7.675214 -8.330711 128.309662
8.120000 3.880000 -2.200000 23.455179 -39.194763 2086.375000
8.120000 3.880000 -2.160000 41.540688 -33.218605 2829.104492
8.120000 3.880000 -2.120000 56.071465 -14.211683 3345.980957
8.120000 3.880000 -2.080000 56.415703 12.985100 3351.344238
8.120000 3.880000 -2.040000 39.147049 35.577263 2798.232910
8.120000 3.880000 -2.000000 12.312067 41.958752 1912.123901
8.120000 3.880000 -1.960000 -9.957935 30.680544 1040.456299
8.120000 3.880000 -1.920000 -17.854033 11.068650 441.281494
8.120000 3.880000 -1.880000 -12.063410 -4.693871 167.558289
8.120000 3.880000 -1.840000 -0.934673 -10.430840 109.676025
8.120000 3.880000 -1.800000 7.539804 -8.245602 124.838593
8.120000 3.920000 -2.200000 44.050827 -18.970049 2300.338135
8.120000 3.920000 -2.160000 55.542511 -9.099794 3167.776611
8.120000 3.920000 -2.120000 63.770164 9.431511 4155.587402
8.120000 3.920000 -2.080000 60.466106 34.626282 4855.129395
8.120000 3.920000 -2.040000 40.595814 56.219101 4808.607422
8.120000 3.920000 -2.000000 9.752960 61.431629 3868.965088
8.120000 3.920000 -1.960000 -16.860283 45.741882 2376.588867
8.120000 3.920000 -1.920000 -25.061840 18.595366 973.883423
8.120000 3.920000 -1.880000 -13.213875 -2.638299 181.567108
8.120000 3.920000 -1.840000 6.216162 -6.170432 76.714905
8.120000 3.920000 -1.800000 17.151834 5.166204 320.875092
8.120000 3.960000 -2.200000 46.783234 10.590549 2300.830566
8.120000 3.960000 -2.160000 51.716576 20.376066 3089.788330
8.120000 3.960000 -2.120000 55.384632 37.406017 4466.667480
8.120000 3.960000 -2.080000 47.502438 61.656277 6057.978027
8.120000 3.960000 -2.040000 20.913446 80.566750 6928.373047
8.120000 3.960000 -2.000000 -16.221375 77.693298 6299.381348
8.120000 3.960000 -1.960000 -42.607395 49.632851 4278.810059
8.120000 3.960000 -1.920000 -41.436142 13.262623 1892.851074
8.120000 3.960000 -1.880000 -16.923523 -6.742009 331.860321
8.120000 3.960000 -1.840000 7.964893 0.239713 63.496986
8.120000 3.960000 -1.800000 12.151526 21.045452 590.570618
8.120000 4.000000 -2.200000 29.740042 35.046795 2112.748047
8.120000 4.000000 -2.160000 29.561249 42.109917 2647.112549
8.120000 4.000000 -2.120000 28.592407 56.909565 4056.224121
8.120000 4.000000 -2.080000 13.830614 77.146896 6142.929688
8.120000 4.000000 -2.040000 -19.277609 85.798248 7732.965332
8.120000 4.000000 -2.000000 -55.260643 67.185783 7567.668457
8.120000 4.000000 -1.960000 -68.925735 26.574516 5456.961914
8.120000 4.000000 -1.920000 -49.703316 -9.666469 2563.860352
8.120000 4.000000 -1.880000 -14.613976 -16.938951 500.496399
8.120000 4.000000 -1.840000 6.010539 3.714540 49.924385
8.120000 4.000000 -1.800000 -2.629929 26.146505 690.556274
8.120000 4.040000 -2.200000 1.407394 42.311184 1792.217041
8.120000 4.040000 -2.160000 -1.885997 44.868294 2016.720825
8.120000 4.040000 -2.120000 -7.221745 54.685104 3042.614258
8.120000 4.040000 -2.080000 -26.465071 64.771935 4895.803223
8.120000 4.040000 -2.040000 -57.031387 57.524406 6561.636719
8.120000 4.040000 -2.000000 -78.168411 25.443157 6757.654297
8.120000 4.040000 -1.960000 -69.824554 -15.262021 5108.397461
8.120000 4.040000 -1.920000 -35.265564 -36.256065 2558.162354
8.120000 4.040000 -1.880000 -1.596066 -24.396776 597.750122
8.120000 4.040000 -1.840000 5.269078 3.884746 42.854435
8.120000 4.040000 -1.800000 -13.700378 18.103052 515.420837
8.120000 4.080000 -2.200000 -23.413071 29.316933 1407.654419
8.120000 4.080000 -2.160000 -26.974453 26.520653 1430.966064
8.120000 4.080000 -2.120000 -33.166145 28.473209 1910.716797
8.120000 4.080000 -2.080000 -48.398033 25.982645 3017.467529
8.120000 4.080000 -2.040000 -64.137077 7.531427 4170.286621
8.120000 4.080000 -2.000000 -62.685215 -23.561342 4484.573242
8.120000 4.080000 -1.960000 -37.003120 -47.109257 3588.512939
8.120000 4.080000 -1.920000 -2.259764 -44.534584 1988.435791
8.120000 4.080000 -1.880000 16.138765 -19.097855 625.187805
8.120000 4.080000 -1.840000 7.462245 5.179001 82.507149
8.120000 4.080000 -1.800000 -12.940979 6.933084 215.536575
8.120000 4.120000 -2.200000 -31.701706 4.487759 1025.138184
8.120000 4.120000 -2.160000 -32.342670 -2.458904 1052.094604
8.120000 4.120000 -2.120000 -33.712070 -7.444564 1191.925171
8.120000 4.120000 -2.080000 -36.540977 -16.531614 1608.537354
8.120000 4.120000 -2.040000 -33.004890 -32.123112 2121.217041
8.120000 4.120000 -2.000000 -16.006500 -45.694496 2344.195068
8.120000 4.120000 -1.960000 9.409103 -44.221855 2044.103760
8.120000 4.120000 -1.920000 27.196657 -24.756641 1352.549438
8.120000 4.120000 -1.880000 25.202858 -0.457473 635.393311
8.120000 4.120000 -1.840000 8.380789 10.637068 183.384827
8.120000 4.120000 -1.800000 -5.088515 3.512356 38.229630
8.120000 4.160000 -2.200000 -20.493711 -16.599972 695.551270
8.120000 4.160000 -2.160000 -16.809607 -24.330635 874.542664
8.120000 4.160000 -2.120000 -10.195395 -30.824175 1054.075806
8.120000 4.160000 -2.080000 0.005595 -35.605301 1267.737427
8.120000 4.160000 -2.040000 14.312551 -35.540928 1468.006714
8.120000 4.160000 -2.000000 29.065214 -26.451033 1544.443848
8.120000 4.160000 -1.960000 36.537659 -8.683489 1410.403442
8.120000 4.160000 -1.920000 31.259975 10.029705 1077.781006
8.120000 4.160000 -1.880000 16.488276 19.575079 655.046936
8.120000 4.160000 -1.840000 2.872025 16.570229 282.821014
8.120000 4.160000 -1.800000 -0.911266 8.074065 66.020935
8.120000 4.200000 -2.200000 0.401724 -21.220451 450.468933
8.120000 4.200000 -2.160000 6.532439 -26.623724 751.495422
8.120000 4.200000 -2.120000 18.800709 -28.938850 1190.923706
8.120000 4.200000 -2.080000 34.038200 -22.319910 1656.777466
8.120000 4.200000 -2.040000 44.160736 -5.241766 1977.646729
8.120000 4.200000 -2.000000 41.780624 16.227478 2008.951660
8.120000 4.200000 -1.960000 26.800579 31.592607 1716.363892
8.120000 4.200000 -1.920000 7.606443 33.854641 1203.994751
8.120000 4.200000 -1.880000 -5.224655 25.270702 665.905396
8.120000 4.200000 -1.840000 -7.513440 15.177048 286.794556
8.120000 4.200000 -1.800000 -4.286050 11.475017 150.046234
8.160000 3.800000 -2.200000 -19.796143 -13.101652 563.540527
8.160000 3.800000 -2.160000 -5.854231 -22.702248 549.664062
8.160000 3.800000 -2.120000 15.545273 -14.140612 441.612396
8.160000 3.800000 -2.080000 22.801918 12.881580 685.862610
8.160000 3.800000 -2.040000 3.969124 37.925323 1454.084106
8.160000 3.800000 -2.000000 -28.861168 38.883026 2344.856934
8.160000 3.800000 -1.960000 -49.859367 14.397167 2693.234863
8.160000 3.800000 -1.920000 -44.469124 -14.481554 2187.218262
8.160000 3.800000 -1.880000 -22.855244 -25.488049 1172.002808
8.160000 3.800000 -1.840000 -7.721735 -16.790712 341.553192
8.160000 3.800000 -1.800000 -10.005820 -6.269846 139.427399
8.160000 3.840000 -2.200000 -5.481643 -27.082546 763.512695
8.160000 3.840000 -2.160000 13.055023 -27.346077 918.241577
8.160000 3.840000 -2.120000 27.870831 -8.457983 848.320679
8.160000 3.840000 -2.080000 21.771835 18.834204 828.740051
8.160000 3.840000 -2.040000 -4.990733 32.650608 1090.969727
8.160000 3.840000 -2.000000 -33.036018 20.952517 1530.386475
8.160000 3.840000 -1.960000 -41.668816 -6.514051 1778.723022
8.160000 3.840000 -1.920000 -28.011190 -27.911551 1563.681396
8.160000 3.840000 -1.880000 -7.863771 -30.370878 984.229187
8.160000 3.840000 -1.840000 1.807572 -20.458401 421.813477
8.160000 3.840000 -1.800000 -0.480093 -14.033548 197.170959
8.160000 3.880000 -2.200000 17.577518 -26.262886 998.708374
8.160000 3.880000 -2.160000 32.436901 -15.932121 1305.985107
8.160000 3.880000 -2.120000 35.446121 6.017980 1292.643555
8.160000 3.880000 -2.080000 19.940172 25.262177 1035.788086
8.160000 3.880000 -2.040000 -5.599459 27.259659 774.442932
8.160000 3.880000 -2.000000 -24.020000 10.398909 685.097778
8.160000 3.880000 -1.960000 -24.147730 -12.635480 742.768188
8.160000 3.880000 -1.920000 -9.488632 -26.361074 784.940369
8.160000 3.880000 -1.880000 6.843258 -25.357857 689.851074
8.160000 3.880000 -1.840000 14.834473 -16.310009 486.077972
8.160000 3.880000 -1.800000 14.941559 -8.872478 301.971039
8.160000 3.920000 -2.200000 35.071770 -7.179440 1281.573364
8.160000 3.920000 -2.160000 39.452171 8.600074 1630.435181
8.160000 3.920000 -2.120000 31.843454 25.480568 1663.264893
8.160000 3.920000 -2.080000 14.059269 34.125015 1362.179810
8.160000 3.920000 -2.040000 -5.404711 29.117489 877.039062
8.160000 3.920000 -2.000000 -16.456371 12.932302 438.056610
8.160000 3.920000 -1.960000 -13.822265 -5.368093 219.871429
8.160000 3.920000 -1.920000 -0.365323 -15.824367 250.544037
8.160000 3.920000 -1.880000 15.011438 -13.812146 416.118652
8.160000 3.920000 -1.840000 23.317606 -2.539569 550.160156
8.160000 3.920000 -1.800000 21.161972 9.769237 543.267029
8.160000 3.960000 -2.200000 33.871513 20.937496 1585.658203
8.160000 3.960000 -2.160000 26.532829 33.743584 1842.620361
8.160000 3.960000 -2.120000 13.804152 40.804123 1855.531006
8.160000 3.960000 -2.080000 -1.021851 40.743774 1661.099365
8.160000 3.960000 -2.040000 -14.458309 32.666786 1276.161621
8.160000 3.960000 -2.000000 -21.287222 17.407049 756.151184
8.160000 3.960000 -1.960000 -16.554821 0.610187 274.434418
8.160000 3.960000 -1.920000 -1.188189 -8.061901 66.406036
8.160000 3.960000 -1.880000 15.224085 -2.067515 236.047394
8.160000 3.960000 -1.840000 20.187748 14.527148 618.583191
8.160000 3.960000 -1.800000 9.303256 28.147112 878.810486
8.160000 4.000000 -2.200000 12.153179 40.942955 1824.025391
8.160000 4.000000 -2.160000 -2.114023 43.988235 1939.433960
8.160000 4.000000 -2.120000 -13.700603 40.775597 1850.355835
8.160000 4.000000 -2.080000 -23.047825 34.654827 1732.159180
8.160000 4.000000 -2.040000 -30.693787 24.286518 1531.943481
8.160000 4.000000 -2.000000 -32.016724 8.668097 1100.206421
8.160000 4.000000 -1.960000 -21.547461 -5.909186 499.211548
8.160000 4.000000 -1.920000 -2.599613 -8.302777 75.694099
8.160000 4.000000 -1.880000 10.950832 5.563284 150.870865
8.160000 4.000000 -1.840000 6.431303 24.681179 650.522217
8.160000 4.000000 -1.800000 -13.302937 30.606386 1113.718994
8.160000 4.040000 -2.200000 -17.647228 39.522591 1873.459839
8.160000 4.040000 -2.160000 -31.081526 31.210766 1940.173096
8.160000 4.040000 -2.120000 -36.667255 20.320200 1757.398193
8.160000 4.040000 -2.080000 -38.530903 10.373407 1592.238037
8.160000 4.040000 -2.040000 -37.904591 -1.038807 1437.837036
8.160000 4.040000 -2.000000 -30.245415 -13.597916 1099.688354
8.160000 4.040000 -1.960000 -13.549253 -19.319017 556.806641
8.160000 4.040000 -1.920000 3.489578 -10.207415 116.368469
8.160000 4.040000 -1.880000 6.494647 9.457449 131.623779
8.160000 4.040000 -1.840000 -9.011115 22.550713 589.734863
8.160000 4.040000 -1.800000 -29.094215 14.751748 1064.087402
8.160000 4.080000 -2.200000 -36.626381 17.584042 1650.690308
8.160000 4.080000 -2.160000 -42.950287 1.778845 1847.891479
8.160000 4.080000 -2.120000 -39.800159 -12.423320 1738.391602
8.160000 4.080000 -2.080000 -32.080330 -22.519480 1536.274536
8.160000 4.080000 -2.040000 -21.104708 -29.474205 1314.137451
8.160000 4.080000 -2.000000 -5.996171 -30.928419 992.521179
8.160000 4.080000 -1.960000 9.114119 -21.885519 562.043091
8.160000 4.080000 -1.920000 14.111037 -3.408985 210.742554
8.160000 4.080000 -1.880000 2.774640 12.602235 166.514954
8.160000 4.080000 -1.840000 -16.949537 12.011436 431.561401
8.160000 4.080000 -1.800000 -26.521982 -6.168549 741.466492
8.160000 4.120000 -2.200000 -33.192631 -9.404415 1190.193726
8.160000 4.120000 -2.160000 -30.784826 -26.248417 1636.684814
8.160000 4.120000 -2.120000 -18.870354 -38.630432 1848.400513
8.160000 4.120000 -2.080000 -1.933314 -42.954144 1848.796143
8.160000 4.120000 -2.040000 15.647522 -37.811848 1674.580811
8.160000 4.120000 -2.000000 28.475830 -23.038965 1341.666870
8.160000 4.120000 -1.960000 29.968611 -2.489236 904.313904
8.160000 4.120000 -1.920000 17.275391 14.034687 495.411560
8.160000 4.120000 -1.880000 -2.766951 15.900814 260.491913
8.160000 4.120000 -1.840000 -15.502320 1.767903 243.447403
8.160000 4.120000 -1.800000 -10.117786 -15.986504 357.937897
8.160000 4.160000 -2.200000 -12.196594 -22.635521 661.123718
8.160000 4.160000 -2.160000 -4.170291 -35.602123 1284.902588
8.160000 4.160000 -2.120000 13.478096 -41.986870 1944.556274
8.160000 4.160000 -2.080000 34.491699 -35.413414 2443.787109
8.160000 4.160000 -2.040000 48.671799 -15.298973 2603.002686
8.160000 4.160000 -2.000000 47.153618 10.783949 2339.757080
8.160000 4.160000 -1.960000 29.051945 29.764431 1729.936768
8.160000 4.160000 -1.920000 4.286099 31.235622 994.034790
8.160000 4.160000 -1.880000 -11.815853 15.999546 395.599854
8.160000 4.160000 -1.840000 -9.873036 -3.004359 106.503021
8.160000 4.160000 -1.800000 5.384116 -10.159896 132.212189
8.160000 4.200000 -2.200000 8.686993 -14.514757 286.142029
8.160000 4.200000 -2.160000 17.453897 -22.980932 832.761780
8.160000 4.200000 -2.120000 35.977768 -22.261230 1789.962158
8.160000 4.200000 -2.080000 53.141998 -4.840211 2847.499756
8.160000 4.200000 -2.040000 54.260727 24.143597 3527.139893
8.160000 4.200000 -2.000000 33.917912 48.128853 3466.811035
8.160000 4.200000 -1.960000 2.688657 51.558212 2665.478027
8.160000 4.200000 -1.920000 -19.852993 33.318970 1504.295044
8.160000 4.200000 -1.880000 -20.955372 8.524050 511.787048
8.160000 4.200000 -1.840000 -5.271289 -4.004997 43.826492
8.160000 4.200000 -1.800000 9.828137 2.369557 102.207085
8.200000 3.800000 -2.200000 -27.507746 -8.723186 832.770020
8.200000 3.800000 -2.160000 -15.068638 -20.551489 649.427551
8.200000 3.800000 -2.120000 2.472691 -12.003675 150.202423
8.200000 3.800000 -2.080000 2.112364 11.074100 127.097763
8.200000 3.800000 -2.040000 -21.643173 24.150002 1051.649536
8.200000 3.800000 -2.000000 -48.759384 9.919182 2475.867676
8.200000 3.800000 -1.960000 -53.497032 -22.258146 3357.357422
8.200000 3.800000 -1.920000 -31.181068 -45.125336 3008.554932
8.200000 3.800000 -1.880000 -2.876497 -41.453377 1726.656738
8.200000 3.800000 -1.840000 7.153431 -21.063086 494.825134
8.200000 3.800000 -1.800000 -3.363990 -8.695931 86.935654
8.200000 3.840000 -2.200000 -14.697202 -25.547739 868.694702
8.200000 3.840000 -2.160000 2.265950 -26.565374 710.853638
8.200000 3.840000 -2.120000 11.111377 -9.866655 220.813583
8.200000 3.840000 -2.080000 -1.134704 7.861394 63.089066
8.200000 3.840000 -2.040000 -25.582939 6.316789 694.388550
8.200000 3.840000 -2.000000 -39.387817 -16.852219 1835.397461
8.200000 3.840000 -1.960000 -28.797220 -42.821472 2662.958496
8.200000 3.840000 -1.920000 -2.914070 -50.445583 2553.248535
8.200000 3.840000 -1.880000 16.323116 -37.098347 1642.731445
8.200000 3.840000 -1.840000 16.881466 -19.498417 665.172119
8.200000 3.840000 -1.800000 7.457756 -14.449223 264.398163
8.200000 3.880000 -2.200000 9.255836 -25.961042 759.646179
8.200000 3.880000 -2.160000 20.077965 -15.663963 648.484375
8.200000 3.880000 -2.120000 16.213495 0.095041 262.886475
8.200000 3.880000 -2.080000 -0.761188 5.424125 30.000536
8.200000 3.880000 -2.040000 -15.915218 -6.830821 299.954285
8.200000 3.880000 -2.000000 -15.015022 -27.671886 991.184204
8.200000 3.880000 -1.960000 2.047743 -40.415543 1637.609375
8.200000 3.880000 -1.920000 21.883699 -36.279457 1795.095215
8.200000 3.880000 -1.880000 31.001213 -21.349194 1416.863281
8.200000 3.880000 -1.840000 27.829613 -8.660258 849.487427
8.200000 3.880000 -1.800000 21.513010 -4.723266 485.118835
8.200000 3.920000 -2.200000 26.166138 -5.576579 715.764954
8.200000 3.920000 -2.160000 23.252123 7.577231 598.075623
8.200000 3.920000 -2.120000 10.727355 13.096251 286.587921
8.200000 3.920000 -2.080000 -1.436610 6.247777 41.098560
8.200000 3.920000 -2.040000 -3.715483 -7.877460 75.859192
8.200000 3.920000 -2.000000 5.580933 -19.098873 395.913788
8.200000 3.920000 -1.960000 20.048288 -20.289059 813.579773
8.200000 3.920000 -1.920000 31.105343 -11.749330 1105.589111
8.200000 3.920000 -1.880000 34.058739 0.817471 1160.665894
8.200000 3.920000 -1.840000 29.684208 11.411425 1011.372803
8.200000 3.920000 -1.800000 21.646683 17.124702 761.834351
8.200000 3.960000 -2.200000 20.675472 22.459513 931.904907
8.200000 3.960000 -2.160000 5.630658 26.813509 750.668579
8.200000 3.960000 -2.120000 -6.156861 18.571747 382.816711
8.200000 3.960000 -2.080000 -7.405357 5.607210 86.280113
8.200000 3.960000 -2.040000 0.280721 -3.229819 10.510533
8.200000 3.960000 -2.000000 10.782063 -4.546291 136.921631
8.200000 3.960000 -1.960000 19.468075 0.261289 379.074219
8.200000 3.960000 -1.920000 24.367828 9.100806 676.615723
8.200000 3.960000 -1.880000 23.710245 20.291985 973.940369
8.200000 3.960000 -1.840000 15.608936 30.224997 1157.189331
8.200000 3.960000 -1.800000 1.585379 32.980431 1090.222290
8.200000 4.000000 -2.200000 -5.593163 36.805954 1385.961670
8.200000 4.000000 -2.160000 -22.878357 25.894619 1193.950439
8.200000 4.000000 -2.120000 -25.136292 7.772820 692.249878
8.200000 4.000000 -2.080000 -14.782874 -3.981536 234.386002
8.200000 4.000000 -2.040000 -1.935185 -4.871194 27.473473
8.200000 4.000000 -2.000000 6.673407 0.917592 45.376339
8.200000 4.000000 -1.960000 10.856726 8.919720 197.429901
8.200000 4.000000 -1.920000 11.277805 18.653381 475.137543
8.200000 4.000000 -1.880000 5.204838 29.225105 881.197083
8.200000 4.000000 -1.840000 -9.153008 34.442883 1270.089722
8.200000 4.000000 -1.800000 -25.599789 26.782230 1372.636963
8.200000 4.040000 -2.200000 -33.784256 25.734175 1803.623779
8.200000 4.040000 -2.160000 -42.265747 2.543770 1792.864258
8.200000 4.040000 -2.120000 -31.432514 -17.283756 1286.731201
8.200000 4.040000 -2.080000 -12.419511 -22.501255 660.550720
8.200000 4.040000 -2.040000 2.291098 -15.115643 233.731781
8.200000 4.040000 -2.000000 8.519926 -3.049241 81.887016
8.200000 4.040000 -1.960000 8.035489 9.077906 146.977448
8.200000 4.040000 -1.920000 1.367779 20.026278 402.922607
8.200000 4.040000 -1.880000 -12.544506 25.971935 831.906067
8.200000 4.040000 -1.840000 -29.628349 20.032093 1279.123901
8.200000 4.040000 -1.800000 -38.201202 0.870528 1460.089722
8.200000 4.080000 -2.200000 -42.944572 -2.306009 1849.553955
8.200000 4.080000 -2.160000 -37.817078 -28.279564 2229.865234
8.200000 4.080000 -2.120000 -16.317204 -42.136353 2041.723267
8.200000 4.080000 -2.080000 7.067726 -37.953762 1490.440796
8.200000 4.080000 -2.040000 20.937529 -21.566149 903.478882
8.200000 4.080000 -2.000000 22.249865 -2.173158 499.779114
8.200000 4.080000 -1.960000 12.850825 13.619705 350.640076
8.200000 4.080000 -1.920000 -4.177047 20.948475 456.286316
8.200000 4.080000 -1.880000 -22.986786 15.341825 763.763916
8.200000 4.080000 -1.840000 -33.284832 -3.202314 1118.134766
8.200000 4.080000 -1.800000 -25.844017 -24.930666 1289.451294
8.200000 4.120000 -2.200000 -27.660358 -25.381811 1409.331787
8.200000 4.120000 -2.160000 -12.383019 -45.324898 2207.685547
8.200000 4.120000 -2.120000 13.825686 -49.396374 2631.151367
8.200000 4.120000 -2.080000 36.731213 -34.925205 2568.952148
8.200000 4.120000 -2.040000 45.236618 -9.294313 2132.735840
8.200000 4.120000 -2.000000 36.042526 15.605138 1542.583984
8.200000 4.120000 -1.960000 13.693916 28.778996 1015.753906
8.200000 4.120000 -1.920000 -11.182034 24.129374 707.264526
8.200000 4.120000 -1.880000 -25.488037 3.989065 665.552673
8.200000 4.120000 -1.840000 -20.453594 -19.760054 808.809204
8.200000 4.120000 -1.800000 0.983274 -31.041292 964.528625
8.200000 4.160000 -2.200000 -2.422734 -26.646671 715.914734
8.200000 4.160000 -2.160000 15.418802 -37.915668 1675.337402
8.200000 4.160000 -2.120000 40.293957 -32.895977 2705.748047
8.200000 4.160000 -2.080000 57.654961 -9.688993 3417.970947
8.200000 4.160000 -2.040000 55.258568 21.747343 3526.456299
8.200000 4.160000 -2.000000 31.758545 44.576469 2995.666748
8.200000 4.160000 -1.960000 -0.823144 45.466633 2067.892090
8.200000 4.160000 -1.920000 -23.629532 24.218309 1144.881348
8.200000 4.160000 -1.880000 -23.491596 -4.711602 574.054321
8.200000 4.160000 -1.840000 -2.882145 -21.450705 468.439484
8.200000 4.160000 -1.800000 21.095181 -15.204822 676.193237
8.200000 4.200000 -2.200000 11.295981 -8.255685 195.755524
8.200000 4.200000 -2.160000 26.212440 -14.360867 893.326538
8.200000 4.200000 -2.120000 46.239056 -3.954008 2153.684570
8.200000 4.200000 -2.080000 54.487648 23.497385 3521.030762
8.200000 4.200000 -2.040000 38.953857 53.065910 4333.393555
8.200000 4.200000 -2.000000 4.630857 64.164864 4138.574707
8.200000 4.200000 -1.960000 -27.697086 47.495102 3022.913330
8.200000 4.200000 -1.920000 -37.055992 14.303691 1577.742188
8.200000 4.200000 -1.880000 -19.639984 -11.475595 517.418274
8.200000 4.200000 -1.840000 7.730251 -12.610218 218.774368
8.200000 4.200000 -1.800000 21.838581 7.477463 532.836060
