#kx 	ky 	kz 	real 	imag 	intensity
0.800000 2.800000 0.983333 -47.953732 -4.436256 2319.240723
0.800000 2.800000 0.991667 20.885525 -1.845358 439.610474
0.800000 2.800000 1.000000 -53.840565 43.294342 4773.206543
0.800000 2.800000 1.008333 -55.335861 -63.515575 7096.286133
0.800000 2.800000 1.016667 37.373871 -35.909321 2686.285645
0.800000 2.900000 0.983333 -7.155521 -55.357128 3115.613037
0.800000 2.900000 0.991667 -0.628567 9.104626 83.289307
0.800000 2.900000 1.000000 -55.131721 -40.863075 4709.297852
0.800000 2.900000 1.008333 23.841690 -68.298012 5233.044922
0.800000 2.900000 1.016667 19.172913 -4.315742 386.226227
0.800000 3.000000 0.983333 39.822277 -15.999222 1841.788818
0.800000 3.000000 0.991667 30.228611 -47.412243 3161.689453
0.800000 3.000000 1.000000 62.261669 18.095469 4203.961426
0.800000 3.000000 1.008333 7.762907 -18.343357 396.741486
0.800000 3.000000 1.016667 72.870865 16.520580 5583.092773
0.800000 3.100000 0.983333 16.789333 13.679783 469.018188
0.800000 3.100000 0.991667 102.801277 41.125168 12259.381836
0.800000 3.100000 1.000000 -89.938049 122.355667 23059.761719
0.800000 3.100000 1.008333 -1.715773 -70.893059 5028.769531
0.800000 3.100000 1.016667 -22.362820 98.000443 10104.182617
0.800000 3.200000 0.983333 6.243389 20.600128 463.345215
0.800000 3.200000 0.991667 -9.266556 94.637268 9042.082031
0.800000 3.200000 1.000000 -125.680588 -73.110184 21140.708984
0.800000 3.200000 1.008333 86.925606 -42.075073 9326.373047
0.800000 3.200000 1.016667 -49.138908 -14.452246 2623.499756
0.900000 2.800000 0.983333 -34.911274 -12.260989 1369.128906
0.900000 2.800000 0.991667 -42.734947 -36.780701 3179.095703
0.900000 2.800000 1.000000 -4.592957 -21.992409 504.761292
0.900000 2.800000 1.008333 -24.571789 -72.518417 5862.693848
0.900000 2.800000 1.016667 102.443329 -13.787945 10684.743164
0.900000 2.900000 0.983333 322.671112 -695.136719 587331.687500
0.900000 2.900000 0.991667 -221.205505 1268.275513 1657454.625000
0.900000 2.900000 1.000000 -1754.741577 -720.983154 3598934.750000
0.900000 2.900000 1.008333 141.749481 -1182.129883 1417523.875000
0.900000 2.900000 1.016667 180.641281 -703.370605 527361.500000
0.900000 3.000000 0.983333 1146.478027 297.654358 1403010.000000
0.900000 3.000000 0.991667 -1987.027588 -17.056030 3948569.750000
0.900000 3.000000 1.000000 633.718445 -2821.313232 8361407.500000
0.900000 3.000000 1.008333 1787.680176 -166.880310 3223649.500000
0.900000 3.000000 1.016667 1242.755371 96.910660 1553832.500000
0.900000 3.100000 0.983333 -11.180115 773.167908 597913.625000
0.900000 3.100000 0.991667 -215.115387 -1151.444824 1372099.750000
0.900000 3.100000 1.000000 1740.650635 71.202042 3034934.500000
0.900000 3.100000 1.008333 345.022980 1074.877075 1274401.625000
0.900000 3.100000 1.016667 28.869614 844.034668 713227.937500
0.900000 3.200000 0.983333 -16.115097 101.719688 10606.590820
0.900000 3.200000 0.991667 -143.714767 -7.411561 20708.865234
0.900000 3.200000 1.000000 40.853748 -108.218719 13380.320312
0.900000 3.200000 1.008333 7.491193 70.986046 5095.136719
0.900000 3.200000 1.016667 -50.827457 -58.841835 6045.791992
1.000000 2.800000 0.983333 -53.849838 -78.874359 9120.969727
1.000000 2.800000 0.991667 70.286552 -77.971336 11019.728516
1.000000 2.800000 1.000000 3.202702 22.971210 537.933838
1.000000 2.800000 1.008333 29.158655 -91.468819 9216.772461
1.000000 2.800000 1.016667 98.299393 54.587608 12642.577148
1.000000 2.900000 0.983333 1192.530762 257.995697 1488691.375000
1.000000 2.900000 0.991667 -1994.507324 -6.656189 3978103.750000
1.000000 2.900000 1.000000 641.215698 -2907.070312 8862216.000000
1.000000 2.900000 1.008333 1877.410034 -147.205872 3546338.000000
1.000000 2.900000 1.016667 1194.114136 116.062851 1439379.250000
1.000000 3.000000 0.983333 -143.263489 1872.503418 3526793.500000
1.000000 3.000000 0.991667 -454.246826 -3095.532227 9788660.000000
1.000000 3.000000 1.000000 4563.560547 301.565979 20917026.000000
1.000000 3.000000 1.008333 697.039429 2715.250732 7858450.500000
1.000000 3.000000 1.016667 217.832565 1945.317139 3831709.750000
1.000000 3.100000 0.983333 -1199.264648 162.907700 1464774.625000
1.000000 3.100000 0.991667 1821.120605 -601.339355 3678089.250000
1.000000 3.100000 1.000000 249.726578 2830.393799 8073492.500000
1.000000 3.100000 1.008333 -1599.089844 713.655212 3066392.000000
1.000000 3.100000 1.016667 -1272.908081 337.133423 1733954.000000
1.000000 3.200000 0.983333 -128.810928 24.585091 17196.681641
1.000000 3.200000 0.991667 -5.567564 -118.267151 14018.117188
1.000000 3.200000 1.000000 42.103348 -11.671082 1908.906006
1.000000 3.200000 1.008333 -13.152523 -30.076130 1077.562500
1.000000 3.200000 1.016667 42.154854 -84.049614 8841.369141
1.100000 2.800000 0.983333 90.461670 -88.802422 16069.183594
1.100000 2.800000 0.991667 42.300613 63.904305 5873.102051
1.100000 2.800000 1.000000 -19.872761 -2.382335 400.602142
1.100000 2.800000 1.008333 49.310295 -34.011650 3588.297363
1.100000 2.800000 1.016667 74.672226 88.663689 13437.191406
1.100000 2.900000 0.983333 0.166473 858.777649 737499.062500
1.100000 2.900000 0.991667 -229.800629 -1263.737427 1649840.625000
1.100000 2.900000 1.000000 1919.793335 123.750946 3700920.750000
1.100000 2.900000 1.008333 297.867462 1171.642822 1461471.875000
1.100000 2.900000 1.016667 49.387447 831.031555 693052.562500
1.100000 3.000000 0.983333 -1276.702026 99.343163 1639837.250000
1.100000 3.000000 0.991667 1898.345337 -615.827881 3982959.000000
1.100000 3.000000 1.000000 232.467422 2919.985352 8580355.000000
1.100000 3.000000 1.008333 -1652.925171 680.862183 3195734.750000
1.100000 3.000000 1.016667 -1202.214844 345.550049 1564725.375000
1.100000 3.100000 0.983333 -190.478485 -791.405762 662605.125000
1.100000 3.100000 0.991667 558.858582 1094.250000 1509705.875000
1.100000 3.100000 1.000000 -1770.878662 388.579712 3287005.500000
1.100000 3.100000 1.008333 -557.228760 -951.387573 1215642.250000
1.100000 3.100000 1.016667 -344.784851 -748.385193 678957.000000
1.100000 3.200000 0.983333 -13.352072 -44.094887 2122.636719
1.100000 3.200000 0.991667 40.031708 -14.826119 1822.351440
1.100000 3.200000 1.000000 48.880745 3.064149 2398.716064
1.100000 3.200000 1.008333 23.676725 25.156378 1193.430664
1.100000 3.200000 1.016667 67.244232 14.420824 4729.746582
1.200000 2.800000 0.983333 66.820648 61.271599 8219.208008
1.200000 2.800000 0.991667 -42.094337 -34.064850 2932.347168
1.200000 2.800000 1.000000 22.317707 -11.397081 627.973511
1.200000 2.800000 1.008333 51.973969 -25.755806 3364.655029
1.200000 2.800000 1.016667 -0.318511 121.473724 14755.966797
1.200000 2.900000 0.983333 -108.625305 45.384464 13859.207031
1.200000 2.900000 0.991667 44.252930 -61.383293 5726.230469
1.200000 2.900000 1.000000 -12.923623 56.451878 3353.834473
1.200000 2.900000 1.008333 7.097920 -1.993732 54.355434
1.200000 2.900000 1.016667 -63.642189 32.896832 5132.529785
1.200000 3.000000 0.983333 14.856472 -129.621796 17022.525391
1.200000 3.000000 0.991667 51.893253 1.031837 2693.974365
1.200000 3.000000 1.000000 -20.152061 -47.498775 2662.239258
1.200000 3.000000 1.008333 69.344109 -15.627365 5052.819824
1.200000 3.000000 1.016667 -13.886270 27.157814 930.375366
1.200000 3.100000 0.983333 103.861473 49.395912 13227.162109
1.200000 3.100000 0.991667 18.178749 2.876984 338.743958
1.200000 3.100000 1.000000 81.791977 16.672256 6967.891602
1.200000 3.100000 1.008333 20.403412 75.723457 6150.341309
1.200000 3.100000 1.016667 -25.843941 21.945951 1149.534058
1.200000 3.200000 0.983333 -40.634850 53.141819 4475.244141
1.200000 3.200000 0.991667 15.935426 -20.539383 675.804016
1.200000 3.200000 1.000000 -3.664307 66.873665 4485.514160
1.200000 3.200000 1.008333 -31.047417 -4.664633 985.700867
1.200000 3.200000 1.016667 -10.531226 32.194641 1147.401611
