#kx 	ky 	kz 	real 	imag 	intensity
4.800000 4.800000 4.800000 -12.956608 -12.361420 320.678406
4.800000 4.800000 4.840000 -9.649625 -9.191931 177.606842
4.800000 4.800000 4.880000 -11.803214 -8.671904 214.517761
4.800000 4.800000 4.920000 -12.679144 -14.553432 372.563110
4.800000 4.800000 4.960000 -5.612948 -21.999153 515.467896
4.800000 4.800000 5.000000 8.106405 -22.131350 555.510437
4.800000 4.800000 5.040000 19.566212 -11.290290 510.307281
4.800000 4.800000 5.080000 20.657383 4.864600 450.391815
4.800000 4.800000 5.120000 11.546965 16.759277 414.205780
4.800000 4.800000 5.160000 -0.552723 19.742300 390.063934
4.800000 4.800000 5.200000 -9.338173 16.778259 368.711456
4.800000 4.840000 4.800000 -4.978138 -21.340145 480.183655
4.800000 4.840000 4.840000 -4.376155 -15.841982 270.119110
4.800000 4.840000 4.880000 -6.954850 -17.030418 338.405090
4.800000 4.840000 4.920000 -3.864694 -22.766655 533.256409
4.800000 4.840000 4.960000 6.281172 -24.090639 619.812012
4.800000 4.840000 5.000000 15.653274 -15.952075 499.493683
4.800000 4.840000 5.040000 16.078348 -3.265399 269.176117
4.800000 4.840000 5.080000 8.204529 4.533669 87.868439
4.800000 4.840000 5.120000 0.343994 4.008523 16.186592
4.800000 4.840000 5.160000 -1.518794 0.935316 3.181551
4.800000 4.840000 5.200000 -0.679192 2.399364 6.218251
4.800000 4.880000 4.800000 8.140911 -24.799171 681.273315
4.800000 4.880000 4.840000 6.214570 -19.490891 418.515686
4.800000 4.880000 4.880000 5.308673 -21.326641 483.007629
4.800000 4.880000 4.920000 10.748413 -23.239658 655.610107
4.800000 4.880000 4.960000 17.785231 -18.487043 658.085205
4.800000 4.880000 5.000000 18.591793 -9.507166 436.040955
4.800000 4.880000 5.040000 12.904507 -4.720394 188.808411
4.800000 4.880000 5.080000 8.926538 -7.378098 134.119400
4.800000 4.880000 5.120000 12.952771 -10.386452 275.652649
4.800000 4.880000 5.160000 20.104498 -4.374649 423.328369
4.800000 4.880000 5.200000 18.262882 9.739374 428.388275
4.800000 4.920000 4.800000 22.640316 -19.116892 878.039490
4.800000 4.920000 4.840000 19.214022 -14.540025 580.590942
4.800000 4.920000 4.880000 19.205669 -14.852160 589.444336
4.800000 4.920000 4.920000 22.678951 -12.879320 680.211731
4.800000 4.920000 4.960000 23.636093 -7.574240 616.033997
4.800000 4.920000 5.000000 20.374901 -4.837548 438.538483
4.800000 4.920000 5.040000 19.370302 -7.887187 437.416321
4.800000 4.920000 5.080000 26.827431 -10.102053 821.762512
4.800000 4.920000 5.120000 38.000107 -1.022083 1445.052856
4.800000 4.920000 5.160000 38.646175 19.909779 1889.926147
4.800000 4.920000 5.200000 19.700188 38.205330 1847.744629
4.800000 4.960000 4.800000 31.531868 -3.813278 1008.799805
4.800000 4.960000 4.840000 26.187666 0.128841 685.810425
4.800000 4.960000 4.880000 24.334452 0.880797 592.941345
4.800000 4.960000 4.920000 23.810322 2.515644 573.259888
4.800000 4.960000 4.960000 22.308296 3.114110 507.357758
4.800000 4.960000 5.000000 23.388096 0.471400 547.225281
4.800000 4.960000 5.040000 31.863850 -0.355763 1015.431519
4.800000 4.960000 5.080000 43.861561 10.219725 2028.279297
4.800000 4.960000 5.120000 45.545261 34.037380 3232.914062
4.800000 4.960000 5.160000 25.628071 57.622845 3977.190430
4.800000 4.960000 5.200000 -10.158307 60.884113 3810.066406
4.800000 5.000000 4.800000 28.215544 15.521464 1037.032715
4.800000 5.000000 4.840000 19.944923 17.087732 689.790527
4.800000 5.000000 4.880000 15.588860 15.270629 476.204651
4.800000 5.000000 4.920000 14.331135 12.498955 361.605286
4.800000 5.000000 4.960000 17.017668 9.310222 376.281250
4.800000 5.000000 5.000000 25.569166 9.617397 746.276611
4.800000 5.000000 5.040000 36.261444 20.564425 1737.787842
4.800000 5.000000 5.080000 37.273533 43.783638 3306.323242
4.800000 5.000000 5.120000 17.631458 67.839539 4913.071289
4.800000 5.000000 5.160000 -19.395418 73.458923 5772.395508
4.800000 5.000000 5.200000 -53.683945 50.165939 5398.587402
4.800000 5.040000 4.800000 12.069475 28.955412 984.088135
4.800000 5.040000 4.840000 2.220377 24.813648 620.647217
4.800000 5.040000 4.880000 -0.854179 17.454826 305.400574
4.800000 5.040000 4.920000 2.991103 11.365323 138.117264
4.800000 5.040000 4.960000 12.396887 11.251537 280.279907
4.800000 5.040000 5.000000 22.087650 21.853294 965.430786
4.800000 5.040000 5.040000 21.935911 42.928619 2324.050537
4.800000 5.040000 5.080000 3.157560 64.196777 4131.196289
4.800000 5.040000 5.120000 -31.545557 68.974518 5752.605957
4.800000 5.040000 5.160000 -64.960098 47.133545 6441.385742
4.800000 5.040000 5.200000 -76.029190 6.377945 5821.115723
4.800000 5.080000 4.800000 -9.503596 28.705124 914.302490
4.800000 5.080000 4.840000 -16.184044 17.286947 560.761841
4.800000 5.080000 4.880000 -12.378717 6.247084 192.258698
4.800000 5.080000 4.920000 -1.008577 3.134018 10.839296
4.800000 5.080000 4.960000 10.066879 12.385218 254.735672
4.800000 5.080000 5.000000 10.411818 31.629183 1108.811157
4.800000 5.080000 5.040000 -6.814826 49.969273 2543.370117
4.800000 5.080000 5.080000 -37.727043 52.666138 4197.051758
4.800000 5.080000 5.120000 -66.719269 31.703621 5456.580566
4.800000 5.080000 5.160000 -75.662949 -5.778488 5758.272949
4.800000 5.080000 5.200000 -57.665787 -40.131519 4935.881836
4.800000 5.120000 4.800000 -25.585197 15.054724 881.247070
4.800000 5.120000 4.840000 -23.886833 -0.638376 570.988342
4.800000 5.120000 4.880000 -11.055014 -8.968781 202.652374
4.800000 5.120000 4.920000 3.675522 -2.983068 22.408159
4.800000 5.120000 4.960000 7.739780 14.934637 282.947571
4.800000 5.120000 5.000000 -6.172318 32.591537 1100.305908
4.800000 5.120000 5.040000 -33.238899 35.003120 2330.042969
4.800000 5.120000 5.080000 -57.678421 15.411439 3564.312744
4.800000 5.120000 5.120000 -63.001801 -18.146914 4298.537109
4.800000 5.120000 5.160000 -44.380634 -47.226307 4199.964844
4.800000 5.120000 5.200000 -12.838794 -56.051495 3306.604736
4.800000 5.160000 4.800000 -29.470768 -4.015887 884.653564
4.800000 5.160000 4.840000 -17.963511 -17.653646 634.338989
4.800000 5.160000 4.880000 0.090120 -17.246109 297.436401
4.800000 5.160000 4.920000 10.478078 -1.767461 112.914032
4.800000 5.160000 4.960000 2.769747 17.165001 302.308777
4.800000 5.160000 5.000000 -19.999899 22.924805 925.542664
4.800000 5.160000 5.040000 -41.849083 7.199033 1803.171753
4.800000 5.160000 5.080000 -45.632980 -22.179468 2574.297607
4.800000 5.160000 5.120000 -26.823334 -46.455593 2877.613281
4.800000 5.160000 5.160000 2.625193 -50.511082 2558.260986
4.800000 5.160000 5.200000 23.972427 -34.482475 1763.718384
4.800000 5.200000 4.800000 -22.666119 -19.347206 888.067322
4.800000 5.200000 4.840000 -4.857740 -25.697891 683.979248
4.800000 5.200000 4.880000 11.555118 -15.550718 375.345581
4.800000 5.200000 4.920000 12.617474 3.803627 173.668213
4.800000 5.200000 4.960000 -3.811204 15.466294 253.731537
4.800000 5.200000 5.000000 -24.266539 7.285296 641.940430
4.800000 5.200000 5.040000 -30.237633 -16.445801 1184.778809
4.800000 5.200000 5.080000 -14.394697 -37.588844 1620.128540
4.800000 5.200000 5.120000 12.528690 -39.511623 1718.136475
4.800000 5.200000 5.160000 30.911537 -21.394550 1413.249878
4.800000 5.200000 5.200000 29.116608 1.598033 850.330566
4.840000 4.800000 4.800000 -9.617496 -5.248075 120.038528
4.840000 4.800000 4.840000 -10.904483 -5.971620 154.567993
4.840000 4.800000 4.880000 -11.788779 -11.047699 261.026978
4.840000 4.800000 4.920000 -7.055420 -18.317074 385.294159
4.840000 4.800000 4.960000 4.156874 -21.365215 473.752014
4.840000 4.800000 5.000000 16.448942 -15.448741 509.231293
4.840000 4.800000 5.040000 22.450516 -2.187632 508.811401
4.840000 4.800000 5.080000 18.932909 11.735175 496.169373
4.840000 4.800000 5.120000 8.696747 20.201384 483.729309
4.840000 4.800000 5.160000 -3.032831 21.646774 477.780884
4.840000 4.800000 5.200000 -13.018223 17.835964 487.595734
4.840000 4.840000 4.800000 -1.436934 -13.197176 176.230225
4.840000 4.840000 4.840000 1.029169 -12.133947 148.291870
4.840000 4.840000 4.880000 4.321665 -11.397682 148.583954
4.840000 4.840000 4.920000 8.349051 -8.493122 141.839767
4.840000 4.840000 4.960000 10.165718 -2.850613 111.467819
4.840000 4.840000 5.000000 7.826083 2.511667 67.556046
4.840000 4.840000 5.040000 3.474792 4.216524 29.853252
4.840000 4.840000 5.080000 1.303333 2.883842 10.015223
4.840000 4.840000 5.120000 2.287506 2.905843 13.676606
4.840000 4.840000 5.160000 2.135564 6.940582 52.732315
4.840000 4.840000 5.200000 -4.040230 11.338300 144.880493
4.840000 4.880000 4.800000 12.258732 -13.364080 328.875153
4.840000 4.880000 4.840000 16.507267 -5.981195 308.264557
4.840000 4.880000 4.880000 16.448509 4.017284 286.692047
4.840000 4.880000 4.920000 8.996628 12.911860 247.655457
4.840000 4.880000 4.960000 -3.908042 13.737841 204.001068
4.840000 4.880000 5.000000 -13.360815 3.373680 189.893097
4.840000 4.880000 5.040000 -10.165178 -11.430157 233.979340
4.840000 4.880000 5.080000 5.143009 -17.541521 334.155487
4.840000 4.880000 5.120000 20.023699 -7.343576 454.876648
4.840000 4.880000 5.160000 19.991926 12.294706 550.836914
4.840000 4.880000 5.200000 2.685923 24.322510 598.798645
4.840000 4.920000 4.800000 23.620647 -2.019225 562.012268
4.840000 4.920000 4.840000 22.688770 12.725502 676.718689
4.840000 4.920000 4.880000 10.645866 26.123116 795.751648
4.840000 4.920000 4.920000 -10.568371 27.503698 868.143921
4.840000 4.920000 4.960000 -27.910034 10.461159 888.405884
4.840000 4.920000 5.000000 -25.498833 -16.661894 927.809204
4.840000 4.920000 5.040000 -0.369925 -33.113144 1096.617188
4.840000 4.920000 5.080000 30.469442 -22.623360 1440.203369
4.840000 4.920000 5.120000 41.900848 9.987740 1855.436035
4.840000 4.920000 5.160000 22.741213 40.074707 2123.145020
4.840000 4.920000 5.200000 -12.810329 43.559986 2061.576904
4.840000 4.960000 4.800000 23.157026 16.303513 802.052368
4.840000 4.960000 4.840000 10.880080 31.850430 1132.826050
4.840000 4.960000 4.880000 -13.027576 36.246944 1483.558716
4.840000 4.960000 4.920000 -36.485592 19.533804 1712.767822
4.840000 4.960000 4.960000 -39.795509 -13.453061 1764.667480
4.840000 4.960000 5.000000 -13.519087 -40.031258 1785.267334
4.840000 4.960000 5.040000 27.652332 -35.948551 2056.949707
4.840000 4.960000 5.080000 52.328354 1.462306 2740.395020
4.840000 4.960000 5.120000 38.354286 46.570320 3639.845947
4.840000 4.960000 5.160000 -6.138403 64.918327 4252.069336
4.840000 4.960000 5.200000 -47.900269 42.761978 4123.022461
4.840000 5.000000 4.800000 8.139585 29.946625 963.053223
4.840000 5.000000 4.840000 -13.518386 35.798355 1464.268921
4.840000 5.000000 4.880000 -37.775803 23.252922 1967.709595
4.840000 5.000000 4.920000 -46.757439 -7.707647 2245.665771
4.840000 5.000000 4.960000 -26.614622 -38.878654 2219.887939
4.840000 5.000000 5.000000 15.065470 -43.797905 2145.224854
4.840000 5.000000 5.040000 48.632442 -11.371798 2494.432373
4.840000 5.000000 5.080000 44.680721 39.248001 3536.772461
4.840000 5.000000 5.120000 1.079461 70.477730 4968.275391
4.840000 5.000000 5.160000 -51.958294 57.392624 5993.577637
4.840000 5.000000 5.200000 -76.089340 9.785176 5885.337402
4.840000 5.040000 4.800000 -13.428816 28.746096 1006.671143
4.840000 5.040000 4.840000 -33.811775 19.591253 1527.053223
4.840000 5.040000 4.880000 -44.236061 -4.947527 1981.307129
4.840000 5.040000 4.920000 -31.825935 -33.475525 2133.500977
4.840000 5.040000 4.960000 2.217970 -44.149498 1954.097656
4.840000 5.040000 5.000000 36.151905 -22.137890 1797.046387
4.840000 5.040000 5.040000 41.248840 22.872440 2224.615234
4.840000 5.040000 5.080000 6.981546 58.897091 3517.609375
4.840000 5.040000 5.120000 -45.893982 56.293205 5275.182617
4.840000 5.040000 5.160000 -79.705429 13.943412 6547.374512
4.840000 5.040000 5.200000 -70.883209 -38.282135 6489.951172
4.840000 5.080000 4.800000 -28.248810 12.649514 958.005432
4.840000 5.080000 4.840000 -36.075699 -6.057765 1338.152588
4.840000 5.080000 4.880000 -28.048050 -27.937485 1567.196167
4.840000 5.080000 4.920000 -3.717694 -38.525578 1498.041382
4.840000 5.080000 4.960000 23.438931 -25.598070 1204.644653
4.840000 5.080000 5.000000 31.841375 7.467780 1069.640869
4.840000 5.080000 5.040000 9.190070 38.667957 1579.668335
4.840000 5.080000 5.080000 -33.507603 42.140724 2898.600098
4.840000 5.080000 5.120000 -66.889389 10.329516 4580.889160
4.840000 5.080000 5.160000 -66.053680 -37.184010 5745.739258
4.840000 5.080000 5.200000 -31.560135 -68.362350 5669.453125
4.840000 5.120000 4.800000 -28.260242 -8.136927 864.850891
4.840000 5.120000 4.840000 -20.932798 -24.236847 1025.606812
4.840000 5.120000 4.880000 -3.121145 -31.351448 992.654785
4.840000 5.120000 4.920000 15.756556 -22.562035 757.314453
4.840000 5.120000 4.960000 21.991699 -0.466732 483.852661
4.840000 5.120000 5.000000 7.334973 20.836061 487.943268
4.840000 5.120000 5.040000 -21.927675 23.822432 1048.331177
4.840000 5.120000 5.080000 -46.333408 1.594047 2149.325684
4.840000 5.120000 5.120000 -46.961338 -34.185936 3374.045410
4.840000 5.120000 5.160000 -21.040285 -60.468117 4099.086914
4.840000 5.120000 5.200000 14.848925 -60.656349 3899.683105
4.840000 5.160000 4.800000 -16.471575 -21.956329 753.393188
4.840000 5.160000 4.840000 -1.476068 -26.649813 712.391296
4.840000 5.160000 4.880000 12.510696 -18.788540 509.526733
4.840000 5.160000 4.920000 15.669684 -2.689220 252.770920
4.840000 5.160000 4.960000 4.363482 10.497725 129.242188
4.840000 5.160000 5.000000 -14.876023 9.780760 316.959320
4.840000 5.160000 5.040000 -28.448353 -7.257319 861.977478
4.840000 5.160000 5.080000 -25.013624 -31.263435 1603.083740
4.840000 5.160000 5.120000 -4.411057 -46.900578 2219.121582
4.840000 5.160000 5.160000 21.451538 -44.052910 2400.827393
4.840000 5.160000 5.200000 37.338329 -25.514820 2045.156982
4.840000 5.200000 4.800000 -2.672659 -25.036394 633.964172
4.840000 5.200000 4.840000 10.082518 -19.039877 464.174072
4.840000 5.200000 4.880000 13.430759 -5.590111 211.634644
4.840000 5.200000 4.920000 4.463126 4.730523 42.297344
4.840000 5.200000 4.960000 -9.735676 2.686556 102.000969
4.840000 5.200000 5.000000 -16.945541 -11.677155 423.507324
4.840000 5.200000 5.040000 -9.482195 -28.289404 890.202393
4.840000 5.200000 5.080000 9.331585 -34.647533 1287.530029
4.840000 5.200000 5.120000 27.560783 -25.671947 1418.645752
4.840000 5.200000 5.160000 34.073624 -7.545346 1217.944092
4.840000 5.200000 5.200000 27.036686 7.661789 789.685364
4.880000 4.800000 4.800000 -14.046377 0.156209 197.325104
4.880000 4.800000 4.840000 -14.510823 -6.967194 259.105774
4.880000 4.800000 4.880000 -9.445591 -14.743694 306.595703
4.880000 4.800000 4.920000 0.873615 -18.425014 340.244385
4.880000 4.800000 4.960000 12.305298 -14.868484 372.492188
4.880000 4.800000 5.000000 19.660053 -5.060715 412.128540
4.880000 4.800000 5.040000 20.250376 6.855518 457.075867
4.880000 4.800000 5.080000 14.830425 16.756655 500.726990
4.880000 4.800000 5.120000 5.728075 22.521042 540.008179
4.880000 4.800000 5.160000 -5.060926 23.322300 569.542664
4.880000 4.800000 5.200000 -15.445772 18.239159 571.238770
4.880000 4.840000 4.800000 -4.178330 -7.478020 73.379227
4.880000 4.840000 4.840000 3.535808 -5.175266 39.285316
4.880000 4.840000 4.880000 7.158203 3.392476 62.748764
4.880000 4.840000 4.920000 2.230381 12.108374 151.587311
4.880000 4.840000 4.960000 -8.008879 13.123249 236.361801
4.880000 4.840000 5.000000 -14.385240 4.963982 231.576233
4.880000 4.840000 5.040000 -10.424078 -4.754139 131.263245
4.880000 4.840000 5.080000 0.468933 -5.934838 35.442204
4.880000 4.840000 5.120000 7.211039 3.811436 66.526123
4.880000 4.840000 5.160000 1.554448 15.664860 247.804138
4.880000 4.840000 5.200000 -13.042608 17.216963 466.533447
4.880000 4.880000 4.800000 9.137278 -3.267484 94.166298
4.880000 4.880000 4.840000 13.184917 14.844787 394.209717
4.880000 4.880000 4.880000 -1.653332 33.703484 1138.658325
4.880000 4.880000 4.920000 -30.576694 34.489700 2124.473633
4.880000 4.880000 4.960000 -52.437183 9.849586 2846.672607
4.880000 4.880000 5.000000 -47.221828 -25.404850 2875.307617
4.880000 4.880000 5.040000 -15.774498 -44.461079 2225.622314
4.880000 4.880000 5.080000 18.349318 -32.053265 1364.109131
4.880000 4.880000 5.120000 28.706852 0.863171 824.828430
4.880000 4.880000 5.160000 9.516583 26.333736 784.031067
4.880000 4.880000 5.200000 -19.565355 24.456820 980.939209
4.880000 4.920000 4.800000 13.521076 11.888163 324.147919
4.880000 4.920000 4.840000 -0.395805 38.199326 1459.345093
4.880000 4.920000 4.880000 -38.662022 46.582249 3664.657959
4.880000 4.920000 4.920000 -77.024597 18.032335 6257.953613
4.880000 4.920000 4.960000 -81.525787 -36.606117 7986.461914
4.880000 4.920000 5.000000 -40.341270 -79.432869 7936.998535
4.880000 4.920000 5.040000 20.719711 -76.474724 6277.689941
4.880000 4.920000 5.080000 57.298473 -29.021557 4125.365723
4.880000 4.920000 5.120000 44.516727 25.672976 2640.840820
4.880000 4.920000 5.160000 -1.668907 46.602737 2174.600342
4.880000 4.920000 5.200000 -40.189156 24.170502 2199.381348
4.880000 4.960000 4.800000 2.132305 25.841766 672.343628
4.880000 4.960000 4.840000 -32.003643 41.985626 2787.025879
4.880000 4.960000 4.880000 -77.619949 21.940514 6506.242676
4.880000 4.960000 4.920000 -96.367622 -36.056915 10586.820312
4.880000 4.960000 4.960000 -61.242683 -96.543854 13071.381836
4.880000 4.960000 5.000000 12.980539 -112.028458 12718.869141
4.880000 4.960000 5.040000 75.585152 -65.491547 10002.257812
4.880000 4.960000 5.080000 81.285706 10.743168 6722.781250
4.880000 4.960000 5.120000 29.831213 60.622997 4565.048828
4.880000 4.960000 5.160000 -34.221397 52.170349 3892.849365
4.880000 4.960000 5.200000 -61.666630 2.827279 3810.766602
4.880000 5.000000 4.800000 -18.204954 25.029989 957.920715
4.880000 5.000000 4.840000 -57.810165 17.315296 3641.834717
4.880000 5.000000 4.880000 -84.952545 -28.406261 8023.850586
4.880000 5.000000 4.920000 -65.812683 -90.579559 12535.964844
4.880000 5.000000 4.960000 1.757890 -122.427277 14991.528320
4.880000 5.000000 5.000000 76.647644 -91.329208 14215.885742
4.880000 5.000000 5.040000 104.212570 -12.365044 11013.154297
4.880000 5.000000 5.080000 63.476646 59.174568 7530.914062
4.880000 5.000000 5.120000 -12.894594 73.273521 5535.279297
4.880000 5.000000 5.160000 -66.427277 27.305479 5158.172363
4.880000 5.000000 5.200000 -63.014458 -34.675034 5173.179688
4.880000 5.040000 4.800000 -31.628498 7.353464 1054.435303
4.880000 5.040000 4.840000 -56.176933 -20.293980 3567.693604
4.880000 5.040000 4.880000 -51.411766 -68.615952 7351.318359
4.880000 5.040000 4.920000 -4.163969 -104.569672 10952.155273
4.880000 5.040000 4.960000 63.068203 -92.789200 12587.433594
4.880000 5.040000 5.000000 103.027115 -30.128765 11522.328125
4.880000 5.040000 5.040000 82.360603 44.136738 8731.320312
4.880000 5.040000 5.080000 13.350708 77.277786 6150.097656
4.880000 5.040000 5.120000 -53.438126 47.520351 5113.817383
4.880000 5.040000 5.160000 -71.303314 -17.501247 5390.456055
4.880000 5.040000 5.200000 -35.749355 -66.073151 5643.677734
4.880000 5.080000 4.800000 -27.223644 -15.051331 967.669373
4.880000 5.080000 4.840000 -27.824677 -43.954380 2706.200195
4.880000 5.080000 4.880000 -1.573408 -70.875053 5025.749023
4.880000 5.080000 4.920000 44.256138 -70.714439 6959.137695
4.880000 5.080000 4.960000 80.419418 -32.333267 7512.722656
4.880000 5.080000 5.000000 76.515785 25.248432 6492.148926
4.880000 5.080000 5.040000 28.997917 62.653522 4766.343262
4.880000 5.080000 5.080000 -30.997509 51.589508 3622.322754
4.880000 5.080000 5.120000 -60.933720 0.177782 3712.949707
4.880000 5.080000 5.160000 -42.008327 -52.715492 4543.622559
4.880000 5.080000 5.200000 6.189298 -70.249687 4973.326172
4.880000 5.120000 4.800000 -8.842137 -26.606579 786.093445
4.880000 5.120000 4.840000 5.122570 -39.668777 1599.852661
4.880000 5.120000 4.880000 29.036299 -39.996670 2442.840332
4.880000 5.120000 4.920000 49.988342 -20.554432 2921.319092
4.880000 5.120000 4.960000 51.164581 12.124340 2764.813965
4.880000 5.120000 5.000000 25.990505 37.879116 2110.333740
4.880000 5.120000 5.040000 -12.430519 36.649765 1497.723145
4.880000 5.120000 5.080000 -38.089790 6.054893 1487.493896
4.880000 5.120000 5.120000 -32.136944 -33.883419 2180.869141
4.880000 5.120000 5.160000 1.026239 -55.514904 3082.957764
4.880000 5.120000 5.200000 37.087402 -45.805126 3473.584961
4.880000 5.160000 4.800000 9.189157 -22.260294 579.961304
4.880000 5.160000 4.840000 20.355768 -17.720367 728.368713
4.880000 5.160000 4.880000 26.231312 -6.231615 726.914734
4.880000 5.160000 4.920000 22.854359 7.087898 572.559998
4.880000 5.160000 4.960000 10.488224 15.088966 337.679749
4.880000 5.160000 5.000000 -5.201729 11.875013 168.073929
4.880000 5.160000 5.040000 -14.815315 -2.900803 227.908218
4.880000 5.160000 5.080000 -10.702740 -21.855595 592.215637
4.880000 5.160000 5.120000 6.822132 -33.298672 1155.343018
4.880000 5.160000 5.160000 28.197304 -29.283558 1652.614746
4.880000 5.160000 5.200000 40.868095 -12.003790 1814.292114
4.880000 5.200000 4.800000 16.093775 -10.736128 374.274017
4.880000 5.200000 4.840000 15.367627 -0.276906 236.240646
4.880000 5.200000 4.880000 6.766394 5.296513 73.837135
4.880000 5.200000 4.920000 -2.667065 1.648027 9.829228
4.880000 5.200000 4.960000 -5.562836 -8.286562 99.612244
4.880000 5.200000 5.000000 0.176399 -17.404055 302.932251
4.880000 5.200000 5.040000 10.819599 -20.153381 523.222534
4.880000 5.200000 5.080000 20.627993 -15.786183 674.717651
4.880000 5.200000 5.120000 25.899649 -7.334867 724.592102
4.880000 5.200000 5.160000 26.212658 1.488970 689.320496
4.880000 5.200000 5.200000 23.116549 8.378807 604.579224
4.920000 4.800000 4.800000 -21.096106 -0.557056 445.355988
4.920000 4.800000 4.840000 -16.140978 -10.938402 380.179810
4.920000 4.800000 4.880000 -5.241516 -16.214394 290.380035
4.920000 4.800000 4.920000 6.566322 -13.853933 235.048065
4.920000 4.800000 4.960000 14.417114 -5.713638 240.498840
4.920000 4.800000 5.000000 16.693954 4.166092 296.044434
4.920000 4.800000 5.040000 14.707733 12.966782 384.454834
4.920000 4.800000 5.080000 9.878979 20.117649 502.314026
4.920000 4.800000 5.120000 2.117886 25.200590 639.555176
4.920000 4.800000 5.160000 -8.444074 25.917850 743.037354
4.920000 4.800000 5.200000 -18.537273 19.504452 724.054138
4.920000 4.840000 4.800000 -9.271282 -5.744955 118.961182
4.920000 4.840000 4.840000 -0.961803 3.032570 10.121546
4.920000 4.840000 4.880000 -5.818382 16.085527 292.597778
4.920000 4.840000 4.920000 -21.922241 18.718201 830.955688
4.920000 4.840000 4.960000 -34.490166 4.788971 1212.505737
4.920000 4.840000 5.000000 -29.750690 -15.472233 1124.493530
4.920000 4.840000 5.040000 -9.291107 -23.966906 660.737183
4.920000 4.840000 5.080000 10.000999 -12.069464 245.691940
4.920000 4.840000 5.120000 11.365571 10.297688 235.218567
4.920000 4.840000 5.160000 -5.789865 23.416304 581.845825
4.920000 4.840000 5.200000 -25.095751 16.273136 894.611694
4.920000 4.880000 4.800000 0.052557 2.455271 6.031117
4.920000 4.880000 4.840000 -8.915329 28.161890 872.575134
4.920000 4.880000 4.880000 -44.168602 37.325340 3344.046387
4.920000 4.880000 4.920000 -80.050415 9.790726 6503.927246
4.920000 4.880000 4.960000 -82.324249 -42.380455 8573.384766
4.920000 4.880000 5.000000 -41.347095 -81.086037 8284.527344
4.920000 4.880000 5.040000 15.502678 -75.398254 5925.229980
4.920000 4.880000 5.080000 46.419968 -30.420496 3080.219971
4.920000 4.880000 5.120000 32.176266 16.817612 1318.144165
4.920000 4.880000 5.160000 -7.948245 30.989555 1023.527161
4.920000 4.880000 5.200000 -36.097076 9.094811 1385.714478
4.920000 4.920000 4.800000 -4.584000 15.089947 248.719543
4.920000 4.920000 4.840000 -41.828297 36.491447 3081.232178
4.920000 4.920000 4.880000 -95.219482 13.534634 9249.936523
4.920000 4.920000 4.920000 -116.063477 -55.462788 16546.851562
4.920000 4.920000 4.960000 -72.779015 -125.962761 21163.402344
4.920000 4.920000 5.000000 14.230564 -142.393982 20478.556641
4.920000 4.920000 5.040000 85.007233 -88.764832 15105.424805
4.920000 4.920000 5.080000 91.217941 -5.316425 8348.977539
4.920000 4.920000 5.120000 37.929424 46.449986 3596.242188
4.920000 4.920000 5.160000 -23.889753 37.339111 1964.929565
4.920000 4.920000 5.200000 -45.569130 -8.278931 2145.086426
4.920000 4.960000 4.800000 -20.899332 16.537792 710.280640
4.920000 4.960000 4.840000 -74.080788 10.284119 5593.726074
4.920000 4.960000 4.880000 -112.099747 -51.476349 15216.167969
4.920000 4.960000 4.920000 -85.416061 -137.243301 26131.628906
4.920000 4.960000 4.960000 7.720690 -180.945129 32800.750000
4.920000 4.960000 5.000000 109.583626 -139.843918 31564.894531
4.920000 4.960000 5.040000 148.494537 -37.123222 23428.759766
4.920000 4.960000 5.080000 101.173950 54.569672 13214.017578
4.920000 4.960000 5.120000 12.303322 75.392334 5835.375488
4.920000 4.960000 5.160000 -47.345478 27.635990 3005.342285
4.920000 4.960000 5.200000 -43.108856 -33.490330 2979.975586
4.920000 5.000000 4.800000 -33.096992 0.454750 1095.617676
4.920000 5.000000 4.840000 -74.511452 -37.198967 6935.719727
4.920000 5.000000 4.880000 -70.612450 -113.016357 17758.816406
4.920000 5.000000 4.920000 2.651930 -172.102325 29626.244141
4.920000 5.000000 4.960000 109.474472 -156.842331 36584.179688
4.920000 5.000000 5.000000 175.981323 -62.629150 34891.835938
4.920000 5.000000 5.040000 152.632538 50.468868 25843.798828
4.920000 5.000000 5.080000 59.110886 105.896088 14708.078125
4.920000 5.000000 5.120000 -32.423950 75.336533 6726.905762
4.920000 5.000000 5.160000 -60.487049 -0.847008 3659.400635
4.920000 5.000000 5.200000 -23.751755 -55.014538 3590.745117
4.920000 5.040000 4.800000 -26.694792 -22.250614 1207.701782
4.920000 5.040000 4.840000 -36.848137 -70.746841 6362.900879
4.920000 5.040000 4.880000 4.602440 -124.072159 15415.083008
4.920000 5.040000 4.920000 88.437164 -131.009506 24984.621094
4.920000 5.040000 4.960000 160.774017 -66.600449 30283.904297
4.920000 5.040000 5.000000 164.673157 37.314018 28509.583984
4.920000 5.040000 5.040000 91.506165 112.196320 20961.390625
4.920000 5.040000 5.080000 -7.710453 109.332024 12012.942383
4.920000 5.040000 5.120000 -64.475914 40.820179 5823.430664
4.920000 5.040000 5.160000 -49.945732 -33.617073 3624.683594
4.920000 5.040000 5.200000 5.978430 -60.549202 3701.947510
4.920000 5.080000 4.800000 -3.409396 -32.702911 1081.104492
4.920000 5.080000 4.840000 12.490805 -65.093704 4393.210449
4.920000 5.080000 4.880000 60.427734 -78.541435 9820.267578
4.920000 5.080000 4.920000 114.391899 -46.701477 15266.535156
4.920000 5.080000 4.960000 131.991333 23.984417 17996.964844
4.920000 5.080000 5.000000 90.769394 91.363136 16586.304688
4.920000 5.080000 5.040000 12.271652 108.967133 12024.429688
4.920000 5.080000 5.080000 -51.763885 65.520592 6972.447266
4.920000 5.080000 5.120000 -61.288155 -4.519682 3776.665283
4.920000 5.080000 5.160000 -19.976490 -50.360146 2935.204346
4.920000 5.080000 5.200000 31.810547 -47.033531 3224.063965
4.920000 5.120000 4.800000 19.588951 -22.160736 874.825256
4.920000 5.120000 4.840000 38.274689 -28.167477 2258.358398
4.920000 5.120000 4.880000 63.088013 -15.877272 4232.185059
4.920000 5.120000 4.920000 75.511818 17.432560 6005.928711
4.920000 5.120000 4.960000 59.188599 56.314888 6674.657227
4.920000 5.120000 5.000000 16.313576 74.910873 5877.771973
4.920000 5.120000 5.040000 -29.219261 57.260670 4132.549316
4.920000 5.120000 5.080000 -48.237625 12.679838 2487.646729
4.920000 5.120000 5.120000 -29.653475 -29.425510 1745.189209
4.920000 5.120000 5.160000 10.344861 -42.476028 1911.229126
4.920000 5.120000 5.200000 42.211678 -23.304008 2324.902344
4.920000 5.160000 4.800000 25.984310 -0.446528 675.383789
4.920000 5.160000 4.840000 28.546616 7.647842 873.398743
4.920000 5.160000 4.880000 26.166225 17.146801 978.684082
4.920000 5.160000 4.920000 18.338255 25.264484 974.585815
4.920000 5.160000 4.960000 5.589600 28.552753 846.503357
4.920000 5.160000 5.000000 -8.737919 23.174170 613.393311
4.920000 5.160000 5.040000 -17.672926 8.237324 380.185791
4.920000 5.160000 5.080000 -14.189083 -10.660439 314.975037
4.920000 5.160000 5.120000 2.376804 -22.860088 528.232788
4.920000 5.160000 5.160000 23.508890 -19.954771 950.860840
4.920000 5.160000 5.200000 36.557423 -3.079119 1345.926147
4.920000 5.200000 4.800000 15.777162 14.108366 447.964813
4.920000 5.200000 4.840000 3.049380 17.115377 302.234863
4.920000 5.200000 4.880000 -7.667973 8.556326 132.008514
4.920000 5.200000 4.920000 -7.542767 -4.866709 80.578186
4.920000 5.200000 4.960000 2.235340 -12.385582 158.399384
4.920000 5.200000 5.000000 12.376871 -9.831955 249.854279
4.920000 5.200000 5.040000 15.492518 -2.757568 247.622314
4.920000 5.200000 5.080000 13.135363 0.756701 173.110352
4.920000 5.200000 5.120000 12.611349 -0.791952 159.673309
4.920000 5.200000 5.160000 17.749979 -1.273565 316.683746
4.920000 5.200000 5.200000 24.077641 5.414712 609.051880
4.960000 4.800000 4.800000 -25.581930 -5.787924 687.935242
4.960000 4.800000 4.840000 -15.544037 -14.609734 455.061401
4.960000 4.800000 4.880000 -2.737453 -15.233995 239.568268
4.960000 4.800000 4.920000 7.004208 -8.796158 126.431320
4.960000 4.800000 4.960000 11.125087 0.382599 123.913940
4.960000 4.800000 5.000000 10.900177 8.761715 195.581512
4.960000 4.800000 5.040000 8.493217 15.815088 322.251770
4.960000 4.800000 5.080000 3.990196 22.362949 516.023193
4.960000 4.800000 5.120000 -4.028210 27.334177 763.383728
4.960000 4.800000 5.160000 -14.965857 27.233871 965.660645
4.960000 4.800000 5.200000 -24.118170 19.773161 972.664001
4.960000 4.840000 4.800000 -15.043980 -7.324034 279.962799
4.960000 4.840000 4.840000 -13.476322 5.089045 207.509628
4.960000 4.840000 4.880000 -27.748932 11.711250 907.156616
4.960000 4.840000 4.920000 -44.286118 -0.574188 1961.589966
4.960000 4.840000 4.960000 -43.536236 -25.925491 2567.534912
4.960000 4.840000 5.000000 -20.114182 -43.038872 2256.924805
4.960000 4.840000 5.040000 9.885307 -35.061501 1327.028076
4.960000 4.840000 5.080000 22.702978 -6.475281 557.354492
4.960000 4.840000 5.120000 8.868872 20.124908 483.668823
4.960000 4.840000 5.160000 -18.103512 24.643627 935.045532
4.960000 4.840000 5.200000 -34.784798 7.464707 1265.703979
4.960000 4.880000 4.800000 -12.477642 -0.090327 155.699722
4.960000 4.880000 4.840000 -38.367367 17.835592 1790.163086
4.960000 4.880000 4.880000 -78.803558 0.374512 6210.141113
4.960000 4.880000 4.920000 -93.025459 -53.943375 11563.624023
4.960000 4.880000 4.960000 -55.823631 -107.849426 14747.777344
4.960000 4.880000 5.000000 14.272263 -116.679588 13817.823242
4.960000 4.880000 5.040000 67.895744 -70.172920 9534.070312
4.960000 4.880000 5.080000 68.227051 -3.463230 4666.924805
4.960000 4.880000 5.120000 23.178162 34.333992 1716.050171
4.960000 4.880000 5.160000 -24.416927 23.444880 1145.848633
4.960000 4.880000 5.200000 -37.695915 -12.864296 1586.472168
4.960000 4.920000 4.800000 -21.334995 2.502532 461.444702
4.960000 4.920000 4.840000 -71.546227 -1.782616 5122.040039
4.960000 4.920000 4.880000 -107.367157 -61.992561 15370.783203
4.960000 4.920000 4.920000 -78.528473 -145.192337 27247.535156
4.960000 4.920000 4.960000 14.694054 -184.817154 34373.292969
4.960000 4.920000 5.000000 113.074295 -140.886536 32634.812500
4.960000 4.920000 5.040000 147.432907 -39.997299 23336.246094
4.960000 4.920000 5.080000 99.647934 45.909149 12037.361328
4.960000 4.920000 5.120000 16.722338 62.617729 4200.616699
4.960000 4.920000 5.160000 -34.637501 17.978823 1522.994507
4.960000 4.920000 5.200000 -27.334183 -33.287613 1855.222656
4.960000 4.960000 4.800000 -30.165253 -9.238495 995.292236
4.960000 4.960000 4.840000 -77.797791 -50.015045 8554.000977
4.960000 4.960000 4.880000 -72.698891 -136.660263 23961.156250
4.960000 4.960000 4.920000 13.139629 -203.110931 41426.699219
4.960000 4.960000 4.960000 135.802292 -182.853043 51877.496094
4.960000 4.960000 5.000000 209.719620 -73.914940 49445.738281
4.960000 4.960000 5.040000 181.912323 52.632530 35862.277344
4.960000 4.960000 5.080000 79.367828 112.484802 18952.082031
4.960000 4.960000 5.120000 -16.589449 80.009659 6676.755371
4.960000 4.960000 5.160000 -43.395760 4.054327 1899.629517
4.960000 4.960000 5.200000 -6.904712 -43.971970 1981.209106
4.960000 5.000000 4.800000 -23.614511 -28.944139 1395.408325
4.960000 5.000000 4.840000 -40.170471 -91.798523 10040.635742
4.960000 5.000000 4.880000 14.214911 -163.561035 26954.277344
4.960000 5.000000 4.920000 126.548683 -172.648666 45822.132812
4.960000 5.000000 4.960000 222.640244 -86.344208 57024.000000
4.960000 5.000000 5.000000 227.730225 50.393677 54400.578125
4.960000 5.000000 5.040000 134.309906 147.420853 39772.058594
4.960000 5.000000 5.080000 10.906796 145.842957 21389.126953
4.960000 5.000000 5.120000 -57.943047 66.244476 7745.727539
4.960000 5.000000 5.160000 -42.966564 -15.986164 2101.683105
4.960000 5.000000 5.200000 14.051626 -41.314674 1904.350586
4.960000 5.040000 4.800000 0.483276 -38.307121 1467.669067
4.960000 5.040000 4.840000 19.840414 -91.494949 8764.967773
4.960000 5.040000 4.880000 94.721558 -116.904480 22638.832031
4.960000 5.040000 4.920000 182.043457 -68.868195 37882.648438
4.960000 5.040000 4.960000 212.293671 41.956291 46828.933594
4.960000 5.040000 5.000000 151.017273 147.842499 44663.621094
4.960000 5.040000 5.040000 33.839615 178.157593 32885.246094
4.960000 5.040000 5.080000 -61.072052 119.604851 18035.115234
4.960000 5.040000 5.120000 -78.798958 25.525600 6860.832031
4.960000 5.040000 5.160000 -30.043768 -33.627464 2033.434326
4.960000 5.040000 5.200000 27.510971 -29.987442 1656.100220
4.960000 5.080000 4.800000 26.261782 -25.039284 1316.646973
4.960000 5.080000 4.840000 59.261421 -47.120808 5732.286621
4.960000 5.080000 4.880000 113.720734 -30.825258 13882.601562
4.960000 5.080000 4.920000 146.633713 34.278751 22676.478516
4.960000 5.080000 4.960000 120.179192 115.377892 27755.095703
4.960000 5.080000 5.000000 38.634949 157.996841 26455.662109
4.960000 5.080000 5.040000 -49.600327 131.236145 19683.117188
4.960000 5.080000 5.080000 -90.016113 55.115364 11140.604492
4.960000 5.080000 5.120000 -66.130814 -16.285624 4638.506348
4.960000 5.080000 5.160000 -9.405001 -40.341007 1715.850830
4.960000 5.080000 5.200000 32.344231 -17.646147 1357.535767
4.960000 5.120000 4.800000 33.807091 3.586347 1155.781372
4.960000 5.120000 4.840000 52.529301 6.812937 2805.743408
4.960000 5.120000 4.880000 68.380249 31.545029 5670.947266
4.960000 5.120000 4.920000 60.946476 70.379547 8667.753906
4.960000 5.120000 4.960000 22.644173 99.190590 10351.532227
4.960000 5.120000 5.000000 -30.538116 94.492920 9861.488281
4.960000 5.120000 5.040000 -67.968559 53.796585 7513.797852
4.960000 5.120000 5.080000 -67.504196 0.167934 4556.844727
4.960000 5.120000 5.120000 -33.037071 -34.626766 2290.460938
4.960000 5.120000 5.160000 9.298260 -34.296955 1262.738770
4.960000 5.120000 5.200000 32.696884 -8.406029 1139.747559
4.960000 5.160000 4.800000 18.474922 26.384151 1037.446289
4.960000 5.160000 4.840000 13.862089 31.365667 1175.962646
4.960000 5.160000 4.880000 6.649685 35.025089 1270.975098
4.960000 5.160000 4.920000 -2.919060 36.530998 1343.034668
4.960000 5.160000 4.960000 -14.918518 33.952003 1375.300659
4.960000 5.160000 5.000000 -26.973396 24.006996 1303.899902
4.960000 5.160000 5.040000 -32.672668 5.852982 1101.760742
4.960000 5.160000 5.080000 -25.303967 -14.691917 856.143127
4.960000 5.160000 5.120000 -4.853655 -26.563761 729.191345
4.960000 5.160000 5.160000 18.978712 -21.383209 817.433105
4.960000 5.160000 5.200000 32.366344 -1.281673 1049.222900
4.960000 5.200000 4.800000 -4.371674 28.326960 821.528137
4.960000 5.200000 4.840000 -18.807770 18.228697 686.017578
4.960000 5.200000 4.880000 -20.926050 -0.725920 438.426514
4.960000 5.200000 4.920000 -8.106220 -14.099404 264.503998
4.960000 5.200000 4.960000 8.111828 -12.184113 214.254364
4.960000 5.200000 5.000000 13.655437 -0.292915 186.556778
4.960000 5.200000 5.040000 6.682976 6.931759 92.711449
4.960000 5.200000 5.080000 -0.674316 1.469641 2.614547
4.960000 5.200000 5.120000 4.152086 -9.103592 100.115211
4.960000 5.200000 5.160000 19.816639 -9.587188 484.613342
4.960000 5.200000 5.200000 31.413601 6.232095 1025.653320
5.000000 4.800000 4.800000 -26.688824 -11.618654 847.286499
5.000000 4.800000 4.840000 -15.081024 -17.450331 531.951294
5.000000 4.800000 4.880000 -3.100204 -15.488251 249.497177
5.000000 4.800000 4.920000 4.917799 -7.961243 87.566132
5.000000 4.800000 4.960000 7.661068 1.306816 60.399731
5.000000 4.800000 5.000000 6.436157 9.691929 135.357605
5.000000 4.800000 5.040000 2.763962 16.737560 287.785431
5.000000 4.800000 5.080000 -3.316189 22.585598 521.106323
5.000000 4.800000 5.120000 -12.336192 25.879475 821.928833
5.000000 4.800000 5.160000 -22.888905 24.048752 1102.244385
5.000000 4.800000 5.200000 -30.828878 16.250648 1214.503296
5.000000 4.840000 4.800000 -20.932604 -12.984978 606.783569
5.000000 4.840000 4.840000 -26.509815 -5.939751 738.050964
5.000000 4.840000 4.880000 -39.727249 -12.590881 1736.784546
5.000000 4.840000 4.920000 -42.064049 -34.479282 2958.205078
5.000000 4.840000 4.960000 -22.180191 -54.600632 3473.189941
5.000000 4.840000 5.000000 10.488144 -52.698689 2887.153076
5.000000 4.840000 5.040000 32.267555 -25.384491 1685.567383
5.000000 4.840000 5.080000 26.413475 9.009907 778.850098
5.000000 4.840000 5.120000 -1.545267 26.164707 686.979797
5.000000 4.840000 5.160000 -29.111588 17.028419 1137.451660
5.000000 4.840000 5.200000 -37.319790 -5.625890 1424.417358
5.000000 4.880000 4.800000 -21.782337 -13.604858 659.562378
5.000000 4.880000 4.840000 -51.749687 -16.406734 2947.210938
5.000000 4.880000 4.880000 -72.134506 -56.560295 8402.454102
5.000000 4.880000 4.920000 -48.366478 -110.610947 14574.097656
5.000000 4.880000 4.960000 17.673340 -132.421906 17847.908203
5.000000 4.880000 5.000000 83.439819 -96.285568 16233.115234
5.000000 4.880000 5.040000 101.773659 -23.569649 10913.406250
5.000000 4.880000 5.080000 63.150063 34.544689 5181.266113
5.000000 4.880000 5.120000 3.046190 42.116814 1783.105347
5.000000 4.880000 5.160000 -31.946804 7.704699 1079.960693
5.000000 4.880000 5.200000 -25.233959 -28.924067 1473.354248
5.000000 4.920000 4.800000 -23.864380 -22.091032 1057.522339
5.000000 4.920000 4.840000 -61.004822 -55.313732 6781.197266
5.000000 4.920000 4.880000 -53.262077 -126.800827 18915.298828
5.000000 4.920000 4.920000 22.276936 -178.975082 32528.341797
5.000000 4.920000 4.960000 125.810135 -156.095047 40193.855469
5.000000 4.920000 5.000000 184.019211 -59.914753 37452.847656
5.000000 4.920000 5.040000 155.000870 46.458683 26183.679688
5.000000 4.920000 5.080000 66.046371 92.747559 12964.232422
5.000000 4.920000 5.120000 -12.593412 61.832863 3981.896973
5.000000 4.920000 5.160000 -31.304255 -1.302991 981.654175
5.000000 4.920000 5.200000 0.039294 -37.355762 1395.454590
5.000000 4.960000 4.800000 -15.534841 -36.216404 1552.959229
5.000000 4.960000 4.840000 -30.753159 -96.785675 10313.223633
5.000000 4.960000 4.880000 25.203346 -165.866821 28147.011719
5.000000 4.960000 4.920000 137.612091 -170.764557 48097.621094
5.000000 4.960000 4.960000 230.388458 -80.969238 59634.859375
5.000000 4.960000 5.000000 230.575485 55.097702 56200.812500
5.000000 4.960000 5.040000 135.481842 147.355927 40069.101562
5.000000 4.960000 5.080000 16.277821 141.893707 20398.791016
5.000000 4.960000 5.120000 -45.942150 64.692123 6295.751953
5.000000 4.960000 5.160000 -29.002434 -9.102876 924.003540
5.000000 4.960000 5.200000 21.484257 -26.674213 1173.086914
5.000000 5.000000 4.800000 6.948019 -42.131424 1823.331909
5.000000 5.000000 4.840000 28.470533 -103.133057 11446.999023
5.000000 5.000000 4.880000 115.832069 -131.531128 30717.505859
5.000000 5.000000 4.920000 216.461777 -73.377686 52239.984375
5.000000 5.000000 4.960000 248.486145 56.096512 64892.183594
5.000000 5.000000 5.000000 175.149796 175.941696 61632.929688
5.000000 5.000000 5.040000 42.098938 206.991287 44617.714844
5.000000 5.000000 5.080000 -60.781570 140.133392 23331.765625
5.000000 5.000000 5.120000 -76.914772 40.022297 7517.666504
5.000000 5.000000 5.160000 -25.735857 -17.075588 953.910034
5.000000 5.000000 5.200000 26.782892 -8.786100 794.518860
5.000000 5.040000 4.800000 31.585001 -27.746872 1767.501221
5.000000 5.040000 4.840000 76.344902 -61.311493 9587.642578
5.000000 5.040000 4.880000 153.588654 -39.886116 25180.376953
5.000000 5.040000 4.920000 199.898346 51.228550 42583.710938
5.000000 5.040000 4.960000 162.359375 163.107849 52964.734375
5.000000 5.040000 5.000000 50.820732 219.374695 50708.003906
5.000000 5.040000 5.040000 -65.258514 181.937378 37359.882812
5.000000 5.040000 5.080000 -114.904602 83.887856 20240.240234
5.000000 5.040000 5.120000 -83.958511 -1.750046 7052.094238
5.000000 5.040000 5.160000 -19.492882 -26.014166 1056.709229
5.000000 5.040000 5.200000 19.695499 0.593069 388.264435
5.000000 5.080000 4.800000 39.412827 2.880305 1561.666992
5.000000 5.080000 4.840000 77.913055 1.597548 6072.996582
5.000000 5.080000 4.880000 114.140808 45.498760 15098.261719
5.000000 5.080000 4.920000 104.829597 119.091934 25172.132812
5.000000 5.080000 4.960000 36.584267 173.107620 31304.656250
5.000000 5.080000 5.000000 -56.412983 164.737946 30321.013672
5.000000 5.080000 5.040000 -117.602470 95.621902 22973.888672
5.000000 5.080000 5.080000 -114.319740 11.380650 13198.522461
5.000000 5.080000 5.120000 -62.397728 -36.988945 5261.658691
5.000000 5.080000 5.160000 -7.809777 -33.391052 1175.955078
5.000000 5.080000 5.200000 14.714719 -2.410497 222.333450
5.000000 5.120000 4.800000 22.597004 30.176983 1421.274902
5.000000 5.120000 4.840000 35.707970 41.208237 2973.177734
5.000000 5.120000 4.880000 35.002014 69.616982 6071.665039
5.000000 5.120000 4.920000 6.996262 97.348228 9525.625000
5.000000 5.120000 4.960000 -41.129913 100.130234 11717.733398
5.000000 5.120000 5.000000 -83.783157 67.726357 11606.476562
5.000000 5.120000 5.040000 -95.601921 14.116714 9339.008789
5.000000 5.120000 5.080000 -70.943069 -31.984858 6055.950195
5.000000 5.120000 5.120000 -27.501787 -48.411701 3100.041260
5.000000 5.120000 5.160000 8.390882 -34.360191 1251.029663
5.000000 5.120000 5.200000 21.141714 -7.238378 499.366180
5.000000 5.160000 4.800000 -6.588239 35.983566 1338.221924
5.000000 5.160000 4.840000 -13.259613 35.440315 1431.833374
5.000000 5.160000 4.880000 -21.041191 32.585945 1504.575562
5.000000 5.160000 4.920000 -28.861481 27.046417 1564.493652
5.000000 5.160000 4.960000 -36.249184 18.122665 1642.434326
5.000000 5.160000 5.000000 -41.208603 4.180893 1715.628784
5.000000 5.160000 5.040000 -38.825150 -14.377762 1714.112305
5.000000 5.160000 5.080000 -24.486753 -31.601608 1598.262695
5.000000 5.160000 5.120000 -0.052023 -37.568260 1411.376831
5.000000 5.160000 5.160000 23.818443 -25.968401 1241.676025
5.000000 5.160000 5.200000 33.659439 -1.311578 1134.678101
5.000000 5.200000 4.800000 -26.218998 20.492081 1107.361206
5.000000 5.200000 4.840000 -32.660210 2.032014 1070.818359
5.000000 5.200000 4.880000 -22.815304 -17.513950 827.276550
5.000000 5.200000 4.920000 -2.066269 -23.044464 535.316772
5.000000 5.200000 4.960000 12.756140 -11.676968 299.070679
5.000000 5.200000 5.000000 10.679062 2.812637 121.953293
5.000000 5.200000 5.040000 -1.080246 4.036068 17.456776
5.000000 5.200000 5.080000 -4.232449 -8.913511 97.364304
5.000000 5.200000 5.120000 10.554560 -19.361731 486.275330
5.000000 5.200000 5.160000 32.064896 -10.367829 1135.649414
5.000000 5.200000 5.200000 38.638596 16.311390 1759.002441
5.040000 4.800000 4.800000 -26.687157 -16.686728 990.651245
5.040000 4.800000 4.840000 -15.156582 -21.772898 703.781067
5.040000 4.800000 4.880000 -2.771688 -19.455021 386.180084
5.040000 4.800000 4.920000 5.828392 -10.680733 148.048203
5.040000 4.800000 4.960000 7.857422 0.703760 62.234356
5.040000 4.800000 5.000000 3.959869 10.395336 123.743576
5.040000 4.800000 5.040000 -3.011314 16.381538 277.422821
5.040000 4.800000 5.080000 -10.842830 19.139549 483.889313
5.040000 4.800000 5.120000 -19.206444 19.383835 744.620544
5.040000 4.800000 5.160000 -28.021826 16.307388 1051.153564
5.040000 4.800000 5.200000 -35.295296 8.750495 1322.329102
5.040000 4.840000 4.800000 -23.930855 -24.122814 1154.595947
5.040000 4.840000 4.840000 -27.698637 -27.454742 1520.977295
5.040000 4.840000 4.880000 -27.425640 -41.109497 2442.156494
5.040000 4.840000 4.920000 -12.101151 -56.047180 3287.724121
5.040000 4.840000 4.960000 15.392372 -56.132317 3387.761963
5.040000 4.840000 5.000000 38.009907 -34.234795 2616.774170
5.040000 4.840000 5.040000 38.770531 -1.044998 1504.246094
5.040000 4.840000 5.080000 16.134506 22.613945 771.712769
5.040000 4.840000 5.120000 -14.248501 23.018272 732.860657
5.040000 4.840000 5.160000 -32.915005 4.248426 1101.446655
5.040000 4.840000 5.200000 -32.321667 -17.127316 1338.035156
5.040000 4.880000 4.800000 -18.760544 -34.154716 1518.502686
5.040000 4.880000 4.840000 -33.239758 -53.421528 3958.741211
5.040000 4.880000 4.880000 -21.896641 -91.497215 8851.203125
5.040000 4.880000 4.920000 26.363613 -114.849045 13885.342773
5.040000 4.880000 4.960000 86.182571 -93.065132 16088.554688
5.040000 4.880000 5.000000 114.752960 -30.606606 14105.006836
5.040000 4.880000 5.040000 90.162025 33.164082 9229.046875
5.040000 4.880000 5.080000 31.793989 57.292625 4293.302734
5.040000 4.880000 5.120000 -17.260578 34.049065 1457.266357
5.040000 4.880000 5.160000 -28.211477 -7.799213 856.715210
5.040000 4.880000 5.200000 -8.272652 -32.488403 1123.933105
5.040000 4.920000 4.800000 -5.182074 -44.220516 1982.307983
5.040000 4.920000 4.840000 -10.555912 -85.314484 7389.988281
5.040000 4.920000 4.880000 34.364777 -129.904297 18056.064453
5.040000 4.920000 4.920000 116.751038 -125.829948 29463.980469
5.040000 4.920000 4.960000 180.025558 -53.834927 35307.398438
5.040000 4.920000 5.000000 172.870789 47.426186 32133.550781
5.040000 4.920000 5.040000 97.456573 111.541031 21939.185547
5.040000 4.920000 5.080000 8.849087 102.034393 10489.324219
5.040000 4.920000 5.120000 -34.214211 41.943016 2929.828613
5.040000 4.920000 5.160000 -18.915787 -12.151350 505.462280
5.040000 4.920000 5.200000 18.526453 -23.517143 896.285522
5.040000 4.960000 4.800000 17.566416 -44.673130 2304.267578
5.040000 4.960000 4.840000 38.660458 -92.783241 10103.360352
5.040000 4.960000 4.880000 114.514450 -111.557343 25558.601562
5.040000 4.960000 4.920000 198.271301 -55.812981 42426.597656
5.040000 4.960000 4.960000 219.713211 58.199741 51661.105469
5.040000 4.960000 5.000000 150.694901 158.767975 47916.222656
5.040000 4.960000 5.040000 34.747025 179.739594 33513.679688
5.040000 4.960000 5.080000 -50.004478 118.327057 16501.740234
5.040000 4.960000 5.120000 -58.915207 33.731987 4608.848633
5.040000 4.960000 5.160000 -14.050376 -10.052654 298.468933
5.040000 4.960000 5.200000 26.422413 0.656411 698.574768
5.040000 5.000000 4.800000 39.349152 -27.467747 2302.832764
5.040000 5.000000 4.840000 84.332458 -58.411156 10523.826172
5.040000 5.000000 4.880000 160.972107 -33.454826 27031.244141
5.040000 5.000000 4.920000 203.952438 60.812523 45294.761719
5.040000 5.000000 4.960000 161.318069 172.301849 55711.445312
5.040000 5.000000 5.000000 47.171967 223.965652 52385.808594
5.040000 5.000000 5.040000 -65.856049 181.868240 37413.078125
5.040000 5.000000 5.080000 -109.157745 84.651817 19081.343750
5.040000 5.000000 5.120000 -75.319611 6.200047 5711.484375
5.040000 5.000000 5.160000 -16.060392 -10.429195 366.704346
5.040000 5.000000 5.200000 12.598997 16.616776 434.851929
5.040000 5.040000 4.800000 44.838074 3.238387 2020.940063
5.040000 5.040000 4.840000 91.989281 1.566035 8464.479492
5.040000 5.040000 4.880000 136.132599 56.106949 21680.074219
5.040000 5.040000 4.920000 123.033493 146.027710 36461.332031
5.040000 5.040000 4.960000 38.689850 209.017548 45185.242188
5.040000 5.040000 5.000000 -71.299637 194.930634 43081.589844
5.040000 5.040000 5.040000 -138.264328 111.566780 31564.169922
5.040000 5.040000 5.080000 -128.908035 17.732300 16931.714844
5.040000 5.040000 5.120000 -69.861115 -29.130070 5729.136230
5.040000 5.040000 5.160000 -17.165503 -19.427599 672.086060
5.040000 5.040000 5.200000 -3.978226 10.659572 129.452744
5.040000 5.080000 4.800000 27.219389 30.612833 1678.040771
5.040000 5.080000 4.840000 54.569588 47.759636 5258.822754
5.040000 5.080000 4.880000 57.970078 97.303482 12828.498047
5.040000 5.080000 4.920000 13.270302 145.589447 21372.388672
5.040000 5.080000 4.960000 -63.981754 150.043732 26606.785156
5.040000 5.080000 5.000000 -127.666008 97.707458 25845.355469
5.040000 5.080000 5.040000 -139.239594 18.285667 19722.029297
5.040000 5.080000 5.080000 -99.167686 -40.899853 11507.028320
5.040000 5.080000 5.120000 -42.852802 -53.802811 4731.104980
5.040000 5.080000 5.160000 -7.384359 -32.115883 1085.958740
5.040000 5.080000 5.200000 -2.409164 -7.107541 56.321213
5.040000 5.120000 4.800000 -3.501111 37.818871 1442.524780
5.040000 5.120000 4.840000 0.248631 51.353218 2637.214844
5.040000 5.120000 4.880000 -15.423054 70.623138 5225.498047
5.040000 5.120000 4.920000 -50.213612 74.904922 8132.154297
5.040000 5.120000 4.960000 -85.835083 51.312309 10000.615234
5.040000 5.120000 5.000000 -99.850517 6.646004 10014.294922
5.040000 5.120000 5.040000 -83.148338 -37.295261 8304.582031
5.040000 5.120000 5.080000 -45.916580 -60.110008 5721.545410
5.040000 5.120000 5.120000 -8.420663 -56.345871 3245.764648
5.040000 5.120000 5.160000 13.902592 -35.864609 1479.552246
5.040000 5.120000 5.200000 18.294451 -13.513272 517.295410
5.040000 5.160000 4.800000 -27.331745 22.810181 1267.328613
5.040000 5.160000 4.840000 -32.490471 18.683115 1404.689453
5.040000 5.160000 4.880000 -37.641155 10.640236 1530.071167
5.040000 5.160000 4.920000 -39.507858 -0.251316 1560.933960
5.040000 5.160000 4.960000 -37.600937 -11.608574 1548.589478
5.040000 5.160000 5.000000 -32.538658 -22.947304 1585.343018
5.040000 5.160000 5.040000 -22.788216 -34.333084 1698.063477
5.040000 5.160000 5.080000 -5.743370 -42.324570 1824.355469
5.040000 5.160000 5.120000 16.729073 -39.818367 1865.364258
5.040000 5.160000 5.160000 35.226696 -22.584812 1750.993896
5.040000 5.160000 5.200000 38.197639 3.561626 1471.744873
5.040000 5.200000 4.800000 -31.263290 0.451754 977.597412
5.040000 5.200000 4.840000 -28.477520 -17.159790 1105.427490
5.040000 5.200000 4.880000 -11.463242 -29.969559 1029.580322
5.040000 5.200000 4.920000 9.878626 -26.316174 790.128296
5.040000 5.200000 4.960000 19.230083 -9.745228 464.765564
5.040000 5.200000 5.000000 11.843330 2.777874 147.981064
5.040000 5.200000 5.040000 1.179962 -1.129307 2.667645
5.040000 5.200000 5.080000 5.027481 -14.502011 235.583893
5.040000 5.200000 5.120000 25.032524 -17.105396 919.221802
5.040000 5.200000 5.160000 42.516136 2.603558 1814.400391
5.040000 5.200000 5.200000 36.795246 32.868999 2434.261230
5.080000 4.800000 4.800000 -26.499331 -22.672129 1216.239990
5.080000 4.800000 4.840000 -12.883488 -28.507355 978.653503
5.080000 4.800000 4.880000 2.273552 -24.346468 597.919556
5.080000 4.800000 4.920000 11.157688 -11.424804 255.020142
5.080000 4.800000 4.960000 9.648613 3.127146 102.874771
5.080000 4.800000 5.000000 0.709354 12.041084 145.490906
5.080000 4.800000 5.040000 -9.014425 13.719852 269.494202
5.080000 4.800000 5.080000 -15.743745 11.999092 391.843719
5.080000 4.800000 5.120000 -21.125244 10.394747 554.326721
5.080000 4.800000 5.160000 -28.156437 7.654968 851.383423
5.080000 4.800000 5.200000 -35.614391 -0.161432 1268.410889
5.080000 4.840000 4.800000 -18.970589 -38.418900 1835.895020
5.080000 4.840000 4.840000 -11.207657 -46.086876 2249.611816
5.080000 4.840000 4.880000 3.749359 -51.763824 2693.551025
5.080000 4.840000 4.920000 24.043819 -47.340649 2819.242188
5.080000 4.840000 4.960000 39.943871 -28.925240 2432.182373
5.080000 4.840000 5.000000 40.857117 -2.605972 1676.095093
5.080000 4.840000 5.040000 24.407726 18.498589 937.934937
5.080000 4.840000 5.080000 -0.845955 23.667952 560.887573
5.080000 4.840000 5.120000 -21.544338 12.188590 612.720215
5.080000 4.840000 5.160000 -28.946936 -7.164749 889.258728
5.080000 4.840000 5.200000 -23.711735 -23.573383 1117.950684
5.080000 4.880000 4.800000 0.313478 -49.926304 2492.734131
5.080000 4.880000 4.840000 8.799095 -65.925201 4423.556641
5.080000 4.880000 4.880000 37.622864 -77.667526 7447.724609
5.080000 4.880000 4.920000 77.440468 -63.824257 10070.561523
5.080000 4.880000 4.960000 101.457245 -20.113861 10698.139648
5.080000 4.880000 5.000000 88.599991 31.815590 8862.190430
5.080000 4.880000 5.040000 44.040207 60.349045 5581.546875
5.080000 4.880000 5.080000 -3.557411 50.426075 2555.444336
5.080000 4.880000 5.120000 -25.950926 15.416595 911.121948
5.080000 4.880000 5.160000 -17.695400 -16.413612 582.533875
5.080000 4.880000 5.200000 3.537960 -26.887093 735.432922
5.080000 4.920000 4.800000 27.256298 -47.062675 2957.801270
5.080000 4.920000 4.840000 46.729836 -67.955139 6801.578125
5.080000 4.920000 4.880000 93.811554 -68.576942 13503.404297
5.080000 4.920000 4.920000 139.489883 -25.520943 20108.746094
5.080000 4.920000 4.960000 143.521286 47.804192 22883.599609
5.080000 4.920000 5.000000 92.994507 106.911217 20077.986328
5.080000 4.920000 5.040000 17.813454 113.772339 13261.464844
5.080000 4.920000 5.080000 -33.753784 70.302689 6081.786133
5.080000 4.920000 5.120000 -36.371323 15.066544 1549.873901
5.080000 4.920000 5.160000 -5.951225 -12.783550 198.836243
5.080000 4.920000 5.200000 20.904562 -6.317266 476.908569
5.080000 4.960000 4.800000 48.988213 -25.283068 3039.078613
5.080000 4.960000 4.840000 82.078537 -38.754368 8238.787109
5.080000 4.960000 4.880000 133.249039 -12.881612 17921.242188
5.080000 4.960000 4.920000 156.588272 59.212318 28025.984375
5.080000 4.960000 4.960000 117.734482 138.311905 32991.593750
5.080000 4.960000 5.000000 30.648228 169.889206 29801.656250
5.080000 4.960000 5.040000 -50.322090 133.149368 20261.066406
5.080000 4.960000 5.080000 -77.229828 59.949219 9558.355469
5.080000 4.960000 5.120000 -48.767998 4.807446 2401.429199
5.080000 4.960000 5.160000 -5.480030 -3.719124 43.862610
5.080000 4.960000 5.200000 12.556336 17.341913 458.403534
5.080000 5.000000 4.800000 51.568382 7.620381 2717.368408
5.080000 5.000000 4.840000 88.378601 11.666300 7946.879883
5.080000 5.000000 4.880000 120.354225 61.069229 18214.589844
5.080000 5.000000 4.920000 102.918556 136.775116 29299.660156
5.080000 5.000000 4.960000 27.054426 185.659027 35201.214844
5.080000 5.000000 5.000000 -65.777603 167.678772 32442.863281
5.080000 5.000000 5.040000 -117.559158 93.894302 22636.294922
5.080000 5.000000 5.080000 -104.234100 16.992748 11153.501953
5.080000 5.000000 5.120000 -53.553017 -16.284895 3133.123291
5.080000 5.000000 5.160000 -14.397423 -3.586760 220.150620
5.080000 5.000000 5.200000 -10.576233 19.821564 504.751099
5.080000 5.040000 4.800000 31.390617 34.323868 2163.498779
5.080000 5.040000 4.840000 56.973572 53.525681 6110.986328
5.080000 5.040000 4.880000 57.441078 104.708748 14263.399414
5.080000 5.040000 4.920000 8.748146 152.260910 23259.914062
5.080000 5.040000 4.960000 -70.616081 152.724792 28311.492188
5.080000 5.040000 5.000000 -131.630035 96.159317 26573.082031
5.080000 5.040000 5.040000 -137.266571 17.291473 19141.105469
5.080000 5.040000 5.080000 -94.069649 -35.082657 10079.891602
5.080000 5.040000 5.120000 -42.530693 -40.042343 3412.249023
5.080000 5.040000 5.160000 -17.905964 -17.177858 615.702393
5.080000 5.040000 5.200000 -21.455942 -0.779526 460.965118
5.080000 5.080000 4.800000 -0.062490 40.129967 1610.418091
5.080000 5.080000 4.840000 7.189072 60.854652 3754.971680
5.080000 5.080000 4.880000 -13.927822 90.596794 8401.763672
5.080000 5.080000 4.920000 -62.875175 98.066040 13570.236328
5.080000 5.080000 4.960000 -111.056808 65.189865 16583.332031
5.080000 5.080000 5.000000 -125.918945 5.584988 15886.773438
5.080000 5.080000 5.040000 -99.318680 -46.469826 12023.644531
5.080000 5.080000 5.080000 -52.880863 -65.394882 7072.876465
5.080000 5.080000 5.120000 -16.719412 -53.364925 3127.354004
5.080000 5.080000 5.160000 -3.958893 -32.478001 1070.493408
5.080000 5.080000 5.200000 -5.227125 -21.097321 472.419769
5.080000 5.120000 4.800000 -24.017273 24.601025 1182.039795
5.080000 5.120000 4.840000 -28.703131 33.505943 1946.517822
5.080000 5.120000 4.880000 -47.935043 35.885139 3585.511719
5.080000 5.120000 4.920000 -70.180038 19.778385 5316.422363
5.080000 5.120000 4.960000 -78.507248 -11.877056 6304.452637
5.080000 5.120000 5.000000 -65.215752 -43.800411 6171.570312
5.080000 5.120000 5.040000 -37.076408 -61.289543 5131.068359
5.080000 5.120000 5.080000 -7.893858 -60.527439 3725.883789
5.080000 5.120000 5.120000 12.515305 -47.831390 2444.474609
5.080000 5.120000 5.160000 22.480556 -31.546143 1500.534546
5.080000 5.120000 5.200000 24.551762 -16.242771 866.616577
5.080000 5.160000 4.800000 -28.984510 1.802624 843.351318
5.080000 5.160000 4.840000 -32.425453 -3.722132 1065.264282
5.080000 5.160000 4.880000 -32.688248 -14.816822 1288.059692
5.080000 5.160000 4.920000 -25.640596 -26.010132 1333.967163
5.080000 5.160000 4.960000 -14.358225 -31.747665 1214.072876
5.080000 5.160000 5.000000 -4.189323 -32.666203 1084.631226
5.080000 5.160000 5.040000 4.474640 -33.027920 1110.865967
5.080000 5.160000 5.080000 15.890915 -33.005661 1341.894775
5.080000 5.160000 5.120000 31.010645 -26.521162 1665.032104
5.080000 5.160000 5.160000 42.202072 -8.852010 1859.372925
5.080000 5.160000 5.200000 39.013630 14.437198 1730.496094
5.080000 5.200000 4.800000 -19.301031 -11.896146 514.048096
5.080000 5.200000 4.840000 -13.077270 -24.100409 751.844727
5.080000 5.200000 4.880000 4.456685 -29.723845 903.369019
5.080000 5.200000 4.920000 22.027828 -20.038588 886.770203
5.080000 5.200000 4.960000 25.698698 -1.990204 664.384033
5.080000 5.200000 5.000000 15.552925 7.925157 304.701599
5.080000 5.200000 5.040000 7.152454 2.365450 56.752956
5.080000 5.200000 5.080000 14.309176 -7.075977 254.821991
5.080000 5.200000 5.120000 31.950819 -1.809807 1024.130249
5.080000 5.200000 5.160000 39.462875 22.005920 2041.578979
5.080000 5.200000 5.200000 22.732086 46.341232 2664.257568
5.120000 4.800000 4.800000 -23.984873 -30.606663 1512.041992
5.120000 4.800000 4.840000 -5.840584 -34.604092 1231.555542
5.120000 4.800000 4.880000 10.862471 -24.811136 733.585754
5.120000 4.800000 4.920000 15.928745 -6.825130 300.307343
5.120000 4.800000 4.960000 7.921944 7.774315 123.197159
5.120000 4.800000 5.000000 -4.945901 11.706284 161.499008
5.120000 4.800000 5.040000 -13.394920 7.715145 238.947357
5.120000 4.800000 5.080000 -15.914459 3.758643 267.397430
5.120000 4.800000 5.120000 -18.383543 3.251612 348.527618
5.120000 4.800000 5.160000 -25.242603 1.409400 639.175415
5.120000 4.800000 5.200000 -32.576855 -8.187944 1128.293945
5.120000 4.840000 4.800000 -4.308083 -48.604263 2380.934082
5.120000 4.840000 4.840000 14.692957 -48.226646 2541.692383
5.120000 4.840000 4.880000 31.756527 -36.600578 2348.079346
5.120000 4.840000 4.920000 39.512623 -16.837711 1844.755859
5.120000 4.840000 4.960000 34.726257 3.361988 1217.215942
5.120000 4.840000 5.000000 20.272015 16.419670 680.560181
5.120000 4.840000 5.040000 2.695349 18.985798 367.725403
5.120000 4.840000 5.080000 -11.953489 12.421523 297.180145
5.120000 4.840000 5.120000 -20.370035 0.330123 415.047302
5.120000 4.840000 5.160000 -21.498768 -13.635156 648.114502
5.120000 4.840000 5.200000 -15.422132 -26.095890 918.837646
5.120000 4.880000 4.800000 27.478746 -48.914406 3147.700684
5.120000 4.880000 4.840000 46.271782 -44.374741 4110.195312
5.120000 4.880000 4.880000 64.877213 -28.050005 4995.855469
5.120000 4.880000 4.920000 73.019051 0.338242 5331.895996
5.120000 4.880000 4.960000 61.993393 31.125435 4811.973633
5.120000 4.880000 5.000000 33.551926 49.337875 3559.957520
5.120000 4.880000 5.040000 1.061882 45.647148 2084.789795
5.120000 4.880000 5.080000 -19.357395 23.945511 948.096252
5.120000 4.880000 5.120000 -20.306753 -1.631893 415.027313
5.120000 4.880000 5.160000 -7.190090 -17.641159 362.907867
5.120000 4.880000 5.200000 8.207150 -20.364408 482.066437
5.120000 4.920000 4.800000 53.960709 -25.302307 3551.964844
5.120000 4.920000 4.840000 71.490227 -16.130680 5371.051270
5.120000 4.920000 4.880000 87.868042 8.898612 7799.978027
5.120000 4.920000 4.920000 86.272179 47.687595 9716.995117
5.120000 4.920000 4.960000 57.038044 81.696854 9927.714844
5.120000 4.920000 5.000000 10.562799 89.297836 8085.676270
5.120000 4.920000 5.040000 -27.879688 65.129410 5019.116699
5.120000 4.920000 5.080000 -38.242188 26.168335 2147.246582
5.120000 4.920000 5.120000 -21.876051 -2.303715 483.868713
5.120000 4.920000 5.160000 1.782280 -7.668285 61.979122
5.120000 4.920000 5.200000 14.110968 2.172567 203.839447
5.120000 4.960000 4.800000 57.591152 11.851346 3457.195068
5.120000 4.960000 4.840000 71.408569 25.867432 5768.307617
5.120000 4.960000 4.880000 77.584328 58.508514 9442.574219
5.120000 4.960000 4.920000 56.826057 98.156021 12863.804688
5.120000 4.960000 4.960000 8.363528 118.040741 14003.564453
5.120000 4.960000 5.000000 -43.676300 100.247803 11957.241211
5.120000 4.960000 5.040000 -68.898422 54.326450 7698.355957
5.120000 4.960000 5.080000 -57.097942 10.611886 3372.787109
5.120000 4.960000 5.120000 -26.259089 -6.178441 727.712891
5.120000 4.960000 5.160000 -4.233806 2.900955 26.340651
5.120000 4.960000 5.200000 -2.991431 16.514660 281.682648
5.120000 5.000000 4.800000 34.956917 41.261059 2924.460938
5.120000 5.000000 4.840000 41.890152 58.045406 5124.054199
5.120000 5.000000 4.880000 32.535847 89.471497 9063.730469
5.120000 5.000000 4.920000 -5.237273 113.999771 13023.376953
5.120000 5.000000 4.960000 -57.681084 106.619659 14694.859375
5.120000 5.000000 5.000000 -93.568802 64.469315 12911.414062
5.120000 5.000000 5.040000 -91.770294 12.469632 8577.279297
5.120000 5.000000 5.080000 -60.436771 -18.087694 3979.768066
5.120000 5.000000 5.120000 -28.246758 -16.957100 1085.422607
5.120000 5.000000 5.160000 -16.874275 -0.969610 285.681305
5.120000 5.000000 5.200000 -22.898464 6.127928 561.891174
5.120000 5.040000 4.800000 0.574231 46.532425 2165.596436
5.120000 5.040000 4.840000 -0.606865 61.392097 3769.357910
5.120000 5.040000 4.880000 -21.719158 80.215431 6906.237305
5.120000 5.040000 4.920000 -61.096912 80.205902 10165.819336
5.120000 5.040000 4.960000 -95.939987 49.624825 11667.104492
5.120000 5.040000 5.000000 -102.206787 1.901529 10449.843750
5.120000 5.040000 5.040000 -77.254013 -34.990810 7192.539551
5.120000 5.040000 5.080000 -41.925240 -43.562946 3655.456055
5.120000 5.040000 5.120000 -20.224216 -30.897228 1363.657715
5.120000 5.040000 5.160000 -17.810719 -18.244141 650.070312
5.120000 5.040000 5.200000 -20.881136 -18.357571 773.022217
5.120000 5.080000 4.800000 -24.192993 28.740719 1411.329834
5.120000 5.080000 4.840000 -30.877094 36.827396 2309.652100
5.120000 5.080000 4.880000 -51.816257 38.039539 4131.931152
5.120000 5.080000 4.920000 -74.826294 19.643627 5984.846191
5.120000 5.080000 4.960000 -81.318344 -14.212479 6814.667480
5.120000 5.080000 5.000000 -64.276306 -45.055603 6161.450684
5.120000 5.080000 5.040000 -34.807892 -56.934433 4453.119141
5.120000 5.080000 5.080000 -10.918303 -50.017174 2620.927002
5.120000 5.080000 5.120000 -0.985887 -37.540234 1410.241089
5.120000 5.080000 5.160000 1.044446 -30.843927 952.438721
5.120000 5.080000 5.200000 5.375820 -29.106430 876.083679
5.120000 5.120000 4.800000 -27.920715 4.465143 799.503845
5.120000 5.120000 4.840000 -34.736889 3.954132 1222.286621
5.120000 5.120000 4.880000 -43.766525 -6.766275 1961.291260
5.120000 5.120000 4.920000 -43.695560 -25.909250 2580.591309
5.120000 5.120000 4.960000 -30.398022 -42.598526 2738.674072
5.120000 5.120000 5.000000 -10.729336 -47.945946 2413.932373
5.120000 5.120000 5.040000 5.303499 -42.930595 1871.163086
5.120000 5.120000 5.080000 14.287292 -35.031937 1431.363281
5.120000 5.120000 5.120000 20.263844 -28.770233 1238.349609
5.120000 5.120000 5.160000 26.968309 -21.706863 1198.477661
5.120000 5.120000 5.200000 31.766808 -10.018606 1109.502563
5.120000 5.160000 4.800000 -16.829342 -9.055235 365.224030
5.120000 5.160000 4.840000 -18.828381 -16.048800 612.071899
5.120000 5.160000 4.880000 -12.645506 -26.832756 879.905640
5.120000 5.160000 4.920000 1.707165 -31.300539 982.638184
5.120000 5.160000 4.960000 14.884109 -25.258537 859.530396
5.120000 5.160000 5.000000 19.360374 -15.359468 610.737305
5.120000 5.160000 5.040000 18.280472 -10.673851 448.106750
5.120000 5.160000 5.080000 20.987228 -11.189824 565.675903
5.120000 5.160000 5.120000 30.379166 -7.563560 980.101135
5.120000 5.160000 5.160000 37.609024 6.829612 1461.082275
5.120000 5.160000 5.200000 31.533413 25.722216 1655.988525
5.120000 5.200000 4.800000 -6.778817 -8.092632 111.443062
5.120000 5.200000 4.840000 -1.804396 -17.400791 306.043365
5.120000 5.200000 4.880000 13.632362 -19.126959 551.681885
5.120000 5.200000 4.920000 26.623842 -6.433684 750.221252
5.120000 5.200000 4.960000 25.004242 11.249115 751.754700
5.120000 5.200000 5.000000 12.336870 18.390282 490.400818
5.120000 5.200000 5.040000 4.614567 11.731977 158.933502
5.120000 5.200000 5.080000 11.503160 4.994338 157.266113
5.120000 5.200000 5.120000 23.832161 13.204792 742.338440
5.120000 5.200000 5.160000 22.892988 33.998192 1679.966064
5.120000 5.200000 5.200000 2.228424 48.069183 2315.612305
5.160000 4.800000 4.800000 -16.852585 -38.183270 1741.971680
5.160000 4.800000 4.840000 3.981402 -35.968155 1309.559692
5.160000 4.800000 4.880000 17.101145 -19.762232 682.994995
5.160000 4.800000 4.920000 14.809700 -0.773176 219.925018
5.160000 4.800000 4.960000 1.851041 8.698929 79.097717
5.160000 4.800000 5.000000 -9.872558 6.191777 135.805496
5.160000 4.800000 5.040000 -13.279562 -0.257286 176.412964
5.160000 4.800000 5.080000 -12.090332 -2.203574 151.031876
5.160000 4.800000 5.120000 -14.577010 -0.348208 212.610474
5.160000 4.800000 5.160000 -22.404270 -2.991533 510.900604
5.160000 4.800000 5.200000 -27.326128 -15.158199 976.488281
5.160000 4.840000 4.800000 14.390076 -47.862152 2497.859863
5.160000 4.840000 4.840000 33.463356 -32.997593 2208.637207
5.160000 4.840000 4.880000 38.021866 -9.817939 1542.054199
5.160000 4.840000 4.920000 27.480883 8.748886 831.741943
5.160000 4.840000 4.960000 10.854631 14.957136 341.538940
5.160000 4.840000 5.000000 -1.945068 10.996777 124.712387
5.160000 4.840000 5.040000 -7.993451 4.234509 81.826324
5.160000 4.840000 5.080000 -10.919279 -1.161247 120.579155
5.160000 4.840000 5.120000 -13.872215 -7.127456 243.238983
5.160000 4.840000 5.160000 -14.469907 -16.691393 487.980804
5.160000 4.840000 5.200000 -7.580283 -27.528799 815.295471
5.160000 4.880000 4.800000 46.988853 -30.019423 3109.118164
5.160000 4.880000 4.840000 55.139164 -6.288911 3079.877686
5.160000 4.880000 4.880000 47.748878 16.925306 2566.421387
5.160000 4.880000 4.920000 29.918530 30.235237 1809.287964
5.160000 4.880000 4.960000 10.703027 31.102634 1081.928589
5.160000 4.880000 5.000000 -3.204239 23.293686 552.862976
5.160000 4.880000 5.040000 -10.094831 12.191977 250.549896
5.160000 4.880000 5.080000 -11.237860 1.109471 127.520416
5.160000 4.880000 5.120000 -7.741655 -8.656284 134.864487
5.160000 4.880000 5.160000 0.097699 -15.630245 244.314117
5.160000 4.880000 5.200000 10.994808 -17.338619 421.513519
5.160000 4.920000 4.800000 57.802437 8.321903 3410.375732
5.160000 4.920000 4.840000 51.492432 31.267757 3629.143066
5.160000 4.920000 4.880000 34.380474 47.027256 3393.579590
5.160000 4.920000 4.920000 12.849508 51.453171 2812.538574
5.160000 4.920000 4.960000 -6.304079 44.872437 2053.276855
5.160000 4.920000 5.000000 -18.106661 30.918875 1283.828003
5.160000 4.920000 5.040000 -20.480206 14.963644 643.349487
5.160000 4.920000 5.080000 -14.685190 2.383212 221.334518
5.160000 4.920000 5.120000 -4.789212 -3.467351 34.959072
5.160000 4.920000 5.160000 4.359426 -2.679404 26.183802
5.160000 4.920000 5.200000 9.833989 1.813601 99.996498
5.160000 4.960000 4.800000 37.776104 43.330788 3304.591309
5.160000 4.960000 4.840000 21.580280 56.482124 3655.938965
5.160000 4.960000 4.880000 1.169759 60.743275 3691.113770
5.160000 4.960000 4.920000 -18.802570 55.103180 3389.896973
5.160000 4.960000 4.960000 -33.162117 40.708221 2756.885254
5.160000 4.960000 5.000000 -37.517273 22.029144 1892.828979
5.160000 4.960000 5.040000 -31.306013 6.199117 1018.495483
5.160000 4.960000 5.080000 -19.485359 -0.948655 380.579163
5.160000 4.960000 5.120000 -9.714359 0.696615 94.854050
5.160000 4.960000 5.160000 -6.420224 5.463822 71.072632
5.160000 4.960000 5.200000 -7.419043 7.275625 107.976921
5.160000 5.000000 4.800000 0.514041 52.929138 2801.757812
5.160000 5.000000 4.840000 -16.571138 53.712376 3159.621826
5.160000 5.000000 4.880000 -33.319386 47.438255 3360.569580
5.160000 5.000000 4.920000 -46.306511 33.725842 3281.725342
5.160000 5.000000 4.960000 -50.821667 15.011576 2808.189209
5.160000 5.000000 5.000000 -44.614334 -2.141009 1995.022705
5.160000 5.000000 5.040000 -31.629541 -10.703844 1115.000244
5.160000 5.000000 5.080000 -20.333965 -9.302036 499.998047
5.160000 5.000000 5.120000 -16.717295 -4.052403 295.889923
5.160000 5.000000 5.160000 -18.743505 -2.950831 360.026398
5.160000 5.000000 5.200000 -18.640381 -7.798891 408.286499
5.160000 5.040000 4.800000 -28.641777 34.725674 2026.223877
5.160000 5.040000 4.840000 -39.784962 27.381668 2332.598877
5.160000 5.040000 4.880000 -48.576817 15.025288 2585.466309
5.160000 5.040000 4.920000 -50.959557 -1.700822 2599.769287
5.160000 5.040000 4.960000 -43.873013 -17.556570 2233.074219
5.160000 5.040000 5.000000 -30.099781 -25.561970 1559.411133
5.160000 5.040000 5.040000 -17.729868 -23.603321 871.464966
5.160000 5.040000 5.080000 -13.284052 -17.411198 479.615845
5.160000 5.040000 5.120000 -15.218153 -15.507820 472.084656
5.160000 5.040000 5.160000 -15.327146 -20.535818 656.641235
5.160000 5.040000 5.200000 -7.432142 -26.157455 739.449219
5.160000 5.080000 4.800000 -33.701958 6.824866 1182.400757
5.160000 5.080000 4.840000 -37.965439 -2.464926 1447.450317
5.160000 5.080000 4.880000 -38.058853 -15.806420 1698.319214
5.160000 5.080000 4.920000 -29.859081 -28.941437 1729.171509
5.160000 5.080000 4.960000 -15.264015 -34.643234 1433.143799
5.160000 5.080000 5.000000 -2.386309 -30.294773 923.467712
5.160000 5.080000 5.040000 1.844254 -21.734024 475.769073
5.160000 5.080000 5.080000 -1.001401 -18.045601 326.646515
5.160000 5.080000 5.120000 -2.123144 -22.159401 495.546814
5.160000 5.080000 5.160000 5.191995 -27.414257 778.498291
5.160000 5.080000 5.200000 17.970739 -24.398981 918.257812
5.160000 5.120000 4.800000 -20.062742 -9.207838 487.297882
5.160000 5.120000 4.840000 -20.460007 -17.539177 726.234619
5.160000 5.120000 4.880000 -13.416823 -28.109261 970.141724
5.160000 5.120000 4.920000 1.196264 -32.211834 1039.033325
5.160000 5.120000 4.960000 14.701567 -25.195061 850.927124
5.160000 5.120000 5.000000 18.210808 -12.855909 496.907898
5.160000 5.120000 5.040000 12.609270 -6.134156 196.621567
5.160000 5.120000 5.080000 8.134368 -9.328859 153.195557
5.160000 5.120000 5.120000 13.267244 -15.091385 403.769653
5.160000 5.120000 5.160000 25.077370 -12.318457 780.618835
5.160000 5.120000 5.200000 31.951139 1.473491 1023.046509
5.160000 5.160000 4.800000 -6.739927 -7.091907 95.721756
5.160000 5.160000 4.840000 -5.239925 -15.596785 270.716492
5.160000 5.160000 4.880000 6.638803 -21.163755 491.978241
5.160000 5.160000 4.920000 20.972151 -14.572405 652.186096
5.160000 5.160000 4.960000 25.310318 0.798084 641.249146
5.160000 5.160000 5.000000 17.071774 11.795260 430.573639
5.160000 5.160000 5.040000 7.102986 10.174192 153.966614
5.160000 5.160000 5.080000 7.613853 2.239324 62.985336
5.160000 5.160000 5.120000 17.992416 1.898322 327.330688
5.160000 5.160000 5.160000 25.040411 14.572346 839.375427
5.160000 5.160000 5.200000 17.846931 30.402979 1242.854126
5.160000 5.200000 4.800000 -7.059622 1.135802 51.128307
5.160000 5.200000 4.840000 -1.963746 -8.854023 82.250023
5.160000 5.200000 4.880000 12.226867 -8.068887 214.603210
5.160000 5.200000 4.920000 20.254303 6.302320 449.956024
5.160000 5.200000 4.960000 13.004181 21.371643 625.855835
5.160000 5.200000 5.000000 -1.620089 23.325842 546.719604
5.160000 5.200000 5.040000 -7.750957 13.620789 245.603210
5.160000 5.200000 5.080000 -0.283003 7.402950 54.883762
5.160000 5.200000 5.120000 8.737787 15.550334 318.161804
5.160000 5.200000 5.160000 4.041471 31.205986 990.147034
5.160000 5.200000 5.200000 -14.455000 36.933216 1573.009521
5.200000 4.800000 4.800000 -6.219397 -41.712757 1778.635010
5.200000 4.800000 4.840000 11.705650 -32.621693 1201.197021
5.200000 4.800000 4.880000 17.461126 -14.726284 521.754395
5.200000 4.800000 4.920000 9.798822 -0.606665 96.384964
5.200000 4.800000 4.960000 -2.150743 2.253281 9.702971
5.200000 4.800000 5.000000 -8.433405 -2.642691 78.106140
5.200000 4.800000 5.040000 -7.791233 -6.232432 99.546524
5.200000 4.800000 5.080000 -7.178988 -4.525435 72.017441
5.200000 4.800000 5.120000 -12.220555 -2.735903 156.827133
5.200000 4.800000 5.160000 -19.409630 -8.407202 447.414764
5.200000 4.800000 5.200000 -19.076693 -21.206148 813.620911
5.200000 4.840000 4.800000 27.540001 -36.948421 2123.637451
5.200000 4.840000 4.840000 35.394470 -13.802084 1443.266113
5.200000 4.840000 4.880000 24.930010 5.953906 656.954346
5.200000 4.840000 4.920000 6.738160 10.708195 160.068237
5.200000 4.840000 4.960000 -5.063834 2.653997 32.686111
5.200000 4.840000 5.000000 -5.688994 -6.696825 77.212112
5.200000 4.840000 5.040000 -1.875261 -9.214096 88.416168
5.200000 4.840000 5.080000 -2.219453 -7.538153 61.749718
5.200000 4.840000 5.120000 -6.807704 -9.951229 145.371796
5.200000 4.840000 5.160000 -7.412056 -19.168501 422.369995
5.200000 4.840000 5.200000 2.373178 -27.742876 775.299133
5.200000 4.880000 4.800000 48.231358 -5.822051 2360.160156
5.200000 4.880000 4.840000 36.420498 19.443014 1704.483398
5.200000 4.880000 4.880000 12.070665 26.937347 871.321655
5.200000 4.880000 4.920000 -6.292032 15.635712 284.065155
5.200000 4.880000 4.960000 -8.591673 -0.955983 74.730743
5.200000 4.880000 5.000000 -0.208754 -9.090824 82.686661
5.200000 4.880000 5.040000 6.409257 -7.059873 90.920380
5.200000 4.880000 5.080000 5.457344 -3.764609 43.954887
5.200000 4.880000 5.120000 2.422687 -6.796935 52.067738
5.200000 4.880000 5.160000 5.967429 -13.591206 220.331085
5.200000 4.880000 5.200000 16.967020 -14.708784 504.228088
5.200000 4.920000 4.800000 38.614246 32.035118 2517.308838
5.200000 4.920000 4.840000 10.623785 43.430588 1999.080811
5.200000 4.920000 4.880000 -14.507311 31.060623 1175.224365
5.200000 4.920000 4.920000 -20.568951 7.551770 480.110962
5.200000 4.920000 4.960000 -8.797913 -8.250777 145.478592
5.200000 4.920000 5.000000 6.171644 -8.074713 103.290176
5.200000 4.920000 5.040000 11.623221 1.038265 136.177261
5.200000 4.920000 5.080000 7.517840 6.768116 102.325317
5.200000 4.920000 5.120000 3.207210 4.451201 30.099388
5.200000 4.920000 5.160000 5.731016 -0.050950 32.847145
5.200000 4.920000 5.200000 12.640234 1.378886 161.676834
5.200000 4.960000 4.800000 4.415369 50.251694 2544.728027
5.200000 4.960000 4.840000 -24.886362 40.177174 2233.536377
5.200000 4.960000 4.880000 -36.366817 13.115202 1494.553955
5.200000 4.960000 4.920000 -24.833460 -10.530855 727.599670
5.200000 4.960000 4.960000 -3.044241 -15.706510 255.961853
5.200000 4.960000 5.000000 11.115883 -4.054137 139.998886
5.200000 4.960000 5.040000 9.934085 10.537844 209.732193
5.200000 4.960000 5.080000 -0.228587 15.934670 253.965973
5.200000 4.960000 5.120000 -7.796672 11.236239 187.041168
5.200000 4.960000 5.160000 -7.167208 4.402953 70.754860
5.200000 4.960000 5.200000 -1.794858 2.806746 11.099342
5.200000 5.000000 4.800000 -29.678432 37.914444 2318.314453
5.200000 5.000000 4.840000 -45.450001 12.839855 2230.564453
5.200000 5.000000 4.880000 -38.072430 -15.153636 1679.142578
5.200000 5.000000 4.920000 -14.224907 -27.474298 957.185059
5.200000 5.000000 4.960000 7.902732 -18.469360 403.570435
5.200000 5.000000 5.000000 13.797859 1.424979 192.411484
5.200000 5.000000 5.040000 3.130958 15.816715 259.971375
5.200000 5.000000 5.080000 -12.448273 15.684608 400.966431
5.200000 5.000000 5.120000 -20.409729 4.595702 437.677521
5.200000 5.000000 5.160000 -16.796881 -6.799026 328.361938
5.200000 5.000000 5.200000 -6.972582 -10.276076 154.214645
5.200000 5.040000 4.800000 -41.185059 8.416999 1767.054932
5.200000 5.040000 4.840000 -39.549995 -17.365906 1865.776855
5.200000 5.040000 4.880000 -19.745110 -34.648647 1590.398193
5.200000 5.040000 4.920000 5.570980 -32.275883 1072.768433
5.200000 5.040000 4.960000 19.627695 -13.222487 560.080566
5.200000 5.040000 5.000000 14.429116 7.734655 268.024292
5.200000 5.040000 5.040000 -3.588576 15.657163 258.024628
5.200000 5.040000 5.080000 -19.427879 6.628807 421.383575
5.200000 5.040000 5.120000 -21.543732 -10.431202 572.942383
5.200000 5.040000 5.160000 -9.985419 -21.929710 580.620789
5.200000 5.040000 5.200000 5.261768 -20.280857 438.999390
5.200000 5.080000 4.800000 -28.653137 -13.634599 1006.904541
5.200000 5.080000 4.840000 -17.390398 -30.088993 1207.773438
5.200000 5.080000 4.880000 3.852034 -34.620682 1213.429688
5.200000 5.080000 4.920000 22.500113 -22.347862 1005.682007
5.200000 5.080000 4.960000 25.924049 -0.719649 672.574219
5.200000 5.080000 5.000000 12.159550 14.913981 370.281494
5.200000 5.080000 5.040000 -7.448386 13.388569 234.732239
5.200000 5.080000 5.080000 -17.053556 -2.841347 298.897034
5.200000 5.080000 5.120000 -9.381664 -19.695761 475.938629
5.200000 5.080000 5.160000 8.580647 -23.432507 622.709839
5.200000 5.080000 5.200000 22.271181 -11.877438 637.078979
5.200000 5.120000 4.800000 -10.498463 -14.972593 334.396271
5.200000 5.120000 4.840000 0.264019 -22.863531 522.810730
5.200000 5.120000 4.880000 16.617958 -20.400276 692.327759
5.200000 5.120000 4.920000 27.170431 -5.143291 764.685730
5.200000 5.120000 4.960000 22.391258 13.513964 683.995667
5.200000 5.120000 5.000000 5.087268 21.105839 471.336731
5.200000 5.120000 5.040000 -10.272755 11.629765 240.780914
5.200000 5.120000 5.080000 -10.302333 -5.813060 139.929733
5.200000 5.120000 5.120000 4.628848 -14.876189 242.727249
5.200000 5.120000 5.160000 20.713125 -7.168848 480.425964
5.200000 5.120000 5.200000 23.959614 10.387262 681.958313
5.200000 5.160000 4.800000 -5.611631 -4.031294 47.741737
5.200000 5.160000 4.840000 1.761222 -10.509686 113.555397
5.200000 5.160000 4.880000 14.328095 -6.747389 250.821564
5.200000 5.160000 4.920000 19.434093 7.930242 440.572723
5.200000 5.160000 4.960000 10.033223 21.632019 568.609802
5.200000 5.160000 5.000000 -6.311292 21.680708 509.885498
5.200000 5.160000 5.040000 -14.206588 8.577214 275.395752
5.200000 5.160000 5.080000 -6.441520 -3.659900 54.888054
5.200000 5.160000 5.120000 8.154195 -1.836515 69.863678
5.200000 5.160000 5.160000 13.914623 12.693885 354.751465
5.200000 5.160000 5.200000 4.675618 25.933189 694.391724
5.200000 5.200000 4.800000 -15.250158 0.200348 232.607468
5.200000 5.200000 4.840000 -6.318893 -8.674374 115.173172
5.200000 5.200000 4.880000 6.032894 -3.884764 51.487202
5.200000 5.200000 4.920000 7.552403 10.133457 159.725754
5.200000 5.200000 4.960000 -4.000530 18.600216 361.972260
5.200000 5.200000 5.000000 -16.329720 13.129643 439.047272
5.200000 5.200000 5.040000 -16.679684 1.187850 279.622833
5.200000 5.200000 5.080000 -6.417063 -2.608254 47.981686
5.200000 5.200000 5.120000 0.691130 6.621466 44.321468
5.200000 5.200000 5.160000 -5.541734 18.493034 372.703125
5.200000 5.200000 5.200000 -20.042797 19.495529 781.789368
