#kx 	ky 	kz 	real 	imag 	intensity
6.800000 2.800000 4.800000 -25.943478 1.102767 674.280090
6.800000 2.800000 4.840000 -24.130154 -5.492394 612.430725
6.800000 2.800000 4.880000 -20.871380 -11.879412 576.734924
6.800000 2.800000 4.920000 -14.368374 -17.971470 529.423889
6.800000 2.800000 4.960000 -3.674181 -20.547749 435.709564
6.800000 2.800000 5.000000 8.076831 -15.897216 317.956665
6.800000 2.800000 5.040000 14.919351 -4.371787 241.699539
6.800000 2.800000 5.080000 13.149942 8.653598 247.805756
6.800000 2.800000 5.120000 4.711651 17.054039 313.039886
6.800000 2.800000 5.160000 -5.055824 18.982464 385.895294
6.800000 2.800000 5.200000 -12.783061 17.075691 454.985870
6.800000 2.840000 4.800000 -19.739975 -20.209160 798.076782
6.800000 2.840000 4.840000 -14.265878 -21.632792 671.492920
6.800000 2.840000 4.880000 -8.953800 -23.451225 630.130493
6.800000 2.840000 4.920000 -1.199709 -23.553329 556.198669
6.800000 2.840000 4.960000 6.635687 -18.225845 376.213776
6.800000 2.840000 5.000000 8.930593 -8.580729 153.384399
6.800000 2.840000 5.040000 3.855815 -1.185827 16.273495
6.800000 2.840000 5.080000 -3.089909 -1.158267 10.889116
6.800000 2.840000 5.120000 -4.508207 -5.647513 52.218338
6.800000 2.840000 5.160000 0.017859 -6.306330 39.770115
6.800000 2.840000 5.200000 2.270574 0.813026 5.816519
6.800000 2.880000 4.800000 0.688112 -31.758904 1009.101440
6.800000 2.880000 4.840000 5.651680 -26.971991 759.429749
6.800000 2.880000 4.880000 9.539654 -23.436123 640.256836
6.800000 2.880000 4.920000 13.156849 -17.817501 490.566040
6.800000 2.880000 4.960000 12.095433 -9.931892 244.941986
6.800000 2.880000 5.000000 4.575714 -6.164196 58.934464
6.800000 2.880000 5.040000 -2.422476 -12.139464 153.234985
6.800000 2.880000 5.080000 1.359169 -23.185841 539.430542
6.800000 2.880000 5.120000 16.794170 -25.744934 944.845825
6.800000 2.880000 5.160000 30.528179 -11.142879 1056.133545
6.800000 2.880000 5.200000 26.234856 12.487200 844.197815
6.800000 2.920000 4.800000 23.925329 -25.275208 1211.257568
6.800000 2.920000 4.840000 24.181105 -16.018618 841.321899
6.800000 2.920000 4.880000 22.725140 -9.513772 606.943787
6.800000 2.920000 4.920000 18.744781 -3.656430 364.736298
6.800000 2.920000 4.960000 10.323167 -2.112520 111.030518
6.800000 2.920000 5.000000 3.036356 -10.471136 118.864151
6.800000 2.920000 5.040000 8.130395 -25.210005 701.647705
6.800000 2.920000 5.080000 29.129929 -31.049450 1812.621094
6.800000 2.920000 5.120000 52.203030 -14.242432 2928.003174
6.800000 2.920000 5.160000 54.759235 20.303875 3410.821289
6.800000 2.920000 5.200000 27.163465 48.084145 3049.938965
6.800000 2.960000 4.800000 35.591759 -4.032298 1283.032715
6.800000 2.960000 4.840000 28.689478 5.240730 850.551392
6.800000 2.960000 4.880000 20.858280 9.221169 520.097778
6.800000 2.960000 4.920000 12.174442 8.454269 219.691711
6.800000 2.960000 4.960000 5.565485 -0.090153 30.982750
6.800000 2.960000 5.000000 9.894449 -14.684074 313.522156
6.800000 2.960000 5.040000 30.465843 -22.486301 1433.801392
6.800000 2.960000 5.080000 56.891285 -7.866946 3298.507324
6.800000 2.960000 5.120000 65.703979 29.559723 5190.790039
6.800000 2.960000 5.160000 40.529831 67.345047 6178.022461
6.800000 2.960000 5.200000 -8.797400 75.663200 5802.313965
6.800000 3.000000 4.800000 28.601883 18.797951 1171.430664
6.800000 3.000000 4.840000 15.793766 22.455307 753.683838
6.800000 3.000000 4.880000 5.715443 18.836010 387.461548
6.800000 3.000000 4.920000 0.450639 9.719314 94.668129
6.800000 3.000000 4.960000 4.418017 -2.721944 26.927855
6.800000 3.000000 5.000000 21.429962 -9.785111 554.991699
6.800000 3.000000 5.040000 45.000603 1.451963 2027.162354
6.800000 3.000000 5.080000 55.951946 34.665123 4332.291016
6.800000 3.000000 5.120000 36.168911 73.478806 6707.324707
6.800000 3.000000 5.160000 -11.832566 89.170494 8091.386719
6.800000 3.000000 5.200000 -60.637482 64.461487 7832.187500
6.800000 3.040000 4.800000 8.155865 29.514645 937.632385
6.800000 3.040000 4.840000 -5.204193 23.906296 598.594604
6.800000 3.040000 4.880000 -10.160602 12.614746 262.369629
6.800000 3.040000 4.920000 -5.360462 1.270664 30.349140
6.800000 3.040000 4.960000 8.825527 -3.604384 90.881516
6.800000 3.040000 5.000000 26.854225 5.808712 754.890564
6.800000 3.040000 5.040000 35.344627 32.124989 2281.257568
6.800000 3.040000 5.080000 19.918736 64.449448 4550.487305
6.800000 3.040000 5.120000 -20.539148 80.445572 6893.346680
6.800000 3.040000 5.160000 -66.608383 62.471832 8339.406250
6.800000 3.040000 5.200000 -89.318115 14.979207 8202.102539
6.800000 3.080000 4.800000 -12.754734 23.355246 708.150696
6.800000 3.080000 4.840000 -19.733135 9.716604 483.809021
6.800000 3.080000 4.880000 -14.393469 -3.177100 217.265915
6.800000 3.080000 4.920000 -0.591114 -7.241546 52.789398
6.800000 3.080000 4.960000 13.726804 1.947706 192.218704
6.800000 3.080000 5.000000 18.210056 23.070215 863.840942
6.800000 3.080000 5.040000 4.252573 46.720043 2200.846924
6.800000 3.080000 5.080000 -27.756605 57.300220 4053.744385
6.800000 3.080000 5.120000 -64.102936 42.305305 5898.925293
6.800000 3.080000 5.160000 -83.640343 3.687396 7009.303711
6.800000 3.080000 5.200000 -72.634903 -39.757645 6856.499512
6.800000 3.120000 4.800000 -23.192766 6.403442 578.908508
6.800000 3.120000 4.840000 -19.614719 -9.271664 470.700958
6.800000 3.120000 4.880000 -5.283535 -15.660065 273.153381
6.800000 3.120000 4.920000 9.152498 -7.449527 139.263672
6.800000 3.120000 4.960000 12.282139 11.362549 279.958435
6.800000 3.120000 5.000000 -1.421761 29.415630 867.300720
6.800000 3.120000 5.040000 -27.733164 33.935020 1920.713867
6.800000 3.120000 5.080000 -53.815994 18.240368 3228.872070
6.800000 3.120000 5.120000 -64.840233 -13.074665 4375.202637
6.800000 3.120000 5.160000 -53.267532 -45.474934 4905.399414
6.800000 3.120000 5.200000 -24.528515 -62.989635 4569.342285
6.800000 3.160000 4.800000 -21.049438 -10.819244 560.134888
6.800000 3.160000 4.840000 -8.191824 -21.541962 531.162109
6.800000 3.160000 4.880000 8.350185 -17.234896 366.767212
6.800000 3.160000 4.920000 14.628735 -0.139113 214.019226
6.800000 3.160000 4.960000 3.459672 16.896948 297.476166
6.800000 3.160000 5.000000 -19.541895 19.714596 770.550903
6.800000 3.160000 5.040000 -39.586620 3.414252 1578.757568
6.800000 3.160000 5.080000 -43.228477 -23.919100 2440.824707
6.800000 3.160000 5.120000 -27.747509 -47.050743 2983.696777
6.800000 3.160000 5.160000 -2.436680 -54.318947 2956.485596
6.800000 3.160000 5.200000 18.723389 -45.097992 2384.394043
6.800000 3.200000 4.800000 -11.697170 -21.663939 606.150024
6.800000 3.200000 4.840000 5.166694 -23.853256 595.672546
6.800000 3.200000 4.880000 17.093386 -10.956570 412.230255
6.800000 3.200000 4.920000 12.672554 6.863737 207.704514
6.800000 3.200000 4.960000 -6.146257 13.518309 220.521149
6.800000 3.200000 5.000000 -24.460215 0.926100 599.159790
6.800000 3.200000 5.040000 -26.550659 -23.344545 1249.905273
6.800000 3.200000 5.080000 -9.224108 -41.990524 1848.288208
6.800000 3.200000 5.120000 15.646013 -42.352169 2038.503906
6.800000 3.200000 5.160000 31.427681 -26.435225 1686.520264
6.800000 3.200000 5.200000 30.443260 -8.095573 992.330444
6.840000 2.800000 4.800000 -29.776131 1.312540 888.340759
6.840000 2.800000 4.840000 -29.362663 -9.034378 943.786011
6.840000 2.800000 4.880000 -22.879030 -19.676180 910.602051
6.840000 2.800000 4.920000 -10.069857 -25.779694 765.994629
6.840000 2.800000 4.960000 4.857487 -23.052574 555.016357
6.840000 2.800000 5.000000 15.112370 -11.767536 366.858643
6.840000 2.800000 5.040000 16.190605 2.610481 268.950287
6.840000 2.800000 5.080000 9.182295 13.372845 263.147522
6.840000 2.800000 5.120000 -0.847048 17.454182 305.365967
6.840000 2.800000 5.160000 -9.667921 16.414021 362.888763
6.840000 2.800000 5.200000 -16.708286 12.840437 444.043640
6.840000 2.840000 4.800000 -17.428249 -19.821407 696.632080
6.840000 2.840000 4.840000 -8.848356 -23.254658 619.072510
6.840000 2.840000 4.880000 1.517570 -21.617529 469.620575
6.840000 2.840000 4.920000 9.117817 -13.527949 266.140015
6.840000 2.840000 4.960000 9.071346 -2.759686 89.905190
6.840000 2.840000 5.000000 1.768473 3.469002 15.161470
6.840000 2.840000 5.040000 -5.920380 1.199732 36.490253
6.840000 2.840000 5.080000 -6.662716 -5.485930 74.487213
6.840000 2.840000 5.120000 -0.506411 -7.800200 61.099564
6.840000 2.840000 5.160000 4.206687 -1.499340 19.944235
6.840000 2.840000 5.200000 -0.799314 7.406441 55.494270
6.840000 2.880000 4.800000 7.726581 -24.303583 650.364197
6.840000 2.880000 4.840000 16.879467 -14.976873 509.223145
6.840000 2.880000 4.880000 18.677332 -0.266395 348.913696
6.840000 2.880000 4.920000 8.627567 12.852802 239.629425
6.840000 2.880000 4.960000 -9.529655 13.822840 281.885223
6.840000 2.880000 5.000000 -22.527042 -1.385822 509.388153
6.840000 2.880000 5.040000 -17.484364 -22.869410 828.712891
6.840000 2.880000 5.080000 4.740063 -32.315529 1066.761597
6.840000 2.880000 5.120000 27.038488 -19.140125 1097.424194
6.840000 2.880000 5.160000 29.701872 7.815304 943.280151
6.840000 2.880000 5.200000 8.870552 26.095741 759.674438
6.840000 2.920000 4.800000 27.489487 -7.331714 809.425903
6.840000 2.920000 4.840000 26.033257 12.142950 825.181702
6.840000 2.920000 4.880000 9.892012 28.558132 913.418762
6.840000 2.920000 4.920000 -17.027246 28.796234 1119.150146
6.840000 2.920000 4.960000 -38.021553 5.926596 1480.763062
6.840000 2.920000 5.000000 -33.762253 -29.052980 1983.965454
6.840000 2.920000 5.040000 -0.877649 -50.370102 2537.917480
6.840000 2.920000 5.080000 39.631889 -37.719166 2993.422119
6.840000 2.920000 5.120000 56.461456 3.545578 3200.467041
6.840000 2.920000 5.160000 34.742027 43.296303 3081.578125
6.840000 2.920000 5.200000 -9.233246 50.984737 2684.696289
6.840000 2.960000 4.800000 26.529947 18.877060 1060.181396
6.840000 2.960000 4.840000 8.804617 36.694588 1424.014038
6.840000 2.960000 4.880000 -21.227587 38.736164 1951.100830
6.840000 2.960000 4.920000 -48.170471 15.387558 2557.171143
6.840000 2.960000 4.960000 -49.642002 -26.016512 3141.187256
6.840000 2.960000 5.000000 -15.633564 -58.559631 3673.638672
6.840000 2.960000 5.040000 36.280663 -53.877739 4219.097168
6.840000 2.960000 5.080000 68.980293 -8.325480 4827.594238
6.840000 2.960000 5.120000 55.132198 48.452000 5387.155273
6.840000 2.960000 5.160000 2.477327 74.894508 5615.324707
6.840000 2.960000 5.200000 -50.260353 52.156738 5246.428711
6.840000 3.000000 4.800000 5.490152 34.509861 1221.072266
6.840000 3.000000 4.840000 -22.276892 37.788811 1924.254150
6.840000 3.000000 4.880000 -49.680168 18.591515 2813.763672
6.840000 3.000000 4.920000 -56.822060 -20.367912 3643.598389
6.840000 3.000000 4.960000 -29.689226 -57.492302 4186.814941
6.840000 3.000000 5.000000 22.173906 -63.046577 4466.552734
6.840000 3.000000 5.040000 64.891113 -24.284292 4800.583496
6.840000 3.000000 5.080000 63.983788 37.749035 5518.914551
6.840000 3.000000 5.120000 14.722309 79.726181 6573.010742
6.840000 3.000000 5.160000 -49.895790 70.227394 7421.476562
6.840000 3.000000 5.200000 -84.291573 16.740932 7385.328125
6.840000 3.040000 4.800000 -19.674351 28.453667 1196.691162
6.840000 3.040000 4.840000 -42.825096 13.893905 2027.029541
6.840000 3.040000 4.880000 -51.633232 -17.143106 2959.876953
6.840000 3.040000 4.920000 -33.587830 -50.387970 3667.089844
6.840000 3.040000 4.960000 8.532661 -61.959171 3911.745361
6.840000 3.040000 5.000000 50.519783 -35.755981 3830.738770
6.840000 3.040000 5.040000 60.136482 18.272348 3950.275146
6.840000 3.040000 5.080000 23.547960 65.023087 4782.508301
6.840000 3.040000 5.120000 -38.700363 69.238037 6291.624023
6.840000 3.040000 5.160000 -84.293365 25.161537 7738.474609
6.840000 3.040000 5.200000 -82.380348 -36.828701 8142.875000
6.840000 3.080000 4.800000 -31.442820 6.561903 1031.709473
6.840000 3.080000 4.840000 -38.217133 -16.346090 1727.743896
6.840000 3.080000 4.880000 -26.331974 -40.937176 2369.225342
6.840000 3.080000 4.920000 3.054338 -51.722324 2684.527832
6.840000 3.080000 4.960000 35.261635 -36.305103 2561.443359
6.840000 3.080000 5.000000 47.410427 2.197645 2252.578125
6.840000 3.080000 5.040000 24.927576 41.239235 2322.058594
6.840000 3.080000 5.080000 -23.188721 52.026543 3244.478027
6.840000 3.080000 5.120000 -66.509254 22.314898 4921.435547
6.840000 3.080000 5.160000 -74.912857 -31.057383 6576.497070
6.840000 3.080000 5.200000 -42.709518 -73.443863 7218.104004
6.840000 3.120000 4.800000 -24.621250 -15.100021 834.216553
6.840000 3.120000 4.840000 -15.212104 -31.850319 1245.850952
6.840000 3.120000 4.880000 4.665195 -38.012177 1466.689575
6.840000 3.120000 4.920000 24.916925 -27.615658 1383.477783
6.840000 3.120000 4.960000 32.354233 -3.527573 1059.240112
6.840000 3.120000 5.000000 18.528206 21.084213 787.838440
6.840000 3.120000 5.040000 -12.223034 28.829460 980.540283
6.840000 3.120000 5.080000 -42.158180 10.251165 1882.398560
6.840000 3.120000 5.120000 -50.769310 -26.905140 3301.409424
6.840000 3.120000 5.160000 -30.178413 -60.845642 4612.928711
6.840000 3.120000 5.200000 7.762264 -71.094124 5114.627441
6.840000 3.160000 4.800000 -7.960311 -24.643751 670.681030
6.840000 3.160000 4.840000 7.050069 -27.368065 798.714478
6.840000 3.160000 4.880000 19.492474 -17.998566 703.904907
6.840000 3.160000 4.920000 20.921612 -2.093458 442.096405
6.840000 3.160000 4.960000 9.425400 10.194628 192.768585
6.840000 3.160000 5.000000 -8.914356 10.053273 180.534042
6.840000 3.160000 5.040000 -23.101858 -4.553277 554.428223
6.840000 3.160000 5.080000 -23.490047 -26.991104 1280.302002
6.840000 3.160000 5.120000 -7.952757 -45.295135 2114.895752
6.840000 3.160000 5.160000 16.214643 -49.433964 2706.631348
6.840000 3.160000 5.200000 36.781708 -37.897766 2789.134766
6.840000 3.200000 4.800000 6.321716 -22.555321 548.706604
6.840000 3.200000 4.840000 16.250324 -14.642998 478.490417
6.840000 3.200000 4.880000 15.912350 -1.882601 256.747040
6.840000 3.200000 4.920000 5.050149 5.307451 53.673050
6.840000 3.200000 4.960000 -7.959286 0.265113 63.420517
6.840000 3.200000 5.000000 -12.576628 -14.464540 367.394470
6.840000 3.200000 5.040000 -4.220070 -29.099180 864.571289
6.840000 3.200000 5.080000 12.567797 -34.154366 1324.470093
6.840000 3.200000 5.120000 28.081026 -27.211029 1528.984131
6.840000 3.200000 5.160000 34.885208 -13.769754 1406.583984
6.840000 3.200000 5.200000 32.652802 -2.145163 1070.807129
6.880000 2.800000 4.800000 -34.462135 -4.464443 1207.570068
6.880000 2.800000 4.840000 -30.972847 -19.103928 1324.277344
6.880000 2.800000 4.880000 -17.690557 -30.247276 1227.853516
6.880000 2.800000 4.920000 0.746216 -31.005997 961.928650
6.880000 2.800000 4.960000 15.523994 -20.272520 651.969482
6.880000 2.800000 5.000000 19.967140 -4.015465 414.810638
6.880000 2.800000 5.040000 14.255866 9.283714 289.417053
6.880000 2.800000 5.080000 4.244175 14.983704 242.524384
6.880000 2.800000 5.120000 -4.277546 14.520637 229.146286
6.880000 2.800000 5.160000 -9.959820 11.798334 238.398697
6.880000 2.800000 5.200000 -14.694033 8.126326 281.951782
6.880000 2.840000 4.800000 -14.765730 -21.242077 669.252625
6.880000 2.840000 4.840000 -2.035118 -21.372154 460.910675
6.880000 2.840000 4.880000 7.601952 -11.935709 200.250824
6.880000 2.840000 4.920000 6.860477 1.229059 48.576736
6.880000 2.840000 4.960000 -3.413616 7.953922 74.917656
6.880000 2.840000 5.000000 -13.731856 3.035667 197.779144
6.880000 2.840000 5.040000 -14.223778 -8.124226 268.318909
6.880000 2.840000 5.080000 -4.309608 -13.952488 213.244644
6.880000 2.840000 5.120000 6.091106 -7.862724 98.924011
6.880000 2.840000 5.160000 5.905097 4.715563 57.106705
6.880000 2.840000 5.200000 -5.807531 10.930380 153.200623
6.880000 2.880000 4.800000 10.357430 -14.836327 327.392944
6.880000 2.880000 4.840000 16.005941 4.426537 275.784393
6.880000 2.880000 4.880000 2.634228 24.829033 623.420044
6.880000 2.880000 4.920000 -25.682362 27.948912 1440.725342
6.880000 2.880000 4.960000 -48.755074 5.427219 2406.511719
6.880000 2.880000 5.000000 -45.892200 -29.765305 2992.067383
6.880000 2.880000 5.040000 -15.485558 -51.241093 2865.452148
6.880000 2.880000 5.080000 20.831427 -41.484253 2154.891602
6.880000 2.880000 5.120000 35.557793 -8.241177 1332.273560
6.880000 2.880000 5.160000 19.272839 21.373491 828.268433
6.880000 2.880000 5.200000 -11.208105 24.604408 730.998535
6.880000 2.920000 4.800000 18.863636 9.645862 448.879395
6.880000 2.920000 4.840000 1.932529 36.306118 1321.868774
6.880000 2.920000 4.880000 -37.865044 43.054703 3287.468750
6.880000 2.920000 4.920000 -76.085335 12.837734 5953.785645
6.880000 2.920000 4.960000 -79.837540 -42.908470 8215.169922
6.880000 2.920000 5.000000 -37.527687 -86.831863 8948.099609
6.880000 2.920000 5.040000 25.853891 -84.729431 7847.500488
6.880000 2.920000 5.080000 65.900085 -36.262012 5657.754883
6.880000 2.920000 5.120000 55.553993 22.380049 3587.112793
6.880000 2.920000 5.160000 8.106745 48.497826 2417.758301
6.880000 2.920000 5.200000 -35.398243 28.713127 2077.479248
6.880000 2.960000 4.800000 2.622990 30.388384 930.333923
6.880000 2.960000 4.840000 -36.300659 42.836830 3152.731934
6.880000 2.960000 4.880000 -82.549454 17.127506 7107.763672
6.880000 2.960000 4.920000 -98.347519 -45.160061 11711.666016
6.880000 2.960000 4.960000 -58.831795 -107.331818 14981.298828
6.880000 2.960000 5.000000 19.813110 -122.249962 15337.612305
6.880000 2.960000 5.040000 86.295654 -73.066429 12785.642578
6.880000 2.960000 5.080000 94.155975 7.987904 8929.154297
6.880000 2.960000 5.120000 41.320175 63.611904 5753.831055
6.880000 2.960000 5.160000 -28.021908 58.669750 4227.367188
6.880000 2.960000 5.200000 -61.835114 7.789154 3884.252197
6.880000 3.000000 4.800000 -24.545769 28.379929 1407.915039
6.880000 3.000000 4.840000 -66.703575 13.471430 4630.846191
6.880000 3.000000 4.880000 -90.850739 -39.344067 9801.812500
6.880000 3.000000 4.920000 -65.187477 -105.121063 15299.844727
6.880000 3.000000 4.960000 9.431602 -136.347076 18679.480469
6.880000 3.000000 5.000000 89.855316 -101.227692 18321.023438
6.880000 3.000000 5.040000 120.147995 -15.918683 14688.945312
6.880000 3.000000 5.080000 78.091339 62.692413 10028.595703
6.880000 3.000000 5.120000 -3.941522 81.706039 6691.412598
6.880000 3.000000 5.160000 -65.149971 35.453186 5501.446777
6.880000 3.000000 5.200000 -66.811996 -32.378780 5512.228027
6.880000 3.040000 4.800000 -39.416893 4.563993 1574.521484
6.880000 3.040000 4.840000 -62.666737 -30.407299 4851.723633
6.880000 3.040000 4.880000 -51.857735 -83.779724 9708.266602
6.880000 3.040000 4.920000 3.385439 -120.269379 14476.184570
6.880000 3.040000 4.960000 77.622467 -104.577850 16961.773438
6.880000 3.040000 5.000000 121.525124 -34.825832 15981.194336
6.880000 3.040000 5.040000 100.312897 47.765846 12344.253906
6.880000 3.040000 5.080000 25.790737 87.537376 8327.955078
6.880000 3.040000 5.120000 -49.667534 59.365913 5991.175781
6.880000 3.040000 5.160000 -74.936325 -10.547960 5726.711914
6.880000 3.040000 5.200000 -40.853989 -67.862442 6274.359375
6.880000 3.080000 4.800000 -30.271700 -21.902927 1396.114014
6.880000 3.080000 4.840000 -27.449173 -55.340065 3815.979736
6.880000 3.080000 4.880000 4.976171 -83.940079 7070.699219
6.880000 3.080000 4.920000 57.404118 -81.530632 9942.476562
6.880000 3.080000 4.960000 98.290359 -37.307510 11052.845703
6.880000 3.080000 5.000000 95.276192 28.325518 9879.887695
6.880000 3.080000 5.040000 43.604042 73.356133 7282.434570
6.880000 3.080000 5.080000 -24.785347 65.922180 4960.047363
6.880000 3.080000 5.120000 -63.666977 11.591161 4187.838867
6.880000 3.080000 5.160000 -49.108688 -49.751911 4886.916016
6.880000 3.080000 5.200000 2.285799 -76.273521 5822.875000
6.880000 3.120000 4.800000 -5.968983 -31.889378 1052.561157
6.880000 3.120000 4.840000 10.545885 -46.544941 2277.647217
6.880000 3.120000 4.880000 38.349205 -46.651779 3647.049805
6.880000 3.120000 4.920000 63.244808 -24.364084 4593.514160
6.880000 3.120000 4.960000 66.549835 13.821716 4619.920410
6.880000 3.120000 5.000000 39.701385 46.316719 3721.438477
6.880000 3.120000 5.040000 -4.881081 49.951916 2519.018799
6.880000 3.120000 5.080000 -39.065556 19.017950 1887.800049
6.880000 3.120000 5.120000 -39.401390 -27.318251 2298.756348
6.880000 3.120000 5.160000 -6.101507 -58.176758 3421.763428
6.880000 3.120000 5.200000 36.881897 -54.812466 4364.680664
6.880000 3.160000 4.800000 14.550030 -22.646387 724.562195
6.880000 3.160000 4.840000 25.871658 -18.820694 1023.561279
6.880000 3.160000 4.880000 33.254734 -7.602861 1163.680786
6.880000 3.160000 4.920000 32.037342 7.273159 1079.290039
6.880000 3.160000 4.960000 20.490662 19.073799 783.677002
6.880000 3.160000 5.000000 2.309982 20.239407 414.969604
6.880000 3.160000 5.040000 -13.047207 7.281286 223.246735
6.880000 3.160000 5.080000 -15.008615 -14.706829 441.549377
6.880000 3.160000 5.120000 0.231680 -33.156963 1099.437988
6.880000 3.160000 5.160000 25.288166 -36.039787 1938.357544
6.880000 3.160000 5.200000 45.819351 -20.996279 2540.256592
6.880000 3.200000 4.800000 20.503223 -6.974267 469.022583
6.880000 3.200000 4.840000 18.277361 1.691495 336.923065
6.880000 3.200000 4.880000 10.374401 5.415155 136.952103
6.880000 3.200000 4.920000 2.882599 1.793423 11.525742
6.880000 3.200000 4.960000 0.909370 -5.968245 36.446903
6.880000 3.200000 5.000000 4.963612 -12.624745 184.021637
6.880000 3.200000 5.040000 12.001919 -15.173546 374.282532
6.880000 3.200000 5.080000 18.948114 -13.882679 551.759827
6.880000 3.200000 5.120000 24.707005 -10.177405 714.015686
6.880000 3.200000 5.160000 29.276402 -4.583654 878.117554
6.880000 3.200000 5.200000 32.028316 3.079773 1035.298096
6.920000 2.800000 4.800000 -33.215546 -13.727013 1291.703369
6.920000 2.800000 4.840000 -24.058617 -28.737152 1404.640869
6.920000 2.800000 4.880000 -5.570332 -35.187263 1269.172119
6.920000 2.800000 4.920000 13.388763 -28.250019 977.322571
6.920000 2.800000 4.960000 23.181938 -11.626865 672.586304
6.920000 2.800000 5.000000 20.540670 5.175972 448.709808
6.920000 2.800000 5.040000 10.372337 14.294870 311.928711
6.920000 2.800000 5.080000 0.653709 14.975389 224.689621
6.920000 2.800000 5.120000 -4.509848 12.154924 168.080917
6.920000 2.800000 5.160000 -6.924562 10.200493 151.999603
6.920000 2.800000 5.200000 -9.944590 8.586061 172.615295
6.920000 2.840000 4.800000 -10.246071 -20.708231 533.812805
6.920000 2.840000 4.840000 1.125889 -14.261110 204.646896
6.920000 2.840000 4.880000 2.424942 -1.084431 7.056334
6.920000 2.840000 4.920000 -7.972645 6.911835 111.336525
6.920000 2.840000 4.960000 -20.297499 1.673164 414.787933
6.920000 2.840000 5.000000 -22.003513 -12.613785 643.262146
6.920000 2.840000 5.040000 -9.835838 -22.635244 609.098022
6.920000 2.840000 5.080000 6.443840 -18.246450 374.456024
6.920000 2.840000 5.120000 12.767967 -2.285530 168.244629
6.920000 2.840000 5.160000 3.934452 11.715935 152.743042
6.920000 2.840000 5.200000 -11.400875 12.085805 276.046631
6.920000 2.880000 4.800000 6.175308 -5.089691 64.039383
6.920000 2.880000 4.840000 -2.105682 18.129669 333.118805
6.920000 2.880000 4.880000 -32.624512 26.931721 1789.676270
6.920000 2.880000 4.920000 -64.132629 4.459465 4132.880859
6.920000 2.880000 4.960000 -67.785484 -39.979088 6193.199707
6.920000 2.880000 5.000000 -34.046646 -74.879578 6766.125000
6.920000 2.880000 5.040000 15.826538 -72.862389 5559.407227
6.920000 2.880000 5.080000 46.431362 -35.326820 3403.855469
6.920000 2.880000 5.120000 38.511501 8.288975 1551.842896
6.920000 2.880000 5.160000 4.702658 26.413944 719.811462
6.920000 2.880000 5.200000 -23.634254 12.113155 705.306519
6.920000 2.920000 4.800000 -0.483414 16.357443 267.799652
6.920000 2.920000 4.840000 -37.928772 32.952427 2524.454102
6.920000 2.920000 4.880000 -86.645706 8.349728 7577.196289
6.920000 2.920000 4.920000 -103.689934 -56.513203 13945.344727
6.920000 2.920000 4.960000 -62.353298 -121.170639 18570.257812
6.920000 2.920000 5.000000 18.510689 -136.282867 18915.666016
6.920000 2.920000 5.040000 85.297188 -87.226456 14884.064453
6.920000 2.920000 5.080000 93.771713 -9.126087 8876.418945
6.920000 2.920000 5.120000 46.251095 42.494545 3944.950195
6.920000 2.920000 5.160000 -12.849869 38.677559 1661.072754
6.920000 2.920000 5.200000 -38.003502 -1.929144 1447.987671
6.920000 2.960000 4.800000 -24.162582 20.312510 996.428467
6.920000 2.960000 4.840000 -75.913956 7.150347 5814.056152
6.920000 2.960000 4.880000 -108.092545 -56.850956 14916.029297
6.920000 2.960000 4.920000 -77.294121 -139.326569 25386.273438
6.920000 2.960000 4.960000 14.936180 -178.920898 32235.777344
6.920000 2.960000 5.000000 113.503128 -137.461838 31778.718750
6.920000 2.960000 5.040000 151.591187 -37.559612 24390.613281
6.920000 2.960000 5.080000 107.104591 52.625702 14240.858398
6.920000 2.960000 5.120000 21.039965 75.961174 6212.780273
6.920000 2.960000 5.160000 -39.773434 32.275467 2623.631836
6.920000 2.960000 5.200000 -39.949673 -27.946892 2377.005127
6.920000 3.000000 4.800000 -41.355690 -0.171576 1710.322510
6.920000 3.000000 4.840000 -78.652779 -44.645645 8179.493164
6.920000 3.000000 4.880000 -67.699440 -122.046783 19478.630859
6.920000 3.000000 4.920000 10.535748 -178.051178 31813.224609
6.920000 3.000000 4.960000 118.524094 -158.922623 39304.359375
6.920000 3.000000 5.000000 184.481171 -62.637699 37956.781250
6.920000 3.000000 5.040000 161.171036 51.539978 28632.472656
6.920000 3.000000 5.080000 67.867676 108.930878 16471.957031
6.920000 3.000000 5.120000 -25.244736 80.844849 7173.186523
6.920000 3.000000 5.160000 -56.781868 5.106204 3250.253662
6.920000 3.000000 5.200000 -22.559544 -51.959785 3208.752441
6.920000 3.040000 4.800000 -33.720093 -28.537823 1951.452026
6.920000 3.040000 4.840000 -38.254456 -81.873970 8166.750488
6.920000 3.040000 4.880000 10.586177 -135.496246 18471.298828
6.920000 3.040000 4.920000 100.207848 -138.698822 29278.976562
6.920000 3.040000 4.960000 175.221359 -68.747284 35428.714844
6.920000 3.040000 5.000000 178.896210 40.670746 33657.964844
6.920000 3.040000 5.040000 103.139359 120.009628 25040.039062
6.920000 3.040000 5.080000 -0.498295 119.514526 14283.969727
6.920000 3.040000 5.120000 -62.099754 50.145641 6370.964844
6.920000 3.040000 5.160000 -50.269402 -28.226955 3323.773682
6.920000 3.040000 5.200000 7.051838 -59.680305 3611.467285
6.920000 3.080000 4.800000 -5.543043 -40.644276 1682.682495
6.920000 3.080000 4.840000 15.502687 -75.876694 5997.605957
6.920000 3.080000 4.880000 70.372337 -88.585403 12799.638672
6.920000 3.080000 4.920000 130.270554 -51.691086 19642.386719
6.920000 3.080000 4.960000 150.035461 27.023918 23240.933594
6.920000 3.080000 5.000000 105.854919 102.389862 21688.947266
6.920000 3.080000 5.040000 20.292702 124.483284 15907.881836
6.920000 3.080000 5.080000 -51.584698 80.016747 9063.660156
6.920000 3.080000 5.120000 -65.679779 4.373903 4332.964355
6.920000 3.080000 5.160000 -23.419373 -47.937183 2846.440674
6.920000 3.080000 5.200000 33.597397 -47.703018 3404.362793
6.920000 3.120000 4.800000 21.176281 -27.484497 1203.832520
6.920000 3.120000 4.840000 43.685932 -35.707035 3183.453125
6.920000 3.120000 4.880000 74.762810 -22.115364 6078.566895
6.920000 3.120000 4.920000 92.173981 17.610294 8806.165039
6.920000 3.120000 4.960000 75.455444 65.855637 10030.488281
6.920000 3.120000 5.000000 25.749992 91.740067 9079.302734
6.920000 3.120000 5.040000 -29.691311 74.970970 6502.220215
6.920000 3.120000 5.080000 -56.038624 24.574202 3744.218750
6.920000 3.120000 5.120000 -38.295372 -25.926666 2138.727539
6.920000 3.120000 5.160000 6.794695 -44.464760 2023.282715
6.920000 3.120000 5.200000 45.398666 -24.896969 2680.897949
6.920000 3.160000 4.800000 28.211048 -2.064565 800.125671
6.920000 3.160000 4.840000 33.876930 3.393299 1159.160889
6.920000 3.160000 4.880000 37.098278 14.580875 1588.884155
6.920000 3.160000 4.920000 32.334923 29.647060 1924.495361
6.920000 3.160000 4.960000 16.214275 41.161819 1957.198120
6.920000 3.160000 5.000000 -6.908623 39.471352 1605.716675
6.920000 3.160000 5.040000 -24.623978 20.941582 1044.890137
6.920000 3.160000 5.080000 -24.456564 -6.196262 636.517212
6.920000 3.160000 5.120000 -4.481588 -25.585201 674.687195
6.920000 3.160000 5.160000 23.382259 -24.601612 1151.969360
6.920000 3.160000 5.200000 41.627670 -4.336611 1751.669067
6.920000 3.200000 4.800000 17.014214 15.238807 521.704712
6.920000 3.200000 4.840000 7.474532 15.319403 290.552734
6.920000 3.200000 4.880000 1.418634 8.724774 78.134216
6.920000 3.200000 4.920000 2.560299 1.302542 8.251745
6.920000 3.200000 4.960000 7.688843 -1.089392 60.305077
6.920000 3.200000 5.000000 10.546116 1.320881 112.965286
6.920000 3.200000 5.040000 8.984065 3.029209 89.889534
6.920000 3.200000 5.080000 7.388885 0.046211 54.597767
6.920000 3.200000 5.120000 11.573689 -4.828403 157.263748
6.920000 3.200000 5.160000 21.583103 -4.222902 483.663269
6.920000 3.200000 5.200000 30.216183 6.161934 950.987122
6.960000 2.800000 4.800000 -25.609516 -18.817505 1009.945801
6.960000 2.800000 4.840000 -13.117535 -30.179010 1082.842407
6.960000 2.800000 4.880000 5.453747 -30.854689 981.755188
6.960000 2.800000 4.920000 20.577326 -19.140686 789.792236
6.960000 2.800000 4.960000 24.541660 -1.286514 603.948181
6.960000 2.800000 5.000000 17.213200 12.976791 464.691345
6.960000 2.800000 5.040000 5.655548 17.918396 353.054138
6.960000 2.800000 5.080000 -2.344940 15.622201 249.551910
6.960000 2.800000 5.120000 -4.751036 12.579575 180.818039
6.960000 2.800000 5.160000 -5.548325 12.659733 191.052734
6.960000 2.800000 5.200000 -8.919073 13.754403 268.733459
6.960000 2.840000 4.800000 -8.224403 -16.055929 325.433685
6.960000 2.840000 4.840000 -4.462963 -7.434172 75.184944
6.960000 2.840000 4.880000 -11.426434 -0.576347 130.895569
6.960000 2.840000 4.920000 -22.026749 -4.853851 508.737518
6.960000 2.840000 4.960000 -23.966743 -18.746750 925.845459
6.960000 2.840000 5.000000 -11.799515 -30.320120 1058.538208
6.960000 2.840000 5.040000 7.062675 -27.950306 831.101013
6.960000 2.840000 5.080000 18.378122 -11.239868 464.089996
6.960000 2.840000 5.120000 13.585579 8.208241 251.943161
6.960000 2.840000 5.160000 -2.802303 16.871479 292.499695
6.960000 2.840000 5.200000 -17.568222 10.851653 426.400818
6.960000 2.880000 4.800000 -5.622881 -1.172367 32.991234
6.960000 2.880000 4.840000 -27.892656 11.369064 907.255920
6.960000 2.880000 4.880000 -59.646210 -4.179070 3575.135010
6.960000 2.880000 4.920000 -69.878143 -47.654305 7153.887695
6.960000 2.880000 4.960000 -39.999767 -90.211754 9738.142578
6.960000 2.880000 5.000000 15.775543 -97.780701 9809.933594
6.960000 2.880000 5.040000 59.953072 -61.865299 7421.686035
6.960000 2.880000 5.080000 63.510090 -8.064007 4098.559570
6.960000 2.880000 5.120000 30.166483 26.125460 1592.556396
6.960000 2.880000 5.160000 -9.189506 23.170143 621.302551
6.960000 2.880000 5.200000 -25.355865 -2.602143 649.691101
6.960000 2.920000 4.800000 -20.421818 5.348162 445.653473
6.960000 2.920000 4.840000 -64.275513 -4.327801 4150.071289
6.960000 2.920000 4.880000 -91.594315 -60.124401 12004.461914
6.960000 2.920000 4.920000 -62.495399 -131.942764 21314.568359
6.960000 2.920000 4.960000 20.121010 -164.181061 27360.275391
6.960000 2.920000 5.000000 105.594315 -124.827423 26732.044922
6.960000 2.920000 5.040000 136.166351 -36.942303 19906.009766
6.960000 2.920000 5.080000 96.415787 39.175419 10830.717773
6.960000 2.920000 5.120000 24.798298 57.371521 3906.447021
6.960000 2.920000 5.160000 -22.803059 22.186962 1012.240784
6.960000 2.920000 5.200000 -21.531206 -22.152014 954.304565
6.960000 2.960000 4.800000 -35.194210 -8.834629 1316.683105
6.960000 2.960000 4.840000 -74.473114 -52.822624 8336.474609
6.960000 2.960000 4.880000 -62.829308 -133.467880 21761.197266
6.960000 2.960000 4.920000 20.456348 -191.043579 36916.109375
6.960000 2.960000 4.960000 133.531265 -168.597504 46255.718750
6.960000 2.960000 5.000000 200.231140 -67.004913 44582.164062
6.960000 2.960000 5.040000 174.589661 49.439320 32925.796875
6.960000 2.960000 5.080000 81.181374 105.662384 17754.955078
6.960000 2.960000 5.120000 -7.557507 78.324677 6191.870605
6.960000 2.960000 5.160000 -35.006855 9.975111 1324.982666
6.960000 2.960000 5.200000 -4.425393 -35.621872 1288.501831
6.960000 3.000000 4.800000 -29.854443 -33.940399 2043.238403
6.960000 3.000000 4.840000 -38.385864 -97.253372 10931.693359
6.960000 3.000000 4.880000 20.343779 -163.534882 27157.527344
6.960000 3.000000 4.920000 130.506882 -167.278122 45014.015625
6.960000 3.000000 4.960000 221.697540 -80.982262 55707.925781
6.960000 3.000000 5.000000 225.210205 51.237373 53344.906250
6.960000 3.000000 5.040000 135.459229 144.697998 39286.710938
6.960000 3.000000 5.080000 17.205370 144.441925 21159.494141
6.960000 3.000000 5.120000 -49.919891 69.563255 7331.041992
6.960000 3.000000 5.160000 -37.394627 -9.256891 1484.048218
6.960000 3.000000 5.200000 16.607651 -34.954815 1497.653198
6.960000 3.040000 4.800000 -2.752542 -46.675293 2186.159424
6.960000 3.040000 4.840000 22.646580 -99.213257 10356.137695
6.960000 3.040000 4.880000 101.398186 -120.970322 24915.410156
6.960000 3.040000 4.920000 189.620270 -68.927292 40706.820312
6.960000 3.040000 4.960000 219.190125 44.562454 50030.125000
6.960000 3.040000 5.000000 157.182785 152.001633 47810.921875
6.960000 3.040000 5.040000 39.430817 183.695740 35298.914062
6.960000 3.040000 5.080000 -56.491474 126.430435 19175.941406
6.960000 3.040000 5.120000 -75.598145 32.856884 6794.654297
6.960000 3.040000 5.160000 -27.624285 -26.672758 1474.537109
6.960000 3.040000 5.200000 30.320961 -23.180811 1456.710693
6.960000 3.080000 4.800000 26.500153 -33.116554 1798.964355
6.960000 3.080000 4.840000 64.158936 -55.530254 7199.978516
6.960000 3.080000 4.880000 124.041595 -36.501282 16718.660156
6.960000 3.080000 4.920000 160.459076 34.844009 26961.220703
6.960000 3.080000 4.960000 133.107574 123.587624 32991.527344
6.960000 3.080000 5.000000 46.244865 171.611908 31589.234375
6.960000 3.080000 5.040000 -48.776505 145.482010 23544.164062
6.960000 3.080000 5.080000 -93.521538 65.914429 13090.990234
6.960000 3.080000 5.120000 -69.657021 -9.541216 4943.135254
6.960000 3.080000 5.160000 -10.253011 -34.848919 1319.571411
6.960000 3.080000 5.200000 33.388260 -9.973814 1214.252808
6.960000 3.120000 4.800000 35.594475 -2.478681 1273.110474
6.960000 3.120000 4.840000 59.598244 -0.865780 3552.700195
6.960000 3.120000 4.880000 82.521942 28.038280 7596.016113
6.960000 3.120000 4.920000 77.757889 76.851578 11952.454102
6.960000 3.120000 4.960000 33.936951 115.760475 14552.204102
6.960000 3.120000 5.000000 -30.271748 114.544167 14036.745117
6.960000 3.120000 5.040000 -77.060272 68.985413 10697.273438
6.960000 3.120000 5.080000 -78.848465 6.923367 6265.013672
6.960000 3.120000 5.120000 -40.312866 -33.093441 2720.302979
6.960000 3.120000 5.160000 6.861085 -31.901432 1064.775879
6.960000 3.120000 5.200000 31.018818 -1.848679 965.584656
6.960000 3.160000 4.800000 20.443195 22.161146 909.040649
6.960000 3.160000 4.840000 22.720278 25.930592 1188.606567
6.960000 3.160000 4.880000 22.006849 36.487541 1815.642090
6.960000 3.160000 4.920000 11.020695 49.481434 2569.868164
6.960000 3.160000 4.960000 -11.372543 54.291756 3076.929443
6.960000 3.160000 5.000000 -35.927040 41.867065 3043.603516
6.960000 3.160000 5.040000 -47.723976 13.868538 2469.914307
6.960000 3.160000 5.080000 -37.545307 -15.818611 1659.878662
6.960000 3.160000 5.120000 -10.311420 -30.129669 1014.122314
6.960000 3.160000 5.160000 17.422123 -21.545830 767.753174
6.960000 3.160000 5.200000 29.422810 2.371063 871.323669
6.960000 3.200000 4.800000 -2.622405 26.085461 687.328247
6.960000 3.200000 4.840000 -9.819284 16.748013 376.914246
6.960000 3.200000 4.880000 -8.455997 5.963827 107.071121
6.960000 3.200000 4.920000 -1.005043 1.459913 3.141458
6.960000 3.200000 4.960000 4.168659 5.019211 42.570198
6.960000 3.200000 5.000000 1.323871 9.849060 98.756615
6.960000 3.200000 5.040000 -5.927469 7.301540 88.447388
6.960000 3.200000 5.080000 -7.462456 -3.429466 67.449486
6.960000 3.200000 5.120000 2.899803 -12.934105 175.699936
6.960000 3.200000 5.160000 19.714439 -9.938868 487.440216
6.960000 3.200000 5.200000 29.332588 7.301873 913.718079
7.000000 2.800000 4.800000 -18.910177 -15.843660 608.616394
7.000000 2.800000 4.840000 -7.498201 -24.087814 636.445801
7.000000 2.800000 4.880000 8.305084 -22.797344 588.693359
7.000000 2.800000 4.920000 20.174097 -10.739967 522.341125
7.000000 2.800000 4.960000 21.224731 6.054913 487.151184
7.000000 2.800000 5.000000 11.899921 18.206141 473.071686
7.000000 2.800000 5.040000 -0.210186 20.622414 425.328125
7.000000 2.800000 5.080000 -7.272402 16.518496 325.748505
7.000000 2.800000 5.120000 -8.258689 13.395535 247.646271
7.000000 2.800000 5.160000 -8.812707 14.970579 301.782043
7.000000 2.800000 5.200000 -14.118993 17.595531 508.948669
7.000000 2.840000 4.800000 -13.149133 -11.948980 315.677826
7.000000 2.840000 4.840000 -15.797600 -10.031631 350.197784
7.000000 2.840000 4.880000 -20.988319 -15.062637 667.392578
7.000000 2.840000 4.920000 -19.548054 -26.585533 1088.916992
7.000000 2.840000 4.960000 -6.981873 -35.544884 1312.185303
7.000000 2.840000 5.000000 11.078217 -32.440411 1175.107178
7.000000 2.840000 5.040000 22.921955 -16.240814 789.180054
7.000000 2.840000 5.080000 20.387476 4.154545 432.909424
7.000000 2.840000 5.120000 5.286769 16.945280 315.092438
7.000000 2.840000 5.160000 -12.570826 16.359571 425.661255
7.000000 2.840000 5.200000 -23.395302 6.013419 583.501343
7.000000 2.880000 4.800000 -18.600075 -9.636795 438.830597
7.000000 2.880000 4.840000 -40.699638 -16.886185 1941.603760
7.000000 2.880000 4.880000 -51.971210 -49.944557 5195.465820
7.000000 2.880000 4.920000 -29.800243 -89.462967 8891.676758
7.000000 2.880000 4.960000 21.445473 -102.681778 11003.456055
7.000000 2.880000 5.000000 70.139038 -73.368347 10302.399414
7.000000 2.880000 5.040000 83.427010 -18.246597 7293.004395
7.000000 2.880000 5.080000 55.327141 26.397984 3757.946045
7.000000 2.880000 5.120000 10.491882 35.310829 1356.934204
7.000000 2.880000 5.160000 -18.833727 13.342363 532.727905
7.000000 2.880000 5.200000 -19.877573 -13.417897 575.157898
7.000000 2.920000 4.800000 -25.681637 -20.077766 1062.663086
7.000000 2.920000 4.840000 -51.953926 -53.238129 5533.508789
7.000000 2.920000 4.880000 -38.832096 -112.964050 14268.808594
7.000000 2.920000 4.920000 27.959965 -152.256958 23963.941406
7.000000 2.920000 4.960000 113.705864 -128.908051 29546.308594
7.000000 2.920000 5.000000 159.917633 -47.360527 27816.667969
7.000000 2.920000 5.040000 134.915527 40.756172 19863.265625
7.000000 2.920000 5.080000 61.605156 79.828278 10167.749023
7.000000 2.920000 5.120000 -4.135145 56.534706 3213.272461
7.000000 2.920000 5.160000 -22.792582 6.008181 555.599976
7.000000 2.920000 5.200000 -0.993709 -25.181349 635.087830
7.000000 2.960000 4.800000 -18.795362 -38.832951 1861.263672
7.000000 2.960000 4.840000 -24.639999 -94.172455 9475.581055
7.000000 2.960000 4.880000 30.777372 -151.478882 23893.097656
7.000000 2.960000 4.920000 131.279266 -150.176727 39787.296875
7.000000 2.960000 4.960000 210.840698 -67.493279 49009.144531
7.000000 2.960000 5.000000 208.584335 52.842270 46299.730469
7.000000 2.960000 5.040000 124.208817 133.486420 33246.453125
7.000000 2.960000 5.080000 19.554083 129.081055 17044.279297
7.000000 2.960000 5.120000 -35.837017 62.362019 5173.312988
7.000000 2.960000 5.160000 -22.747690 -2.205099 522.319885
7.000000 2.960000 5.200000 20.193110 -18.906509 765.217773
7.000000 3.000000 4.800000 5.788803 -48.038483 2341.206055
7.000000 3.000000 4.840000 32.078148 -102.017990 11436.677734
7.000000 3.000000 4.880000 115.670471 -123.103317 28534.085938
7.000000 3.000000 4.920000 207.801178 -64.933609 47397.703125
7.000000 3.000000 4.960000 235.124695 56.584057 58485.375000
7.000000 3.000000 5.000000 165.916534 167.355743 55536.242188
7.000000 3.000000 5.040000 42.757088 195.916245 40211.343750
7.000000 3.000000 5.080000 -52.194313 134.615540 20845.589844
7.000000 3.000000 5.120000 -67.297562 42.839783 6364.208984
7.000000 3.000000 5.160000 -20.359058 -9.303238 501.041504
7.000000 3.000000 5.200000 27.814688 -0.899101 774.465271
7.000000 3.040000 4.800000 33.076492 -34.049950 2253.453369
7.000000 3.040000 4.840000 79.131317 -63.142067 10248.685547
7.000000 3.040000 4.880000 154.554962 -39.006645 25408.753906
7.000000 3.040000 4.920000 198.927292 51.735626 42248.640625
7.000000 3.040000 4.960000 161.791580 161.851242 52372.339844
7.000000 3.040000 5.000000 52.857048 217.634613 50158.691406
7.000000 3.040000 5.040000 -60.495583 182.163284 36843.175781
7.000000 3.040000 5.080000 -109.086227 87.608139 19574.990234
7.000000 3.040000 5.120000 -79.016273 5.438705 6273.150879
7.000000 3.040000 5.160000 -16.698782 -16.178059 540.578857
7.000000 3.040000 5.200000 19.496378 12.109892 526.758240
7.000000 3.080000 4.800000 42.017029 -2.562036 1771.994751
7.000000 3.080000 4.840000 82.478340 -3.124830 6812.441406
7.000000 3.080000 4.880000 121.580963 43.201530 16648.302734
7.000000 3.080000 4.920000 113.686043 121.726852 27741.943359
7.000000 3.080000 4.960000 43.277390 181.095520 34668.519531
7.000000 3.080000 5.000000 -54.584694 175.269501 33698.886719
7.000000 3.080000 5.040000 -119.910286 104.957047 25394.457031
7.000000 3.080000 5.080000 -117.482002 18.395405 14140.411133
7.000000 3.080000 5.120000 -64.287514 -29.913998 5027.731445
7.000000 3.080000 5.160000 -10.028554 -23.337664 645.218445
7.000000 3.080000 5.200000 8.282776 10.288312 174.453735
7.000000 3.120000 4.800000 25.481966 25.043610 1276.512939
7.000000 3.120000 4.840000 44.152107 35.977905 3243.818359
7.000000 3.120000 4.880000 48.646660 71.000580 7407.580078
7.000000 3.120000 4.920000 18.935242 109.160950 12274.656250
7.000000 3.120000 4.960000 -38.657650 118.510986 15539.267578
7.000000 3.120000 5.000000 -92.161774 83.932304 15538.424805
7.000000 3.120000 5.040000 -108.720154 22.323380 12318.405273
7.000000 3.120000 5.080000 -81.432579 -29.907841 7525.744141
7.000000 3.120000 5.120000 -33.779427 -45.958572 3253.240234
7.000000 3.120000 5.160000 1.468159 -27.842857 777.380249
7.000000 3.120000 5.200000 8.349628 0.311738 69.813477
7.000000 3.160000 4.800000 -2.862665 31.134808 977.571045
7.000000 3.160000 4.840000 -1.598709 33.523228 1126.362671
7.000000 3.160000 4.880000 -6.911373 41.610958 1779.238892
7.000000 3.160000 4.920000 -23.016670 46.553234 2696.970703
7.000000 3.160000 4.960000 -44.637909 38.446617 3470.685303
7.000000 3.160000 5.000000 -59.328159 14.970253 3743.938965
7.000000 3.160000 5.040000 -56.310631 -15.097832 3398.831787
7.000000 3.160000 5.080000 -34.976418 -37.032242 2594.736816
7.000000 3.160000 5.120000 -6.046177 -40.179581 1650.954956
7.000000 3.160000 5.160000 15.497999 -25.119911 871.197937
7.000000 3.160000 5.200000 20.166630 -2.706274 414.016876
7.000000 3.200000 4.800000 -21.905722 17.425417 783.505798
7.000000 3.200000 4.840000 -21.974289 5.566967 513.860535
7.000000 3.200000 4.880000 -15.023247 -3.115139 235.402023
7.000000 3.200000 4.920000 -6.226440 -3.820137 53.362007
7.000000 3.200000 4.960000 -3.295794 1.243111 12.407586
7.000000 3.200000 5.000000 -8.327377 3.431534 81.120636
7.000000 3.200000 5.040000 -13.999496 -3.911469 211.285492
7.000000 3.200000 5.080000 -9.726044 -17.172600 389.494110
7.000000 3.200000 5.120000 7.002127 -23.875309 619.060181
7.000000 3.200000 5.160000 25.703766 -14.136355 860.520142
7.000000 3.200000 5.200000 30.794708 8.369982 1018.370605
7.040000 2.800000 4.800000 -20.357338 -9.932199 513.069763
7.040000 2.800000 4.840000 -10.976706 -19.383553 496.210175
7.040000 2.800000 4.880000 4.608566 -19.778721 412.436676
7.040000 2.800000 4.920000 17.011053 -7.976173 352.995270
7.040000 2.800000 4.960000 17.315235 9.538607 390.802399
7.040000 2.800000 5.000000 5.799671 21.291931 486.982544
7.040000 2.800000 5.040000 -7.971149 21.316853 517.947449
7.040000 2.800000 5.080000 -14.570558 14.421997 420.295166
7.040000 2.800000 5.120000 -13.905916 10.264412 298.732666
7.040000 2.800000 5.160000 -14.100149 12.494132 354.917542
7.040000 2.800000 5.200000 -21.350502 14.996622 680.742615
7.040000 2.840000 4.800000 -22.084568 -16.016727 744.263672
7.040000 2.840000 4.840000 -21.669329 -24.639153 1076.647705
7.040000 2.840000 4.880000 -14.029030 -35.187511 1434.974731
7.040000 2.840000 4.920000 1.853706 -39.693184 1578.985107
7.040000 2.840000 4.960000 18.999588 -32.084896 1390.424927
7.040000 2.840000 5.000000 27.660225 -14.372669 971.661621
7.040000 2.840000 5.040000 23.113766 4.599457 555.401184
7.040000 2.840000 5.080000 8.663497 15.952988 329.554016
7.040000 2.840000 5.120000 -7.958920 16.435287 333.463074
7.040000 2.840000 5.160000 -20.310108 8.636325 487.086609
7.040000 2.840000 5.200000 -26.026272 -2.637888 684.325256
7.040000 2.880000 4.800000 -21.005190 -28.864185 1274.359131
7.040000 2.880000 4.840000 -26.066301 -48.540104 3035.593750
7.040000 2.880000 4.880000 -9.721035 -75.881348 5852.477539
7.040000 2.880000 4.920000 30.186573 -86.761200 8438.735352
7.040000 2.880000 4.960000 72.281982 -64.152275 9340.199219
7.040000 2.880000 5.000000 88.116570 -16.152367 8025.428711
7.040000 2.880000 5.040000 66.765182 28.608196 5276.018066
7.040000 2.880000 5.080000 24.213503 44.355873 2553.737305
7.040000 2.880000 5.120000 -10.966614 28.339611 923.400146
7.040000 2.880000 5.160000 -21.345076 -0.207510 455.655304
7.040000 2.880000 5.200000 -11.732747 -19.376570 513.108765
7.040000 2.920000 4.800000 -7.885468 -43.592705 1962.504517
7.040000 2.920000 4.840000 -4.383396 -77.609741 6042.486328
7.040000 2.920000 4.880000 37.656452 -108.515221 13193.561523
7.040000 2.920000 4.920000 104.134109 -98.192780 20485.734375
7.040000 2.920000 4.960000 150.584000 -36.256256 23990.056641
7.040000 2.920000 5.000000 140.200500 44.455818 21632.500000
7.040000 2.920000 5.040000 78.082428 93.138985 14771.736328
7.040000 2.920000 5.080000 7.871883 84.073334 7130.291992
7.040000 2.920000 5.120000 -26.287033 36.525467 2025.117920
7.040000 2.920000 5.160000 -15.703236 -6.376425 287.250427
7.040000 2.920000 5.200000 12.116561 -17.396736 449.457458
7.040000 2.960000 4.800000 17.579613 -46.779785 2497.391113
7.040000 2.960000 4.840000 41.396015 -83.691071 8717.825195
7.040000 2.960000 4.880000 107.266541 -93.263283 20204.150391
7.040000 2.960000 4.920000 175.476318 -41.167095 32486.667969
7.040000 2.960000 4.960000 189.368774 56.623856 39066.792969
7.040000 2.960000 5.000000 128.102615 140.151306 36052.667969
7.040000 2.960000 5.040000 29.475763 155.751862 25127.462891
7.040000 2.960000 5.080000 -41.435051 102.694183 12262.958984
7.040000 2.960000 5.120000 -48.235893 31.093307 3293.495117
7.040000 2.960000 5.160000 -10.085921 -5.681213 134.001984
7.040000 2.960000 5.200000 24.031475 3.469810 589.551392
7.040000 3.000000 4.800000 41.953342 -29.135475 2608.958740
7.040000 3.000000 4.840000 83.148659 -51.288918 9544.251953
7.040000 3.000000 4.880000 149.363907 -25.107218 22939.949219
7.040000 3.000000 4.920000 184.694824 60.184334 37734.332031
7.040000 3.000000 4.960000 144.652435 158.989380 46201.949219
7.040000 3.000000 5.000000 42.196266 203.959229 43379.890625
7.040000 3.000000 5.040000 -58.295998 165.567383 30810.982422
7.040000 3.000000 5.080000 -95.920822 78.609375 15380.237305
7.040000 3.000000 5.120000 -64.446609 9.477396 4243.186035
7.040000 3.000000 5.160000 -11.055664 -3.146317 132.127014
7.040000 3.000000 5.200000 12.972714 23.594995 725.015137
7.040000 3.040000 4.800000 47.633900 2.947212 2277.674316
7.040000 3.040000 4.840000 89.634300 3.895985 8049.486328
7.040000 3.040000 4.880000 129.345963 55.333389 19792.162109
7.040000 3.040000 4.920000 116.797440 139.667816 33148.742188
7.040000 3.040000 4.960000 37.713062 199.550903 41242.835938
7.040000 3.040000 5.000000 -66.082123 187.238617 39425.148438
7.040000 3.040000 5.040000 -129.476471 109.205605 28690.019531
7.040000 3.040000 5.080000 -120.180908 21.465225 14904.207031
7.040000 3.040000 5.120000 -63.989113 -20.381025 4509.992676
7.040000 3.040000 5.160000 -16.069496 -7.471483 314.051758
7.040000 3.040000 5.200000 -8.930845 23.177349 616.949524
7.040000 3.080000 4.800000 28.912552 29.992340 1735.476074
7.040000 3.080000 4.840000 55.421700 45.907570 5179.069336
7.040000 3.080000 4.880000 60.654915 95.203323 12742.691406
7.040000 3.080000 4.920000 17.687450 146.049500 21643.302734
7.040000 3.080000 4.960000 -60.473396 154.065521 27393.216797
7.040000 3.080000 5.000000 -126.922775 103.461250 26813.621094
7.040000 3.080000 5.040000 -140.328705 23.849453 20260.941406
7.040000 3.080000 5.080000 -100.365547 -34.737907 11279.964844
7.040000 3.080000 5.120000 -45.190498 -44.622833 4033.378418
7.040000 3.080000 5.160000 -14.922678 -20.003418 622.823059
7.040000 3.080000 5.200000 -18.029390 3.135874 334.892639
7.040000 3.120000 4.800000 -1.549512 35.386177 1254.582520
7.040000 3.120000 4.840000 6.495890 49.629608 2505.294434
7.040000 3.120000 4.880000 -6.924252 75.261978 5712.310547
7.040000 3.120000 4.920000 -46.246925 86.833603 9678.852539
7.040000 3.120000 4.960000 -90.994919 64.810699 12480.501953
7.040000 3.120000 5.000000 -111.663773 14.840652 12689.042969
7.040000 3.120000 5.040000 -94.914673 -35.517944 10270.319336
7.040000 3.120000 5.080000 -54.267883 -59.660858 6504.420898
7.040000 3.120000 5.120000 -16.969240 -52.622929 3057.127686
7.040000 3.120000 5.160000 -0.908709 -31.067814 966.034790
7.040000 3.120000 5.200000 -3.389106 -15.238792 243.706833
7.040000 3.160000 4.800000 -23.257162 19.678787 928.150269
7.040000 3.160000 4.840000 -23.428396 21.599438 1015.425476
7.040000 3.160000 4.880000 -31.875700 23.423824 1564.735840
7.040000 3.160000 4.920000 -45.314186 16.698666 2332.220947
7.040000 3.160000 4.960000 -54.634857 -0.957253 2985.883789
7.040000 3.160000 5.000000 -52.054176 -23.847626 3278.346436
7.040000 3.160000 5.040000 -36.552765 -42.443775 3137.578613
7.040000 3.160000 5.080000 -13.870316 -49.534454 2646.047852
7.040000 3.160000 5.120000 7.456980 -43.646454 1960.619507
7.040000 3.160000 5.160000 20.389315 -28.732502 1241.280762
7.040000 3.160000 5.200000 21.877508 -11.829563 618.563965
7.040000 3.200000 4.800000 -25.753239 -0.959261 664.149475
7.040000 3.200000 4.840000 -22.190575 -9.403632 580.849915
7.040000 3.200000 4.880000 -14.207521 -15.365503 437.952362
7.040000 3.200000 4.920000 -5.248433 -15.087479 255.178070
7.040000 3.200000 4.960000 -1.457119 -10.363396 109.523163
7.040000 3.200000 5.000000 -4.142952 -8.651173 92.006836
7.040000 3.200000 5.040000 -6.164753 -15.119036 266.589417
7.040000 3.200000 5.080000 1.639683 -24.980354 626.706665
7.040000 3.200000 5.120000 19.387070 -26.072992 1055.659424
7.040000 3.200000 5.160000 34.906796 -11.197054 1343.858398
7.040000 3.200000 5.200000 33.976501 12.169407 1302.497192
7.080000 2.800000 4.800000 -28.748928 -10.490267 936.546570
7.080000 2.800000 4.840000 -17.244141 -23.706192 859.343872
7.080000 2.800000 4.880000 2.643572 -24.274572 596.243347
7.080000 2.800000 4.920000 16.960197 -8.949352 367.739197
7.080000 2.800000 4.960000 14.679817 11.644217 351.084839
7.080000 2.800000 5.000000 -1.170048 22.287933 498.121002
7.080000 2.800000 5.040000 -16.558353 17.748901 589.202576
7.080000 2.800000 5.080000 -20.803802 6.926628 480.776367
7.080000 2.800000 5.120000 -16.765787 2.137712 285.661438
7.080000 2.800000 5.160000 -15.921478 5.428272 282.959595
7.080000 2.800000 5.200000 -24.138264 7.076160 632.727783
7.080000 2.840000 4.800000 -25.395161 -29.643862 1523.672729
7.080000 2.840000 4.840000 -12.851608 -42.109940 1938.410889
7.080000 2.840000 4.880000 8.191547 -44.421791 2040.396973
7.080000 2.840000 4.920000 27.200684 -31.544800 1734.951660
7.080000 2.840000 4.960000 33.049988 -9.333385 1179.413696
7.080000 2.840000 5.000000 23.558161 9.859959 652.205750
7.080000 2.840000 5.040000 6.462017 17.371349 343.521423
7.080000 2.840000 5.080000 -8.388617 13.850569 262.207153
7.080000 2.840000 5.120000 -16.881100 5.576123 316.064667
7.080000 2.840000 5.160000 -20.913397 -3.061290 446.741669
7.080000 2.840000 5.200000 -22.640583 -12.327516 664.563660
7.080000 2.880000 4.800000 -6.207603 -46.448086 2195.958984
7.080000 2.880000 4.840000 9.231350 -59.634060 3641.438965
7.080000 2.880000 4.880000 37.835201 -61.746719 5244.160156
7.080000 2.880000 4.920000 66.669693 -41.681862 6182.225586
7.080000 2.880000 4.960000 76.604286 -4.064064 5884.733398
7.080000 2.880000 5.000000 58.906105 31.559017 4465.900879
7.080000 2.880000 5.040000 23.667686 45.606331 2640.096924
7.080000 2.880000 5.080000 -8.077679 33.701668 1201.051270
7.080000 2.880000 5.120000 -20.961592 8.438506 510.596741
7.080000 2.880000 5.160000 -15.314570 -12.811293 398.665283
7.080000 2.880000 5.200000 -2.739307 -21.699705 478.381012
7.080000 2.920000 4.800000 24.344849 -46.526772 2757.412109
7.080000 2.920000 4.840000 45.780972 -58.118950 5473.709961
7.080000 2.920000 4.880000 83.457809 -50.612652 9526.846680
7.080000 2.920000 4.920000 113.968155 -11.044846 13110.728516
7.080000 2.920000 4.960000 109.720581 46.325119 14184.622070
7.080000 2.920000 5.000000 65.761345 87.571823 11993.378906
7.080000 2.920000 5.040000 7.571709 87.283821 7675.795898
7.080000 2.920000 5.080000 -29.233109 50.628578 3417.827637
7.080000 2.920000 5.120000 -28.439232 7.878045 870.853516
7.080000 2.920000 5.160000 -4.000772 -12.915903 182.826721
7.080000 2.920000 5.200000 16.854305 -8.365098 354.042450
7.080000 2.960000 4.800000 49.567413 -23.572762 3012.603516
7.080000 2.960000 4.840000 76.471809 -27.956079 6629.479980
7.080000 2.960000 4.880000 114.028519 -2.332743 13007.944336
7.080000 2.960000 4.920000 127.562439 56.971310 19517.906250
7.080000 2.960000 4.960000 91.969635 118.599358 22524.222656
7.080000 2.960000 5.000000 20.004612 140.200684 20056.416016
7.080000 2.960000 5.040000 -44.340477 106.843102 13381.526367
7.080000 2.960000 5.080000 -63.174152 45.638084 6073.808594
7.080000 2.960000 5.120000 -36.829426 1.302870 1358.104126
7.080000 2.960000 5.160000 0.341572 -3.415551 11.782661
7.080000 2.960000 5.200000 14.928627 16.266598 487.466125
7.080000 3.000000 4.800000 52.218681 12.187333 2875.321777
7.080000 3.000000 4.840000 78.505241 18.794109 6516.291504
7.080000 3.000000 4.880000 101.128029 59.927647 13818.201172
7.080000 3.000000 4.920000 84.235107 121.713226 21909.662109
7.080000 3.000000 4.960000 19.540798 161.063232 26323.208984
7.080000 3.000000 5.000000 -58.880440 144.123123 24238.380859
7.080000 3.000000 5.040000 -101.580658 79.887756 16700.683594
7.080000 3.000000 5.080000 -87.560272 14.034212 7863.760254
7.080000 3.000000 5.120000 -41.550247 -12.102354 1872.890137
7.080000 3.000000 5.160000 -7.927992 3.196021 73.067604
7.080000 3.000000 5.200000 -8.505451 26.668930 783.574524
7.080000 3.040000 4.800000 29.290983 39.502472 2418.406982
7.080000 3.040000 4.840000 47.199715 54.498787 5197.930664
7.080000 3.040000 4.880000 46.780373 96.538239 11508.035156
7.080000 3.040000 4.920000 4.970787 137.497543 18930.283203
7.080000 3.040000 4.960000 -64.916634 138.558411 23412.603516
7.080000 3.040000 5.000000 -119.756287 88.457108 22166.228516
7.080000 3.040000 5.040000 -124.512451 17.490000 15809.250977
7.080000 3.040000 5.080000 -84.151917 -28.590689 7898.972656
7.080000 3.040000 5.120000 -37.415581 -29.349430 2261.314697
7.080000 3.040000 5.160000 -19.178535 -4.604506 389.017700
7.080000 3.040000 5.200000 -29.902586 9.903108 992.236206
7.080000 3.080000 4.800000 -4.082592 42.453182 1818.940308
7.080000 3.080000 4.840000 2.206335 57.924278 3360.089844
7.080000 3.080000 4.880000 -14.998100 84.725311 7403.321289
7.080000 3.080000 4.920000 -59.633038 94.022720 12396.371094
7.080000 3.080000 4.960000 -106.712723 65.332680 15655.964844
7.080000 3.080000 5.000000 -123.155281 8.888676 15246.232422
7.080000 3.080000 5.040000 -98.398544 -41.366318 11393.445312
7.080000 3.080000 5.080000 -53.924370 -58.013805 6273.439453
7.080000 3.080000 5.120000 -22.258120 -43.384117 2377.605469
7.080000 3.080000 5.160000 -17.261953 -23.265133 839.241455
7.080000 3.080000 5.200000 -25.437977 -19.293121 1019.315186
7.080000 3.120000 4.800000 -26.463902 23.261429 1241.432129
7.080000 3.120000 4.840000 -28.149401 31.796764 1803.422974
7.080000 3.120000 4.880000 -46.223705 37.916843 3574.317871
7.080000 3.120000 4.920000 -71.966133 25.390621 5823.808105
7.080000 3.120000 4.960000 -85.596985 -7.004074 7375.900879
7.080000 3.120000 5.000000 -74.603622 -42.854462 7402.205566
7.080000 3.120000 5.040000 -45.204678 -62.612583 5963.798340
7.080000 3.120000 5.080000 -15.816620 -60.366234 3894.247803
7.080000 3.120000 5.120000 -0.095327 -46.563229 2168.143311
7.080000 3.120000 5.160000 3.087323 -35.533585 1272.167236
7.080000 3.120000 5.200000 4.062778 -32.003067 1040.702393
7.080000 3.160000 4.800000 -27.542103 -0.550402 758.870361
7.080000 3.160000 4.840000 -30.137032 -1.001633 909.243958
7.080000 3.160000 4.880000 -35.943211 -7.612995 1349.872070
7.080000 3.160000 4.920000 -37.233971 -20.873436 1822.068848
7.080000 3.160000 4.960000 -29.885559 -34.604034 2090.585938
7.080000 3.160000 5.000000 -16.597954 -42.649452 2094.467773
7.080000 3.160000 5.040000 -2.751572 -44.045883 1947.610962
7.080000 3.160000 5.080000 9.166292 -41.465523 1803.410400
7.080000 3.160000 5.120000 19.857416 -36.257732 1708.940186
7.080000 3.160000 5.160000 28.960936 -27.099634 1573.125977
7.080000 3.160000 5.200000 32.897583 -13.945116 1276.717285
7.080000 3.200000 4.800000 -15.170452 -12.205707 379.121887
7.080000 3.200000 4.840000 -13.470879 -18.664789 529.838928
7.080000 3.200000 4.880000 -5.065341 -25.025120 651.914246
7.080000 3.200000 4.920000 6.784966 -23.920975 618.248779
7.080000 3.200000 4.960000 13.241543 -15.745626 423.263214
7.080000 3.200000 5.000000 11.005314 -9.499472 211.356903
7.080000 3.200000 5.040000 7.699326 -12.238204 209.053253
7.080000 3.200000 5.080000 13.729633 -19.259220 559.420410
7.080000 3.200000 5.120000 29.058098 -17.752703 1159.531494
7.080000 3.200000 5.160000 40.686428 -1.392037 1657.323120
7.080000 3.200000 5.200000 35.578808 20.337332 1679.458618
7.120000 2.800000 4.800000 -34.838184 -21.289642 1666.947998
7.120000 2.800000 4.840000 -16.532898 -35.094666 1504.972168
7.120000 2.800000 4.880000 8.026375 -30.257914 979.963989
7.120000 2.800000 4.920000 20.454338 -8.291489 487.128723
7.120000 2.800000 4.960000 11.800034 13.913721 332.832428
7.120000 2.800000 5.000000 -8.525736 19.886112 468.145630
7.120000 2.800000 5.040000 -22.439878 9.115725 586.644592
7.120000 2.800000 5.080000 -21.305584 -4.103122 470.763519
7.120000 2.800000 5.120000 -13.153180 -6.915438 220.829437
7.120000 2.800000 5.160000 -11.746699 -1.297266 139.667831
7.120000 2.800000 5.200000 -20.228079 -0.249117 409.237244
7.120000 2.840000 4.800000 -16.164894 -44.382362 2231.097900
7.120000 2.840000 4.840000 7.718507 -48.781441 2439.204346
7.120000 2.840000 4.880000 30.545267 -34.553574 2126.962891
7.120000 2.840000 4.920000 37.469688 -8.099237 1469.575195
7.120000 2.840000 4.960000 24.767380 14.328070 818.716675
7.120000 2.840000 5.000000 3.029261 20.475483 428.421814
7.120000 2.840000 5.040000 -12.998652 11.701422 305.888184
7.120000 2.840000 5.080000 -17.241089 -0.872556 298.016510
7.120000 2.840000 5.120000 -14.889702 -8.571678 295.176880
7.120000 2.840000 5.160000 -13.493964 -12.387785 335.544281
7.120000 2.840000 5.200000 -13.533707 -18.347622 519.796448
7.120000 2.880000 4.800000 18.775608 -48.356754 2690.899170
7.120000 2.880000 4.840000 40.882835 -41.644062 3405.634277
7.120000 2.880000 4.880000 57.453445 -20.176151 3707.975586
7.120000 2.880000 4.920000 57.519314 9.268864 3394.383301
7.120000 2.880000 4.960000 38.832142 32.538429 2566.684570
7.120000 2.880000 5.000000 10.965878 38.162560 1576.631470
7.120000 2.880000 5.040000 -11.422201 25.783573 795.259338
7.120000 2.880000 5.080000 -19.162266 5.402717 396.381775
7.120000 2.880000 5.120000 -13.635090 -11.280699 313.169861
7.120000 2.880000 5.160000 -2.791154 -19.091480 372.275146
7.120000 2.880000 5.200000 6.831893 -20.288895 458.314026
7.120000 2.920000 4.800000 49.353546 -24.162281 3019.588379
7.120000 2.920000 4.840000 63.397804 -10.219108 4123.711426
7.120000 2.920000 4.880000 71.050949 14.710135 5264.625488
7.120000 2.920000 4.920000 61.894043 44.948547 5851.244629
7.120000 2.920000 4.960000 33.416740 65.575775 5416.860840
7.120000 2.920000 5.000000 -2.730238 63.322266 4017.163330
7.120000 2.920000 5.040000 -27.335133 38.821686 2254.332764
7.120000 2.920000 5.080000 -28.488560 7.759042 871.800781
7.120000 2.920000 5.120000 -10.956893 -11.349563 248.866089
7.120000 2.920000 5.160000 8.989556 -11.734270 218.505219
7.120000 2.920000 5.200000 18.283222 -1.704670 337.182129
7.120000 2.960000 4.800000 53.927788 16.460238 3179.145752
7.120000 2.960000 4.840000 58.239708 31.000607 4352.901367
7.120000 2.960000 4.880000 56.224693 54.890785 6174.214355
7.120000 2.960000 4.920000 36.145943 80.691971 7817.723633
7.120000 2.960000 4.960000 -1.698674 90.359207 8167.671387
7.120000 2.960000 5.000000 -39.349014 71.910522 6719.467773
7.120000 2.960000 5.040000 -54.264095 33.735561 4082.680176
7.120000 2.960000 5.080000 -39.637966 0.108853 1571.180176
7.120000 2.960000 5.120000 -11.202630 -9.458387 214.960007
7.120000 2.960000 5.160000 7.305720 3.055625 62.710396
7.120000 2.960000 5.200000 5.877873 18.213997 366.299072
7.120000 3.000000 4.800000 28.182377 47.973946 3095.745850
7.120000 3.000000 4.840000 25.717350 57.967659 4021.631592
7.120000 3.000000 4.880000 15.458616 76.154953 6038.545410
7.120000 3.000000 4.920000 -12.709740 90.272301 8310.625977
7.120000 3.000000 4.960000 -51.173828 82.014206 9345.090820
7.120000 3.000000 5.000000 -76.907394 47.592113 8179.756836
7.120000 3.000000 5.040000 -72.288048 5.888719 5260.239258
7.120000 3.000000 5.080000 -43.323101 -16.771986 2158.190674
7.120000 3.000000 5.120000 -15.162749 -10.896681 348.646606
7.120000 3.000000 5.160000 -8.282282 7.961486 131.981445
7.120000 3.000000 5.200000 -19.653084 15.989731 641.915222
7.120000 3.040000 4.800000 -10.158096 51.017040 2705.925293
7.120000 3.040000 4.840000 -14.879576 55.169800 3265.108643
7.120000 3.040000 4.880000 -29.430183 63.971436 4958.479980
7.120000 3.040000 4.920000 -56.967796 62.166302 7109.979004
7.120000 3.040000 4.960000 -82.826454 38.177460 8317.740234
7.120000 3.040000 5.000000 -86.963852 -0.220185 7562.759766
7.120000 3.040000 5.040000 -64.826454 -30.046751 5105.276367
7.120000 3.040000 5.080000 -33.807152 -34.473175 2331.323242
7.120000 3.040000 5.120000 -17.103195 -19.204754 661.341858
7.120000 3.040000 5.160000 -21.230186 -6.068010 487.541565
7.120000 3.040000 5.200000 -30.980488 -10.172911 1063.278809
7.120000 3.080000 4.800000 -35.524414 27.851238 2037.675537
7.120000 3.080000 4.840000 -39.681767 27.708139 2342.383545
7.120000 3.080000 4.880000 -52.701252 26.176357 3462.623535
7.120000 3.080000 4.920000 -69.130318 11.886490 4920.289551
7.120000 3.080000 4.960000 -74.348610 -15.361681 5763.697266
7.120000 3.080000 5.000000 -59.966030 -41.492531 5317.554688
7.120000 3.080000 5.040000 -34.017006 -51.044197 3762.666748
7.120000 3.080000 5.080000 -14.045621 -42.646790 2016.028076
7.120000 3.080000 5.120000 -9.850379 -30.186140 1008.233032
7.120000 3.080000 5.160000 -14.338411 -28.019821 990.700378
7.120000 3.080000 5.200000 -12.360196 -36.036621 1451.412476
7.120000 3.120000 4.800000 -35.259666 -0.809500 1243.899292
7.120000 3.120000 4.840000 -38.474358 -3.751841 1494.352539
7.120000 3.120000 4.880000 -44.416092 -12.820891 2137.164551
7.120000 3.120000 4.920000 -44.444939 -29.171646 2826.337402
7.120000 3.120000 4.960000 -33.047901 -44.823711 3101.329102
7.120000 3.120000 5.000000 -14.684754 -50.431389 2758.967041
7.120000 3.120000 5.040000 0.230179 -45.022141 2027.046143
7.120000 3.120000 5.080000 5.925653 -36.811668 1390.212280
7.120000 3.120000 5.120000 6.745399 -34.045891 1204.623047
7.120000 3.120000 5.160000 11.410683 -36.107059 1433.923340
7.120000 3.120000 5.200000 22.603230 -34.728424 1716.969482
7.120000 3.160000 4.800000 -18.259136 -14.550556 545.114746
7.120000 3.160000 4.840000 -20.565313 -20.580086 846.472046
7.120000 3.160000 4.880000 -16.662209 -31.557793 1273.523438
7.120000 3.160000 4.920000 -3.994003 -38.892178 1528.553467
7.120000 3.160000 4.960000 10.479256 -36.208256 1420.852661
7.120000 3.160000 5.000000 17.751141 -26.927153 1040.174561
7.120000 3.160000 5.040000 16.972683 -20.580055 711.610596
7.120000 3.160000 5.080000 16.395290 -21.785748 743.424316
7.120000 3.160000 5.120000 23.584478 -24.660309 1164.358398
7.120000 3.160000 5.160000 36.027100 -19.438295 1675.799194
7.120000 3.160000 5.200000 43.140900 -4.044113 1877.492065
7.120000 3.200000 4.800000 -4.215334 -10.095911 119.696465
7.120000 3.200000 4.840000 -3.743130 -20.074286 416.987946
7.120000 3.200000 4.880000 8.833330 -26.956280 804.668701
7.120000 3.200000 4.920000 24.224054 -20.461918 1005.494873
7.120000 3.200000 4.960000 28.675064 -4.838452 845.669922
7.120000 3.200000 5.000000 20.115858 5.251023 432.220978
7.120000 3.200000 5.040000 11.239681 1.540676 128.704117
7.120000 3.200000 5.080000 15.200804 -7.679325 290.036469
7.120000 3.200000 5.120000 29.933704 -6.417790 937.214722
7.120000 3.200000 5.160000 39.428467 10.592741 1666.810181
7.120000 3.200000 5.200000 31.321022 30.875057 1934.275635
7.160000 2.800000 4.800000 -30.481417 -36.190277 2238.853027
7.160000 2.800000 4.840000 -5.924273 -44.221577 1990.644897
7.160000 2.800000 4.880000 17.907820 -30.579039 1255.767578
7.160000 2.800000 4.920000 23.099712 -4.222857 551.429260
7.160000 2.800000 4.960000 7.396521 14.555775 266.579102
7.160000 2.800000 5.000000 -13.584260 13.206911 358.954620
7.160000 2.800000 5.040000 -21.962591 -1.834020 485.719025
7.160000 2.800000 5.080000 -14.720027 -13.280014 393.037964
7.160000 2.800000 5.120000 -4.563028 -11.446466 151.842819
7.160000 2.800000 5.160000 -4.467107 -3.188932 30.124336
7.160000 2.800000 5.200000 -13.241488 -2.408823 181.139450
7.160000 2.840000 4.800000 1.867329 -49.294243 2433.409180
7.160000 2.840000 4.840000 26.567978 -39.739246 2285.064941
7.160000 2.840000 4.880000 37.983253 -14.095857 1641.420654
7.160000 2.840000 4.920000 27.751369 11.487037 902.090515
7.160000 2.840000 4.960000 4.203485 20.630228 443.275604
7.160000 2.840000 5.000000 -15.130959 10.725286 343.977661
7.160000 2.840000 5.040000 -19.153576 -6.251268 405.937805
7.160000 2.840000 5.080000 -11.461489 -16.425392 401.159241
7.160000 2.840000 5.120000 -3.718779 -16.662466 291.467102
7.160000 2.840000 5.160000 -2.305434 -14.618245 219.008102
7.160000 2.840000 5.200000 -2.744062 -17.632507 318.435181
7.160000 2.880000 4.800000 37.471756 -32.297230 2447.243652
7.160000 2.880000 4.840000 48.164112 -9.850726 2416.818604
7.160000 2.880000 4.880000 41.413841 15.221615 1946.803711
7.160000 2.880000 4.920000 20.253391 29.314415 1269.534790
7.160000 2.880000 4.960000 -3.000051 25.904076 680.021423
7.160000 2.880000 5.000000 -15.991490 9.927486 354.282745
7.160000 2.880000 5.040000 -14.991121 -7.172589 276.179749
7.160000 2.880000 5.080000 -5.568901 -16.781094 312.617767
7.160000 2.880000 5.120000 4.155303 -18.254032 350.476227
7.160000 2.880000 5.160000 10.520719 -16.205860 373.315430
7.160000 2.880000 5.200000 15.232213 -14.057755 429.640808
7.160000 2.920000 4.800000 49.880268 8.191149 2555.136230
7.160000 2.920000 4.840000 41.127869 29.105991 2538.660400
7.160000 2.920000 4.880000 21.969923 41.011215 2164.597412
7.160000 2.920000 4.920000 0.412236 39.680138 1574.683228
7.160000 2.920000 4.960000 -15.141646 26.975477 956.945862
7.160000 2.920000 5.000000 -19.678904 9.291532 473.591797
7.160000 2.920000 5.040000 -13.332851 -5.732760 210.629471
7.160000 2.920000 5.080000 -0.794253 -12.670885 161.182175
7.160000 2.920000 5.120000 11.350414 -10.619015 241.595383
7.160000 2.920000 5.160000 18.220348 -3.085409 341.500824
7.160000 2.920000 5.200000 19.097761 4.736457 387.158508
7.160000 2.960000 4.800000 27.931484 45.538605 2853.932129
7.160000 2.960000 4.840000 7.378170 51.772461 2734.825195
7.160000 2.960000 4.880000 -11.573696 46.702309 2315.056152
7.160000 2.960000 4.920000 -24.220425 34.345940 1766.272461
7.160000 2.960000 4.960000 -29.028383 18.810711 1196.489868
7.160000 2.960000 5.000000 -25.530540 3.801760 666.261841
7.160000 2.960000 5.040000 -14.666129 -6.149426 252.910782
7.160000 2.960000 5.080000 -0.877406 -6.947618 49.039230
7.160000 2.960000 5.120000 8.590918 1.137650 75.098106
7.160000 2.960000 5.160000 8.827355 11.778581 216.657166
7.160000 2.960000 5.200000 2.137295 16.968349 292.492920
7.160000 3.000000 4.800000 -13.407558 54.221329 3119.715088
7.160000 3.000000 4.840000 -31.678484 43.609928 2905.352051
7.160000 3.000000 4.880000 -40.370697 27.776966 2401.353027
7.160000 3.000000 4.920000 -41.044594 12.649837 1844.677124
7.160000 3.000000 4.960000 -36.327259 0.128590 1319.686279
7.160000 3.000000 5.000000 -27.050667 -8.643093 806.441650
7.160000 3.000000 5.040000 -14.858614 -10.811589 337.668884
7.160000 3.000000 5.080000 -5.081087 -4.774881 48.616928
7.160000 3.000000 5.120000 -3.773552 5.258769 41.894348
7.160000 3.000000 5.160000 -10.947159 10.574244 231.654907
7.160000 3.000000 5.200000 -18.408932 5.977546 374.619812
7.160000 3.040000 4.800000 -44.951363 31.044832 2984.406738
7.160000 3.040000 4.840000 -51.784630 12.246804 2831.632080
7.160000 3.040000 4.880000 -48.577606 -4.665602 2381.551758
7.160000 3.040000 4.920000 -39.835342 -16.155443 1847.852783
7.160000 3.040000 4.960000 -28.850662 -22.088634 1320.268555
7.160000 3.040000 5.000000 -17.583323 -22.271763 805.204651
7.160000 3.040000 5.040000 -9.314999 -16.568417 361.281616
7.160000 3.040000 5.080000 -8.156716 -8.197885 133.737335
7.160000 3.040000 5.120000 -14.240292 -4.117743 219.741699
7.160000 3.040000 5.160000 -20.731962 -9.316956 516.619934
7.160000 3.040000 5.200000 -18.450558 -20.282095 751.786438
7.160000 3.080000 4.800000 -47.699329 -3.077751 2284.698730
7.160000 3.080000 4.840000 -44.520554 -19.744936 2371.942139
7.160000 3.080000 4.880000 -34.134445 -32.113953 2196.466309
7.160000 3.080000 4.920000 -20.061989 -37.487354 1807.785156
7.160000 3.080000 4.960000 -6.579126 -35.029682 1270.363525
7.160000 3.080000 5.000000 1.584157 -26.423012 700.685120
7.160000 3.080000 5.040000 1.298277 -16.898851 287.256683
7.160000 3.080000 5.080000 -5.506229 -13.439262 210.932327
7.160000 3.080000 5.120000 -11.174612 -19.438629 502.732239
7.160000 3.080000 5.160000 -7.441546 -30.277954 972.131104
7.160000 3.080000 5.200000 6.897645 -35.465103 1305.351074
7.160000 3.120000 4.800000 -27.481121 -22.369574 1255.609863
7.160000 3.120000 4.840000 -21.702246 -33.813499 1614.340210
7.160000 3.120000 4.880000 -8.693119 -41.855354 1827.441040
7.160000 3.120000 4.920000 7.853779 -40.658981 1714.834595
7.160000 3.120000 4.960000 19.489260 -29.359653 1241.820557
7.160000 3.120000 5.000000 19.537746 -15.137091 610.855042
7.160000 3.120000 5.040000 10.082653 -8.612486 175.834808
7.160000 3.120000 5.080000 1.747486 -14.466866 212.343933
7.160000 3.120000 5.120000 4.892531 -26.207798 710.785583
7.160000 3.120000 5.160000 19.935738 -31.112169 1365.400757
7.160000 3.120000 5.200000 36.296295 -21.463224 1778.091064
7.160000 3.160000 4.800000 -6.868690 -18.249340 380.217346
7.160000 3.160000 4.840000 -2.632969 -28.884386 841.240234
7.160000 3.160000 4.880000 12.439797 -34.399750 1338.091309
7.160000 3.160000 4.920000 29.145947 -25.987484 1524.835449
7.160000 3.160000 4.960000 34.070431 -7.745766 1220.791260
7.160000 3.160000 5.000000 23.827761 5.694417 600.188599
7.160000 3.160000 5.040000 9.889881 3.576019 110.597656
7.160000 3.160000 5.080000 7.748843 -9.407499 148.545624
7.160000 3.160000 5.120000 21.157345 -17.218723 744.117676
7.160000 3.160000 5.160000 38.057728 -8.450815 1519.806885
7.160000 3.160000 5.200000 42.622169 12.389790 1970.156128
7.160000 3.200000 4.800000 -3.103535 -3.955409 25.277184
7.160000 3.200000 4.840000 2.872528 -18.135252 337.138763
7.160000 3.200000 4.880000 21.310221 -19.986523 853.586609
7.160000 3.200000 4.920000 34.537163 -4.141260 1209.965698
7.160000 3.200000 4.960000 29.328979 15.823689 1110.578125
7.160000 3.200000 5.000000 11.736596 21.636301 605.877197
7.160000 3.200000 5.040000 0.908921 10.282400 106.553886
7.160000 3.200000 5.080000 8.280739 -2.528817 74.965546
7.160000 3.200000 5.120000 25.075863 0.554270 629.106079
7.160000 3.200000 5.160000 31.914890 19.695190 1406.460693
7.160000 3.200000 5.200000 19.800135 38.046856 1839.608521
7.200000 2.800000 4.800000 -16.628384 -45.274124 2326.249512
7.200000 2.800000 4.840000 8.186941 -44.503357 2047.574829
7.200000 2.800000 4.880000 25.279438 -25.047512 1266.427856
7.200000 2.800000 4.920000 22.327318 -0.465288 498.725616
7.200000 2.800000 4.960000 3.898204 11.296907 142.816116
7.200000 2.800000 5.000000 -12.861907 4.496071 185.643311
7.200000 2.800000 5.040000 -14.779994 -9.881789 316.097992
7.200000 2.800000 5.080000 -4.586602 -16.157734 282.109283
7.200000 2.800000 5.120000 3.825552 -9.781097 110.304718
7.200000 2.800000 5.160000 1.049023 -0.483835 1.334545
7.200000 2.800000 5.200000 -8.176783 -0.184721 66.893890
7.200000 2.840000 4.800000 17.392780 -41.894798 2057.682861
7.200000 2.840000 4.840000 32.747223 -23.889931 1643.109375
7.200000 2.840000 4.880000 30.199804 0.071779 912.033325
7.200000 2.840000 4.920000 11.697731 13.615341 322.214417
7.200000 2.840000 4.960000 -8.360274 8.844736 148.123535
7.200000 2.840000 5.000000 -15.813827 -7.255249 302.715759
7.200000 2.840000 5.040000 -8.674981 -20.185951 482.727905
7.200000 2.840000 5.080000 3.064250 -21.449919 469.488617
7.200000 2.840000 5.120000 8.641610 -14.832664 294.685333
7.200000 2.840000 5.160000 6.794043 -10.011966 146.398468
7.200000 2.840000 5.200000 4.853385 -11.258628 150.312042
7.200000 2.880000 4.800000 38.752377 -11.003228 1622.817749
7.200000 2.880000 4.840000 32.566502 10.811288 1177.460938
7.200000 2.880000 4.880000 12.610362 21.226568 609.588440
7.200000 2.880000 4.920000 -7.415734 14.074330 253.079895
7.200000 2.880000 4.960000 -14.793272 -3.768993 233.046204
7.200000 2.880000 5.000000 -7.475083 -19.048416 418.719025
7.200000 2.880000 5.040000 6.173277 -23.249115 578.630737
7.200000 2.880000 5.080000 16.117052 -17.946321 581.829834
7.200000 2.880000 5.120000 18.950985 -10.611426 471.742188
7.200000 2.880000 5.160000 18.401049 -6.326345 378.621246
7.200000 2.880000 5.200000 19.076300 -3.917641 379.253113
7.200000 2.920000 4.800000 28.576557 27.379751 1566.270386
7.200000 2.920000 4.840000 4.409659 34.257538 1193.023926
7.200000 2.920000 4.880000 -16.666470 21.415676 736.402405
7.200000 2.920000 4.920000 -21.374899 -1.248562 458.445190
7.200000 2.920000 4.960000 -9.550312 -18.383680 429.168182
7.200000 2.920000 5.000000 8.104829 -21.566799 530.815063
7.200000 2.920000 5.040000 20.423128 -13.641197 603.186401
7.200000 2.920000 5.080000 23.878666 -3.073858 579.639282
7.200000 2.920000 5.120000 22.050997 4.374770 505.385071
7.200000 2.920000 5.160000 19.494490 8.695163 455.640991
7.200000 2.920000 5.200000 17.289364 12.390471 452.445862
7.200000 2.960000 4.800000 -7.785876 44.975250 2083.393066
7.200000 2.960000 4.840000 -32.691551 28.120426 1859.495850
7.200000 2.960000 4.880000 -37.150730 -1.247064 1381.731934
7.200000 2.960000 4.920000 -20.025938 -23.207870 939.643433
7.200000 2.960000 4.960000 4.665623 -25.926498 693.951416
7.200000 2.960000 5.000000 21.185806 -12.905918 615.401123
7.200000 2.960000 5.040000 23.882088 3.661691 583.762085
7.200000 2.960000 5.080000 17.650492 14.483904 521.323364
7.200000 2.960000 5.120000 9.960258 18.336742 435.442871
7.200000 2.960000 5.160000 4.266141 18.588554 363.734314
7.200000 2.960000 5.200000 0.222696 17.668201 312.214935
7.200000 3.000000 4.800000 -43.914913 29.306290 2787.378418
7.200000 3.000000 4.840000 -52.578186 -3.332054 2775.568115
7.200000 3.000000 4.880000 -34.848728 -31.988293 2237.684570
7.200000 3.000000 4.920000 -3.773912 -38.760857 1516.646484
7.200000 3.000000 4.960000 20.103914 -23.188828 941.889099
7.200000 3.000000 5.000000 25.241312 0.583395 637.464172
7.200000 3.000000 5.040000 14.929815 17.459311 527.726929
7.200000 3.000000 5.080000 0.202533 21.829449 476.565857
7.200000 3.000000 5.120000 -10.352211 17.265104 405.252106
7.200000 3.000000 5.160000 -14.444291 9.792209 304.524902
7.200000 3.000000 5.200000 -13.332539 3.322554 188.795959
7.200000 3.040000 4.800000 -54.621300 -5.622186 3015.095215
7.200000 3.040000 4.840000 -43.361725 -37.208794 3264.733398
7.200000 3.040000 4.880000 -12.470537 -51.532036 2811.065186
7.200000 3.040000 4.920000 18.176292 -40.249435 1950.394653
7.200000 3.040000 4.960000 30.689146 -13.185776 1115.688354
7.200000 3.040000 5.000000 21.655338 11.324148 597.190002
7.200000 3.040000 5.040000 1.480613 20.555729 424.730194
7.200000 3.040000 5.080000 -15.857594 14.004560 447.591003
7.200000 3.040000 5.120000 -22.177401 -0.155375 491.861237
7.200000 3.040000 5.160000 -17.380548 -12.557436 459.772644
7.200000 3.040000 5.200000 -6.415198 -17.331490 341.535278
7.200000 3.080000 4.800000 -37.058350 -32.309902 2417.250977
7.200000 3.080000 4.840000 -15.794646 -51.689560 2921.281494
7.200000 3.080000 4.880000 14.512856 -50.681850 2779.272949
7.200000 3.080000 4.920000 35.381317 -28.952530 2090.086670
7.200000 3.080000 4.960000 34.876362 -0.456378 1216.568848
7.200000 3.080000 5.000000 15.857000 17.252075 549.078552
7.200000 3.080000 5.040000 -7.295805 15.382812 289.859650
7.200000 3.080000 5.080000 -19.620632 -1.386872 386.892609
7.200000 3.080000 5.120000 -15.175961 -19.931587 627.577942
7.200000 3.080000 5.160000 0.829969 -28.185947 795.136475
7.200000 3.080000 5.200000 17.121416 -22.121054 782.483887
7.200000 3.120000 4.800000 -11.069528 -34.149544 1288.725708
7.200000 3.120000 4.840000 8.196024 -43.167671 1930.622681
7.200000 3.120000 4.880000 31.154568 -35.071228 2200.598145
7.200000 3.120000 4.920000 42.335602 -11.780657 1931.087158
7.200000 3.120000 4.960000 33.261471 12.329161 1258.333618
7.200000 3.120000 5.000000 10.357648 21.059692 550.791504
7.200000 3.120000 5.040000 -9.308929 9.480903 176.543671
7.200000 3.120000 5.080000 -11.432810 -11.924199 272.895660
7.200000 3.120000 5.120000 4.371655 -25.787155 684.088745
7.200000 3.120000 5.160000 25.059227 -21.650986 1096.729980
7.200000 3.120000 5.200000 35.311089 -3.265808 1257.538452
7.200000 3.160000 4.800000 0.683596 -18.271759 334.324493
7.200000 3.160000 4.840000 15.024696 -25.881908 895.614685
7.200000 3.160000 4.880000 33.343708 -17.633175 1422.731689
7.200000 3.160000 4.920000 39.367775 4.145926 1567.010376
7.200000 3.160000 4.960000 25.891184 23.236656 1210.295654
7.200000 3.160000 5.000000 3.275056 24.002441 586.843201
7.200000 3.160000 5.040000 -9.093764 6.709131 127.708992
7.200000 3.160000 5.080000 -0.787592 -11.989040 144.357391
7.200000 3.160000 5.120000 19.920181 -14.390512 603.900452
7.200000 3.160000 5.160000 34.176613 2.128736 1172.572388
7.200000 3.160000 5.200000 30.084087 23.912815 1476.875000
7.200000 3.200000 4.800000 -6.841236 -5.639567 78.607231
7.200000 3.200000 4.840000 8.757607 -16.317396 342.953094
7.200000 3.200000 4.880000 27.375984 -7.357594 803.578735
7.200000 3.200000 4.920000 30.061028 14.427100 1111.806641
7.200000 3.200000 4.960000 13.444456 28.801651 1010.288513
7.200000 3.200000 5.000000 -6.328546 22.866035 562.906067
7.200000 3.200000 5.040000 -10.171941 4.468727 123.437897
7.200000 3.200000 5.080000 4.273184 -6.094566 55.403839
7.200000 3.200000 5.120000 20.711441 2.874775 437.228119
7.200000 3.200000 5.160000 21.528862 23.128191 998.405151
7.200000 3.200000 5.200000 5.347301 36.215511 1340.156860
