#kx 	ky 	kz 	real 	imag 	intensity
3.800000 5.800000 3.800000 -5.152760 -17.746960 341.505524
3.800000 5.800000 3.840000 -2.061332 -10.739183 119.579155
3.800000 5.800000 3.880000 -6.878657 -7.761092 107.550476
3.800000 5.800000 3.920000 -10.965874 -13.927315 314.220490
3.800000 5.800000 3.960000 -5.373562 -23.734406 592.197205
3.800000 5.800000 4.000000 9.436821 -26.084265 769.442444
3.800000 5.800000 4.040000 23.256744 -15.388151 777.671387
3.800000 5.800000 4.080000 25.708448 2.681687 668.115784
3.800000 5.800000 4.120000 15.822120 16.701656 529.284790
3.800000 5.800000 4.160000 1.785898 20.162098 409.699615
3.800000 5.800000 4.200000 -8.067002 15.979249 320.412903
3.800000 5.840000 3.800000 1.860551 -20.791010 435.727722
3.800000 5.840000 3.840000 0.827785 -13.344194 178.752747
3.800000 5.840000 3.880000 -4.599707 -14.438780 229.635666
3.800000 5.840000 3.920000 -3.383602 -22.604382 522.406860
3.800000 5.840000 3.960000 7.955766 -27.078554 796.542297
3.800000 5.840000 4.000000 21.112862 -19.641855 831.555420
3.800000 5.840000 4.040000 24.643177 -3.766578 621.473328
3.800000 5.840000 4.080000 15.932917 8.941563 333.809387
3.800000 5.840000 4.120000 3.400567 10.860540 129.515198
3.800000 5.840000 4.160000 -3.212365 5.512991 40.712357
3.800000 5.840000 4.200000 -3.184215 2.020849 14.223059
3.800000 5.880000 3.800000 10.712606 -21.521040 577.915100
3.800000 5.880000 3.840000 7.522872 -16.264376 321.123505
3.800000 5.880000 3.880000 5.244158 -19.649460 413.602448
3.800000 5.880000 3.920000 11.332573 -24.450857 726.271606
3.800000 5.880000 3.960000 22.079517 -21.202999 937.072266
3.800000 5.880000 4.000000 27.267700 -9.491602 833.617981
3.800000 5.880000 4.040000 22.198435 1.551860 495.178772
3.800000 5.880000 4.080000 13.044362 3.909026 185.435867
3.800000 5.880000 4.120000 9.349121 -0.101269 87.416321
3.800000 5.880000 4.160000 12.451317 -0.980307 155.996292
3.800000 5.880000 4.200000 13.701023 5.876906 222.256058
3.800000 5.920000 3.800000 21.460186 -17.098484 752.897705
3.800000 5.920000 3.840000 18.201866 -13.366609 509.974152
3.800000 5.920000 3.880000 18.729591 -15.204223 581.966003
3.800000 5.920000 3.920000 24.726061 -14.604408 824.666870
3.800000 5.920000 3.960000 29.758308 -7.800675 946.407471
3.800000 5.920000 4.000000 28.501097 0.454088 812.518677
3.800000 5.920000 4.040000 23.848379 3.721790 582.596924
3.800000 5.920000 4.080000 22.978367 2.939247 536.644531
3.800000 5.920000 4.120000 27.193264 5.954666 774.931702
3.800000 5.920000 4.160000 28.313059 17.275282 1100.064697
3.800000 5.920000 4.200000 17.356205 30.092724 1206.809814
3.800000 5.960000 3.800000 29.633453 -4.594087 899.247192
3.800000 5.960000 3.840000 25.580778 -0.943278 655.265991
3.800000 5.960000 3.880000 25.178596 -0.456392 634.170044
3.800000 5.960000 3.920000 27.131315 1.943246 739.884460
3.800000 5.960000 3.960000 27.684919 6.064150 803.228699
3.800000 5.960000 4.000000 27.152664 8.856197 815.699402
3.800000 5.960000 4.040000 29.145397 11.066975 971.932068
3.800000 5.960000 4.080000 33.496422 18.195618 1453.090820
3.800000 5.960000 4.120000 32.722588 33.059464 2163.695801
3.800000 5.960000 4.160000 18.595638 48.680180 2715.557617
3.800000 5.960000 4.200000 -7.078031 51.613934 2714.096680
3.800000 6.000000 3.800000 27.984097 13.425328 963.349121
3.800000 6.000000 3.840000 21.047268 15.681619 688.900635
3.800000 6.000000 3.880000 17.646206 14.757476 529.171692
3.800000 6.000000 3.920000 17.295116 13.718925 487.329956
3.800000 6.000000 3.960000 19.474255 13.619181 564.728638
3.800000 6.000000 4.000000 24.407379 16.605488 871.462402
3.800000 6.000000 4.040000 29.351727 26.493774 1563.443970
3.800000 6.000000 4.080000 26.746323 43.692024 2624.358887
3.800000 6.000000 4.120000 9.683215 60.205605 3718.479492
3.800000 6.000000 4.160000 -19.209900 62.810795 4314.216309
3.800000 6.000000 4.200000 -45.644257 44.213593 4038.239990
3.800000 6.040000 3.800000 13.353191 27.845280 953.667358
3.800000 6.040000 3.840000 4.127290 24.808233 632.482971
3.800000 6.040000 3.880000 0.904070 18.401632 339.437439
3.800000 6.040000 3.920000 4.215809 13.241831 193.119125
3.800000 6.040000 3.960000 12.202213 14.038550 345.974915
3.800000 6.040000 4.000000 19.296398 24.361994 965.857666
3.800000 6.040000 4.040000 16.809410 42.626648 2099.587402
3.800000 6.040000 4.080000 -1.392979 59.255749 3513.184082
3.800000 6.040000 4.120000 -31.482635 60.858578 4694.922852
3.800000 6.040000 4.160000 -58.703392 40.631668 5097.020508
3.800000 6.040000 4.200000 -66.683685 6.187983 4485.004883
3.800000 6.080000 3.800000 -8.454174 29.276356 928.578064
3.800000 6.080000 3.840000 -15.128819 18.643929 576.477234
3.800000 6.080000 3.880000 -12.041000 7.674063 203.876923
3.800000 6.080000 3.920000 -1.203061 3.914892 16.773737
3.800000 6.080000 3.960000 9.772867 12.294950 246.674744
3.800000 6.080000 4.000000 10.317506 30.565308 1040.688965
3.800000 6.080000 4.040000 -6.172090 47.716179 2314.928467
3.800000 6.080000 4.080000 -35.246353 49.499062 3692.462402
3.800000 6.080000 4.120000 -61.493454 29.140320 4630.603027
3.800000 6.080000 4.160000 -68.375481 -5.438420 4704.783203
3.800000 6.080000 4.200000 -50.979343 -35.627338 3868.200684
3.800000 6.120000 3.800000 -25.798807 16.199032 927.987061
3.800000 6.120000 3.840000 -24.190441 0.820045 585.849915
3.800000 6.120000 3.880000 -11.724053 -8.325331 206.764557
3.800000 6.120000 3.920000 3.745141 -3.818822 28.609486
3.800000 6.120000 3.960000 9.833748 13.388029 275.941925
3.800000 6.120000 4.000000 -1.920494 31.931767 1023.325989
3.800000 6.120000 4.040000 -27.937284 36.303024 2098.401367
3.800000 6.120000 4.080000 -52.611687 18.584389 3113.369141
3.800000 6.120000 4.120000 -58.753109 -13.775543 3641.693359
3.800000 6.120000 4.160000 -40.972038 -42.054527 3447.291016
3.800000 6.120000 4.200000 -10.428715 -50.116123 2620.383789
3.800000 6.160000 3.800000 -30.256721 -3.308525 926.415527
3.800000 6.160000 3.840000 -18.750488 -16.746393 632.022461
3.800000 6.160000 3.880000 -0.387541 -17.381075 302.251953
3.800000 6.160000 3.920000 12.021020 -2.918425 153.022110
3.800000 6.160000 3.960000 7.361941 17.017910 343.807434
3.800000 6.160000 4.000000 -13.675420 26.172581 872.021057
3.800000 6.160000 4.040000 -36.743843 14.262415 1553.526489
3.800000 6.160000 4.080000 -43.888577 -13.414080 2106.144775
3.800000 6.160000 4.120000 -28.033163 -38.790020 2290.523926
3.800000 6.160000 4.160000 0.744385 -45.030869 2028.333252
3.800000 6.160000 4.200000 23.260315 -29.931438 1436.933228
3.800000 6.200000 3.800000 -22.966137 -18.431099 867.148804
3.800000 6.200000 3.840000 -5.461842 -24.521370 631.129333
3.800000 6.200000 3.880000 11.535893 -15.244471 365.470734
3.800000 6.200000 3.920000 14.943919 4.080217 239.968903
3.800000 6.200000 3.960000 0.899705 18.353931 337.676270
3.800000 6.200000 4.000000 -19.893070 14.601871 608.948914
3.800000 6.200000 4.040000 -29.697178 -6.031189 918.297607
3.800000 6.200000 4.080000 -18.722174 -27.925632 1130.360718
3.800000 6.200000 4.120000 5.912476 -33.702221 1170.797119
3.800000 6.200000 4.160000 25.953279 -19.029228 1035.684204
3.800000 6.200000 4.200000 27.537884 4.022225 774.513306
3.840000 5.800000 3.800000 2.076797 -5.986279 40.148617
3.840000 5.800000 3.840000 -1.721386 -3.577162 15.759260
3.840000 5.800000 3.880000 -5.876905 -7.786565 95.168610
3.840000 5.800000 3.920000 -3.530973 -16.054676 270.220398
3.840000 5.800000 3.960000 6.876628 -20.651182 473.759338
3.840000 5.800000 4.000000 19.483536 -15.671391 625.200684
3.840000 5.800000 4.040000 25.954559 -2.455011 679.666260
3.840000 5.800000 4.080000 22.461853 11.819065 644.225159
3.840000 5.800000 4.120000 11.914891 20.461521 560.638489
3.840000 5.800000 4.160000 0.009850 21.819538 476.092346
3.840000 5.800000 4.200000 -9.812694 18.069618 422.800049
3.840000 5.840000 3.800000 5.348065 -7.832554 89.950714
3.840000 5.840000 3.840000 5.096377 -6.945975 74.219635
3.840000 5.840000 3.880000 6.837160 -7.769911 107.118271
3.840000 5.840000 3.920000 11.073749 -6.496124 164.827545
3.840000 5.840000 3.960000 14.223719 -1.171494 203.686569
3.840000 5.840000 4.000000 12.786848 5.588665 194.736664
3.840000 5.840000 4.040000 7.564988 9.337137 144.411179
3.840000 5.840000 4.080000 2.830778 8.879236 86.854141
3.840000 5.840000 4.120000 1.180630 7.536064 58.186142
3.840000 5.840000 4.160000 0.246864 8.732651 76.320129
3.840000 5.840000 4.200000 -4.364824 10.894028 137.731537
3.840000 5.880000 3.800000 12.024369 -8.006039 208.682098
3.840000 5.880000 3.840000 15.920248 -3.051154 262.763855
3.840000 5.880000 3.880000 17.351576 5.185765 327.969330
3.840000 5.880000 3.920000 12.366148 14.232883 355.496582
3.840000 5.880000 3.960000 1.136192 17.521097 308.279785
3.840000 5.880000 4.000000 -9.233233 10.747135 200.753510
3.840000 5.880000 4.040000 -9.906173 -1.852814 101.565178
3.840000 5.880000 4.080000 0.532541 -9.300243 86.778130
3.840000 5.880000 4.120000 12.779751 -3.804403 177.795517
3.840000 5.880000 4.160000 14.375915 10.649965 320.088684
3.840000 5.880000 4.200000 1.854868 20.560694 426.182648
3.840000 5.920000 3.800000 19.853294 -1.540026 396.524963
3.840000 5.920000 3.840000 21.674400 11.205205 595.336243
3.840000 5.920000 3.880000 13.111295 25.109953 802.415833
3.840000 5.920000 3.920000 -5.722109 29.609825 909.484314
3.840000 5.920000 3.960000 -23.577721 17.108665 848.615356
3.840000 5.920000 4.000000 -25.247643 -6.575027 680.674438
3.840000 5.920000 4.040000 -6.194126 -23.386993 585.318665
3.840000 5.920000 4.080000 20.141689 -17.830069 723.598999
3.840000 5.920000 4.120000 31.923363 7.762539 1079.358032
3.840000 5.920000 4.160000 18.178263 33.227619 1434.523926
3.840000 5.920000 4.200000 -10.461641 37.650497 1527.005859
3.840000 5.960000 3.800000 21.280209 12.081820 598.817627
3.840000 5.960000 3.840000 13.214750 28.202623 970.017578
3.840000 5.960000 3.880000 -7.866364 35.975655 1356.127319
3.840000 5.960000 3.920000 -31.442034 24.045443 1566.784790
3.840000 5.960000 3.960000 -38.353027 -4.989164 1495.846436
3.840000 5.960000 4.000000 -18.043415 -30.900658 1280.415527
3.840000 5.960000 4.040000 17.745790 -30.711163 1258.088623
3.840000 5.960000 4.080000 41.111435 -0.338772 1690.264771
3.840000 5.960000 4.120000 31.389894 38.593094 2474.752441
3.840000 5.960000 4.160000 -5.546317 55.760323 3139.975342
3.840000 5.960000 4.200000 -41.369141 38.396423 3185.690918
3.840000 6.000000 3.800000 10.574690 25.197220 746.723999
3.840000 6.000000 3.840000 -7.967220 34.151333 1229.790039
3.840000 6.000000 3.880000 -32.037888 26.069389 1706.039307
3.840000 6.000000 3.920000 -43.932266 -1.213175 1931.515869
3.840000 6.000000 3.960000 -28.724152 -31.347202 1807.723999
3.840000 6.000000 4.000000 8.116948 -38.842392 1574.616333
3.840000 6.000000 4.040000 39.555435 -11.960236 1707.679688
3.840000 6.000000 4.080000 37.954506 32.756500 2513.532715
3.840000 6.000000 4.120000 0.471644 61.290554 3756.754395
3.840000 6.000000 4.160000 -46.148296 50.835609 4713.924805
3.840000 6.000000 4.200000 -67.769707 9.870258 4690.154785
3.840000 6.040000 3.800000 -8.746395 27.157948 814.053589
3.840000 6.040000 3.840000 -28.445568 21.712219 1280.570801
3.840000 6.040000 3.880000 -41.004372 0.200988 1681.398926
3.840000 6.040000 3.920000 -32.212883 -27.542990 1796.286133
3.840000 6.040000 3.960000 -1.508660 -39.972168 1600.050171
3.840000 6.040000 4.000000 30.855282 -21.549675 1416.436890
3.840000 6.040000 4.040000 37.051289 19.462704 1751.594849
3.840000 6.040000 4.080000 6.470369 53.003433 2851.229736
3.840000 6.040000 4.120000 -41.676289 51.130249 4351.215332
3.840000 6.040000 4.160000 -72.394730 12.910763 5407.685059
3.840000 6.040000 4.200000 -64.376526 -33.848576 5290.062988
3.840000 6.080000 3.800000 -24.945904 14.225589 824.665466
3.840000 6.080000 3.840000 -33.804058 -2.090992 1147.086548
3.840000 6.080000 3.880000 -28.139034 -23.449986 1341.707031
3.840000 6.080000 3.920000 -5.600266 -35.450691 1288.114380
3.840000 6.080000 3.960000 21.333260 -24.638893 1062.183105
3.840000 6.080000 4.000000 30.854692 6.800797 998.262878
3.840000 6.080000 4.040000 9.975519 37.355015 1494.908081
3.840000 6.080000 4.080000 -30.801956 41.274345 2652.332031
3.840000 6.080000 4.120000 -62.648655 11.124391 4048.605957
3.840000 6.080000 4.160000 -61.556511 -33.681908 4923.674805
3.840000 6.080000 4.200000 -28.900043 -62.168175 4700.094238
3.840000 6.120000 3.800000 -27.701838 -6.063548 804.158386
3.840000 6.120000 3.840000 -21.442080 -21.453451 920.013367
3.840000 6.120000 3.880000 -4.427318 -29.505121 890.153320
3.840000 6.120000 3.920000 15.228903 -22.016933 716.664856
3.840000 6.120000 3.960000 23.259726 0.062229 541.018677
3.840000 6.120000 4.000000 9.772018 22.870342 618.544922
3.840000 6.120000 4.040000 -19.839121 27.605127 1155.633789
3.840000 6.120000 4.080000 -45.445080 6.142437 2102.984863
3.840000 6.120000 4.120000 -46.911041 -29.753613 3085.923340
3.840000 6.120000 4.160000 -21.197060 -55.997803 3585.069336
3.840000 6.120000 4.200000 14.193604 -55.492161 3280.838379
3.840000 6.160000 3.800000 -17.099499 -21.165798 740.383911
3.840000 6.160000 3.840000 -2.331970 -25.801016 671.130554
3.840000 6.160000 3.880000 12.408004 -18.573242 498.923889
3.840000 6.160000 3.920000 17.513454 -2.045277 310.904266
3.840000 6.160000 3.960000 7.606433 13.604498 242.940201
3.840000 6.160000 4.000000 -12.651360 16.123207 420.014709
3.840000 6.160000 4.040000 -29.472624 0.634752 869.038452
3.840000 6.160000 4.080000 -29.196144 -24.680996 1461.566406
3.840000 6.160000 4.120000 -9.419975 -43.096325 1946.029175
3.840000 6.160000 4.160000 17.910721 -41.884079 2075.070068
3.840000 6.160000 4.200000 35.343792 -22.568676 1758.528687
3.840000 6.200000 3.800000 -2.795315 -24.548605 610.447815
3.840000 6.200000 3.840000 10.025314 -18.232878 432.944763
3.840000 6.200000 3.880000 14.341187 -4.537763 226.260925
3.840000 6.200000 3.920000 6.709671 7.518774 101.551643
3.840000 6.200000 3.960000 -7.835121 8.771550 138.329208
3.840000 6.200000 4.000000 -18.294838 -2.937782 343.331665
3.840000 6.200000 4.040000 -15.504849 -20.076492 643.465942
3.840000 6.200000 4.080000 0.484891 -30.264759 916.190735
3.840000 6.200000 4.120000 19.773827 -25.568375 1044.745972
3.840000 6.200000 4.160000 29.905399 -8.747663 970.854492
3.840000 6.200000 4.200000 25.371021 8.895775 722.823547
3.880000 5.800000 3.800000 -3.262582 7.027759 60.033829
3.880000 5.800000 3.840000 -7.398378 0.489250 54.975368
3.880000 5.800000 3.880000 -4.796996 -8.057129 87.928497
3.880000 5.800000 3.920000 4.041714 -12.537259 173.518311
3.880000 5.800000 3.960000 14.076717 -9.660824 291.485504
3.880000 5.800000 4.000000 20.015368 -1.155975 401.951202
3.880000 5.800000 4.040000 20.110764 8.633652 478.982758
3.880000 5.800000 4.080000 15.855175 16.660677 528.964722
3.880000 5.800000 4.120000 8.866566 22.253277 573.824341
3.880000 5.800000 4.160000 -0.652937 24.780869 614.517761
3.880000 5.800000 4.200000 -11.827559 21.851822 617.393250
3.880000 5.840000 3.800000 -2.346172 1.987356 9.454109
3.880000 5.840000 3.840000 4.156742 1.506706 19.548670
3.880000 5.840000 3.880000 8.684155 8.817574 153.164154
3.880000 5.840000 3.920000 4.245384 18.434555 357.856110
3.880000 5.840000 3.960000 -7.542286 20.700552 485.398926
3.880000 5.840000 4.000000 -16.666950 11.989250 421.529358
3.880000 5.840000 4.040000 -14.409300 -0.330055 207.736862
3.880000 5.840000 4.080000 -2.911232 -4.363077 27.511711
3.880000 5.840000 4.120000 5.869663 4.188551 51.996902
3.880000 5.840000 4.160000 1.738580 16.707237 282.154449
3.880000 5.840000 4.200000 -12.859698 19.380161 540.962463
3.880000 5.880000 3.800000 3.926914 0.836315 16.120079
3.880000 5.880000 3.840000 11.218123 15.955650 380.429077
3.880000 5.880000 3.880000 0.005787 36.179024 1308.921753
3.880000 5.880000 3.920000 -28.645336 40.922421 2495.199707
3.880000 5.880000 3.960000 -54.163071 18.862148 3289.418945
3.880000 5.880000 4.000000 -53.664200 -17.760975 3195.298584
3.880000 5.880000 4.040000 -24.471846 -41.266296 2301.778320
3.880000 5.880000 4.080000 11.060560 -33.275414 1229.589111
3.880000 5.880000 4.120000 24.854460 -2.261198 622.857178
3.880000 5.880000 4.160000 8.602802 23.925205 646.423706
3.880000 5.880000 4.200000 -19.292641 23.792269 938.278076
3.880000 5.920000 3.800000 8.642479 7.817335 135.803177
3.880000 5.920000 3.840000 1.049171 34.587883 1197.422363
3.880000 5.920000 3.880000 -34.026203 48.389557 3499.331787
3.880000 5.920000 3.920000 -75.041389 25.708630 6292.143555
3.880000 5.920000 3.960000 -86.036598 -27.376358 8151.761230
3.880000 5.920000 4.000000 -50.357536 -74.166168 8036.501953
3.880000 5.920000 4.040000 9.824471 -77.757065 6142.681152
3.880000 5.920000 4.080000 50.082085 -35.185932 3746.264893
3.880000 5.920000 4.120000 42.578278 18.598698 2158.821289
3.880000 5.920000 4.160000 0.179380 41.896969 1755.388184
3.880000 5.920000 4.200000 -37.250183 22.878712 1911.011597
3.880000 5.960000 3.800000 3.643816 17.913166 334.158936
3.880000 5.960000 3.840000 -24.897762 39.111481 2149.606445
3.880000 5.960000 3.880000 -70.938965 26.753048 5748.062500
3.880000 5.960000 3.920000 -95.979019 -26.604828 9919.789062
3.880000 5.960000 3.960000 -68.488914 -88.820908 12579.884766
3.880000 5.960000 4.000000 1.951889 -110.963699 12316.751953
3.880000 5.960000 4.040000 66.621002 -71.391144 9535.052734
3.880000 5.960000 4.080000 78.170799 1.642778 6113.372559
3.880000 5.960000 4.120000 32.457344 53.038712 3866.583984
3.880000 5.960000 4.160000 -28.764933 48.912735 3219.876953
3.880000 5.960000 4.200000 -56.756844 3.989892 3237.258545
3.880000 6.000000 3.800000 -10.628876 20.111010 517.425720
3.880000 6.000000 3.840000 -48.498863 19.727625 2741.318848
3.880000 6.000000 3.880000 -80.136902 -19.704098 6810.174316
3.880000 6.000000 3.920000 -68.699593 -81.034004 11286.143555
3.880000 6.000000 3.960000 -6.828402 -117.861679 13938.001953
3.880000 6.000000 4.000000 67.762192 -93.951813 13418.658203
3.880000 6.000000 4.040000 99.898666 -19.842445 10373.465820
3.880000 6.000000 4.080000 65.210999 51.482327 6902.904297
3.880000 6.000000 4.120000 -7.083894 69.176254 4835.535645
3.880000 6.000000 4.160000 -60.035072 28.064087 4391.802734
3.880000 6.000000 4.200000 -59.045441 -30.165421 4396.316406
3.880000 6.040000 3.800000 -23.382576 8.490477 618.833069
3.880000 6.040000 3.840000 -50.063789 -13.214269 2681.000000
3.880000 6.040000 3.880000 -51.235722 -59.110352 6119.132812
3.880000 6.040000 3.920000 -9.691058 -97.725739 9644.237305
3.880000 6.040000 3.960000 55.648308 -91.603348 11487.907227
3.880000 6.040000 4.000000 98.126144 -33.804230 10771.465820
3.880000 6.040000 4.040000 82.147186 38.987022 8268.148438
3.880000 6.040000 4.080000 17.042175 74.100006 5781.246582
3.880000 6.040000 4.120000 -48.353622 48.038010 4645.723145
3.880000 6.040000 4.160000 -67.454498 -13.501408 4732.397461
3.880000 6.040000 4.200000 -34.942478 -60.103661 4833.426758
3.880000 6.080000 3.800000 -23.048557 -10.515377 641.809204
3.880000 6.080000 3.840000 -26.957806 -36.780510 2079.529297
3.880000 6.080000 3.880000 -4.791533 -64.473938 4179.847656
3.880000 6.080000 3.920000 39.022873 -67.649643 6099.258789
3.880000 6.080000 3.960000 76.165970 -32.609840 6864.656738
3.880000 6.080000 4.000000 74.917633 23.634016 6171.218750
3.880000 6.080000 4.040000 29.731777 61.852882 4709.757812
3.880000 6.080000 4.080000 -29.315760 52.636452 3630.009766
3.880000 6.080000 4.120000 -59.625931 3.040911 3564.498779
3.880000 6.080000 4.160000 -42.017914 -48.515633 4119.271484
3.880000 6.080000 4.200000 4.073860 -65.507866 4307.876465
3.880000 6.120000 3.800000 -8.762794 -23.232815 616.550232
3.880000 6.120000 3.840000 3.356752 -35.940693 1303.001221
3.880000 6.120000 3.880000 26.163635 -37.473461 2088.796143
3.880000 6.120000 3.920000 47.526165 -19.309763 2631.603271
3.880000 6.120000 3.960000 49.764713 13.253323 2652.177246
3.880000 6.120000 4.000000 24.955729 39.845268 2210.433838
3.880000 6.120000 4.040000 -14.107063 39.235626 1738.443604
3.880000 6.120000 4.080000 -40.562759 8.400718 1715.909424
3.880000 6.120000 4.120000 -34.769814 -32.097141 2239.166504
3.880000 6.120000 4.160000 -1.444904 -53.722881 2888.235596
3.880000 6.120000 4.200000 34.079674 -43.539627 3057.123291
3.880000 6.160000 3.800000 8.442676 -21.656055 540.263489
3.880000 6.160000 3.840000 19.566559 -16.747513 663.329407
3.880000 6.160000 3.880000 25.766201 -4.888750 687.796997
3.880000 6.160000 3.920000 22.619997 9.512592 602.153687
3.880000 6.160000 3.960000 9.365808 19.000957 448.754761
3.880000 6.160000 4.000000 -8.507912 16.332024 339.119537
3.880000 6.160000 4.040000 -20.310390 0.196356 412.550507
3.880000 6.160000 4.080000 -16.699688 -21.341913 734.356812
3.880000 6.160000 4.120000 2.343328 -34.656857 1206.588867
3.880000 6.160000 4.160000 25.712702 -30.433228 1587.324341
3.880000 6.160000 4.200000 38.816780 -11.509329 1639.207031
3.880000 6.200000 3.800000 16.517605 -10.856006 390.684143
3.880000 6.200000 3.840000 15.930258 0.972227 254.718338
3.880000 6.200000 3.880000 7.031152 8.004728 113.512772
3.880000 6.200000 3.920000 -3.569950 5.952917 48.181767
3.880000 6.200000 3.960000 -8.939354 -3.073711 89.359749
3.880000 6.200000 4.000000 -6.289394 -13.240105 214.856842
3.880000 6.200000 4.040000 2.537767 -19.225708 376.068115
3.880000 6.200000 4.080000 13.366426 -18.599443 524.600647
3.880000 6.200000 4.120000 21.983023 -11.834875 623.317566
3.880000 6.200000 4.160000 25.367418 -1.484699 645.710266
3.880000 6.200000 4.200000 22.475357 8.597073 579.051331
3.920000 5.800000 3.800000 -17.440157 11.618425 439.146912
3.920000 5.800000 3.840000 -14.917530 -1.089832 223.720428
3.920000 5.800000 3.880000 -4.609947 -7.653345 79.825302
3.920000 5.800000 3.920000 5.994839 -5.290175 63.924049
3.920000 5.800000 3.960000 11.149811 1.935486 128.064392
3.920000 5.800000 4.000000 11.300960 8.322487 196.975464
3.920000 5.800000 4.040000 10.477608 12.542450 267.093323
3.920000 5.800000 4.080000 10.022804 17.598042 410.147675
3.920000 5.800000 4.120000 6.366999 24.986588 664.868225
3.920000 5.800000 4.160000 -4.000340 30.284185 933.134644
3.920000 5.800000 4.200000 -17.908970 26.410807 1018.261902
3.920000 5.840000 3.800000 -15.077097 2.572573 233.936981
3.920000 5.840000 3.840000 -4.377247 8.122433 85.134201
3.920000 5.840000 3.880000 -6.991932 22.480022 554.238525
3.920000 5.840000 3.920000 -24.991627 27.873291 1401.501709
3.920000 5.840000 3.960000 -42.550369 13.202759 1984.846802
3.920000 5.840000 4.000000 -40.848289 -12.584442 1826.950928
3.920000 5.840000 4.040000 -17.890099 -27.381618 1069.808716
3.920000 5.840000 4.080000 7.616451 -17.364868 359.548950
3.920000 5.840000 4.120000 13.458126 8.527220 253.834625
3.920000 5.840000 4.160000 -4.441801 26.417377 717.607422
3.920000 5.840000 4.200000 -27.871796 20.406025 1193.242798
3.920000 5.880000 3.800000 -8.115769 0.818393 66.535484
3.920000 5.880000 3.840000 -10.489655 26.835426 830.172974
3.920000 5.880000 3.880000 -43.767700 41.785645 3661.651611
3.920000 5.880000 3.920000 -84.725220 18.573036 7523.320312
3.920000 5.880000 3.960000 -94.258507 -36.303005 10202.574219
3.920000 5.880000 4.000000 -55.486462 -83.297417 10017.207031
3.920000 5.880000 4.040000 6.590073 -84.570862 7195.659668
3.920000 5.880000 4.080000 45.553886 -39.838943 3662.297852
3.920000 5.880000 4.120000 35.535980 12.701412 1424.131836
3.920000 5.880000 4.160000 -6.316971 31.826859 1052.853027
3.920000 5.880000 4.200000 -38.386024 10.253038 1578.611572
3.920000 5.920000 3.800000 -6.161575 5.942101 73.273575
3.920000 5.920000 3.840000 -36.796219 33.557499 2480.067383
3.920000 5.920000 3.880000 -92.246880 19.383102 8885.191406
3.920000 5.920000 3.920000 -122.040703 -46.883492 17091.996094
3.920000 5.920000 3.960000 -86.274300 -123.761971 22760.281250
3.920000 5.920000 4.000000 1.536903 -150.305908 22594.226562
3.920000 5.920000 4.040000 80.570572 -102.116402 16919.376953
3.920000 5.920000 4.080000 95.335075 -15.920826 9342.249023
3.920000 5.920000 4.120000 44.683846 42.873177 3834.755371
3.920000 5.920000 4.160000 -20.257463 38.517616 1893.971680
3.920000 5.920000 4.200000 -45.771019 -7.295621 2148.212158
3.920000 5.960000 3.800000 -13.015911 8.390310 239.811249
3.920000 5.960000 3.840000 -64.141388 12.298645 4265.374512
3.920000 5.960000 3.880000 -109.446014 -41.829052 13728.099609
3.920000 5.960000 3.920000 -93.301094 -129.250443 25410.771484
3.920000 5.960000 3.960000 -4.934475 -182.505875 33332.742188
3.920000 5.960000 4.000000 101.641502 -150.735718 33052.250000
3.920000 5.960000 4.040000 150.245895 -49.913742 25065.208984
3.920000 5.960000 4.080000 109.698723 47.491646 14289.265625
3.920000 5.960000 4.120000 20.709740 75.760345 6168.523438
3.920000 5.960000 4.160000 -43.434586 31.548344 2881.861328
3.920000 5.960000 4.200000 -42.937233 -30.485767 2772.988037
3.920000 6.000000 3.800000 -20.936459 -0.013029 438.335480
3.920000 6.000000 3.840000 -66.053162 -28.301834 5164.013672
3.920000 6.000000 3.880000 -72.047134 -101.181931 15428.572266
3.920000 6.000000 3.920000 -7.102659 -166.238861 27685.806641
3.920000 6.000000 3.960000 99.385025 -160.859222 35753.070312
3.920000 6.000000 4.000000 173.065506 -72.562027 35216.917969
3.920000 6.000000 4.040000 158.024628 42.400620 26769.595703
3.920000 6.000000 4.080000 67.787857 104.623688 15541.309570
3.920000 6.000000 4.120000 -26.417568 79.884224 7079.376953
3.920000 6.000000 4.160000 -59.337753 5.153099 3547.523438
3.920000 6.000000 4.200000 -25.746309 -50.747150 3238.145508
3.920000 6.040000 3.800000 -17.963312 -15.639080 567.261414
3.920000 6.040000 3.840000 -34.670086 -59.188396 4705.281250
3.920000 6.040000 3.880000 -1.427280 -114.324585 13072.147461
3.920000 6.040000 3.920000 78.591110 -128.503311 22689.664062
3.920000 6.040000 3.960000 153.880234 -71.116112 28736.628906
3.920000 6.040000 4.000000 164.379608 30.953053 27978.748047
3.920000 6.040000 4.040000 96.034111 109.460037 21204.050781
3.920000 6.040000 4.080000 -3.133121 111.846832 12519.530273
3.920000 6.040000 4.120000 -63.362446 46.217617 6150.867676
3.920000 6.040000 4.160000 -52.524376 -28.677311 3581.198242
3.920000 6.040000 4.200000 1.443876 -57.687454 3329.927002
3.920000 6.080000 3.800000 -1.307662 -25.041451 628.784180
3.920000 6.080000 3.840000 9.366083 -56.666897 3298.860840
3.920000 6.080000 3.880000 53.144646 -73.492958 8225.568359
3.920000 6.080000 3.920000 106.800446 -46.696087 13586.859375
3.920000 6.080000 3.960000 127.542137 20.850918 16701.757812
3.920000 6.080000 4.000000 89.980873 88.612785 15948.783203
3.920000 6.080000 4.040000 12.951603 108.795242 12004.148438
3.920000 6.080000 4.080000 -52.198429 67.552368 7287.998047
3.920000 6.080000 4.120000 -63.861027 -2.116405 4082.709961
3.920000 6.080000 4.160000 -24.138950 -49.044300 2988.032227
3.920000 6.080000 4.200000 26.940077 -47.244232 2957.785400
3.920000 6.120000 3.800000 18.024389 -18.400927 663.472656
3.920000 6.120000 3.840000 34.617798 -24.718250 1809.383789
3.920000 6.120000 3.880000 58.172699 -14.089693 3582.582520
3.920000 6.120000 3.920000 70.741211 17.409943 5307.424805
3.920000 6.120000 3.960000 55.342133 55.332687 6124.458008
3.920000 6.120000 4.000000 13.183064 73.805130 5620.990234
3.920000 6.120000 4.040000 -32.186920 56.166561 4190.680664
3.920000 6.120000 4.080000 -51.224537 11.279207 2751.173584
3.920000 6.120000 4.120000 -32.448093 -31.258072 2029.945801
3.920000 6.120000 4.160000 7.798448 -44.541359 2044.748413
3.920000 6.120000 4.200000 39.580849 -25.615288 2222.786621
3.920000 6.160000 3.800000 25.397911 -0.363418 645.185974
3.920000 6.160000 3.840000 27.501427 8.917013 835.841614
3.920000 6.160000 3.880000 23.896730 18.997965 931.976379
3.920000 6.160000 3.920000 14.574059 26.771370 929.109436
3.920000 6.160000 3.960000 0.647606 28.753380 827.176208
3.920000 6.160000 4.000000 -13.973244 21.407864 653.548157
3.920000 6.160000 4.040000 -21.977465 4.527573 503.507843
3.920000 6.160000 4.080000 -16.572010 -15.421434 512.452148
3.920000 6.160000 4.120000 2.003672 -27.267670 747.540527
3.920000 6.160000 4.160000 24.144501 -22.999619 1111.939453
3.920000 6.160000 4.200000 36.792522 -4.936140 1378.055176
3.920000 6.200000 3.800000 17.388847 13.911300 495.896271
3.920000 6.200000 3.840000 3.392672 19.309820 384.379364
3.920000 6.200000 3.880000 -9.880758 11.591283 231.987213
3.920000 6.200000 3.920000 -12.279934 -2.913435 159.284882
3.920000 6.200000 3.960000 -3.855114 -12.949560 182.553009
3.920000 6.200000 4.000000 6.713684 -13.359550 223.551147
3.920000 6.200000 4.040000 12.008454 -8.521999 216.827454
3.920000 6.200000 4.080000 12.807348 -5.479156 194.049316
3.920000 6.200000 4.120000 14.957872 -5.390436 252.794754
3.920000 6.200000 4.160000 20.831161 -3.018885 443.050964
3.920000 6.200000 4.200000 25.609550 5.853695 690.114807
3.960000 5.800000 3.800000 -31.367044 4.698813 1005.970337
3.960000 5.800000 3.840000 -20.512321 -7.629591 478.966003
3.960000 5.800000 3.880000 -6.574493 -8.421787 114.150467
3.960000 5.800000 3.920000 1.407249 -1.295986 3.659931
3.960000 5.800000 3.960000 2.121198 5.468323 34.402035
3.960000 5.800000 4.000000 1.358841 8.009766 66.002792
3.960000 5.800000 4.040000 3.726776 10.229362 118.528717
3.960000 5.800000 4.080000 6.225201 17.628325 349.510925
3.960000 5.800000 4.120000 1.400364 28.710529 826.255493
3.960000 5.800000 4.160000 -12.949550 34.312458 1345.035522
3.960000 5.800000 4.200000 -28.581100 26.765287 1533.260010
3.960000 5.840000 3.800000 -25.590378 -6.105579 692.145508
3.960000 5.840000 3.840000 -18.632660 5.892218 381.894257
3.960000 5.840000 3.880000 -32.050415 16.784466 1308.947388
3.960000 5.840000 3.920000 -53.870518 6.297440 2941.690430
3.960000 5.840000 3.960000 -58.636269 -24.433403 4035.203125
3.960000 5.840000 4.000000 -33.790649 -50.806267 3723.084961
3.960000 5.840000 4.040000 5.028488 -47.728943 2303.337646
3.960000 5.840000 4.080000 26.848755 -15.151215 950.414978
3.960000 5.840000 4.120000 14.614790 20.258446 623.996704
3.960000 5.840000 4.160000 -18.389013 29.856339 1229.556763
3.960000 5.840000 4.200000 -41.586288 9.758554 1824.648804
3.960000 5.880000 3.800000 -18.040859 -8.565689 398.843628
3.960000 5.880000 3.840000 -37.856400 15.187891 1663.778931
3.960000 5.880000 3.880000 -81.581635 5.169571 6682.287598
3.960000 5.880000 3.920000 -104.980751 -49.525459 13473.728516
3.960000 5.880000 3.960000 -72.645775 -113.144005 18078.974609
3.960000 5.880000 4.000000 3.317650 -132.646790 17606.175781
3.960000 5.880000 4.040000 69.402367 -87.946899 12551.345703
3.960000 5.880000 4.080000 78.235313 -12.840092 6285.632324
3.960000 5.880000 4.120000 31.445101 35.304775 2235.221436
3.960000 5.880000 4.160000 -24.262594 27.553331 1347.859619
3.960000 5.880000 4.200000 -42.705673 -13.809102 2014.465820
3.960000 5.920000 3.800000 -16.043846 -7.750657 317.477692
3.960000 5.920000 3.840000 -64.733345 -1.209743 4191.869141
3.960000 5.920000 3.880000 -109.551468 -55.028145 15029.621094
3.960000 5.920000 3.920000 -91.214966 -143.534363 28922.283203
3.960000 5.920000 3.960000 1.064972 -195.952469 38398.503906
3.960000 5.920000 4.000000 110.090866 -160.539856 37893.042969
3.960000 5.920000 4.040000 157.700714 -56.163254 28023.826172
3.960000 5.920000 4.080000 114.811172 41.605568 14912.628906
3.960000 5.920000 4.120000 26.071077 67.820465 5279.316895
3.960000 5.920000 4.160000 -34.261391 23.388340 1720.857422
3.960000 5.920000 4.200000 -30.152750 -33.996944 2064.980469
3.960000 5.960000 3.800000 -17.174301 -12.133497 442.178406
3.960000 5.960000 3.840000 -70.147057 -42.128922 6695.455566
3.960000 5.960000 3.880000 -77.292770 -127.520988 22235.775391
3.960000 5.960000 3.920000 0.802513 -203.992844 41613.726562
3.960000 5.960000 3.960000 127.828552 -196.061646 54780.304688
3.960000 5.960000 4.000000 214.608307 -90.578186 54261.132812
3.960000 5.960000 4.040000 196.989456 44.185986 40757.250000
3.960000 5.960000 4.080000 94.043884 116.237778 22355.472656
3.960000 5.960000 4.120000 -10.627321 89.859222 8187.619629
3.960000 5.960000 4.160000 -45.477654 10.995749 2189.123535
3.960000 5.960000 4.200000 -10.138397 -43.212296 1970.089600
3.960000 6.000000 3.800000 -11.780405 -22.061380 625.482422
3.960000 6.000000 3.840000 -37.998985 -79.010864 7686.639648
3.960000 6.000000 3.880000 5.660992 -155.265015 24139.271484
3.960000 6.000000 3.920000 115.516312 -175.717865 44220.785156
3.960000 6.000000 3.960000 219.472946 -97.779160 57729.140625
3.960000 6.000000 4.000000 235.652283 40.652172 57184.597656
3.960000 6.000000 4.040000 147.065033 147.330902 43334.515625
3.960000 6.000000 4.080000 19.077326 154.713501 24300.212891
3.960000 6.000000 4.120000 -58.565956 76.681671 9310.049805
3.960000 6.000000 4.160000 -49.009975 -10.519842 2512.644775
3.960000 6.000000 4.200000 8.632572 -41.232258 1774.620361
3.960000 6.040000 3.800000 4.767950 -27.145733 759.624146
3.960000 6.040000 3.840000 15.204884 -80.131317 6652.216309
3.960000 6.040000 3.880000 84.125427 -112.509293 19735.427734
3.960000 6.040000 3.920000 173.208725 -73.229973 35363.890625
3.960000 6.040000 3.960000 211.067978 34.055603 45709.476562
3.960000 6.040000 4.000000 156.481445 143.901535 45194.093750
3.960000 6.040000 4.040000 39.667305 181.460541 34501.425781
3.960000 6.040000 4.080000 -60.670727 127.031364 19817.904297
3.960000 6.040000 4.120000 -84.441536 31.198362 8103.710938
3.960000 6.040000 4.160000 -37.842243 -32.994949 2520.702148
3.960000 6.040000 4.200000 21.522633 -33.235302 1567.809082
3.960000 6.080000 3.800000 23.974699 -16.974600 862.923218
3.960000 6.080000 3.840000 52.014923 -41.299145 4411.171875
3.960000 6.080000 3.880000 104.627899 -30.332293 11867.044922
3.960000 6.080000 3.920000 140.073517 30.067806 20524.662109
3.960000 6.080000 3.960000 118.186722 110.223106 26117.234375
3.960000 6.080000 4.000000 39.442451 155.488754 25732.458984
3.960000 6.080000 4.040000 -49.637547 131.875763 19855.103516
3.960000 6.080000 4.080000 -93.113190 56.375378 11848.250000
3.960000 6.080000 4.120000 -71.486572 -17.343075 5411.112305
3.960000 6.080000 4.160000 -14.501389 -44.627529 2201.906494
3.960000 6.080000 4.200000 29.354160 -23.943146 1434.940918
3.960000 6.120000 3.800000 30.689287 5.956169 977.308289
3.960000 6.120000 3.840000 47.576801 8.315796 2332.704346
3.960000 6.120000 3.880000 62.424034 30.847954 4848.356445
3.960000 6.120000 3.920000 55.566860 67.241180 7609.052734
3.960000 6.120000 3.960000 18.979301 94.581863 9305.942383
3.960000 6.120000 4.000000 -32.499393 89.695099 9101.421875
3.960000 6.120000 4.040000 -69.038162 49.386959 7205.339844
3.960000 6.120000 4.080000 -68.332771 -4.182415 4686.860352
3.960000 6.120000 4.120000 -33.535484 -39.509422 2685.623047
3.960000 6.120000 4.160000 9.726996 -39.855133 1683.046143
3.960000 6.120000 4.200000 34.527538 -14.241323 1394.966187
3.960000 6.160000 3.800000 18.640015 26.075352 1027.374023
3.960000 6.160000 3.840000 12.221390 32.475563 1204.024658
3.960000 6.160000 3.880000 2.469608 35.296227 1251.922607
3.960000 6.160000 3.920000 -8.297684 33.914032 1219.013184
3.960000 6.160000 3.960000 -19.086761 28.138107 1156.057617
3.960000 6.160000 4.000000 -28.176018 16.471573 1065.200684
3.960000 6.160000 4.040000 -30.754496 -1.372383 947.722412
3.960000 6.160000 4.080000 -21.332609 -20.314594 867.762939
3.960000 6.160000 4.120000 -0.079561 -30.392900 923.734741
3.960000 6.160000 4.160000 23.813129 -23.881517 1137.392090
3.960000 6.160000 4.200000 37.100266 -2.977270 1385.293823
3.960000 6.200000 3.800000 -1.678999 29.217594 856.486816
3.960000 6.200000 3.840000 -19.604229 20.761082 815.348328
3.960000 6.200000 3.880000 -25.192701 -0.061345 634.675964
3.960000 6.200000 3.920000 -13.169319 -17.495260 479.515106
3.960000 6.200000 3.960000 5.503166 -19.085449 394.539215
3.960000 6.200000 4.000000 15.181394 -8.174217 297.292542
3.960000 6.200000 4.040000 11.855173 0.711437 141.051285
3.960000 6.200000 4.080000 6.353008 -1.660025 43.116394
3.960000 6.200000 4.120000 11.113811 -9.101439 206.352997
3.960000 6.200000 4.160000 25.351656 -7.358537 696.854553
3.960000 6.200000 4.200000 34.988327 9.328932 1311.211914
4.000000 5.800000 3.800000 -37.687061 -9.382313 1508.342407
4.000000 5.800000 3.840000 -21.997742 -17.088617 775.921509
4.000000 5.800000 3.880000 -8.553921 -13.145561 245.975342
4.000000 5.800000 3.920000 -3.280970 -4.947144 35.238991
4.000000 5.800000 3.960000 -3.217571 0.165016 10.379995
4.000000 5.800000 4.000000 -1.822006 2.275135 8.495946
4.000000 5.800000 4.040000 2.197670 7.341087 58.721317
4.000000 5.800000 4.080000 2.591228 18.470585 347.876984
4.000000 5.800000 4.120000 -7.155113 29.970953 949.453613
4.000000 5.800000 4.160000 -24.776745 31.657173 1616.063721
4.000000 5.800000 4.200000 -38.989227 19.619534 1905.085938
4.000000 5.840000 3.800000 -29.306097 -20.301771 1271.009277
4.000000 5.840000 3.840000 -29.658558 -9.294397 966.015869
4.000000 5.840000 3.880000 -45.442310 -10.797401 2181.587646
4.000000 5.840000 3.920000 -54.627541 -34.450638 4171.014648
4.000000 5.840000 3.960000 -36.697273 -63.695938 5403.862305
4.000000 5.840000 4.000000 3.680336 -69.914116 4901.528320
4.000000 5.840000 4.040000 37.467304 -41.202003 3101.403809
4.000000 5.840000 4.080000 37.548103 3.533485 1422.345581
4.000000 5.840000 4.120000 4.774338 30.533962 955.117188
4.000000 5.840000 4.160000 -32.485016 22.080019 1542.803467
4.000000 5.840000 4.200000 -45.070511 -8.185257 2098.349365
4.000000 5.880000 3.800000 -20.220303 -24.762192 1022.026733
4.000000 5.880000 3.840000 -49.066921 -18.316730 2743.065430
4.000000 5.880000 3.880000 -77.793381 -54.336174 9004.230469
4.000000 5.880000 3.920000 -62.058834 -115.542557 17201.380859
4.000000 5.880000 3.960000 6.719582 -149.895081 22513.687500
4.000000 5.880000 4.000000 85.894806 -119.273415 21604.064453
4.000000 5.880000 4.040000 117.222427 -38.852997 15250.653320
4.000000 5.880000 4.080000 80.200027 33.663048 7565.245117
4.000000 5.880000 4.120000 10.431925 49.746254 2583.514648
4.000000 5.880000 4.160000 -34.872505 12.006539 1360.248657
4.000000 5.880000 4.200000 -29.239223 -33.705078 1990.964600
4.000000 5.920000 3.800000 -12.974318 -27.638111 932.198120
4.000000 5.920000 3.840000 -56.067760 -51.099575 5754.760254
4.000000 5.920000 3.880000 -60.097279 -123.781548 18933.554688
4.000000 5.920000 3.920000 10.735397 -188.143951 35513.394531
4.000000 5.920000 3.960000 123.288582 -176.874634 46484.710938
4.000000 5.920000 4.000000 197.459717 -79.848129 45366.062500
4.000000 5.920000 4.040000 177.559662 40.076817 33133.585938
4.000000 5.920000 4.080000 83.653847 101.064034 17211.904297
4.000000 5.920000 4.120000 -7.981348 74.267365 5579.343750
4.000000 5.920000 4.160000 -35.260033 3.992790 1259.212280
4.000000 5.920000 4.200000 -1.804203 -40.639702 1654.840454
4.000000 5.960000 3.800000 -3.317980 -31.335093 992.896973
4.000000 5.960000 3.840000 -29.594116 -86.998474 8444.545898
4.000000 5.960000 3.880000 16.161827 -163.504501 26994.927734
4.000000 5.960000 3.920000 129.930908 -181.777100 49924.953125
4.000000 5.960000 3.960000 235.668106 -98.414566 65224.882812
4.000000 5.960000 4.000000 249.230377 45.036518 64144.070312
4.000000 5.960000 4.040000 156.237228 152.598450 47696.359375
4.000000 5.960000 4.080000 26.726002 157.604004 25553.300781
4.000000 5.960000 4.120000 -48.395256 78.760086 8545.251953
4.000000 5.960000 4.160000 -36.415260 -4.441210 1345.795532
4.000000 5.960000 4.200000 18.413414 -28.833771 1170.440186
4.000000 6.000000 3.800000 12.395288 -30.463169 1081.647827
4.000000 6.000000 3.840000 23.064211 -93.080063 9195.856445
4.000000 6.000000 3.880000 105.545059 -131.809570 28513.523438
4.000000 6.000000 3.920000 212.368683 -83.675545 52102.054688
4.000000 6.000000 3.960000 256.539215 45.511982 67883.710938
4.000000 6.000000 4.000000 190.464813 175.507339 67079.671875
4.000000 6.000000 4.040000 53.422791 218.459595 50578.589844
4.000000 6.000000 4.080000 -60.930611 155.504761 27894.269531
4.000000 6.000000 4.120000 -86.295929 49.375641 9884.941406
4.000000 6.000000 4.160000 -35.859962 -16.975639 1574.109253
4.000000 6.000000 4.200000 22.120602 -13.228542 664.315369
4.000000 6.040000 3.800000 28.855007 -17.281475 1131.260864
4.000000 6.040000 3.840000 67.128494 -55.953964 7637.081055
4.000000 6.040000 3.880000 144.453003 -43.089539 22723.378906
4.000000 6.040000 3.920000 197.679153 43.099274 40934.593750
4.000000 6.040000 3.960000 167.902588 157.893097 53121.507812
4.000000 6.040000 4.000000 58.101299 222.159103 52730.429688
4.000000 6.040000 4.040000 -63.720272 190.619019 40395.882812
4.000000 6.040000 4.080000 -121.528099 91.352394 23114.339844
4.000000 6.040000 4.120000 -94.548859 -1.213650 8940.958984
4.000000 6.040000 4.160000 -27.614416 -32.277863 1804.416260
4.000000 6.040000 4.200000 17.128807 -7.822083 354.581024
4.000000 6.080000 3.800000 33.700104 7.245049 1188.187744
4.000000 6.080000 3.840000 69.974854 1.908041 4900.120605
4.000000 6.080000 3.880000 107.660248 41.168594 13285.582031
4.000000 6.080000 3.920000 102.563240 112.846642 23253.582031
4.000000 6.080000 3.960000 37.889660 168.782715 29923.232422
4.000000 6.080000 4.000000 -55.022373 163.909882 29893.910156
4.000000 6.080000 4.040000 -119.298759 96.237648 23493.878906
4.000000 6.080000 4.080000 -119.101929 9.673920 14278.854492
4.000000 6.080000 4.120000 -67.159027 -43.146454 6371.951172
4.000000 6.080000 4.160000 -9.070715 -42.779209 1912.338623
4.000000 6.080000 4.200000 18.057796 -11.766224 464.528046
4.000000 6.120000 3.800000 19.741838 29.985067 1288.844482
4.000000 6.120000 3.840000 31.571072 39.968834 2594.240234
4.000000 6.120000 3.880000 30.536615 66.042191 5294.055664
4.000000 6.120000 3.920000 3.967674 91.426704 8374.583984
4.000000 6.120000 3.960000 -41.641975 93.253555 10430.279297
4.000000 6.120000 4.000000 -82.200974 61.421177 10529.560547
4.000000 6.120000 4.040000 -93.176094 8.731995 8758.032227
4.000000 6.120000 4.080000 -68.269669 -37.315361 6053.183594
4.000000 6.120000 4.120000 -23.816332 -54.457935 3532.884277
4.000000 6.120000 4.160000 14.382604 -40.587654 1854.216919
4.000000 6.120000 4.200000 29.794905 -11.970119 1031.020020
4.000000 6.160000 3.800000 -5.316951 35.973083 1322.332764
4.000000 6.160000 3.840000 -15.020809 35.702637 1500.302979
4.000000 6.160000 3.880000 -24.909985 29.882694 1513.482666
4.000000 6.160000 3.920000 -31.530663 20.179041 1401.376343
4.000000 6.160000 3.960000 -34.737755 8.986454 1287.468018
4.000000 6.160000 4.000000 -35.115166 -3.915092 1248.402832
4.000000 6.160000 4.040000 -30.124363 -19.308548 1280.297241
4.000000 6.160000 4.080000 -15.433781 -33.474216 1358.724731
4.000000 6.160000 4.120000 8.515610 -37.601585 1486.394897
4.000000 6.160000 4.160000 32.292572 -24.791971 1657.452026
4.000000 6.160000 4.200000 42.331261 1.516064 1794.234131
4.000000 6.200000 3.800000 -23.657944 23.190334 1097.489990
4.000000 6.200000 3.840000 -34.424141 3.690583 1198.641846
4.000000 6.200000 3.880000 -26.134274 -20.338787 1096.666504
4.000000 6.200000 3.920000 -2.468378 -30.208744 918.661133
4.000000 6.200000 3.960000 17.896786 -19.660927 706.846985
4.000000 6.200000 4.000000 20.448463 -1.971146 422.025055
4.000000 6.200000 4.040000 10.150627 4.253143 121.124458
4.000000 6.200000 4.080000 5.593342 -4.516758 51.686577
4.000000 6.200000 4.120000 17.832634 -12.673896 478.630493
4.000000 6.200000 4.160000 36.995361 -2.799512 1376.494019
4.000000 6.200000 4.200000 41.692635 24.166443 2322.292725
4.040000 5.800000 3.800000 -35.011238 -23.511246 1778.565430
4.040000 5.800000 3.840000 -18.303066 -26.926527 1060.040039
4.040000 5.800000 3.880000 -5.852301 -20.849426 468.947998
4.040000 5.800000 3.920000 -0.738392 -12.155968 148.312775
4.040000 5.800000 3.960000 0.381226 -5.656839 32.145164
4.040000 5.800000 4.000000 1.663902 -0.205505 2.810803
4.040000 5.800000 4.040000 2.303093 8.014816 69.541519
4.040000 5.800000 4.080000 -2.787776 18.817966 361.887573
4.040000 5.800000 4.120000 -16.266024 25.826824 931.608398
4.040000 5.800000 4.160000 -33.138969 22.009241 1582.598022
4.040000 5.800000 4.200000 -43.508648 7.509098 1949.389038
4.040000 5.840000 3.800000 -24.672625 -35.324726 1856.574707
4.040000 5.840000 3.840000 -26.600536 -31.908918 1725.767578
4.040000 5.840000 3.880000 -31.861328 -42.467461 2818.629395
4.040000 5.840000 3.920000 -21.687714 -62.820190 4416.733398
4.040000 5.840000 3.960000 9.161011 -71.858269 5247.535156
4.040000 5.840000 4.000000 42.881935 -52.509331 4596.089844
4.040000 5.840000 4.040000 52.979095 -11.256165 2933.485840
4.040000 5.840000 4.080000 29.378895 24.588085 1467.693359
4.040000 5.840000 4.120000 -10.782021 30.573856 1051.012695
4.040000 5.840000 4.160000 -38.035526 6.842585 1493.522217
4.040000 5.840000 4.200000 -36.738159 -23.336445 1894.281982
4.040000 5.880000 3.800000 -10.746376 -41.757225 1859.150513
4.040000 5.880000 3.840000 -29.983919 -53.397881 3750.369141
4.040000 5.880000 3.880000 -27.693581 -93.524673 9513.798828
4.040000 5.880000 3.920000 18.661484 -127.673042 16648.656250
4.040000 5.880000 3.960000 88.542381 -114.397392 20926.517578
4.040000 5.880000 4.000000 131.552170 -48.187737 19628.031250
4.040000 5.880000 4.040000 113.003754 29.924671 13665.334961
4.040000 5.880000 4.080000 47.240623 67.012802 6722.392578
4.040000 5.880000 4.120000 -14.946695 45.079453 2255.560791
4.040000 5.880000 4.160000 -32.438789 -5.593508 1083.562378
4.040000 5.880000 4.200000 -7.987019 -38.259407 1527.574707
4.040000 5.920000 3.800000 5.535502 -42.623268 1847.384766
4.040000 5.920000 3.840000 -9.786777 -80.593185 6591.042969
4.040000 5.920000 3.880000 27.649134 -133.587738 18610.158203
4.040000 5.920000 3.920000 114.685593 -141.636841 33213.781250
4.040000 5.920000 3.960000 192.673325 -72.585220 42391.625000
4.040000 5.920000 4.000000 197.679977 39.850502 40665.437500
4.040000 5.920000 4.040000 120.946304 120.847565 29232.142578
4.040000 5.920000 4.080000 19.028400 120.308121 14836.124023
4.040000 5.920000 4.120000 -37.264954 55.636932 4484.145020
4.040000 5.920000 4.160000 -24.664232 -9.420527 697.070679
4.040000 5.920000 4.200000 19.623028 -26.340849 1078.903564
4.040000 5.960000 3.800000 23.079382 -35.635441 1802.542480
4.040000 5.960000 3.840000 34.170773 -87.272797 8784.182617
4.040000 5.960000 3.880000 108.229858 -117.482910 25515.937500
4.040000 5.960000 3.920000 202.077988 -69.949844 45728.492188
4.040000 5.960000 3.960000 237.443573 48.417683 58723.722656
4.040000 5.960000 4.000000 173.595703 163.887848 56994.695312
4.040000 5.960000 4.040000 49.011616 198.453690 41786.003906
4.040000 5.960000 4.080000 -50.961430 138.844635 21874.898438
4.040000 5.960000 4.120000 -69.450737 44.766804 6827.471680
4.040000 5.960000 4.160000 -22.909494 -9.767246 620.244019
4.040000 5.960000 4.200000 25.186462 -1.945353 638.142334
4.040000 6.000000 3.800000 36.797310 -18.092304 1681.373535
4.040000 6.000000 3.840000 76.318382 -56.498924 9016.624023
4.040000 6.000000 3.880000 156.709320 -40.870995 26228.248047
4.040000 6.000000 3.920000 210.481842 51.388767 46943.410156
4.040000 6.000000 3.960000 176.256393 171.403152 60445.359375
4.040000 6.000000 4.000000 60.082245 235.717651 59172.687500
4.040000 6.000000 4.040000 -64.452667 200.037643 44169.203125
4.040000 6.000000 4.080000 -119.702095 98.166565 23965.265625
4.040000 6.000000 4.120000 -89.595901 8.666386 8102.532227
4.040000 6.000000 4.160000 -25.115631 -16.236254 894.410889
4.040000 6.000000 4.200000 11.009920 10.315641 227.630798
4.040000 6.040000 3.800000 38.166592 7.206898 1508.628052
4.040000 6.040000 3.840000 84.800392 -0.991017 7192.088379
4.040000 6.040000 3.880000 134.297714 49.000862 20436.960938
4.040000 6.040000 3.920000 128.314407 140.839615 36300.382812
4.040000 6.040000 3.960000 46.472275 211.163879 46749.855469
4.040000 6.040000 4.000000 -68.409828 203.704224 46175.316406
4.040000 6.040000 4.040000 -144.096252 120.391678 35257.886719
4.040000 6.040000 4.080000 -140.447937 19.627905 20110.876953
4.040000 6.040000 4.120000 -79.957703 -35.910786 7682.818848
4.040000 6.040000 4.160000 -20.480762 -30.574627 1354.269409
4.040000 6.040000 4.200000 -0.707582 1.252830 2.070255
4.040000 6.080000 3.800000 22.544434 29.398129 1372.501465
4.040000 6.080000 3.840000 50.939934 43.596455 4495.527832
4.040000 6.080000 3.880000 57.386559 91.780777 11716.927734
4.040000 6.080000 3.920000 15.590782 141.495026 20263.914062
4.040000 6.080000 3.960000 -61.316677 148.950150 25945.880859
4.040000 6.080000 4.000000 -127.588570 98.284714 25938.726562
4.040000 6.080000 4.040000 -142.361603 17.086887 20558.787109
4.040000 6.080000 4.080000 -102.830338 -46.611435 12746.704102
4.040000 6.080000 4.120000 -42.981060 -63.564888 5887.866211
4.040000 6.080000 4.160000 -1.656078 -42.348049 1796.099854
4.040000 6.080000 4.200000 7.985006 -13.733237 252.362137
4.040000 6.120000 3.800000 -3.661050 35.984554 1308.291504
4.040000 6.120000 3.840000 -0.691603 48.782539 2380.214355
4.040000 6.120000 3.880000 -16.140427 66.297729 4655.902344
4.040000 6.120000 3.920000 -49.199905 69.126320 7199.079102
4.040000 6.120000 3.960000 -82.501648 45.479443 8874.901367
4.040000 6.120000 4.000000 -94.961693 1.831123 9021.075195
4.040000 6.120000 4.040000 -77.674911 -41.334301 7741.916504
4.040000 6.120000 4.080000 -39.642776 -64.260376 5700.945801
4.040000 6.120000 4.120000 0.009689 -60.481895 3658.059570
4.040000 6.120000 4.160000 25.326874 -38.126312 2095.066406
4.040000 6.120000 4.200000 31.475733 -11.535559 1123.790894
4.040000 6.160000 3.800000 -25.242741 23.991314 1212.779053
4.040000 6.160000 3.840000 -33.204571 18.290066 1437.070068
4.040000 6.160000 3.880000 -38.407429 6.368773 1515.691895
4.040000 6.160000 3.920000 -36.675026 -7.440521 1400.418823
4.040000 6.160000 3.960000 -29.708601 -18.225174 1214.757935
4.040000 6.160000 4.000000 -21.284603 -25.884872 1123.060913
4.040000 6.160000 4.040000 -11.121941 -33.047192 1215.814331
4.040000 6.160000 4.080000 4.699375 -38.277802 1487.274170
4.040000 6.160000 4.120000 26.231602 -34.240726 1860.524292
4.040000 6.160000 4.160000 44.399136 -15.141497 2200.548096
4.040000 6.160000 4.200000 46.276390 13.889584 2334.424805
4.040000 6.200000 3.800000 -30.259113 4.353300 934.565186
4.040000 6.200000 3.840000 -29.910055 -16.790411 1176.529297
4.040000 6.200000 3.880000 -10.991858 -34.025673 1278.567383
4.040000 6.200000 3.920000 15.693674 -31.745853 1254.090576
4.040000 6.200000 3.960000 30.157320 -11.964783 1052.619995
4.040000 6.200000 4.000000 24.440140 6.433094 638.705139
4.040000 6.200000 4.040000 11.669464 7.739458 196.075607
4.040000 6.200000 4.080000 11.698883 -2.969164 145.679794
4.040000 6.200000 4.120000 28.279617 -4.988781 824.624695
4.040000 6.200000 4.160000 43.243034 14.646254 2084.472656
4.040000 6.200000 4.200000 35.181828 44.854073 3249.648926
4.080000 5.800000 3.800000 -26.752117 -33.006950 1805.134521
4.080000 5.800000 3.840000 -9.695608 -33.975109 1248.312744
4.080000 5.800000 3.880000 3.244976 -25.785046 675.398438
4.080000 5.800000 3.920000 8.526108 -14.005661 268.853058
4.080000 5.800000 3.960000 7.712311 -3.700237 73.171494
4.080000 5.800000 4.000000 4.231476 3.994041 33.857754
4.080000 5.800000 4.040000 -0.822699 10.606850 113.182091
4.080000 5.800000 4.080000 -9.178496 16.206390 346.891907
4.080000 5.800000 4.120000 -21.624805 17.442593 771.876221
4.080000 5.800000 4.160000 -34.572044 10.535506 1306.223145
4.080000 5.800000 4.200000 -41.427593 -3.839405 1730.986572
4.080000 5.840000 3.800000 -12.421320 -46.546528 2320.868652
4.080000 5.840000 3.840000 -6.894333 -48.102043 2361.338379
4.080000 5.840000 3.880000 2.114113 -54.102409 2931.540283
4.080000 5.840000 3.920000 20.936386 -56.249790 3602.371094
4.080000 5.840000 3.960000 43.479340 -42.957428 3735.793457
4.080000 5.840000 4.000000 53.756271 -13.262436 3065.628906
4.080000 5.840000 4.040000 40.295288 18.242538 1956.500488
4.080000 5.840000 4.080000 8.482296 31.937386 1091.945923
4.080000 5.840000 4.120000 -22.066389 19.969776 885.717529
4.080000 5.840000 4.160000 -33.451557 -6.917700 1166.861328
4.080000 5.840000 4.200000 -23.755871 -29.156160 1414.423096
4.080000 5.880000 3.800000 9.478092 -50.939766 2684.694092
4.080000 5.880000 3.840000 10.871342 -64.632843 4295.590332
4.080000 5.880000 3.880000 34.841587 -82.792435 8068.523438
4.080000 5.880000 3.920000 79.337822 -77.518303 12303.578125
4.080000 5.880000 3.960000 115.157166 -34.431698 14446.714844
4.080000 5.880000 4.000000 110.764778 27.842178 13044.022461
4.080000 5.880000 4.040000 63.230846 69.934143 8888.923828
4.080000 5.880000 4.080000 3.784393 65.775177 4340.695801
4.080000 5.880000 4.120000 -28.726761 25.426016 1471.709106
4.080000 5.880000 4.160000 -20.991804 -15.593094 683.800415
4.080000 5.880000 4.200000 6.903478 -29.223001 901.641846
4.080000 5.920000 3.800000 32.512932 -41.725075 2798.072510
4.080000 5.920000 3.840000 44.733345 -66.524078 6426.525391
4.080000 5.920000 3.880000 92.513939 -76.704346 14442.385742
4.080000 5.920000 3.920000 148.702209 -38.634827 23604.998047
4.080000 5.920000 3.960000 164.624786 41.472752 28821.308594
4.080000 5.920000 4.000000 116.347466 115.485397 26873.609375
4.080000 5.920000 4.040000 31.006178 133.826904 18871.023438
4.080000 5.920000 4.080000 -34.860741 89.969162 9309.721680
4.080000 5.920000 4.120000 -44.738037 24.982943 2625.639404
4.080000 5.920000 4.160000 -11.127254 -11.702930 260.774384
4.080000 5.920000 4.200000 22.649910 -5.666196 545.124207
4.080000 5.960000 3.800000 47.424133 -19.321983 2622.387451
4.080000 5.960000 3.840000 77.751251 -40.556511 7690.087402
4.080000 5.960000 3.880000 135.455292 -22.012037 18832.666016
4.080000 5.960000 3.920000 170.388245 51.860863 31721.703125
4.080000 5.960000 3.960000 137.906448 142.871002 39430.312500
4.080000 5.960000 4.000000 45.249252 188.009064 37394.902344
4.080000 5.960000 4.040000 -49.775917 156.012650 26817.589844
4.080000 5.960000 4.080000 -88.691956 75.872559 13622.908203
4.080000 5.960000 4.120000 -62.361267 9.042679 3970.697754
4.080000 5.960000 4.160000 -12.845942 -6.269835 204.329041
4.080000 5.960000 4.200000 11.530656 16.279842 397.989288
4.080000 6.000000 3.800000 46.235474 8.944664 2217.726074
4.080000 6.000000 3.840000 85.491226 6.298021 7348.415039
4.080000 6.000000 3.880000 125.753380 53.859673 18714.777344
4.080000 6.000000 3.920000 115.701233 136.219528 31942.535156
4.080000 6.000000 3.960000 39.069260 196.337402 40074.781250
4.080000 6.000000 4.000000 -63.574009 185.562271 38475.011719
4.080000 6.000000 4.040000 -127.517365 109.183609 28181.738281
4.080000 6.000000 4.080000 -120.206604 22.008667 14934.009766
4.080000 6.000000 4.120000 -66.372482 -21.385632 4862.651855
4.080000 6.000000 4.160000 -19.277708 -12.174273 519.842957
4.080000 6.000000 4.200000 -9.807997 14.335407 301.700714
4.080000 6.040000 3.800000 27.885378 30.859997 1729.933716
4.080000 6.040000 3.840000 57.717514 47.496239 5587.204102
4.080000 6.040000 3.880000 63.568367 100.895462 14220.832031
4.080000 6.040000 3.920000 16.600754 154.862976 24258.126953
4.080000 6.040000 3.960000 -67.162521 161.318146 30534.349609
4.080000 6.040000 4.000000 -136.284409 105.301895 29661.929688
4.080000 6.040000 4.040000 -148.074799 20.420208 22343.130859
4.080000 6.040000 4.080000 -104.698410 -40.697144 12618.014648
4.080000 6.040000 4.120000 -46.977383 -51.406864 4849.540039
4.080000 6.040000 4.160000 -14.661629 -28.206741 1010.583618
4.080000 6.040000 4.200000 -13.839010 -6.915445 239.341583
4.080000 6.080000 3.800000 0.940707 36.150925 1307.774292
4.080000 6.080000 3.840000 10.341448 57.283585 3388.354736
4.080000 6.080000 3.880000 -9.466091 89.062820 8021.792969
4.080000 6.080000 3.920000 -59.194763 99.014442 13307.878906
4.080000 6.080000 3.960000 -110.105804 67.103676 16626.191406
4.080000 6.080000 4.000000 -127.836823 5.628590 16373.933594
4.080000 6.080000 4.040000 -101.790665 -50.567970 12918.458984
4.080000 6.080000 4.080000 -52.261955 -73.442528 8125.116699
4.080000 6.080000 4.120000 -10.406357 -62.293953 3988.828857
4.080000 6.080000 4.160000 7.617166 -38.010620 1502.828491
4.080000 6.080000 4.200000 8.129869 -20.488419 485.870087
4.080000 6.120000 3.800000 -20.616932 24.041348 1003.044312
4.080000 6.120000 3.840000 -26.008900 32.852158 1755.727173
4.080000 6.120000 3.880000 -45.273640 34.349770 3229.608887
4.080000 6.120000 3.920000 -66.556572 17.498192 4735.963867
4.080000 6.120000 3.960000 -73.541855 -14.146839 5608.537109
4.080000 6.120000 4.000000 -59.172710 -45.606049 5581.321289
4.080000 6.120000 4.040000 -29.977524 -62.755104 4836.854980
4.080000 6.120000 4.080000 1.004574 -61.466129 3779.094238
4.080000 6.120000 4.120000 23.878366 -46.777515 2758.312500
4.080000 6.120000 4.160000 35.340195 -26.212061 1936.001465
4.080000 6.120000 4.200000 35.858997 -5.470863 1315.797974
4.080000 6.160000 3.800000 -27.027506 4.689615 752.478577
4.080000 6.160000 3.840000 -31.561043 -3.304802 1007.021118
4.080000 6.160000 3.880000 -29.987766 -17.102270 1191.753784
4.080000 6.160000 3.920000 -19.055153 -28.676655 1185.449341
4.080000 6.160000 3.960000 -4.419998 -31.765800 1028.602539
4.080000 6.160000 4.000000 6.688091 -28.640766 865.024048
4.080000 6.160000 4.040000 14.198185 -25.698643 862.008667
4.080000 6.160000 4.080000 24.018370 -23.675447 1137.408936
4.080000 6.160000 4.120000 37.923901 -15.388907 1675.040771
4.080000 6.160000 4.160000 47.351776 4.799958 2265.230225
4.080000 6.160000 4.200000 40.461033 30.513849 2568.190186
4.080000 6.200000 3.800000 -20.208515 -8.342666 477.984161
4.080000 6.200000 3.840000 -13.094696 -23.935949 744.400757
4.080000 6.200000 3.880000 8.318186 -31.035473 1032.392822
4.080000 6.200000 3.920000 30.185392 -19.086836 1275.465210
4.080000 6.200000 3.960000 35.586895 4.002335 1282.445801
4.080000 6.200000 4.000000 23.625744 18.977520 918.322021
4.080000 6.200000 4.040000 11.243652 16.324718 392.916138
4.080000 6.200000 4.080000 14.329144 7.476315 261.219635
4.080000 6.200000 4.120000 28.752123 12.210261 975.775024
4.080000 6.200000 4.160000 33.457432 35.255692 2362.363525
4.080000 6.200000 4.200000 13.679601 58.324829 3588.916992
4.120000 5.800000 3.800000 -17.165068 -37.207127 1679.009766
4.120000 5.800000 3.840000 1.125643 -35.373623 1252.560303
4.120000 5.800000 3.880000 13.807022 -22.884483 714.333435
4.120000 5.800000 3.920000 15.702053 -6.928225 294.554779
4.120000 5.800000 3.960000 8.911806 4.630650 100.863205
4.120000 5.800000 4.000000 -0.194464 9.211037 84.881012
4.120000 5.800000 4.040000 -7.396408 9.875912 152.240479
4.120000 5.800000 4.080000 -13.702934 10.073367 289.243134
4.120000 5.800000 4.120000 -22.041973 8.872254 564.565491
4.120000 5.800000 4.160000 -31.611044 2.116726 1003.738647
4.120000 5.800000 4.200000 -36.654305 -11.750139 1481.603882
4.120000 5.840000 3.800000 4.171608 -49.990646 2516.467041
4.120000 5.840000 3.840000 18.982239 -46.558151 2527.986816
4.120000 5.840000 3.880000 32.106575 -37.553719 2441.113770
4.120000 5.840000 3.920000 41.314266 -22.656511 2220.186035
4.120000 5.840000 3.960000 42.616425 -3.210987 1826.470093
4.120000 5.840000 4.000000 32.687065 15.537853 1309.869141
4.120000 5.840000 4.040000 12.931774 25.771023 831.376404
4.120000 5.840000 4.080000 -9.141956 22.080093 571.105896
4.120000 5.840000 4.120000 -23.644440 6.076218 595.979919
4.120000 5.840000 4.160000 -24.726583 -13.897202 804.536133
4.120000 5.840000 4.200000 -14.303769 -28.286104 1004.701538
4.120000 5.880000 3.800000 32.657711 -45.772835 3161.678467
4.120000 5.880000 3.840000 46.875145 -43.504772 4089.944336
4.120000 5.880000 3.880000 66.153938 -33.106583 5472.389648
4.120000 5.880000 3.920000 81.315308 -7.375675 6666.579590
4.120000 5.880000 3.960000 77.761009 28.650230 6867.610352
4.120000 5.880000 4.000000 49.896320 57.094147 5749.384766
4.120000 5.880000 4.040000 9.746731 60.609444 3768.503418
4.120000 5.880000 4.080000 -20.384254 37.774036 1842.395630
4.120000 5.880000 4.120000 -25.594942 5.217869 682.327209
4.120000 5.880000 4.160000 -9.765046 -16.249912 359.415771
4.120000 5.880000 4.200000 9.938896 -18.371950 436.310211
4.120000 5.920000 3.800000 53.735992 -22.338509 3386.565918
4.120000 5.920000 3.840000 70.753311 -18.920139 5364.002930
4.120000 5.920000 3.880000 93.412086 1.956034 8729.644531
4.120000 5.920000 3.920000 100.642471 44.221436 12084.442383
4.120000 5.920000 3.960000 74.801224 88.832321 13486.404297
4.120000 5.920000 4.000000 22.184589 106.790710 11896.412109
4.120000 5.920000 4.040000 -27.941410 85.087227 8020.558594
4.120000 5.920000 4.080000 -47.056908 39.850975 3802.452637
4.120000 5.920000 4.120000 -31.441854 2.728175 996.033142
4.120000 5.920000 4.160000 -3.117206 -6.560562 52.757942
4.120000 5.920000 4.200000 12.520901 5.247036 184.304337
4.120000 5.960000 3.800000 54.887215 10.373175 3120.209229
4.120000 5.960000 3.840000 73.230652 19.840267 5756.364746
4.120000 5.960000 3.880000 87.652138 53.858791 10583.666992
4.120000 5.960000 3.920000 71.983490 102.340462 15655.193359
4.120000 5.960000 3.960000 19.940449 133.239578 18150.406250
4.120000 5.960000 4.000000 -43.127316 120.714127 16431.865234
4.120000 5.960000 4.040000 -79.555115 70.678978 11324.534180
4.120000 5.960000 4.080000 -72.137749 17.192379 5499.432617
4.120000 5.960000 4.120000 -37.951126 -7.610394 1498.206055
4.120000 5.960000 4.160000 -10.012976 -0.335350 100.372139
4.120000 5.960000 4.200000 -6.077267 15.893145 289.525208
4.120000 6.000000 3.800000 34.880157 35.653397 2487.790039
4.120000 6.000000 3.840000 48.116264 52.381172 5058.961914
4.120000 6.000000 3.880000 43.900116 89.855278 10001.191406
4.120000 6.000000 3.920000 4.914632 123.635498 15309.889648
4.120000 6.000000 3.960000 -55.841183 122.363113 18090.968750
4.120000 6.000000 4.000000 -102.335350 78.554016 16643.257812
4.120000 6.000000 4.040000 -106.792046 18.135736 11733.446289
4.120000 6.000000 4.080000 -74.181679 -21.922386 5983.512207
4.120000 6.000000 4.120000 -35.564850 -25.756811 1928.271851
4.120000 6.000000 4.160000 -17.965202 -8.855288 401.164612
4.120000 6.000000 4.200000 -21.698853 1.962873 474.693085
4.120000 6.040000 3.800000 5.411135 41.258827 1731.571167
4.120000 6.040000 3.840000 8.053280 59.618774 3619.253418
4.120000 6.040000 3.880000 -13.006866 84.679657 7339.823242
4.120000 6.040000 3.920000 -57.422997 89.614731 11328.200195
4.120000 6.040000 3.960000 -99.888145 58.937927 13451.320312
4.120000 6.040000 4.000000 -111.729759 5.608212 12514.991211
4.120000 6.040000 4.040000 -86.928856 -39.174858 9091.295898
4.120000 6.040000 4.080000 -46.521416 -53.385975 5014.304688
4.120000 6.040000 4.120000 -17.826647 -41.357937 2028.268188
4.120000 6.040000 4.160000 -10.473806 -24.899944 729.707825
4.120000 6.040000 4.200000 -12.723974 -19.776379 553.004700
4.120000 6.080000 3.800000 -17.020157 27.907478 1068.513062
4.120000 6.080000 3.840000 -23.622047 39.257412 2099.145508
4.120000 6.080000 3.880000 -47.076015 43.147453 4077.854004
4.120000 6.080000 3.920000 -74.028618 24.874313 6098.967773
4.120000 6.080000 3.960000 -83.558533 -11.845856 7122.352539
4.120000 6.080000 4.000000 -66.698792 -47.125641 6669.554688
4.120000 6.080000 4.040000 -34.124840 -62.626228 5086.548828
4.120000 6.080000 4.080000 -5.130342 -56.432140 3210.906738
4.120000 6.080000 4.120000 9.497527 -41.024460 1773.209351
4.120000 6.080000 4.160000 13.391117 -28.798832 1008.694763
4.120000 6.080000 4.200000 15.597712 -21.484665 704.879395
4.120000 6.120000 3.800000 -22.985397 7.988276 592.141052
4.120000 6.120000 3.840000 -30.993576 7.862147 1022.415100
4.120000 6.120000 3.880000 -41.049145 -3.463812 1697.030273
4.120000 6.120000 3.920000 -41.121223 -23.781881 2256.532959
4.120000 6.120000 3.960000 -26.947973 -41.498222 2448.295654
4.120000 6.120000 4.000000 -5.621964 -47.195568 2259.028076
4.120000 6.120000 4.040000 12.530561 -41.467323 1876.553955
4.120000 6.120000 4.080000 23.562246 -31.340187 1537.386719
4.120000 6.120000 4.120000 30.387295 -21.144011 1370.456909
4.120000 6.120000 4.160000 35.298634 -9.317867 1332.816162
4.120000 6.120000 4.200000 35.145649 5.777332 1268.594238
4.120000 6.160000 3.800000 -16.166676 -4.765433 284.070740
4.120000 6.160000 3.840000 -17.540890 -13.280629 484.057922
4.120000 6.160000 3.880000 -9.471411 -24.635553 696.618103
4.120000 6.160000 3.920000 6.947247 -28.011658 832.917175
4.120000 6.160000 3.960000 21.173141 -19.635599 833.858643
4.120000 6.160000 4.000000 25.370140 -7.205760 695.566956
4.120000 6.160000 4.040000 23.211246 -0.391751 538.915405
4.120000 6.160000 4.080000 24.455639 1.063889 599.210083
4.120000 6.160000 4.120000 31.561886 6.816586 1042.618530
4.120000 6.160000 4.160000 34.899181 22.837418 1739.500488
4.120000 6.160000 4.200000 23.488716 41.284851 2256.158691
4.120000 6.200000 3.800000 -8.538929 -6.014902 109.092354
4.120000 6.200000 3.840000 -0.863927 -15.778993 249.722977
4.120000 6.200000 3.880000 17.138313 -15.676928 539.487793
4.120000 6.200000 3.920000 30.966772 0.421055 959.118286
4.120000 6.200000 3.960000 27.960009 21.511318 1244.498901
4.120000 6.200000 4.000000 12.405470 30.822470 1103.920410
4.120000 6.200000 4.040000 1.389663 24.873346 620.614502
4.120000 6.200000 4.080000 5.140589 17.843952 344.832275
4.120000 6.200000 4.120000 14.407467 25.058414 835.499268
4.120000 6.200000 4.160000 10.381197 43.913521 2036.166626
4.120000 6.200000 4.200000 -12.953231 54.668205 3156.398682
4.160000 5.800000 3.800000 -8.772490 -37.736992 1501.037109
4.160000 5.800000 3.840000 9.474204 -31.145428 1059.798218
4.160000 5.800000 3.880000 18.092625 -14.291454 531.588745
4.160000 5.800000 3.920000 13.304635 2.098415 181.416672
4.160000 5.800000 3.960000 1.233650 9.201298 86.185776
4.160000 5.800000 4.000000 -8.557305 7.218321 125.331635
4.160000 5.800000 4.040000 -12.255177 3.290592 161.017349
4.160000 5.800000 4.080000 -14.175561 2.634289 207.886017
4.160000 5.800000 4.120000 -20.036352 2.609245 408.263580
4.160000 5.800000 4.160000 -28.714931 -3.750126 838.610779
4.160000 5.800000 4.200000 -31.851370 -18.574551 1359.523682
4.160000 5.840000 3.800000 19.307999 -44.389896 2343.261719
4.160000 5.840000 3.840000 35.029472 -29.310778 2086.185547
4.160000 5.840000 3.880000 38.099110 -8.782179 1528.668823
4.160000 5.840000 3.920000 29.517193 7.538052 928.086853
4.160000 5.840000 3.960000 16.079550 14.887159 480.179443
4.160000 5.840000 4.000000 3.955978 14.901073 237.691727
4.160000 5.840000 4.040000 -5.274113 11.356895 156.795349
4.160000 5.840000 4.080000 -12.795575 5.516507 194.158600
4.160000 5.840000 4.120000 -18.139732 -3.881303 344.114410
4.160000 5.840000 4.160000 -17.860491 -16.590282 594.234619
4.160000 5.840000 4.200000 -9.046852 -28.075222 870.063599
4.160000 5.880000 3.800000 47.467850 -27.734573 3022.403320
4.160000 5.880000 3.840000 55.463661 -6.796369 3122.408447
4.160000 5.880000 3.880000 51.307335 14.545913 2844.026123
4.160000 5.880000 3.920000 37.839554 29.926321 2327.416504
4.160000 5.880000 3.960000 20.024738 36.414959 1727.039307
4.160000 5.880000 4.000000 2.582832 33.881863 1154.651611
4.160000 5.880000 4.040000 -10.550259 23.874510 681.300232
4.160000 5.880000 4.080000 -16.298409 9.481123 355.529816
4.160000 5.880000 4.120000 -13.424473 -4.653553 201.872040
4.160000 5.880000 4.160000 -3.781599 -13.686152 201.611237
4.160000 5.880000 4.200000 8.068438 -15.011547 290.446228
4.160000 5.920000 3.800000 57.039154 5.879993 3288.039307
4.160000 5.920000 3.840000 54.993332 27.127754 3760.181641
4.160000 5.920000 3.880000 43.244255 45.648659 3953.865723
4.160000 5.920000 3.920000 23.756353 57.029495 3816.727539
4.160000 5.920000 3.960000 0.788948 57.507042 3307.682373
4.160000 5.920000 4.000000 -18.791883 46.073448 2475.897461
4.160000 5.920000 4.040000 -28.075615 26.894808 1511.570801
4.160000 5.920000 4.080000 -24.709030 8.402277 681.134460
4.160000 5.920000 4.120000 -13.188501 -1.765731 177.054382
4.160000 5.920000 4.160000 -1.731571 -2.023134 7.091409
4.160000 5.920000 4.200000 4.085157 2.858796 24.861225
4.160000 5.960000 3.800000 40.784908 37.087471 3038.889160
4.160000 5.960000 3.840000 30.449070 52.920986 3727.776855
4.160000 5.960000 3.880000 12.755527 64.568298 4331.768555
4.160000 5.960000 3.920000 -10.774984 67.044937 4611.123535
4.160000 5.960000 3.960000 -33.659599 56.346886 4307.939941
4.160000 5.960000 4.000000 -46.589710 34.764309 3379.158203
4.160000 5.960000 4.040000 -44.423088 11.863774 2114.159912
4.160000 5.960000 4.080000 -31.290276 -1.819806 982.393066
4.160000 5.960000 4.120000 -17.728947 -3.106428 323.965454
4.160000 5.960000 4.160000 -11.677077 1.842544 139.749115
4.160000 5.960000 4.200000 -12.154865 4.310976 166.325272
4.160000 6.000000 3.800000 9.317144 47.870621 2378.405518
4.160000 6.000000 3.840000 -4.578930 55.122715 3059.480225
4.160000 6.000000 3.880000 -23.900776 56.866196 3805.011230
4.160000 6.000000 3.920000 -44.850861 47.577110 4275.181152
4.160000 6.000000 3.960000 -58.346134 26.733191 4118.935059
4.160000 6.000000 4.000000 -57.159744 2.388978 3272.943604
4.160000 6.000000 4.040000 -43.333389 -13.924218 2071.666504
4.160000 6.000000 4.080000 -27.329836 -16.941891 1033.947510
4.160000 6.000000 4.120000 -18.812878 -11.940319 496.495605
4.160000 6.000000 4.160000 -18.192627 -8.798355 408.382721
4.160000 6.000000 4.200000 -17.772993 -11.745710 453.841003
4.160000 6.040000 3.800000 -17.188723 35.427845 1550.584351
4.160000 6.040000 3.840000 -29.524170 34.534584 2064.313965
4.160000 6.040000 3.880000 -44.366158 26.550165 2673.267090
4.160000 6.040000 3.920000 -54.564110 8.826113 3055.142578
4.160000 6.040000 3.960000 -52.518940 -13.019748 2927.752930
4.160000 6.040000 4.000000 -38.479477 -28.411655 2287.892334
4.160000 6.040000 4.040000 -21.509727 -31.286400 1441.507202
4.160000 6.040000 4.080000 -11.283450 -25.655739 785.533142
4.160000 6.040000 4.120000 -9.179804 -20.958496 523.527344
4.160000 6.040000 4.160000 -8.214008 -22.049547 553.652466
4.160000 6.040000 4.200000 -1.775159 -24.617100 609.152771
4.160000 6.080000 3.800000 -25.145508 13.253191 807.943604
4.160000 6.080000 3.840000 -32.749557 7.159237 1123.788208
4.160000 6.080000 3.880000 -38.064915 -6.178020 1487.105713
4.160000 6.080000 3.920000 -33.814865 -23.084517 1676.339966
4.160000 6.080000 3.960000 -19.455988 -34.217331 1549.361084
4.160000 6.080000 4.000000 -3.124440 -33.829628 1154.205811
4.160000 6.080000 4.040000 6.112625 -25.813448 703.698303
4.160000 6.080000 4.080000 7.246238 -19.336021 426.389679
4.160000 6.080000 4.120000 7.388859 -18.860497 410.313568
4.160000 6.080000 4.160000 12.862962 -19.752121 555.602051
4.160000 6.080000 4.200000 21.481617 -14.433020 669.771912
4.160000 6.120000 3.800000 -17.361916 -1.454483 303.551636
4.160000 6.120000 3.840000 -19.638002 -9.516306 476.211212
4.160000 6.120000 3.880000 -14.435319 -21.425282 667.421143
4.160000 6.120000 3.920000 -0.148571 -27.982988 783.069702
4.160000 6.120000 3.960000 15.061126 -22.993523 755.539612
4.160000 6.120000 4.000000 21.479151 -10.814523 578.307800
4.160000 6.120000 4.040000 18.407747 -1.942591 342.618805
4.160000 6.120000 4.080000 14.604198 -1.357583 215.125610
4.160000 6.120000 4.120000 17.756868 -3.148390 325.218719
4.160000 6.120000 4.160000 25.115015 2.019575 634.842651
4.160000 6.120000 4.200000 26.434267 15.149519 928.278381
4.160000 6.160000 3.800000 -8.038666 -2.460923 70.676292
4.160000 6.160000 3.840000 -5.749505 -10.540713 144.163452
4.160000 6.160000 3.880000 6.360114 -15.527077 281.541168
4.160000 6.160000 3.920000 20.773582 -8.520267 504.136658
4.160000 6.160000 3.960000 25.410593 7.375012 700.089050
4.160000 6.160000 4.000000 17.510683 19.554546 689.004272
4.160000 6.160000 4.040000 7.165375 19.968410 450.080017
4.160000 6.160000 4.080000 5.733343 14.346337 238.688629
4.160000 6.160000 4.120000 12.344882 15.328754 387.366821
4.160000 6.160000 4.160000 14.609629 27.005421 942.734009
4.160000 6.160000 4.200000 3.343609 38.971565 1529.962524
4.160000 6.200000 3.800000 -8.251884 2.041459 72.261154
4.160000 6.200000 3.840000 -1.881824 -5.187908 30.455654
4.160000 6.200000 3.880000 11.466677 -1.779152 134.650070
4.160000 6.200000 3.920000 17.596731 13.930228 503.696228
4.160000 6.200000 3.960000 8.615814 29.269743 930.950073
4.160000 6.200000 4.000000 -7.343915 31.346523 1036.537598
4.160000 6.200000 4.040000 -15.126079 21.978176 711.838501
4.160000 6.200000 4.080000 -10.235945 15.652669 349.780609
4.160000 6.200000 4.120000 -4.350622 22.208179 512.131165
4.160000 6.200000 4.160000 -11.535540 34.377331 1314.869629
4.160000 6.200000 4.200000 -30.668207 35.355049 2190.518555
4.200000 5.800000 3.800000 -2.330113 -36.518188 1339.007568
4.200000 5.800000 3.840000 12.136213 -25.588921 802.080505
4.200000 5.800000 3.880000 14.158983 -8.761688 277.243988
4.200000 5.800000 3.920000 4.781944 2.396872 28.611980
4.200000 5.800000 3.960000 -6.452713 2.751315 49.207233
4.200000 5.800000 4.000000 -11.225478 -2.674826 133.166046
4.200000 5.800000 4.040000 -10.260403 -5.361772 134.024460
4.200000 5.800000 4.080000 -11.041714 -3.157525 131.889404
4.200000 5.800000 4.120000 -17.992205 -2.614005 330.552429
4.200000 5.800000 4.160000 -25.939529 -11.041962 794.784119
4.200000 5.800000 4.200000 -24.465025 -26.765579 1314.933716
4.200000 5.840000 3.800000 27.420231 -33.363129 1864.967529
4.200000 5.840000 3.840000 33.917480 -10.896219 1269.123047
4.200000 5.840000 3.880000 23.094303 7.489893 589.445374
4.200000 5.840000 3.920000 5.668227 11.336845 160.652863
4.200000 5.840000 3.960000 -5.159555 3.571414 39.376011
4.200000 5.840000 4.000000 -5.722613 -4.653586 54.404167
4.200000 5.840000 4.040000 -3.090625 -6.305803 49.315121
4.200000 5.840000 4.080000 -5.216435 -4.917759 51.395546
4.200000 5.840000 4.120000 -11.185885 -8.837113 203.218597
4.200000 5.840000 4.160000 -12.132389 -20.199926 555.231873
4.200000 5.840000 4.200000 -1.527830 -30.882360 956.054504
4.200000 5.880000 3.800000 47.349838 -7.162414 2293.307373
4.200000 5.880000 3.840000 37.655666 18.106056 1745.778564
4.200000 5.880000 3.880000 15.029786 27.288013 970.530151
4.200000 5.880000 3.920000 -3.207826 18.600965 356.286072
4.200000 5.880000 3.960000 -7.162093 4.135196 68.395424
4.200000 5.880000 4.000000 -1.308455 -3.349388 12.930454
4.200000 5.880000 4.040000 3.063383 -2.097270 13.782853
4.200000 5.880000 4.080000 0.703166 -0.300132 0.584521
4.200000 5.880000 4.120000 -3.059030 -4.998146 34.339127
4.200000 5.880000 4.160000 0.229510 -13.608099 185.233032
4.200000 5.880000 4.200000 11.695857 -16.773382 418.139404
4.200000 5.920000 3.800000 42.070248 26.798588 2488.070068
4.200000 5.920000 3.840000 17.552664 41.891300 2062.977051
4.200000 5.920000 3.880000 -7.537430 35.007942 1282.368896
4.200000 5.920000 3.920000 -17.250820 15.648533 542.467407
4.200000 5.920000 3.960000 -10.592814 0.600749 112.568619
4.200000 5.920000 4.000000 0.524477 -1.428774 2.316473
4.200000 5.920000 4.040000 4.494683 4.590838 41.277977
4.200000 5.920000 4.080000 0.424574 7.989378 64.010422
4.200000 5.920000 4.120000 -3.673326 4.143174 30.659218
4.200000 5.920000 4.160000 -1.063203 -1.990172 5.091187
4.200000 5.920000 4.200000 6.608322 -2.621783 50.543671
4.200000 5.960000 3.800000 14.432948 46.373898 2358.848389
4.200000 5.960000 3.840000 -13.869856 43.504704 2085.031982
4.200000 5.960000 3.880000 -29.788761 22.834408 1408.780518
4.200000 5.960000 3.920000 -25.745111 0.964036 663.740173
4.200000 5.960000 3.960000 -10.192063 -7.475977 159.768387
4.200000 5.960000 4.000000 1.701458 -1.248006 4.452477
4.200000 5.960000 4.040000 1.639349 9.116589 85.799652
4.200000 5.960000 4.080000 -6.505015 12.639238 202.065582
4.200000 5.960000 4.120000 -12.874844 7.282661 218.798752
4.200000 5.960000 4.160000 -11.624783 -0.469552 135.356049
4.200000 5.960000 4.200000 -5.071445 -3.341304 36.883865
4.200000 6.000000 3.800000 -16.282051 40.585590 1912.295410
4.200000 6.000000 3.840000 -35.482147 22.831894 1780.278198
4.200000 6.000000 3.880000 -36.120571 -1.862859 1308.165894
4.200000 6.000000 3.920000 -20.337391 -17.082605 705.424866
4.200000 6.000000 3.960000 -1.949074 -14.949119 227.275040
4.200000 6.000000 4.000000 5.365806 -1.459144 30.920971
4.200000 6.000000 4.040000 -1.347735 9.908665 99.998024
4.200000 6.000000 4.080000 -13.624814 9.827703 282.219299
4.200000 6.000000 4.120000 -20.118938 -0.262767 404.840759
4.200000 6.000000 4.160000 -16.030628 -11.188257 382.158142
4.200000 6.000000 4.200000 -5.639744 -14.640851 246.161224
4.200000 6.040000 3.800000 -30.650078 18.155542 1269.051025
4.200000 6.040000 3.840000 -35.088783 -3.607830 1244.239136
4.200000 6.040000 3.880000 -23.123955 -22.127274 1024.333496
4.200000 6.040000 3.920000 -2.756998 -25.956543 681.343140
4.200000 6.040000 3.960000 11.791151 -14.234564 341.654053
4.200000 6.040000 4.000000 11.166033 2.348077 130.193756
4.200000 6.040000 4.040000 -1.772745 10.152644 106.218811
4.200000 6.040000 4.080000 -14.731083 3.614190 230.067169
4.200000 6.040000 4.120000 -16.490421 -10.781060 388.165253
4.200000 6.040000 4.160000 -5.930099 -20.721397 464.542389
4.200000 6.040000 4.200000 8.029715 -18.648964 412.260162
4.200000 6.080000 3.800000 -25.053806 -1.454702 629.809387
4.200000 6.080000 3.840000 -18.852175 -17.469780 660.597656
4.200000 6.080000 3.880000 -2.198089 -25.539589 657.102234
4.200000 6.080000 3.920000 15.477308 -19.177822 607.335938
4.200000 6.080000 3.960000 22.144165 -2.307158 495.687012
4.200000 6.080000 4.000000 13.526020 12.292315 334.054199
4.200000 6.080000 4.040000 -2.213257 13.319147 182.298172
4.200000 6.080000 4.080000 -10.958918 1.053939 121.208664
4.200000 6.080000 4.120000 -5.121509 -12.695423 187.403625
4.200000 6.080000 4.160000 9.710723 -15.352761 330.005432
4.200000 6.080000 4.200000 20.410854 -4.847946 440.105530
4.200000 6.120000 3.800000 -12.592574 -6.011536 194.711487
4.200000 6.120000 3.840000 -3.952246 -14.234838 218.250870
4.200000 6.120000 3.880000 10.764185 -14.167394 316.582703
4.200000 6.120000 3.920000 22.008780 -2.161629 489.059021
4.200000 6.120000 3.960000 20.262051 14.720556 627.245483
4.200000 6.120000 4.000000 6.380930 23.449677 590.603577
4.200000 6.120000 4.040000 -7.506042 17.401865 359.165588
4.200000 6.120000 4.080000 -9.053984 3.589493 94.859077
4.200000 6.120000 4.120000 2.089778 -3.723920 18.234755
4.200000 6.120000 4.160000 13.924754 2.892186 202.263519
4.200000 6.120000 4.200000 14.340327 16.894936 491.083832
4.200000 6.160000 3.800000 -8.618015 -0.278833 74.347939
4.200000 6.160000 3.840000 -1.913547 -5.103436 29.706724
4.200000 6.160000 3.880000 9.148418 -1.397519 85.646614
4.200000 6.160000 3.920000 13.877601 11.944228 335.252380
4.200000 6.160000 3.960000 5.724726 24.900879 652.826294
4.200000 6.160000 4.000000 -9.188890 26.145466 768.021118
4.200000 6.160000 4.040000 -17.452248 15.605694 548.118591
4.200000 6.160000 4.080000 -12.549080 5.267311 185.223969
4.200000 6.160000 4.120000 -2.103662 6.461513 46.176544
4.200000 6.160000 4.160000 0.407132 17.513624 306.892792
4.200000 6.160000 4.200000 -9.459004 25.723167 751.154114
4.200000 6.200000 3.800000 -15.532120 1.280916 242.887497
4.200000 6.200000 3.840000 -8.767195 -4.145207 94.046448
4.200000 6.200000 3.880000 0.209313 1.063685 1.175239
4.200000 6.200000 3.920000 -0.099652 13.285993 176.527527
4.200000 6.200000 3.960000 -11.330709 20.231052 537.680420
4.200000 6.200000 4.000000 -22.935890 15.026661 751.855591
4.200000 6.200000 4.040000 -24.171999 4.296786 602.747864
4.200000 6.200000 4.080000 -16.589054 0.509942 275.456757
4.200000 6.200000 4.120000 -12.214724 7.279950 202.197144
4.200000 6.200000 4.160000 -19.228439 14.881937 591.204956
4.200000 6.200000 4.200000 -31.849508 11.667663 1150.525513
