#kx 	ky 	kz 	real 	imag 	intensity
5.800000 -6.200000 -4.200000 -36.179409 -2.892293 1317.314941
5.800000 -6.200000 -4.160000 -15.487359 -16.829800 523.100464
5.800000 -6.200000 -4.120000 3.366780 -0.740166 11.883055
5.800000 -6.200000 -4.080000 -7.829798 26.442375 760.504944
5.800000 -6.200000 -4.040000 -44.137413 29.317444 2807.623779
5.800000 -6.200000 -4.000000 -69.926056 -4.418622 4909.177734
5.800000 -6.200000 -3.960000 -56.239105 -47.880943 5455.421875
5.800000 -6.200000 -3.920000 -12.945715 -61.377777 3934.822998
5.800000 -6.200000 -3.880000 19.800537 -33.799179 1534.445801
5.800000 -6.200000 -3.840000 12.431105 5.390808 183.593170
5.800000 -6.200000 -3.800000 -24.187027 16.482994 856.701355
5.800000 -6.160000 -4.200000 -26.971897 -27.551960 1486.593750
5.800000 -6.160000 -4.160000 -0.107152 -26.886629 722.902283
5.800000 -6.160000 -4.120000 7.886731 -2.637839 69.158714
5.800000 -6.160000 -4.080000 -14.611751 14.269167 417.112366
5.800000 -6.160000 -4.040000 -44.313049 -1.262642 1965.240601
5.800000 -6.160000 -4.000000 -47.010670 -39.657562 3782.725586
5.800000 -6.160000 -3.960000 -14.899550 -65.065804 4455.555176
5.800000 -6.160000 -3.920000 23.652740 -52.951126 3363.273926
5.800000 -6.160000 -3.880000 33.113121 -16.353291 1363.908936
5.800000 -6.160000 -3.840000 7.599035 7.562752 114.940544
5.800000 -6.160000 -3.800000 -23.866642 -3.954722 585.256409
5.800000 -6.120000 -4.200000 -1.474976 -37.298927 1393.385498
5.800000 -6.120000 -4.160000 19.508785 -21.958717 862.777954
5.800000 -6.120000 -4.120000 14.813515 1.145516 220.752426
5.800000 -6.120000 -4.080000 -8.312171 4.804493 92.175339
5.800000 -6.120000 -4.040000 -22.026022 -16.918880 771.394165
5.800000 -6.120000 -4.000000 -8.230831 -41.663307 1803.577759
5.800000 -6.120000 -3.960000 21.277193 -42.877296 2291.181396
5.800000 -6.120000 -3.920000 37.279930 -18.815899 1743.831299
5.800000 -6.120000 -3.880000 24.642103 5.384321 636.224182
5.800000 -6.120000 -3.840000 -1.578094 4.736627 24.926014
5.800000 -6.120000 -3.800000 -12.692619 -19.218803 530.464966
5.800000 -6.080000 -4.200000 22.250536 -24.788481 1109.555176
5.800000 -6.080000 -4.160000 29.682354 -3.238983 891.533142
5.800000 -6.080000 -4.120000 17.015430 12.016016 433.909515
5.800000 -6.080000 -4.080000 0.471870 7.885450 62.402981
5.800000 -6.080000 -4.040000 -1.535576 -7.389404 56.961288
5.800000 -6.080000 -4.000000 11.521387 -14.376678 339.431244
5.800000 -6.080000 -3.960000 22.620724 -4.746433 534.225769
5.800000 -6.080000 -3.920000 17.318752 9.403088 388.357239
5.800000 -6.080000 -3.880000 0.753730 9.676800 94.208565
5.800000 -6.080000 -3.840000 -7.783998 -7.241806 113.034378
5.800000 -6.080000 -3.800000 3.520086 -25.186996 646.775757
5.800000 -6.040000 -4.200000 28.125956 -0.421420 791.247009
5.800000 -6.040000 -4.160000 22.876974 17.229454 820.210083
5.800000 -6.040000 -4.120000 8.506649 23.447536 622.150085
5.800000 -6.040000 -4.080000 -1.790662 17.989143 326.815765
5.800000 -6.040000 -4.040000 -2.711740 11.300871 135.063217
5.800000 -6.040000 -4.000000 -1.169759 11.013119 122.657120
5.800000 -6.040000 -3.960000 -5.801060 12.837208 198.446198
5.800000 -6.040000 -3.920000 -14.605625 6.735737 258.694427
5.800000 -6.040000 -3.880000 -15.920276 -9.014503 334.716431
5.800000 -6.040000 -3.840000 -2.276023 -23.018467 535.030090
5.800000 -6.040000 -3.800000 19.042500 -21.933308 843.686768
5.800000 -6.000000 -4.200000 15.553759 17.865839 561.107605
5.800000 -6.000000 -4.160000 4.009124 26.378021 711.873047
5.800000 -6.000000 -4.120000 -8.401361 25.548676 723.317688
5.800000 -6.000000 -4.080000 -16.028072 19.996582 656.762390
5.800000 -6.000000 -4.040000 -20.647610 14.844723 646.689575
5.800000 -6.000000 -4.000000 -26.318335 8.758022 769.357666
5.800000 -6.000000 -3.960000 -31.056871 -3.340054 975.685181
5.800000 -6.000000 -3.920000 -26.731749 -20.864864 1149.928955
5.800000 -6.000000 -3.880000 -8.830667 -33.730804 1215.747925
5.800000 -6.000000 -3.840000 15.124853 -30.666245 1169.179810
5.800000 -6.000000 -3.800000 29.839882 -11.740313 1028.253540
5.800000 -5.960000 -4.200000 -2.538643 20.706825 435.217316
5.800000 -5.960000 -4.160000 -14.479830 20.437231 627.345886
5.800000 -5.960000 -4.120000 -23.590370 14.010334 752.795044
5.800000 -5.960000 -4.080000 -28.622580 5.682549 851.543457
5.800000 -5.960000 -4.040000 -31.893255 -3.417580 1028.859619
5.800000 -5.960000 -4.000000 -33.056141 -15.921469 1346.201660
5.800000 -5.960000 -3.960000 -26.738701 -31.872532 1730.816406
5.800000 -5.960000 -3.920000 -8.709078 -43.833275 1997.203979
5.800000 -5.960000 -3.880000 15.946360 -41.492611 1975.923096
5.800000 -5.960000 -3.840000 33.571571 -22.599930 1637.807251
5.800000 -5.960000 -3.800000 33.281864 1.987152 1111.631226
5.800000 -5.920000 -4.200000 -13.730813 13.060922 359.122925
5.800000 -5.920000 -4.160000 -23.428097 6.056900 585.561768
5.800000 -5.920000 -4.120000 -27.248547 -5.669149 774.622559
5.800000 -5.920000 -4.080000 -25.036747 -16.889297 912.087036
5.800000 -5.920000 -4.040000 -19.743546 -25.976519 1064.587158
5.800000 -5.920000 -4.000000 -11.845891 -34.313705 1317.755615
5.800000 -5.920000 -3.960000 1.297765 -40.738808 1661.334595
5.800000 -5.920000 -3.920000 19.625006 -39.441017 1940.734741
5.800000 -5.920000 -3.880000 35.881340 -25.750591 1950.563477
5.800000 -5.920000 -3.840000 39.868576 -3.695492 1603.159912
5.800000 -5.920000 -3.800000 28.470816 14.575503 1023.032654
5.800000 -5.880000 -4.200000 -16.787155 5.353642 310.470032
5.800000 -5.880000 -4.160000 -22.800762 -7.717313 579.431641
5.800000 -5.880000 -4.120000 -17.618156 -22.824186 831.342896
5.800000 -5.880000 -4.080000 -4.406848 -30.794714 967.734680
5.800000 -5.880000 -4.040000 8.595585 -29.887966 967.174622
5.800000 -5.880000 -4.000000 17.129461 -25.077419 922.295410
5.800000 -5.880000 -3.960000 23.381456 -20.223497 955.682373
5.800000 -5.880000 -3.920000 29.985020 -13.577271 1083.443604
5.800000 -5.880000 -3.880000 34.220032 -1.998369 1175.004150
5.800000 -5.880000 -3.840000 30.422981 12.140734 1072.955200
5.800000 -5.880000 -3.800000 17.736591 20.989983 755.166016
5.800000 -5.840000 -4.200000 -18.683788 1.222808 350.579224
5.800000 -5.840000 -4.160000 -17.880905 -17.407415 622.744873
5.800000 -5.840000 -4.120000 -1.057673 -30.157284 910.580444
5.800000 -5.840000 -4.080000 19.877499 -26.168919 1079.927246
5.800000 -5.840000 -4.040000 30.120173 -9.959654 1006.419495
5.800000 -5.840000 -4.000000 26.357536 4.644931 716.295105
5.800000 -5.840000 -3.960000 17.746788 9.213591 399.838745
5.800000 -5.840000 -3.920000 14.094929 7.526396 255.313660
5.800000 -5.840000 -3.880000 15.495318 8.389593 310.490173
5.800000 -5.840000 -3.840000 14.550172 14.222948 413.999756
5.800000 -5.840000 -3.800000 6.863560 18.832150 401.758301
5.800000 -5.800000 -4.200000 -23.248165 -4.517839 560.888062
5.800000 -5.800000 -4.160000 -11.587430 -25.000010 759.269043
5.800000 -5.800000 -4.120000 14.507285 -27.761913 981.185120
5.800000 -5.800000 -4.080000 33.151985 -8.131739 1165.179199
5.800000 -5.800000 -4.040000 29.252817 17.549629 1163.716797
5.800000 -5.800000 -4.000000 8.826591 28.638733 898.085693
5.800000 -5.800000 -3.960000 -8.621180 20.089434 477.910095
5.800000 -5.800000 -3.920000 -10.245722 4.970019 129.675903
5.800000 -5.800000 -3.880000 -0.767076 -1.126046 1.856385
5.800000 -5.800000 -3.840000 5.722778 4.292789 51.178230
5.800000 -5.800000 -3.800000 1.957994 10.922610 123.137154
5.840000 -6.200000 -4.200000 -24.925957 -13.093634 792.746582
5.840000 -6.200000 -4.160000 -8.487498 -8.389383 142.419373
5.840000 -6.200000 -4.120000 -11.200885 10.662806 239.155243
5.840000 -6.200000 -4.080000 -37.335884 15.884176 1646.275269
5.840000 -6.200000 -4.040000 -61.026283 -10.270207 3829.684326
5.840000 -6.200000 -4.000000 -52.211727 -51.421524 5370.237305
5.840000 -6.200000 -3.960000 -10.807887 -70.569336 5096.841797
5.840000 -6.200000 -3.920000 29.166273 -48.145309 3168.642090
5.840000 -6.200000 -3.880000 32.337486 -4.376499 1064.866699
5.840000 -6.200000 -3.840000 -1.880484 19.309151 376.379517
5.840000 -6.200000 -3.800000 -38.167534 1.411220 1458.752197
5.840000 -6.160000 -4.200000 -8.931157 -30.419851 1005.132935
5.840000 -6.160000 -4.160000 5.273070 -16.123610 287.776062
5.840000 -6.160000 -4.120000 -4.011210 0.412251 16.259756
5.840000 -6.160000 -4.080000 -25.545094 -4.828337 675.864624
5.840000 -6.160000 -4.040000 -31.221388 -32.270386 2016.152832
5.840000 -6.160000 -4.000000 -7.148376 -55.393990 3119.593506
5.840000 -6.160000 -3.960000 28.649120 -48.028030 3127.463867
5.840000 -6.160000 -3.920000 42.932476 -13.559348 2027.053467
5.840000 -6.160000 -3.880000 21.827463 16.298498 742.079224
5.840000 -6.160000 -3.840000 -13.689878 13.197773 361.593964
5.840000 -6.160000 -3.800000 -28.550737 -18.890831 1172.008057
5.840000 -6.120000 -4.200000 16.504524 -29.028236 1115.037842
5.840000 -6.120000 -4.160000 23.563793 -8.685538 630.690918
5.840000 -6.120000 -4.120000 11.815573 4.632059 161.063721
5.840000 -6.120000 -4.080000 -1.933670 -0.898310 4.546041
5.840000 -6.120000 -4.040000 0.170204 -15.372640 236.347031
5.840000 -6.120000 -4.000000 16.641838 -18.323078 612.685974
5.840000 -6.120000 -3.960000 27.739704 -2.356373 775.043701
5.840000 -6.120000 -3.920000 17.606928 17.167625 604.731262
5.840000 -6.120000 -3.880000 -6.799545 18.044203 371.827087
5.840000 -6.120000 -3.840000 -21.507805 -4.238475 480.550323
5.840000 -6.120000 -3.800000 -10.426031 -30.334641 1028.892578
5.840000 -6.080000 -4.200000 32.088913 -8.427038 1100.713379
5.840000 -6.080000 -4.160000 30.833237 13.109419 1122.545288
5.840000 -6.080000 -4.120000 17.292213 25.701447 959.584961
5.840000 -6.080000 -4.080000 3.477417 25.972122 686.643555
5.840000 -6.080000 -4.040000 -3.435513 21.498709 473.997223
5.840000 -6.080000 -4.000000 -7.198935 19.755135 442.089996
5.840000 -6.080000 -3.960000 -14.878315 18.535278 564.920776
5.840000 -6.080000 -3.920000 -25.222466 9.487595 726.187256
5.840000 -6.080000 -3.880000 -27.624449 -9.383135 851.153381
5.840000 -6.080000 -3.840000 -13.950607 -27.541174 953.135681
5.840000 -6.080000 -3.800000 10.140688 -30.714081 1046.188232
5.840000 -6.040000 -4.200000 26.852264 15.596471 964.294067
5.840000 -6.040000 -4.160000 18.535522 34.896187 1561.309448
5.840000 -6.040000 -4.120000 -0.031351 46.736862 2184.335205
5.840000 -6.040000 -4.080000 -22.601856 47.031826 2722.836670
5.840000 -6.040000 -4.040000 -42.950966 35.788250 3125.584473
5.840000 -6.040000 -4.000000 -55.972713 15.044052 3359.268066
5.840000 -6.040000 -3.960000 -56.897991 -11.216179 3363.184082
5.840000 -6.040000 -3.920000 -42.710754 -35.408260 3077.953369
5.840000 -6.040000 -3.880000 -16.338425 -47.506336 2523.796143
5.840000 -6.040000 -3.840000 11.469954 -41.254620 1833.503418
5.840000 -6.040000 -3.800000 27.495457 -20.610601 1180.796997
5.840000 -6.000000 -4.200000 7.683753 26.011673 735.647217
5.840000 -6.000000 -4.160000 -6.236285 41.078362 1726.322998
5.840000 -6.000000 -4.120000 -31.626930 46.906403 3200.473389
5.840000 -6.000000 -4.080000 -60.774532 35.295189 4939.293945
5.840000 -6.000000 -4.040000 -80.611694 5.144714 6524.713379
5.840000 -6.000000 -4.000000 -79.211151 -34.579048 7470.116699
5.840000 -6.000000 -3.960000 -53.452324 -67.613602 7428.750000
5.840000 -6.000000 -3.920000 -12.868837 -78.801620 6375.302246
5.840000 -6.000000 -3.880000 24.320362 -63.716713 4651.299805
5.840000 -6.000000 -3.840000 41.976532 -32.364658 2809.500488
5.840000 -6.000000 -3.800000 36.510857 -2.941139 1341.692871
5.840000 -5.960000 -4.200000 -8.895723 19.804087 471.335754
5.840000 -5.960000 -4.160000 -27.062389 28.495584 1544.371338
5.840000 -5.960000 -4.120000 -54.540604 21.859440 3452.512695
5.840000 -5.960000 -4.080000 -76.786980 -6.346979 5936.524414
5.840000 -5.960000 -4.040000 -77.210846 -48.688133 8332.048828
5.840000 -5.960000 -4.000000 -49.054596 -86.113838 9821.946289
5.840000 -5.960000 -3.960000 -1.948499 -99.122208 9829.008789
5.840000 -5.960000 -3.920000 42.551559 -80.725655 8327.266602
5.840000 -5.960000 -3.880000 64.314186 -41.701538 5875.333008
5.840000 -5.960000 -3.840000 57.586903 -3.514847 3328.605713
5.840000 -5.960000 -3.800000 33.719810 16.317585 1403.289185
5.840000 -5.920000 -4.200000 -13.284543 8.062140 241.477173
5.840000 -5.920000 -4.160000 -32.792301 7.816824 1136.437744
5.840000 -5.920000 -4.120000 -52.329166 -11.871114 2879.264893
5.840000 -5.920000 -4.080000 -54.726933 -47.050289 5208.766602
5.840000 -5.920000 -4.040000 -30.943285 -80.698044 7469.661133
5.840000 -5.920000 -4.000000 12.169518 -93.450584 8881.109375
5.840000 -5.920000 -3.960000 55.153915 -76.609367 8910.949219
5.840000 -5.920000 -3.920000 78.064026 -38.173683 7551.222168
5.840000 -5.920000 -3.880000 72.911316 2.375786 5321.704590
5.840000 -5.920000 -3.840000 47.840912 26.768194 3005.289062
5.840000 -5.920000 -3.800000 20.265263 29.093067 1257.087402
5.840000 -5.880000 -4.200000 -10.076988 2.220695 106.477173
5.840000 -5.880000 -4.160000 -25.528166 -7.784073 712.279053
5.840000 -5.880000 -4.120000 -29.014805 -32.458355 1895.403687
5.840000 -5.880000 -4.080000 -11.452122 -57.356216 3420.886719
5.840000 -5.880000 -4.040000 21.693228 -65.965340 4822.022461
5.840000 -5.880000 -4.000000 54.552177 -51.416065 5619.551758
5.840000 -5.880000 -3.960000 71.707855 -20.250881 5552.114746
5.840000 -5.880000 -3.920000 67.210907 12.882790 4683.272461
5.840000 -5.880000 -3.880000 46.468571 34.414024 3343.653320
5.840000 -5.880000 -3.840000 21.474022 38.766541 1963.978271
5.840000 -5.880000 -3.800000 3.370874 29.702513 893.602051
5.840000 -5.840000 -4.200000 -9.504499 2.279027 95.529472
5.840000 -5.840000 -4.160000 -14.979506 -14.042544 421.578644
5.840000 -5.840000 -4.120000 -2.836242 -31.625952 1008.245056
5.840000 -5.840000 -4.080000 21.160713 -35.299816 1693.852783
5.840000 -5.840000 -4.040000 42.052708 -21.132126 2214.996826
5.840000 -5.840000 -4.000000 48.655693 2.192818 2372.184814
5.840000 -5.840000 -3.960000 40.659981 22.381977 2154.187012
5.840000 -5.840000 -3.920000 25.393467 32.650944 1710.912354
5.840000 -5.840000 -3.880000 10.325054 33.385342 1221.187744
5.840000 -5.840000 -3.840000 -0.871008 28.068489 788.598755
5.840000 -5.840000 -3.800000 -7.241774 19.737396 442.008118
5.840000 -5.800000 -4.200000 -14.046933 -0.470272 197.537491
5.840000 -5.800000 -4.160000 -7.088492 -15.649242 295.145508
5.840000 -5.800000 -4.120000 11.732607 -18.217339 469.525513
5.840000 -5.800000 -4.080000 25.955399 -3.953492 689.312866
5.840000 -5.800000 -4.040000 24.091270 15.581509 823.172729
5.840000 -5.800000 -4.000000 9.829249 25.683929 756.278381
5.840000 -5.800000 -3.960000 -3.835012 22.372513 515.236633
5.840000 -5.800000 -3.920000 -8.352123 13.552626 253.431625
5.840000 -5.800000 -3.880000 -6.117954 8.437155 108.614944
5.840000 -5.800000 -3.840000 -4.536932 8.305777 89.569672
5.840000 -5.800000 -3.800000 -6.489570 7.906620 104.629150
5.880000 -6.200000 -4.200000 -14.487682 -15.001905 434.950104
5.880000 -6.200000 -4.160000 -12.648790 -3.626906 173.146347
5.880000 -6.200000 -4.120000 -28.677956 1.682178 825.254822
5.880000 -6.200000 -4.080000 -46.951675 -16.099594 2463.656738
5.880000 -6.200000 -4.040000 -41.922512 -49.655090 4223.125000
5.880000 -6.200000 -4.000000 -7.026163 -69.623642 4896.818848
5.880000 -6.200000 -3.960000 33.256557 -53.413353 3958.984863
5.880000 -6.200000 -3.920000 44.447609 -11.118411 2099.208984
5.880000 -6.200000 -3.880000 16.670090 20.811537 711.011963
5.880000 -6.200000 -3.840000 -23.490160 14.122204 751.224243
5.880000 -6.200000 -3.800000 -37.823708 -23.211136 1969.389648
5.880000 -6.160000 -4.200000 4.263938 -24.656921 626.144897
5.880000 -6.160000 -4.160000 3.789719 -10.775753 130.478821
5.880000 -6.160000 -4.120000 -9.009723 -8.677437 156.473022
5.880000 -6.160000 -4.080000 -15.176565 -23.866978 799.960754
5.880000 -6.160000 -4.040000 -0.374027 -40.255585 1620.651978
5.880000 -6.160000 -4.000000 26.657486 -35.827644 1994.241699
5.880000 -6.160000 -3.960000 40.078743 -7.706497 1665.695801
5.880000 -6.160000 -3.920000 23.454346 21.179203 998.664978
5.880000 -6.160000 -3.880000 -10.952461 23.355782 665.448975
5.880000 -6.160000 -3.840000 -31.938295 -4.951704 1044.574097
5.880000 -6.160000 -3.800000 -19.632366 -38.509872 1868.440063
5.880000 -6.120000 -4.200000 25.836359 -14.473415 876.997192
5.880000 -6.120000 -4.160000 22.873854 2.501759 529.471985
5.880000 -6.120000 -4.120000 11.953781 9.379576 230.869324
5.880000 -6.120000 -4.080000 5.256451 6.768037 73.436600
5.880000 -6.120000 -4.040000 6.647911 5.418249 73.552147
5.880000 -6.120000 -4.000000 7.251431 12.379890 205.844940
5.880000 -6.120000 -3.960000 -3.366876 20.897690 448.049286
5.880000 -6.120000 -3.920000 -22.611687 16.688770 789.803406
5.880000 -6.120000 -3.880000 -34.200493 -5.178242 1196.487915
5.880000 -6.120000 -3.840000 -23.974510 -31.532509 1569.076294
5.880000 -6.120000 -3.800000 4.092011 -41.682899 1754.208618
5.880000 -6.080000 -4.200000 31.938992 9.839380 1116.912598
5.880000 -6.080000 -4.160000 23.927105 30.724579 1516.506104
5.880000 -6.080000 -4.120000 5.165295 44.160629 1976.841431
5.880000 -6.080000 -4.080000 -17.998558 45.906601 2431.364014
5.880000 -6.080000 -4.040000 -39.240288 36.090939 2842.355957
5.880000 -6.080000 -4.000000 -53.864964 16.874771 3186.192139
5.880000 -6.080000 -3.960000 -57.713524 -8.452644 3402.298096
5.880000 -6.080000 -3.920000 -47.366154 -33.796467 3385.753662
5.880000 -6.080000 -3.880000 -23.683941 -49.932606 3054.194336
5.880000 -6.080000 -3.840000 5.018887 -49.062012 2432.270264
5.880000 -6.080000 -3.800000 25.795055 -31.674540 1668.661377
5.880000 -6.040000 -4.200000 17.725872 29.615768 1191.300293
5.880000 -6.040000 -4.160000 0.427910 52.081875 2712.704834
5.880000 -6.040000 -4.120000 -33.926655 62.301079 5032.442383
5.880000 -6.040000 -4.080000 -73.878784 47.783012 7741.291016
5.880000 -6.040000 -4.040000 -99.993919 7.959435 10062.136719
5.880000 -6.040000 -4.000000 -96.850128 -42.548935 11190.359375
5.880000 -6.040000 -3.960000 -63.755722 -81.466370 10701.561523
5.880000 -6.040000 -3.920000 -16.019180 -92.313263 8778.352539
5.880000 -6.040000 -3.880000 24.500523 -74.204185 6106.537109
5.880000 -6.040000 -3.840000 42.758125 -41.108868 3518.196289
5.880000 -6.040000 -3.800000 38.385632 -11.598661 1607.985596
5.880000 -6.000000 -4.200000 -3.884995 31.293541 994.378906
5.880000 -6.000000 -4.160000 -32.367081 48.805244 3429.579834
5.880000 -6.000000 -4.120000 -77.771667 41.416256 7763.738281
5.880000 -6.000000 -4.080000 -114.913795 -2.175848 13209.915039
5.880000 -6.000000 -4.040000 -115.509628 -68.008583 17967.642578
5.880000 -6.000000 -4.000000 -71.005730 -122.778107 20116.277344
5.880000 -6.000000 -3.960000 -1.600996 -136.865845 18734.822266
5.880000 -6.000000 -3.920000 57.204819 -105.758507 14457.252930
5.880000 -6.000000 -3.880000 79.697083 -52.039841 9059.769531
5.880000 -6.000000 -3.840000 66.026161 -7.065707 4409.378418
5.880000 -6.000000 -3.800000 37.319607 11.535219 1525.814331
5.880000 -5.960000 -4.200000 -15.768633 18.684608 597.764404
5.880000 -5.960000 -4.160000 -51.522709 23.842339 3223.046631
5.880000 -5.960000 -4.120000 -91.920425 -7.053474 8499.116211
5.880000 -5.960000 -4.080000 -102.464485 -70.370323 15450.953125
5.880000 -5.960000 -4.040000 -62.696728 -133.088531 21643.435547
5.880000 -5.960000 -4.000000 13.682335 -155.749908 24445.240234
5.880000 -5.960000 -3.960000 86.337387 -123.132271 22615.699219
5.880000 -5.960000 -3.920000 118.003090 -56.039757 17065.183594
5.880000 -5.960000 -3.880000 101.001488 5.759668 10234.474609
5.880000 -5.960000 -3.840000 58.730328 33.802826 4591.882324
5.880000 -5.960000 -3.800000 23.293512 28.525881 1356.313599
5.880000 -5.920000 -4.200000 -13.314579 7.004639 226.342987
5.880000 -5.920000 -4.160000 -47.463051 -3.191151 2262.924561
5.880000 -5.920000 -4.120000 -67.173973 -48.536369 6868.122070
5.880000 -5.920000 -4.080000 -43.832497 -106.109650 13180.545898
5.880000 -5.920000 -4.040000 21.293898 -135.876495 18915.851562
5.880000 -5.920000 -4.000000 94.159569 -112.750618 21578.726562
5.880000 -5.920000 -3.960000 133.125183 -47.553711 19983.669922
5.880000 -5.920000 -3.920000 120.467743 21.531036 14976.063477
5.880000 -5.920000 -3.880000 73.283539 58.832600 8831.751953
5.880000 -5.920000 -3.840000 26.259434 56.052650 3831.457520
5.880000 -5.920000 -3.800000 3.538208 32.351276 1059.124023
5.880000 -5.880000 -4.200000 -6.725587 5.985456 81.059196
5.880000 -5.880000 -4.160000 -30.406961 -15.578394 1167.269653
5.880000 -5.880000 -4.120000 -25.989630 -57.769211 4012.742676
5.880000 -5.880000 -4.080000 16.206230 -88.462151 8088.194336
5.880000 -5.880000 -4.040000 74.785027 -79.283318 11878.644531
5.880000 -5.880000 -4.000000 113.166702 -29.911346 13701.390625
5.880000 -5.880000 -3.960000 108.444160 31.326836 12741.505859
5.880000 -5.880000 -3.920000 67.919640 70.209251 9542.416016
5.880000 -5.880000 -3.880000 20.377846 72.011856 5600.963867
5.880000 -5.880000 -3.840000 -7.981483 48.433685 2409.525879
5.880000 -5.880000 -3.800000 -11.275166 23.182411 664.553528
5.880000 -5.840000 -4.200000 -7.559890 10.755926 172.841888
5.880000 -5.840000 -4.160000 -17.020782 -13.527037 472.687744
5.880000 -5.840000 -4.120000 1.496521 -39.329533 1549.051758
5.880000 -5.840000 -4.080000 38.706223 -41.587257 3227.671631
5.880000 -5.840000 -4.040000 68.409767 -13.300442 4856.798340
5.880000 -5.840000 -4.000000 69.586563 28.799976 5671.728027
5.880000 -5.840000 -3.960000 42.684830 58.881145 5288.983887
5.880000 -5.840000 -3.920000 6.821480 62.423805 3943.263916
5.880000 -5.840000 -3.880000 -17.196894 44.707546 2294.497803
5.880000 -5.840000 -3.840000 -21.792662 22.524078 982.254211
5.880000 -5.840000 -3.800000 -14.013854 9.269771 282.316772
5.880000 -5.800000 -4.200000 -15.372667 9.707453 330.553528
5.880000 -5.800000 -4.160000 -13.292391 -9.110967 259.697357
5.880000 -5.800000 -4.120000 5.056110 -17.266579 323.698975
5.880000 -5.800000 -4.080000 23.262173 -6.191746 579.466370
5.880000 -5.800000 -4.040000 25.942642 15.388245 909.818726
5.880000 -5.800000 -4.000000 11.933401 30.956465 1100.708740
5.880000 -5.800000 -3.960000 -6.955048 31.174166 1020.201294
5.880000 -5.800000 -3.920000 -18.060104 19.864330 720.758972
5.880000 -5.800000 -3.880000 -17.908262 7.608665 378.597656
5.880000 -5.800000 -3.840000 -11.855032 1.506069 142.810028
5.880000 -5.800000 -3.800000 -6.575029 1.222151 44.724663
5.920000 -6.200000 -4.200000 -8.084423 -13.820304 256.358704
5.920000 -6.200000 -4.160000 -17.081509 -9.688016 385.635559
5.920000 -6.200000 -4.120000 -29.275778 -20.490791 1276.943726
5.920000 -6.200000 -4.080000 -26.601711 -44.194633 2660.816650
5.920000 -6.200000 -4.040000 -0.711338 -60.785881 3695.429443
5.920000 -6.200000 -4.000000 33.411163 -50.125088 3628.830078
5.920000 -6.200000 -3.960000 47.699543 -14.587135 2488.030762
5.920000 -6.200000 -3.920000 27.951656 18.633984 1128.520508
5.920000 -6.200000 -3.880000 -9.684531 21.320162 548.339417
5.920000 -6.200000 -3.840000 -31.608494 -8.198215 1066.307617
5.920000 -6.200000 -3.800000 -18.147797 -42.096146 2101.427979
5.920000 -6.160000 -4.200000 11.126863 -16.396145 392.640656
5.920000 -6.160000 -4.160000 4.839537 -11.021530 144.895248
5.920000 -6.160000 -4.120000 -0.243017 -16.411589 269.399292
5.920000 -6.160000 -4.080000 6.514740 -24.802975 657.629395
5.920000 -6.160000 -4.040000 22.239998 -21.492245 956.534058
5.920000 -6.160000 -4.000000 30.342827 -1.817463 923.990295
5.920000 -6.160000 -3.960000 16.983578 20.097435 692.348816
5.920000 -6.160000 -3.920000 -11.983624 22.704300 659.092468
5.920000 -6.160000 -3.880000 -32.973145 -0.989380 1088.207153
5.920000 -6.160000 -3.840000 -26.045059 -33.693283 1813.582397
5.920000 -6.160000 -3.800000 5.016030 -48.124908 2341.167480
5.920000 -6.120000 -4.200000 26.710918 0.389779 713.625061
5.920000 -6.120000 -4.160000 19.853308 12.844408 559.132690
5.920000 -6.120000 -4.120000 9.330200 19.321079 460.356750
5.920000 -6.120000 -4.080000 -1.022236 21.432793 460.409546
5.920000 -6.120000 -4.040000 -11.900887 21.475311 602.820068
5.920000 -6.120000 -4.000000 -25.432789 17.225281 943.536987
5.920000 -6.120000 -3.960000 -38.553524 3.418602 1498.061157
5.920000 -6.120000 -3.920000 -41.763885 -20.307552 2156.618896
5.920000 -6.120000 -3.880000 -27.118855 -44.004623 2671.839111
5.920000 -6.120000 -3.840000 1.727712 -52.671196 2777.239990
5.920000 -6.120000 -3.800000 28.910254 -39.166908 2369.849609
5.920000 -6.080000 -4.200000 22.976116 25.098396 1157.831421
5.920000 -6.080000 -4.160000 6.588455 44.711700 2042.543823
5.920000 -6.080000 -4.120000 -23.379019 53.304958 3387.997070
5.920000 -6.080000 -4.080000 -57.528221 41.599079 5039.979492
5.920000 -6.080000 -4.040000 -80.902740 9.310707 6631.942871
5.920000 -6.080000 -4.000000 -81.421829 -32.809254 7705.961426
5.920000 -6.080000 -3.960000 -57.286793 -68.024780 7909.147461
5.920000 -6.080000 -3.920000 -18.396973 -82.560242 7154.642090
5.920000 -6.080000 -3.880000 19.037060 -72.792824 5661.205078
5.920000 -6.080000 -3.840000 41.193832 -46.468925 3856.292969
5.920000 -6.080000 -3.800000 43.457474 -17.567677 2197.175293
5.920000 -6.040000 -4.200000 1.702087 38.064476 1451.801392
5.920000 -6.040000 -4.160000 -30.888798 55.801811 4067.959961
5.920000 -6.040000 -4.120000 -79.573685 46.306206 8476.236328
5.920000 -6.040000 -4.080000 -117.837463 -0.549969 13885.970703
5.920000 -6.040000 -4.040000 -117.415092 -68.946167 18539.876953
5.920000 -6.040000 -4.000000 -71.238594 -124.493622 20573.599609
5.920000 -6.040000 -3.960000 -1.113708 -138.252121 19114.888672
5.920000 -6.040000 -3.920000 57.373253 -107.352722 14816.297852
5.920000 -6.040000 -3.880000 80.023972 -55.052441 9434.607422
5.920000 -6.040000 -3.840000 68.283203 -11.416339 4792.928711
5.920000 -6.040000 -3.800000 42.527779 7.910864 1871.193726
5.920000 -6.000000 -4.200000 -19.569540 30.811005 1332.284912
5.920000 -6.000000 -4.160000 -65.215988 34.039604 5411.819824
5.920000 -6.000000 -4.120000 -113.737022 -6.360338 12976.564453
5.920000 -6.000000 -4.080000 -124.191956 -84.071045 22491.582031
5.920000 -6.000000 -4.040000 -74.004631 -158.151840 30488.689453
5.920000 -6.000000 -4.000000 17.671989 -182.005920 33438.457031
5.920000 -6.000000 -3.960000 101.239655 -140.444672 29974.171875
5.920000 -6.000000 -3.920000 134.089081 -61.573917 21771.228516
5.920000 -6.000000 -3.880000 111.260193 6.836474 12425.567383
5.920000 -6.000000 -3.840000 63.488800 34.479500 5219.663574
5.920000 -6.000000 -3.800000 27.477198 26.495779 1457.022705
5.920000 -5.960000 -4.200000 -25.337982 13.743915 830.908569
5.920000 -5.960000 -4.160000 -71.687851 -4.013786 5155.258301
5.920000 -5.960000 -4.120000 -96.912445 -68.103485 14030.107422
5.920000 -5.960000 -4.080000 -62.810455 -147.079102 25577.414062
5.920000 -5.960000 -4.040000 27.698591 -185.954071 35346.128906
5.920000 -5.960000 -4.000000 126.169975 -151.336517 38821.605469
5.920000 -5.960000 -3.960000 175.016739 -60.991928 34350.875000
5.920000 -5.960000 -3.920000 152.691711 29.968529 24212.871094
5.920000 -5.960000 -3.880000 87.352295 73.533836 13037.648438
5.920000 -5.960000 -3.840000 28.748875 63.461407 4853.847656
5.920000 -5.960000 -3.800000 6.627459 31.224874 1018.916016
5.920000 -5.920000 -4.200000 -17.087687 4.278791 310.297089
5.920000 -5.920000 -4.160000 -51.109505 -29.923008 3507.567871
5.920000 -5.920000 -4.120000 -43.802155 -95.439789 11027.381836
5.920000 -5.920000 -4.080000 22.144886 -144.264267 21302.576172
5.920000 -5.920000 -4.040000 114.990234 -130.447739 30239.367188
5.920000 -5.920000 -4.000000 175.765503 -51.828697 33579.726562
5.920000 -5.920000 -3.960000 166.281891 45.337402 29705.148438
5.920000 -5.920000 -3.920000 99.475563 103.886284 20687.748047
5.920000 -5.920000 -3.880000 25.269093 100.788300 10796.808594
5.920000 -5.920000 -3.840000 -12.785797 59.620895 3718.127686
5.920000 -5.920000 -3.800000 -9.395266 22.925150 613.833496
5.920000 -5.880000 -4.200000 -9.810941 8.548225 169.326721
5.920000 -5.880000 -4.160000 -26.197819 -30.692181 1628.335693
5.920000 -5.880000 -4.120000 3.519863 -77.740692 6056.004883
5.920000 -5.880000 -4.080000 70.992188 -87.131393 12631.770508
5.920000 -5.880000 -4.040000 131.117828 -38.491737 18673.498047
5.920000 -5.880000 -4.000000 139.258270 42.604881 21208.041016
5.920000 -5.880000 -3.960000 89.293686 104.830109 18962.714844
5.920000 -5.880000 -3.920000 17.418045 113.568207 13201.125977
5.920000 -5.880000 -3.880000 -30.292950 76.532852 6774.939941
5.920000 -5.880000 -3.840000 -35.029011 31.213820 2201.334229
5.920000 -5.880000 -3.800000 -14.079633 9.535097 289.154114
5.920000 -5.840000 -4.200000 -14.660876 16.326679 481.501770
5.920000 -5.840000 -4.160000 -16.959375 -18.166712 617.649841
5.920000 -5.840000 -4.120000 16.633266 -42.243183 2061.152100
5.920000 -5.840000 -4.080000 62.687283 -27.672531 4695.464355
5.920000 -5.840000 -4.040000 83.376343 21.688057 7421.986328
5.920000 -5.840000 -4.000000 60.021622 72.154945 8808.930664
5.920000 -5.840000 -3.960000 8.945480 89.486786 8087.906250
5.920000 -5.840000 -3.920000 -34.250656 67.187881 5687.318848
5.920000 -5.840000 -3.880000 -45.515968 28.411695 2878.927734
5.920000 -5.840000 -3.840000 -29.367641 2.560535 869.014709
5.920000 -5.840000 -3.800000 -8.971224 0.641401 80.894249
5.920000 -5.800000 -4.200000 -27.067747 13.868762 925.005493
5.920000 -5.800000 -4.160000 -22.072786 -12.447639 642.151611
5.920000 -5.800000 -4.120000 3.484571 -22.309271 509.845795
5.920000 -5.800000 -4.080000 26.521454 -5.988037 739.244080
5.920000 -5.800000 -4.040000 26.768353 22.701790 1231.916016
5.920000 -5.800000 -4.000000 4.634094 40.129192 1631.826904
5.920000 -5.800000 -3.960000 -21.057755 34.299789 1619.904541
5.920000 -5.800000 -3.920000 -31.479336 13.549313 1174.532471
5.920000 -5.800000 -3.880000 -23.543217 -3.855839 569.150574
5.920000 -5.800000 -3.840000 -9.215615 -6.914724 132.740982
5.920000 -5.800000 -3.800000 -1.917625 0.737175 4.220715
5.960000 -6.200000 -4.200000 -3.605262 -13.045921 183.193970
5.960000 -6.200000 -4.160000 -11.009056 -19.809380 513.610840
5.960000 -6.200000 -4.120000 -9.167341 -34.640945 1284.035278
5.960000 -6.200000 -4.080000 7.939571 -45.589329 2141.423828
5.960000 -6.200000 -4.040000 32.081573 -38.636192 2521.982910
5.960000 -6.200000 -4.000000 44.271751 -12.748375 2122.509033
5.960000 -6.200000 -3.960000 31.571838 14.908173 1219.034668
5.960000 -6.200000 -3.920000 1.640435 22.050314 488.907379
5.960000 -6.200000 -3.880000 -21.238861 2.159599 455.753113
5.960000 -6.200000 -3.840000 -17.343328 -27.501213 1057.107788
5.960000 -6.200000 -3.800000 9.764254 -40.394669 1727.069946
5.960000 -6.160000 -4.200000 14.044689 -8.654258 272.149475
5.960000 -6.160000 -4.160000 11.283653 -8.789284 204.572342
5.960000 -6.160000 -4.120000 13.186508 -10.434237 282.757294
5.960000 -6.160000 -4.080000 18.749889 -6.745375 397.058441
5.960000 -6.160000 -4.040000 19.638292 4.843380 409.120880
5.960000 -6.160000 -4.000000 7.998104 16.629402 340.506683
5.960000 -6.160000 -3.960000 -13.072104 15.421715 408.709167
5.960000 -6.160000 -3.920000 -28.404667 -4.284523 825.182190
5.960000 -6.160000 -3.880000 -22.956085 -31.709496 1532.473999
5.960000 -6.160000 -3.840000 3.090881 -46.399967 2162.510498
5.960000 -6.160000 -3.800000 31.850328 -35.868347 2300.981689
5.960000 -6.120000 -4.200000 21.410749 12.440062 613.175293
5.960000 -6.120000 -4.160000 12.468719 23.185104 693.018066
5.960000 -6.120000 -4.120000 -3.034569 29.137804 858.220215
5.960000 -6.120000 -4.080000 -22.089275 26.171803 1172.899414
5.960000 -6.120000 -4.040000 -39.147480 12.169029 1680.610352
5.960000 -6.120000 -4.000000 -47.261578 -11.385349 2363.282959
5.960000 -6.120000 -3.960000 -40.577312 -38.167068 3103.243408
5.960000 -6.120000 -3.920000 -18.232666 -57.838539 3677.726807
5.960000 -6.120000 -3.880000 12.638077 -60.597008 3831.718262
5.960000 -6.120000 -3.840000 38.652332 -43.882900 3419.711914
5.960000 -6.120000 -3.800000 47.656738 -15.931568 2524.979736
5.960000 -6.080000 -4.200000 7.632523 33.638290 1189.789917
5.960000 -6.080000 -4.160000 -18.828449 46.915314 2555.557129
5.960000 -6.080000 -4.120000 -56.721725 39.154320 4750.415039
5.960000 -6.080000 -4.080000 -86.581947 3.514748 7508.787109
5.960000 -6.080000 -4.040000 -88.042961 -48.604202 10113.931641
5.960000 -6.080000 -4.000000 -55.364151 -92.814407 11679.704102
5.960000 -6.080000 -3.960000 -2.739120 -107.715523 11610.136719
5.960000 -6.080000 -3.920000 45.088753 -88.876869 9932.093750
5.960000 -6.080000 -3.880000 69.028320 -50.078838 7272.799316
5.960000 -6.080000 -3.840000 66.003395 -12.186403 4504.956543
5.960000 -6.080000 -3.800000 46.983109 10.479983 2317.242676
5.960000 -6.040000 -4.200000 -18.196007 36.611534 1671.499023
5.960000 -6.040000 -4.160000 -62.042385 36.146687 5155.840820
5.960000 -6.040000 -4.120000 -105.349594 -3.990883 11114.463867
5.960000 -6.040000 -4.080000 -112.418770 -75.779922 18380.576172
5.960000 -6.040000 -4.040000 -65.264236 -142.087570 24448.296875
5.960000 -6.040000 -4.000000 17.644859 -162.641327 26763.542969
5.960000 -6.040000 -3.960000 92.554207 -125.362465 24282.029297
5.960000 -6.040000 -3.920000 122.805649 -55.303490 18139.703125
5.960000 -6.040000 -3.880000 104.310905 6.301180 10920.469727
5.960000 -6.040000 -3.840000 63.104332 33.371563 5095.817871
5.960000 -6.040000 -3.800000 30.150434 29.561230 1782.915039
5.960000 -6.000000 -4.200000 -35.534187 19.852844 1656.813965
5.960000 -6.000000 -4.160000 -82.827698 -5.226954 6887.748535
5.960000 -6.000000 -4.120000 -104.068939 -75.226242 16489.332031
5.960000 -6.000000 -4.080000 -63.491001 -155.813110 28308.832031
5.960000 -6.000000 -4.040000 32.305172 -191.771317 37819.863281
5.960000 -6.000000 -4.000000 132.331726 -152.149277 40661.085938
5.960000 -6.000000 -3.960000 179.160248 -58.013165 35463.921875
5.960000 -6.000000 -3.920000 153.686905 33.728409 24757.269531
5.960000 -6.000000 -3.880000 86.681229 75.880707 13271.517578
5.960000 -6.000000 -3.840000 28.592405 64.541641 4983.149414
5.960000 -6.000000 -3.800000 7.656515 32.831097 1136.503052
5.960000 -5.960000 -4.200000 -32.955238 0.075939 1086.053467
5.960000 -5.960000 -4.160000 -66.226425 -45.872692 6490.243164
5.960000 -5.960000 -4.120000 -49.778034 -122.059181 17376.296875
5.960000 -5.960000 -4.080000 31.947472 -173.745636 31208.187500
5.960000 -5.960000 -4.040000 139.740463 -151.170532 42379.925781
5.960000 -5.960000 -4.000000 205.916016 -55.785454 45513.421875
5.960000 -5.960000 -3.960000 189.356689 56.537598 39052.457031
5.960000 -5.960000 -3.920000 108.795128 120.262863 26299.535156
5.960000 -5.960000 -3.880000 24.047596 111.978325 13117.432617
5.960000 -5.960000 -3.840000 -15.717682 62.619919 4168.299805
5.960000 -5.960000 -3.800000 -8.037986 22.694996 579.672058
5.960000 -5.920000 -4.200000 -19.186516 -5.207567 395.241119
5.960000 -5.920000 -4.160000 -30.454006 -57.410992 4223.468262
5.960000 -5.920000 -4.120000 15.646568 -113.777359 13190.102539
5.960000 -5.920000 -4.080000 105.949295 -118.518265 25271.832031
5.960000 -5.920000 -4.040000 181.778793 -48.438995 35389.867188
5.960000 -5.920000 -4.000000 186.597153 60.550541 38484.863281
5.960000 -5.920000 -3.960000 115.374023 140.236328 32977.394531
5.960000 -5.920000 -3.920000 18.787956 146.543289 21827.921875
5.960000 -5.920000 -3.880000 -41.274796 93.229507 10395.349609
5.960000 -5.920000 -3.840000 -42.235519 33.288521 2891.964844
5.960000 -5.920000 -3.800000 -11.439313 9.253017 216.476212
5.960000 -5.880000 -4.200000 -13.024019 4.467782 189.586151
5.960000 -5.880000 -4.160000 -7.254738 -40.827461 1719.512817
5.960000 -5.880000 -4.120000 46.129829 -68.222855 6782.319336
5.960000 -5.880000 -4.080000 113.665558 -38.781681 14423.877930
5.960000 -5.880000 -4.040000 140.259766 40.789398 21336.578125
5.960000 -5.880000 -4.000000 98.642700 119.079308 23910.263672
5.960000 -5.880000 -3.960000 15.126419 143.299164 20763.458984
5.960000 -5.880000 -3.920000 -53.348846 104.173416 13698.200195
5.960000 -5.880000 -3.880000 -68.496155 40.363358 6320.923828
5.960000 -5.880000 -3.840000 -39.432121 0.589504 1555.239746
5.960000 -5.880000 -3.800000 -6.533100 1.790798 45.888355
5.960000 -5.840000 -4.200000 -23.116875 13.044768 704.555908
5.960000 -5.840000 -4.160000 -10.141769 -21.986477 586.260620
5.960000 -5.840000 -4.120000 33.488033 -29.977074 2020.073242
5.960000 -5.840000 -4.080000 70.432350 6.279400 5000.146484
5.960000 -5.840000 -4.040000 64.447411 63.547359 8191.735352
5.960000 -5.840000 -4.000000 14.893120 97.770752 9780.924805
5.960000 -5.840000 -3.960000 -42.236973 83.824638 8810.531250
5.960000 -5.840000 -3.920000 -67.270592 36.800331 5879.596680
5.960000 -5.840000 -3.880000 -51.129250 -4.547962 2634.884277
5.960000 -5.840000 -3.840000 -18.775507 -13.935881 546.728394
5.960000 -5.840000 -3.800000 -1.764489 2.289482 8.355150
5.960000 -5.800000 -4.200000 -39.141609 5.810551 1565.828003
5.960000 -5.800000 -4.160000 -23.888853 -22.590866 1081.024536
5.960000 -5.800000 -4.120000 8.489338 -25.066940 700.420349
5.960000 -5.800000 -4.080000 28.265457 0.852093 799.662170
5.960000 -5.800000 -4.040000 17.862709 31.562857 1315.290283
5.960000 -5.800000 -4.000000 -12.356560 40.475338 1790.937500
5.960000 -5.800000 -3.960000 -35.688454 22.545525 1781.966431
5.960000 -5.800000 -3.920000 -35.010509 -3.470367 1237.779175
5.960000 -5.800000 -3.880000 -16.908611 -15.225758 517.724854
5.960000 -5.800000 -3.840000 -1.784960 -7.627264 61.361237
5.960000 -5.800000 -3.800000 -2.588693 5.736015 39.603199
6.000000 -6.200000 -4.200000 1.421097 -11.810276 141.502136
6.000000 -6.200000 -4.160000 3.989301 -21.258518 467.839111
6.000000 -6.200000 -4.120000 15.126783 -26.573738 934.983154
6.000000 -6.200000 -4.080000 29.241289 -20.946690 1293.816772
6.000000 -6.200000 -4.040000 35.855743 -4.396774 1304.965942
6.000000 -6.200000 -4.000000 27.479515 13.500679 937.392090
6.000000 -6.200000 -3.960000 7.571693 19.459206 435.991211
6.000000 -6.200000 -3.920000 -9.855183 7.779108 157.639145
6.000000 -6.200000 -3.880000 -10.937710 -12.975120 287.987244
6.000000 -6.200000 -3.840000 5.506371 -25.651842 688.337158
6.000000 -6.200000 -3.800000 25.666775 -18.994486 1019.573853
6.000000 -6.160000 -4.200000 14.512789 -1.244661 212.170212
6.000000 -6.160000 -4.160000 16.190907 1.171181 263.517120
6.000000 -6.160000 -4.120000 15.751755 6.674706 292.669495
6.000000 -6.160000 -4.080000 10.147964 13.002350 272.042297
6.000000 -6.160000 -4.040000 -1.317547 15.172321 231.935272
6.000000 -6.160000 -4.000000 -14.494617 8.002728 274.137573
6.000000 -6.160000 -3.960000 -20.892433 -9.032709 518.083618
6.000000 -6.160000 -3.920000 -13.117580 -28.539759 986.588745
6.000000 -6.160000 -3.880000 7.934361 -38.209072 1522.887329
6.000000 -6.160000 -3.840000 30.956144 -29.815071 1847.221436
6.000000 -6.160000 -3.800000 41.185692 -7.116241 1746.902100
6.000000 -6.120000 -4.200000 11.828135 19.998604 539.848938
6.000000 -6.120000 -4.160000 -1.408978 29.402037 866.464966
6.000000 -6.120000 -4.120000 -23.061882 28.034744 1317.797363
6.000000 -6.120000 -4.080000 -42.738148 10.453468 1935.824341
6.000000 -6.120000 -4.040000 -48.359924 -19.002903 2699.792725
6.000000 -6.120000 -4.000000 -34.201378 -48.068554 3480.320312
6.000000 -6.120000 -3.960000 -4.656593 -63.595070 4066.016846
6.000000 -6.120000 -3.920000 28.184856 -58.800686 4251.906738
6.000000 -6.120000 -3.880000 50.995228 -36.503014 3932.983154
6.000000 -6.120000 -3.840000 55.771828 -7.249534 3163.052490
6.000000 -6.120000 -3.800000 43.364891 16.253901 2144.703125
6.000000 -6.080000 -4.200000 -9.954070 32.452702 1152.261353
6.000000 -6.080000 -4.160000 -42.288681 32.075485 2817.169434
6.000000 -6.080000 -4.120000 -73.696487 2.949745 5439.873535
6.000000 -6.080000 -4.080000 -79.138306 -48.474983 8612.695312
6.000000 -6.080000 -4.040000 -46.492798 -96.297844 11434.854492
6.000000 -6.080000 -4.000000 11.834953 -112.945900 12896.842773
6.000000 -6.080000 -3.960000 66.649902 -89.349243 12425.496094
6.000000 -6.080000 -3.920000 92.552750 -40.634750 10217.194336
6.000000 -6.080000 -3.880000 84.134872 6.424374 7119.949219
6.000000 -6.080000 -3.840000 55.659866 32.452038 4151.155273
6.000000 -6.080000 -3.800000 27.163109 35.512421 1998.966553
6.000000 -6.040000 -4.200000 -34.843243 22.774509 1732.729736
6.000000 -6.040000 -4.160000 -73.838928 -2.097980 5456.588867
6.000000 -6.040000 -4.120000 -88.186081 -62.152451 11639.711914
6.000000 -6.040000 -4.080000 -51.486790 -127.543182 18918.152344
6.000000 -6.040000 -4.040000 28.216797 -154.608368 24699.935547
6.000000 -6.040000 -4.000000 109.395493 -120.687500 26532.847656
6.000000 -6.040000 -3.960000 147.273438 -43.707764 23599.833984
6.000000 -6.040000 -3.920000 127.420135 31.568523 17232.462891
6.000000 -6.040000 -3.880000 73.521240 68.250610 10063.518555
6.000000 -6.040000 -3.840000 24.401649 62.241501 4469.444824
6.000000 -6.040000 -3.800000 2.863170 37.636272 1424.686768
6.000000 -6.000000 -4.200000 -42.587696 -1.789558 1816.914429
6.000000 -6.000000 -4.160000 -68.001495 -50.214516 7145.701172
6.000000 -6.000000 -4.120000 -45.111027 -120.400040 16531.173828
6.000000 -6.000000 -4.080000 34.829041 -162.632339 27662.339844
6.000000 -6.000000 -4.040000 133.266571 -135.678726 36168.695312
6.000000 -6.000000 -4.000000 190.014771 -44.976089 38128.460938
6.000000 -6.000000 -3.960000 171.114914 57.630157 32601.548828
6.000000 -6.000000 -3.920000 95.754745 114.337021 22241.925781
6.000000 -6.000000 -3.880000 17.952934 105.893463 11535.733398
6.000000 -6.000000 -3.840000 -19.009029 60.725285 4048.903564
6.000000 -6.000000 -3.800000 -13.369008 23.763514 743.434937
6.000000 -5.960000 -4.200000 -29.179926 -19.843306 1245.224854
6.000000 -5.960000 -4.160000 -29.400501 -75.657471 6588.442383
6.000000 -5.960000 -4.120000 26.924385 -127.024734 16860.205078
6.000000 -5.960000 -4.080000 121.010208 -121.706718 29455.996094
6.000000 -5.960000 -4.040000 193.203552 -42.551327 39138.230469
6.000000 -5.960000 -4.000000 190.381073 70.277153 41183.832031
6.000000 -5.960000 -3.960000 112.222008 148.233566 34566.968750
6.000000 -5.960000 -3.920000 12.331722 149.947205 22636.236328
6.000000 -5.960000 -3.880000 -47.358845 92.479836 10795.379883
6.000000 -5.960000 -3.840000 -46.223045 30.735622 3081.248291
6.000000 -5.960000 -3.800000 -13.918586 7.126955 244.520523
6.000000 -5.920000 -4.200000 -11.190516 -17.359470 426.578827
6.000000 -5.920000 -4.160000 8.754669 -63.242050 4076.201172
6.000000 -5.920000 -4.120000 75.013008 -81.630539 12290.496094
6.000000 -5.920000 -4.080000 147.569580 -35.951363 23069.281250
6.000000 -5.920000 -4.040000 167.668625 60.177334 31734.078125
6.000000 -5.920000 -4.000000 110.463516 147.138519 33851.933594
6.000000 -5.920000 -3.960000 10.336718 167.961441 28317.892578
6.000000 -5.920000 -3.920000 -67.064468 116.653992 18105.796875
6.000000 -5.920000 -3.880000 -80.374557 40.579418 8106.758789
6.000000 -5.920000 -3.840000 -43.488998 -4.059286 1907.770752
6.000000 -5.920000 -3.800000 -5.142326 0.130824 26.460634
6.000000 -5.880000 -4.200000 -8.763235 -2.034200 80.932259
6.000000 -5.880000 -4.160000 17.446901 -32.875618 1385.200684
6.000000 -5.880000 -4.120000 71.460075 -26.902336 5830.278320
6.000000 -5.880000 -4.080000 107.833618 30.115639 12535.041016
6.000000 -5.880000 -4.040000 86.397415 104.906357 18469.857422
6.000000 -5.880000 -4.000000 12.435940 142.355316 20419.687500
6.000000 -5.880000 -3.960000 -64.570770 114.618179 17306.710938
6.000000 -5.880000 -3.920000 -93.955856 46.038330 10947.230469
6.000000 -5.880000 -3.880000 -67.346893 -10.288769 4641.462891
6.000000 -5.880000 -3.840000 -21.343506 -20.568323 878.601196
6.000000 -5.880000 -3.800000 0.546325 3.657077 13.672682
6.000000 -5.840000 -4.200000 -24.649548 4.763090 630.287231
6.000000 -5.840000 -4.160000 -0.579347 -17.756191 315.617950
6.000000 -5.840000 -4.120000 36.688461 -5.639099 1377.842651
6.000000 -5.840000 -4.080000 48.892487 38.794426 3895.482910
6.000000 -5.840000 -4.040000 17.147755 79.775238 6658.133789
6.000000 -5.840000 -4.000000 -37.696655 81.081909 7995.313477
6.000000 -5.840000 -3.960000 -73.598930 40.595856 7064.826172
6.000000 -5.840000 -3.920000 -66.435120 -8.248119 4481.656250
6.000000 -5.840000 -3.880000 -30.660086 -28.928543 1776.901367
6.000000 -5.840000 -3.840000 -2.205759 -14.956408 228.559494
6.000000 -5.840000 -3.800000 -2.921800 8.472725 80.323982
6.000000 -5.800000 -4.200000 -41.170090 -9.656726 1788.228638
6.000000 -5.800000 -4.160000 -16.574007 -30.398836 1198.786987
6.000000 -5.800000 -4.120000 13.712543 -21.097275 633.128845
6.000000 -5.800000 -4.080000 21.692261 8.621868 544.890747
6.000000 -5.800000 -4.040000 1.419167 30.321301 921.395325
6.000000 -5.800000 -4.000000 -26.403883 25.080666 1326.204834
6.000000 -5.800000 -3.960000 -36.358101 0.852310 1322.637939
6.000000 -5.800000 -3.920000 -23.154758 -18.002594 860.236206
6.000000 -5.800000 -3.880000 -4.223557 -16.340494 284.850189
6.000000 -5.800000 -3.840000 0.590210 -1.855427 3.790956
6.000000 -5.800000 -3.800000 -10.705081 5.874137 149.104248
6.040000 -6.200000 -4.200000 6.085718 -7.910968 99.619370
6.040000 -6.200000 -4.160000 15.538283 -9.647983 334.521820
6.040000 -6.200000 -4.120000 23.098812 -3.244376 544.081116
6.040000 -6.200000 -4.080000 23.567581 7.147758 606.521362
6.040000 -6.200000 -4.040000 16.347631 15.192657 498.061890
6.040000 -6.200000 -4.000000 5.423538 16.088179 288.244263
6.040000 -6.200000 -3.960000 -2.912922 9.203543 93.190315
6.040000 -6.200000 -3.920000 -3.578209 -1.231329 14.319752
6.040000 -6.200000 -3.880000 3.845495 -8.171509 81.561394
6.040000 -6.200000 -3.840000 13.979816 -6.245535 234.441986
6.040000 -6.200000 -3.800000 18.666519 3.836876 363.160553
6.040000 -6.160000 -4.200000 11.841600 5.646517 172.106644
6.040000 -6.160000 -4.160000 11.434948 13.884929 323.549286
6.040000 -6.160000 -4.120000 2.336012 19.544878 387.459198
6.040000 -6.160000 -4.080000 -10.251941 16.125015 365.118408
6.040000 -6.160000 -4.040000 -18.130419 3.560055 341.386078
6.040000 -6.160000 -4.000000 -15.858406 -12.307076 402.953186
6.040000 -6.160000 -3.960000 -3.607700 -23.746244 576.899597
6.040000 -6.160000 -3.920000 13.529648 -25.180248 817.096313
6.040000 -6.160000 -3.880000 28.061106 -15.495390 1027.532715
6.040000 -6.160000 -3.840000 33.202084 1.311235 1104.097656
6.040000 -6.160000 -3.800000 26.211008 17.339390 987.671387
6.040000 -6.120000 -4.200000 0.299548 21.284807 453.132751
6.040000 -6.120000 -4.160000 -17.894047 25.483168 969.588745
6.040000 -6.120000 -4.120000 -38.437035 11.502827 1609.720703
6.040000 -6.120000 -4.080000 -44.750771 -17.811100 2319.866699
6.040000 -6.120000 -4.040000 -28.316315 -46.994133 3010.262207
6.040000 -6.120000 -4.000000 4.533073 -59.297028 3536.686279
6.040000 -6.120000 -3.960000 37.534088 -48.343018 3745.854980
6.040000 -6.120000 -3.920000 55.808475 -21.046963 3557.560547
6.040000 -6.120000 -3.880000 54.224800 8.671171 3015.518066
6.040000 -6.120000 -3.840000 37.826805 28.869179 2264.296631
6.040000 -6.120000 -3.800000 16.561743 34.758362 1482.435059
6.040000 -6.080000 -4.200000 -23.288912 21.168804 990.491699
6.040000 -6.080000 -4.160000 -50.997456 4.995083 2625.691406
6.040000 -6.080000 -4.120000 -61.239670 -35.894913 5038.741699
6.040000 -6.080000 -4.080000 -36.487583 -80.016998 7734.063965
6.040000 -6.080000 -4.040000 16.842804 -98.100441 9907.375977
6.040000 -6.080000 -4.000000 71.070557 -75.836937 10802.265625
6.040000 -6.080000 -3.960000 97.371674 -24.953957 10103.943359
6.040000 -6.080000 -3.920000 86.072716 26.354435 8103.068359
6.040000 -6.080000 -3.880000 50.733528 54.373817 5530.402832
6.040000 -6.080000 -3.840000 14.790175 54.322784 3169.714111
6.040000 -6.080000 -3.800000 -5.978550 38.354290 1506.794556
6.040000 -6.040000 -4.200000 -39.318947 0.580350 1546.316406
6.040000 -6.040000 -4.160000 -56.781834 -38.958626 4741.951172
6.040000 -6.040000 -4.120000 -35.811478 -91.883209 9724.986328
6.040000 -6.040000 -4.080000 26.485100 -120.618965 15250.395508
6.040000 -6.040000 -4.040000 99.487640 -97.172920 19340.367188
6.040000 -6.040000 -4.000000 139.799500 -28.074734 20332.091797
6.040000 -6.040000 -3.960000 124.482224 48.454403 17843.652344
6.040000 -6.040000 -3.920000 67.944458 91.442535 12978.186523
6.040000 -6.040000 -3.880000 8.299314 86.960220 7630.958496
6.040000 -6.040000 -3.840000 -23.356453 53.829926 3443.184814
6.040000 -6.040000 -3.800000 -23.604010 23.073978 1089.557861
6.040000 -6.000000 -4.200000 -32.869537 -25.033051 1707.060059
6.040000 -6.000000 -4.160000 -25.412663 -73.352913 6026.453125
6.040000 -6.000000 -4.120000 27.690411 -111.132751 13117.247070
6.040000 -6.000000 -4.080000 106.073723 -99.098160 21072.080078
6.040000 -6.000000 -4.040000 161.083313 -28.729717 26773.230469
6.040000 -6.000000 -4.000000 153.295685 64.665741 27681.224609
6.040000 -6.000000 -3.960000 85.763939 126.736633 23417.626953
6.040000 -6.000000 -3.920000 2.306650 126.352478 15970.268555
6.040000 -6.000000 -3.880000 -48.163162 77.932961 8393.236328
6.040000 -6.000000 -3.840000 -49.098408 24.981201 3034.713867
6.040000 -6.000000 -3.800000 -23.075974 1.725300 535.477234
6.040000 -5.960000 -4.200000 -9.916924 -34.042671 1257.248779
6.040000 -5.960000 -4.160000 19.624428 -71.222816 5457.807617
6.040000 -5.960000 -4.120000 84.010353 -76.507576 12911.148438
6.040000 -5.960000 -4.080000 144.766907 -24.811876 21573.085938
6.040000 -5.960000 -4.040000 153.392914 65.627792 27836.394531
6.040000 -5.960000 -4.000000 93.849113 141.068405 28707.951172
6.040000 -5.960000 -3.960000 0.177507 154.237640 23789.281250
6.040000 -5.960000 -3.920000 -69.531639 103.295853 15504.681641
6.040000 -5.960000 -3.880000 -80.245956 31.674994 7442.718750
6.040000 -5.960000 -3.840000 -45.378109 -10.697651 2173.612549
6.040000 -5.960000 -3.800000 -8.718138 -8.289468 144.721207
6.040000 -5.920000 -4.200000 7.212329 -20.560673 474.758972
6.040000 -5.920000 -4.160000 42.647743 -38.167816 3275.612305
6.040000 -5.920000 -4.120000 93.642159 -16.597982 9044.346680
6.040000 -5.920000 -4.080000 117.750916 48.874535 16253.998047
6.040000 -5.920000 -4.040000 83.193604 121.740501 21741.925781
6.040000 -5.920000 -4.000000 1.945908 150.684952 22709.742188
6.040000 -5.920000 -3.960000 -75.339622 114.014061 18675.265625
6.040000 -5.920000 -3.920000 -100.925201 39.841446 11773.237305
6.040000 -5.920000 -3.880000 -69.804016 -18.368423 5209.999512
6.040000 -5.920000 -3.840000 -20.450258 -28.115187 1208.676758
6.040000 -5.920000 -3.800000 2.984075 -2.388057 14.607519
6.040000 -5.880000 -4.200000 1.970753 -1.423933 5.911451
6.040000 -5.880000 -4.160000 29.998940 -7.126312 950.720703
6.040000 -5.880000 -4.120000 59.118248 21.053644 3938.223145
6.040000 -5.880000 -4.080000 54.716103 72.919106 8311.047852
6.040000 -5.880000 -4.040000 5.687443 109.557098 12035.104492
6.040000 -5.880000 -4.000000 -59.564957 97.537903 13061.626953
6.040000 -5.880000 -3.960000 -95.405106 41.598495 10832.568359
6.040000 -5.880000 -3.920000 -79.674004 -17.629936 6658.761230
6.040000 -5.880000 -3.880000 -33.045486 -40.009495 2692.763672
6.040000 -5.880000 -3.840000 1.914175 -21.086042 448.285248
6.040000 -5.880000 -3.800000 0.794662 7.789670 61.310440
6.040000 -5.840000 -4.200000 -18.918152 0.155642 357.920715
6.040000 -5.840000 -4.160000 2.574389 -5.777073 40.002048
6.040000 -5.840000 -4.120000 20.084602 14.670872 618.625732
6.040000 -5.840000 -4.080000 9.574413 45.611488 2172.077393
6.040000 -5.840000 -4.040000 -26.891037 56.322357 3895.335938
6.040000 -5.840000 -4.000000 -60.490097 32.172199 4694.102051
6.040000 -5.840000 -3.960000 -63.017971 -9.448605 4060.540771
6.040000 -5.840000 -3.920000 -34.502953 -35.446404 2446.901367
6.040000 -5.840000 -3.880000 -2.527531 -29.089321 852.577026
6.040000 -5.840000 -3.840000 5.727926 -4.981217 57.621666
6.040000 -5.840000 -3.800000 -10.388250 7.715837 167.449890
6.040000 -5.800000 -4.200000 -31.246616 -21.522575 1439.572266
6.040000 -5.800000 -4.160000 -6.359905 -29.630177 918.395752
6.040000 -5.800000 -4.120000 12.739410 -14.131276 361.985535
6.040000 -5.800000 -4.080000 9.443386 8.077316 154.420593
6.040000 -5.800000 -4.040000 -9.835068 15.054829 323.376434
6.040000 -5.800000 -4.000000 -23.833504 2.185795 572.813599
6.040000 -5.800000 -3.960000 -19.420902 -14.792007 595.974915
6.040000 -5.800000 -3.920000 -4.321690 -18.266665 352.348022
6.040000 -5.800000 -3.880000 3.311188 -7.714455 70.476776
6.040000 -5.800000 -3.840000 -4.207791 1.206810 19.161898
6.040000 -5.800000 -3.800000 -15.999607 -4.702850 278.104218
6.080000 -6.200000 -4.200000 7.455214 -1.919431 59.264423
6.080000 -6.200000 -4.160000 13.743708 6.041562 225.389969
6.080000 -6.200000 -4.120000 10.429945 14.685209 324.439117
6.080000 -6.200000 -4.080000 2.185284 16.532726 278.106476
6.080000 -6.200000 -4.040000 -3.309721 11.761829 149.294891
6.080000 -6.200000 -4.000000 -2.915430 6.108645 45.815281
6.080000 -6.200000 -3.960000 0.484337 4.171227 17.633722
6.080000 -6.200000 -3.920000 2.579063 5.664967 38.743416
6.080000 -6.200000 -3.880000 2.082105 7.628628 62.531120
6.080000 -6.200000 -3.840000 0.447312 8.484146 72.180824
6.080000 -6.200000 -3.800000 -1.391667 8.843529 80.144737
6.080000 -6.160000 -4.200000 5.900480 9.749570 129.869781
6.080000 -6.160000 -4.160000 -1.962903 18.930439 362.214508
6.080000 -6.160000 -4.120000 -15.819903 16.043671 507.668701
6.080000 -6.160000 -4.080000 -22.544867 1.347343 510.086334
6.080000 -6.160000 -4.040000 -15.402184 -14.379869 444.007904
6.080000 -6.160000 -4.000000 0.848366 -20.122278 405.625793
6.080000 -6.160000 -3.960000 15.560604 -13.444653 422.891083
6.080000 -6.160000 -3.920000 21.418770 -0.321609 458.867126
6.080000 -6.160000 -3.880000 18.337646 11.627211 471.461304
6.080000 -6.160000 -3.840000 10.352937 18.525875 450.391327
6.080000 -6.160000 -3.800000 1.036307 20.091640 404.747955
6.080000 -6.120000 -4.200000 -9.075236 15.766158 330.931671
6.080000 -6.120000 -4.160000 -27.792480 11.171995 897.235474
6.080000 -6.120000 -4.120000 -37.321022 -11.644409 1528.450928
6.080000 -6.120000 -4.080000 -24.705751 -38.133057 2064.504150
6.080000 -6.120000 -4.040000 5.724724 -48.868336 2420.886719
6.080000 -6.120000 -4.000000 36.073006 -35.547714 2564.901855
6.080000 -6.120000 -3.960000 49.442886 -6.494667 2486.779785
6.080000 -6.120000 -3.920000 41.712791 21.582443 2205.758789
6.080000 -6.120000 -3.880000 21.421852 36.401108 1783.936401
6.080000 -6.120000 -3.840000 0.753649 36.291595 1317.647949
6.080000 -6.120000 -3.800000 -12.799292 27.037857 894.867554
6.080000 -6.080000 -4.200000 -26.179279 4.656881 707.041199
6.080000 -6.080000 -4.160000 -39.768021 -19.944311 1979.270996
6.080000 -6.080000 -4.120000 -27.194384 -54.117294 3668.216064
6.080000 -6.080000 -4.080000 12.397560 -71.905907 5324.159180
6.080000 -6.080000 -4.040000 57.755810 -55.928066 6463.682129
6.080000 -6.080000 -4.000000 81.400177 -11.987053 6769.678223
6.080000 -6.080000 -3.960000 70.378174 35.405994 6206.671875
6.080000 -6.080000 -3.920000 34.414913 61.805515 5004.307617
6.080000 -6.080000 -3.880000 -3.845306 59.345978 3536.731445
6.080000 -6.080000 -3.840000 -26.275824 38.459900 2169.582764
6.080000 -6.080000 -3.800000 -29.616976 16.273445 1141.990234
6.080000 -6.040000 -4.200000 -27.916546 -18.929502 1137.659668
6.080000 -6.040000 -4.160000 -20.988880 -53.252396 3276.350586
6.080000 -6.040000 -4.120000 17.681889 -77.315170 6290.285156
6.080000 -6.040000 -4.080000 70.961784 -65.556030 9333.167969
6.080000 -6.040000 -4.040000 105.510895 -15.401192 11369.745117
6.080000 -6.040000 -4.000000 97.049683 47.762920 11699.937500
6.080000 -6.040000 -3.960000 49.519302 88.566063 10296.108398
6.080000 -6.040000 -3.920000 -8.201260 87.672775 7753.776367
6.080000 -6.040000 -3.880000 -44.716618 54.178680 4934.905273
6.080000 -6.040000 -3.840000 -48.296467 15.288394 2566.283691
6.080000 -6.040000 -3.800000 -31.214466 -6.195566 1012.727905
6.080000 -6.000000 -4.200000 -8.914854 -35.774086 1359.259888
6.080000 -6.000000 -4.160000 19.115519 -60.734154 4054.040527
6.080000 -6.000000 -4.120000 68.378494 -57.690788 8003.845703
6.080000 -6.000000 -4.080000 108.970436 -13.853451 12066.473633
6.080000 -6.000000 -4.040000 108.950867 53.521355 14734.826172
6.080000 -6.000000 -4.000000 60.945923 106.080711 14967.522461
6.080000 -6.000000 -3.960000 -9.281614 112.601746 12765.301758
6.080000 -6.000000 -3.920000 -61.305889 73.069717 9097.595703
6.080000 -6.000000 -3.880000 -70.559967 17.694929 5291.819336
6.080000 -6.000000 -3.840000 -44.998978 -18.171141 2355.098389
6.080000 -6.000000 -3.800000 -14.471188 -21.150204 656.746399
6.080000 -5.960000 -4.200000 15.986002 -30.240004 1170.010132
6.080000 -5.960000 -4.160000 50.162777 -34.567230 3711.197754
6.080000 -5.960000 -4.120000 87.158554 -6.538855 7639.370605
6.080000 -5.960000 -4.080000 96.509598 49.941101 11808.215820
6.080000 -5.960000 -4.040000 60.243759 104.550476 14560.112305
6.080000 -5.960000 -4.000000 -7.909819 120.997452 14702.949219
6.080000 -5.960000 -3.960000 -68.946098 86.525177 12240.170898
6.080000 -5.960000 -3.920000 -87.952042 24.051485 8314.035156
6.080000 -5.960000 -3.880000 -61.564552 -25.581526 4444.608398
6.080000 -5.960000 -3.840000 -18.860142 -36.501087 1688.034302
6.080000 -5.960000 -3.800000 5.069326 -16.744841 306.087738
6.080000 -5.920000 -4.200000 24.463478 -7.354685 652.553101
6.080000 -5.920000 -4.160000 48.329670 3.225809 2346.162842
6.080000 -5.920000 -4.120000 61.952145 37.662102 5256.501953
6.080000 -5.920000 -4.080000 43.942825 81.368286 8551.769531
6.080000 -5.920000 -4.040000 -6.773857 103.833069 10827.191406
6.080000 -5.920000 -4.000000 -63.552147 83.372200 10989.798828
6.080000 -5.920000 -3.960000 -90.431297 28.577892 8994.515625
6.080000 -5.920000 -3.920000 -71.999878 -25.558853 5837.237305
6.080000 -5.920000 -3.880000 -27.129318 -45.935482 2846.068359
6.080000 -5.920000 -3.840000 7.555272 -28.843699 889.041077
6.080000 -5.920000 -3.800000 9.813760 -1.002066 97.314018
6.080000 -5.880000 -4.200000 9.178978 10.046238 185.180542
6.080000 -5.880000 -4.160000 19.611097 20.368629 799.476196
6.080000 -5.880000 -4.120000 18.040636 43.755135 2239.976318
6.080000 -5.880000 -4.080000 -6.774269 63.990631 4140.691406
6.080000 -5.880000 -4.040000 -45.736027 59.369541 5616.526367
6.080000 -5.880000 -4.000000 -72.555923 24.612043 5870.114258
6.080000 -5.880000 -3.960000 -66.146919 -20.061489 4777.878418
6.080000 -5.880000 -3.920000 -31.253912 -44.448757 2952.499023
6.080000 -5.880000 -3.880000 4.228941 -35.294067 1263.555054
6.080000 -5.880000 -3.840000 14.354334 -8.329947 275.434906
6.080000 -5.880000 -3.800000 -1.306090 7.164271 53.032654
6.080000 -5.840000 -4.200000 -13.138597 3.354880 183.877960
6.080000 -5.840000 -4.160000 -5.393028 5.187555 55.995483
6.080000 -5.840000 -4.120000 -5.823792 16.124264 293.908417
6.080000 -5.840000 -4.080000 -20.268496 22.508064 917.424866
6.080000 -5.840000 -4.040000 -37.987164 11.699150 1579.894653
6.080000 -5.840000 -4.000000 -41.085068 -12.557659 1845.677612
6.080000 -5.840000 -3.960000 -23.466511 -31.556660 1546.499878
6.080000 -5.840000 -3.920000 1.197052 -29.883297 894.444336
6.080000 -5.840000 -3.880000 12.234955 -11.668600 285.850342
6.080000 -5.840000 -3.840000 2.956775 2.961285 17.511723
6.080000 -5.840000 -3.800000 -12.310133 -1.621043 154.167145
6.080000 -5.800000 -4.200000 -16.927660 -22.092878 774.640991
6.080000 -5.800000 -4.160000 -1.282768 -22.077370 489.055756
6.080000 -5.800000 -4.120000 6.088308 -11.413738 167.340912
6.080000 -5.800000 -4.080000 1.702770 -2.872440 11.150340
6.080000 -5.800000 -4.040000 -5.169314 -4.447113 46.498627
6.080000 -5.800000 -4.000000 -4.320763 -11.163082 143.283386
6.080000 -5.800000 -3.960000 3.318035 -12.272522 161.624146
6.080000 -5.800000 -3.920000 7.370422 -5.004498 79.368118
6.080000 -5.800000 -3.880000 1.323655 1.431595 3.801527
6.080000 -5.800000 -3.840000 -8.231561 -3.329635 78.845055
6.080000 -5.800000 -3.800000 -7.858616 -17.505741 368.208801
6.120000 -6.200000 -4.200000 4.641035 2.706894 28.866486
6.120000 -6.200000 -4.160000 1.576919 12.815647 166.727493
6.120000 -6.200000 -4.120000 -7.871736 13.689972 249.379547
6.120000 -6.200000 -4.080000 -12.018036 5.804771 178.128555
6.120000 -6.200000 -4.040000 -6.545877 -0.673351 43.301910
6.120000 -6.200000 -4.000000 1.394918 2.138536 6.519135
6.120000 -6.200000 -3.960000 1.828120 11.199303 128.766403
6.120000 -6.200000 -3.920000 -6.886811 16.355621 314.934509
6.120000 -6.200000 -3.880000 -16.627930 11.661854 412.486877
6.120000 -6.200000 -3.840000 -18.724319 1.395971 352.548859
6.120000 -6.200000 -3.800000 -13.022482 -5.371207 198.434906
6.120000 -6.160000 -4.200000 -0.647326 8.963469 80.762794
6.120000 -6.160000 -4.160000 -13.760440 11.882068 330.533234
6.120000 -6.160000 -4.120000 -22.567188 0.003424 509.277985
6.120000 -6.160000 -4.080000 -16.160204 -15.168773 491.243835
6.120000 -6.160000 -4.040000 0.941147 -18.826311 355.315735
6.120000 -6.160000 -4.000000 14.198206 -7.483723 257.595154
6.120000 -6.160000 -3.960000 13.680973 8.823009 265.014526
6.120000 -6.160000 -3.920000 2.448429 17.583443 315.172272
6.120000 -6.160000 -3.880000 -8.775463 15.388062 313.801178
6.120000 -6.160000 -3.840000 -13.101767 8.512980 244.127106
6.120000 -6.160000 -3.800000 -12.435850 3.955003 170.292419
6.120000 -6.120000 -4.200000 -12.140560 6.426027 188.687027
6.120000 -6.120000 -4.160000 -24.790012 -5.116840 640.726807
6.120000 -6.120000 -4.120000 -20.404007 -25.710800 1077.368652
6.120000 -6.120000 -4.080000 1.970575 -36.159199 1311.370850
6.120000 -6.120000 -4.040000 26.670582 -25.140301 1343.354736
6.120000 -6.120000 -4.000000 35.806583 0.958294 1283.029785
6.120000 -6.120000 -3.960000 24.384018 24.793398 1209.292969
6.120000 -6.120000 -3.920000 2.369011 33.307579 1115.006958
6.120000 -6.120000 -3.880000 -16.048038 26.541756 962.004333
6.120000 -6.120000 -3.840000 -23.895517 13.651811 757.367676
6.120000 -6.120000 -3.800000 -23.459133 2.916205 558.835205
6.120000 -6.080000 -4.200000 -17.805738 -8.252942 385.155365
6.120000 -6.080000 -4.160000 -16.906061 -28.975632 1125.402100
6.120000 -6.080000 -4.120000 5.108279 -43.956367 1958.256714
6.120000 -6.080000 -4.080000 35.917740 -36.214657 2601.585449
6.120000 -6.080000 -4.040000 53.773796 -5.733923 2924.499023
6.120000 -6.080000 -4.000000 45.262657 30.115242 2955.635986
6.120000 -6.080000 -3.960000 15.346648 50.479675 2783.717041
6.120000 -6.080000 -3.920000 -17.897846 46.349022 2468.564941
6.120000 -6.080000 -3.880000 -37.607918 24.859608 2032.355591
6.120000 -6.080000 -3.840000 -38.839668 1.175249 1509.901001
6.120000 -6.080000 -3.800000 -28.424557 -13.256234 983.683167
6.120000 -6.040000 -4.200000 -7.281232 -24.674534 661.848999
6.120000 -6.040000 -4.160000 10.347886 -39.728302 1685.416748
6.120000 -6.040000 -4.120000 40.136978 -35.869907 2897.627441
6.120000 -6.040000 -4.080000 62.242748 -7.408765 3929.049561
6.120000 -6.040000 -4.040000 58.581886 32.931705 4516.334473
6.120000 -6.040000 -4.000000 27.099350 62.165199 4598.886719
6.120000 -6.040000 -3.960000 -16.001581 63.381031 4273.205566
6.120000 -6.040000 -3.920000 -47.664818 37.456238 3674.904541
6.120000 -6.040000 -3.880000 -53.834480 1.426932 2900.187500
6.120000 -6.040000 -3.840000 -37.785980 -24.397282 2023.007568
6.120000 -6.040000 -3.800000 -15.475890 -30.335583 1159.750732
6.120000 -6.000000 -4.200000 15.189981 -26.525217 934.322693
6.120000 -6.000000 -4.160000 38.681114 -24.409975 2092.075439
6.120000 -6.000000 -4.120000 58.808647 -1.743795 3461.497803
6.120000 -6.000000 -4.080000 58.711891 34.663841 4648.667969
6.120000 -6.000000 -4.040000 31.538671 65.776505 5321.236328
6.120000 -6.000000 -4.000000 -12.464509 72.142181 5359.857910
6.120000 -6.000000 -3.960000 -50.795998 47.807198 4865.761719
6.120000 -6.000000 -3.920000 -63.307037 5.792545 4041.334473
6.120000 -6.000000 -3.880000 -46.342430 -30.117765 3054.700684
6.120000 -6.000000 -3.840000 -15.248496 -42.139198 2008.228638
6.120000 -6.000000 -3.800000 7.593919 -30.984406 1017.700989
6.120000 -5.960000 -4.200000 31.537533 -8.389191 1064.994507
6.120000 -5.960000 -4.160000 45.181248 8.380364 2111.575684
6.120000 -5.960000 -4.120000 45.165318 35.628265 3309.279297
6.120000 -5.960000 -4.080000 24.608044 61.038052 4331.199707
6.120000 -5.960000 -4.040000 -12.007065 68.772186 4873.783203
6.120000 -5.960000 -4.000000 -48.202873 49.851151 4808.654297
6.120000 -5.960000 -3.960000 -64.175247 10.685884 4232.650391
6.120000 -5.960000 -3.920000 -50.702137 -28.348093 3374.321289
6.120000 -5.960000 -3.880000 -17.516203 -46.093903 2431.465332
6.120000 -5.960000 -3.840000 12.607404 -36.623238 1500.208130
6.120000 -5.960000 -3.800000 21.393871 -14.211560 659.666138
6.120000 -5.920000 -4.200000 26.425014 15.969790 953.315552
6.120000 -5.920000 -4.160000 23.880074 33.341187 1681.892700
6.120000 -5.920000 -4.120000 8.997832 48.854134 2467.687256
6.120000 -5.920000 -4.080000 -16.319567 53.342506 3111.751465
6.120000 -5.920000 -4.040000 -42.778404 39.774208 3411.979492
6.120000 -5.920000 -4.000000 -56.365440 9.825930 3273.611816
6.120000 -5.920000 -3.960000 -47.200554 -23.353378 2773.272461
6.120000 -5.920000 -3.920000 -18.910706 -41.752003 2100.844482
6.120000 -5.920000 -3.880000 11.156864 -35.969769 1418.299805
6.120000 -5.920000 -3.840000 24.237015 -14.234118 790.042969
6.120000 -5.920000 -3.800000 15.970634 3.172438 265.125519
6.120000 -5.880000 -4.200000 3.907923 24.841930 632.393372
6.120000 -5.880000 -4.160000 -6.662320 30.836468 995.274292
6.120000 -5.880000 -4.120000 -21.069159 30.183172 1354.933350
6.120000 -5.880000 -4.080000 -35.057320 20.085594 1632.446777
6.120000 -5.880000 -4.040000 -41.626892 0.951050 1733.702637
6.120000 -5.880000 -4.000000 -34.443886 -20.554659 1608.875244
6.120000 -5.880000 -3.960000 -14.203489 -33.153305 1300.880737
6.120000 -5.880000 -3.920000 8.605298 -29.016720 916.021179
6.120000 -5.880000 -3.880000 20.027252 -11.931065 543.441101
6.120000 -5.880000 -3.840000 14.588631 3.690996 226.451599
6.120000 -5.880000 -3.800000 1.554659 4.690689 24.419527
6.120000 -5.840000 -4.200000 -14.076653 10.087436 299.908508
6.120000 -5.840000 -4.160000 -19.303162 6.049484 409.208313
6.120000 -5.840000 -4.120000 -22.635468 -0.996033 513.356445
6.120000 -5.840000 -4.080000 -22.004513 -10.642403 597.459290
6.120000 -5.840000 -4.040000 -14.932175 -20.086655 626.443542
6.120000 -5.840000 -4.000000 -1.955919 -23.856937 572.979065
6.120000 -5.840000 -3.960000 10.955425 -17.966454 442.814789
6.120000 -5.840000 -3.920000 15.598938 -5.289269 271.303253
6.120000 -5.840000 -3.880000 9.236169 4.574346 106.231453
6.120000 -5.840000 -3.840000 -0.934439 3.120506 10.610735
6.120000 -5.840000 -3.800000 -2.784672 -8.044963 72.475822
6.120000 -5.800000 -4.200000 -8.360932 -12.788239 233.444244
6.120000 -5.800000 -4.160000 -3.996144 -14.847574 236.419617
6.120000 -5.800000 -4.120000 0.294747 -15.802303 249.799652
6.120000 -5.800000 -4.080000 5.737227 -16.058413 290.788391
6.120000 -5.800000 -4.040000 12.713490 -13.230612 336.681885
6.120000 -5.800000 -4.000000 17.691296 -5.168883 339.699280
6.120000 -5.800000 -3.960000 15.430609 5.254839 265.717010
6.120000 -5.800000 -3.920000 5.455284 10.253006 134.884247
6.120000 -5.800000 -3.880000 -4.542467 4.132808 37.714108
6.120000 -5.800000 -3.840000 -4.019258 -9.227160 101.294907
6.120000 -5.800000 -3.800000 9.964682 -17.409838 402.397339
6.160000 -6.200000 -4.200000 0.373208 3.259491 10.763565
6.160000 -6.200000 -4.160000 -8.551024 6.925075 121.076675
6.160000 -6.200000 -4.120000 -13.767237 -0.194574 189.574661
6.160000 -6.200000 -4.080000 -7.808130 -7.386332 115.524796
6.160000 -6.200000 -4.040000 2.373826 -3.483231 17.767944
6.160000 -6.200000 -4.000000 3.227298 9.698518 104.476700
6.160000 -6.200000 -3.960000 -9.825203 18.488726 438.367584
6.160000 -6.200000 -3.920000 -26.377985 11.938234 838.319519
6.160000 -6.200000 -3.880000 -31.382999 -6.123566 1022.390686
6.160000 -6.200000 -3.840000 -20.622303 -20.740685 855.455383
6.160000 -6.200000 -3.800000 -4.632841 -21.074841 465.612122
6.160000 -6.160000 -4.200000 -3.994776 4.378572 35.130123
6.160000 -6.160000 -4.160000 -14.801311 -0.524289 219.353668
6.160000 -6.160000 -4.120000 -13.298710 -12.933289 344.125641
6.160000 -6.160000 -4.080000 0.284613 -17.005779 289.277527
6.160000 -6.160000 -4.040000 11.682571 -5.876017 171.010040
6.160000 -6.160000 -4.000000 8.159184 10.924723 185.921844
6.160000 -6.160000 -3.960000 -8.040854 17.732080 379.082001
6.160000 -6.160000 -3.920000 -22.517464 8.949660 587.132568
6.160000 -6.160000 -3.880000 -23.889637 -6.153188 608.576477
6.160000 -6.160000 -3.840000 -14.519762 -14.243721 413.707092
6.160000 -6.160000 -3.800000 -5.987993 -11.598695 170.385788
6.160000 -6.120000 -4.200000 -8.345281 -1.135039 70.932022
6.160000 -6.120000 -4.160000 -12.304245 -12.857920 316.720520
6.160000 -6.120000 -4.120000 -1.245399 -22.387081 502.732422
6.160000 -6.120000 -4.080000 15.200127 -16.782837 512.707458
6.160000 -6.120000 -4.040000 20.947836 1.982294 442.741333
6.160000 -6.120000 -4.000000 9.410064 19.210249 457.582947
6.160000 -6.120000 -3.960000 -10.820533 21.899357 596.665771
6.160000 -6.120000 -3.920000 -25.184509 10.111921 736.510498
6.160000 -6.120000 -3.880000 -26.572527 -5.257482 733.740295
6.160000 -6.120000 -3.840000 -19.482349 -14.146043 579.672485
6.160000 -6.120000 -3.800000 -12.624430 -15.457421 398.308105
6.160000 -6.080000 -4.200000 -4.694367 -10.946522 141.863419
6.160000 -6.080000 -4.160000 1.682105 -20.316259 415.579865
6.160000 -6.080000 -4.120000 16.476641 -19.104588 636.464966
6.160000 -6.080000 -4.080000 26.422630 -3.714049 711.949585
6.160000 -6.080000 -4.040000 20.923826 16.607214 713.606079
6.160000 -6.080000 -4.000000 1.263590 27.803698 774.642273
6.160000 -6.080000 -3.960000 -20.956417 22.497032 945.287842
6.160000 -6.080000 -3.920000 -33.482533 4.753888 1143.679443
6.160000 -6.080000 -3.880000 -31.917219 -14.613454 1232.261963
6.160000 -6.080000 -3.840000 -20.752953 -26.508495 1133.385376
6.160000 -6.080000 -3.800000 -8.143770 -28.527542 880.141663
6.160000 -6.040000 -4.200000 9.207701 -14.877457 306.120483
6.160000 -6.040000 -4.160000 19.586258 -13.254139 559.293701
6.160000 -6.040000 -4.120000 27.273697 -1.502221 746.111206
6.160000 -6.040000 -4.080000 24.176308 15.462220 823.574097
6.160000 -6.040000 -4.040000 8.586217 27.909119 852.642029
6.160000 -6.040000 -4.000000 -13.445202 27.578632 941.354370
6.160000 -6.040000 -3.960000 -31.504988 12.743531 1154.961914
6.160000 -6.040000 -3.920000 -36.585808 -10.514231 1449.070435
6.160000 -6.040000 -3.880000 -26.313745 -31.272972 1670.411987
6.160000 -6.040000 -3.840000 -6.839826 -39.895836 1638.460938
6.160000 -6.040000 -3.800000 10.476759 -34.206978 1279.879761
6.160000 -6.000000 -4.200000 24.189281 -4.336244 603.924316
6.160000 -6.000000 -4.160000 27.075390 7.806336 794.015625
6.160000 -6.000000 -4.120000 20.886780 20.532909 857.857910
6.160000 -6.000000 -4.080000 7.243683 27.961071 834.292419
6.160000 -6.000000 -4.040000 -9.757572 26.679054 806.982117
6.160000 -6.000000 -4.000000 -25.010273 15.376450 861.948914
6.160000 -6.000000 -3.960000 -32.233559 -4.529410 1059.517822
6.160000 -6.000000 -3.920000 -25.925970 -26.708942 1385.523560
6.160000 -6.000000 -3.880000 -6.513610 -40.626694 1692.955322
6.160000 -6.000000 -3.840000 16.447346 -38.301994 1737.557861
6.160000 -6.000000 -3.800000 29.277740 -22.389782 1358.488403
6.160000 -5.960000 -4.200000 26.131367 16.880367 967.795166
6.160000 -5.960000 -4.160000 15.121504 29.347927 1089.960693
6.160000 -5.960000 -4.120000 -1.215513 31.375711 985.912720
6.160000 -5.960000 -4.080000 -14.750719 23.948296 791.104614
6.160000 -5.960000 -4.040000 -22.473490 11.733678 642.736938
6.160000 -5.960000 -4.000000 -24.591223 -2.801343 612.575745
6.160000 -5.960000 -3.960000 -19.625103 -18.573002 730.101074
6.160000 -5.960000 -3.920000 -5.259591 -30.992218 988.180847
6.160000 -5.960000 -3.880000 15.352540 -32.264381 1276.690796
6.160000 -5.960000 -3.840000 31.408142 -19.444141 1364.546021
6.160000 -5.960000 -3.800000 32.625374 -1.093519 1065.610840
6.160000 -5.920000 -4.200000 10.195665 33.069698 1197.556519
6.160000 -5.920000 -4.160000 -9.923923 34.664291 1300.097290
6.160000 -5.920000 -4.120000 -24.756508 21.890804 1092.092041
6.160000 -5.920000 -4.080000 -27.269983 4.487723 763.791626
6.160000 -5.920000 -4.040000 -20.689873 -8.672895 503.289948
6.160000 -5.920000 -4.000000 -11.119932 -16.136250 384.031433
6.160000 -5.920000 -3.960000 -0.395451 -20.023809 401.109314
6.160000 -5.920000 -3.920000 12.203588 -19.498760 529.129211
6.160000 -5.920000 -3.880000 23.701925 -11.558707 695.384949
6.160000 -5.920000 -3.840000 27.275158 1.971441 747.820862
6.160000 -5.920000 -3.800000 20.354820 12.057227 559.695435
6.160000 -5.880000 -4.200000 -11.903897 30.650469 1081.154053
6.160000 -5.880000 -4.160000 -29.466129 19.120152 1233.833008
6.160000 -5.880000 -4.120000 -32.906155 -1.765474 1085.932007
6.160000 -5.880000 -4.080000 -21.462643 -18.042629 786.181519
6.160000 -5.880000 -4.040000 -4.654898 -22.162930 512.863525
6.160000 -5.880000 -4.000000 8.115458 -16.758141 346.695923
6.160000 -5.880000 -3.960000 14.325699 -8.406802 275.899963
6.160000 -5.880000 -3.920000 16.143398 -0.758308 261.184357
6.160000 -5.880000 -3.880000 15.114073 5.641448 260.261139
6.160000 -5.880000 -3.840000 11.508307 9.575365 224.128754
6.160000 -5.880000 -3.800000 7.788145 8.906148 139.974670
6.160000 -5.840000 -4.200000 -21.221043 12.685770 611.261414
6.160000 -5.840000 -4.160000 -28.563278 -3.809694 830.374634
6.160000 -5.840000 -4.120000 -20.439562 -21.739189 890.368042
6.160000 -5.840000 -4.080000 -1.434074 -28.563343 817.921143
6.160000 -5.840000 -4.040000 16.224495 -20.583473 686.913574
6.160000 -5.840000 -4.000000 22.864613 -4.602418 543.972778
6.160000 -5.840000 -3.960000 17.778248 8.787231 393.281555
6.160000 -5.840000 -3.920000 7.671642 13.115521 230.871002
6.160000 -5.840000 -3.880000 0.656227 9.022999 81.845139
6.160000 -5.840000 -3.840000 1.260494 2.160879 6.258244
6.160000 -5.840000 -3.800000 8.732467 -0.737890 76.800453
6.160000 -5.800000 -4.200000 -10.206302 -1.958803 108.005501
6.160000 -5.800000 -4.160000 -10.465781 -13.500557 291.797607
6.160000 -5.800000 -4.120000 0.854927 -23.096142 534.162659
6.160000 -5.800000 -4.080000 18.301165 -20.874664 770.684204
6.160000 -5.800000 -4.040000 29.743572 -5.464080 914.536255
6.160000 -5.800000 -4.000000 26.435535 13.612947 884.149841
6.160000 -5.800000 -3.960000 10.954857 23.173649 657.026917
6.160000 -5.800000 -3.920000 -4.259814 17.328392 318.419189
6.160000 -5.800000 -3.880000 -6.914626 2.763723 55.450218
6.160000 -5.800000 -3.840000 4.796278 -6.451175 64.621948
6.160000 -5.800000 -3.800000 20.363157 -0.497343 414.905518
6.200000 -6.200000 -4.200000 -1.658132 0.633779 3.151077
6.200000 -6.200000 -4.160000 -7.749595 -3.144783 69.945877
6.200000 -6.200000 -4.120000 -4.119089 -9.546098 108.094879
6.200000 -6.200000 -4.080000 5.258111 -6.510816 70.038452
6.200000 -6.200000 -4.040000 6.723410 6.971194 93.801788
6.200000 -6.200000 -4.000000 -7.136419 17.693562 363.990601
6.200000 -6.200000 -3.960000 -27.247829 11.657048 878.330994
6.200000 -6.200000 -3.920000 -35.633888 -10.118382 1372.155640
6.200000 -6.200000 -3.880000 -23.517937 -30.924660 1509.427979
6.200000 -6.200000 -3.840000 -0.716936 -34.282990 1175.837402
6.200000 -6.200000 -3.800000 13.887893 -19.967800 591.586609
6.200000 -6.160000 -4.200000 -2.824130 -0.178974 8.007742
6.200000 -6.160000 -4.160000 -6.166410 -7.265713 90.815201
6.200000 -6.160000 -4.120000 1.123519 -11.496065 133.421814
6.200000 -6.160000 -4.080000 9.132412 -3.814402 97.950607
6.200000 -6.160000 -4.040000 4.972239 10.026781 125.259491
6.200000 -6.160000 -4.000000 -11.812094 14.960127 363.330933
6.200000 -6.160000 -3.960000 -27.330170 3.084816 756.454285
6.200000 -6.160000 -3.920000 -27.382610 -17.070356 1041.204468
6.200000 -6.160000 -3.880000 -12.208085 -28.824451 979.886353
6.200000 -6.160000 -3.840000 3.984608 -24.170429 600.086731
6.200000 -6.160000 -3.800000 7.910345 -11.069704 185.111908
6.200000 -6.120000 -4.200000 -1.789431 -3.106474 12.852246
6.200000 -6.120000 -4.160000 -0.799146 -9.049953 82.540291
6.200000 -6.120000 -4.120000 6.262411 -8.214893 106.702271
6.200000 -6.120000 -4.080000 8.573813 1.461918 75.647476
6.200000 -6.120000 -4.040000 -0.560087 10.668859 114.138237
6.200000 -6.120000 -4.000000 -15.712530 8.704372 322.649719
6.200000 -6.120000 -3.960000 -24.560362 -5.011113 628.322632
6.200000 -6.120000 -3.920000 -20.317509 -20.247355 822.756470
6.200000 -6.120000 -3.880000 -7.959164 -26.359234 758.157471
6.200000 -6.120000 -3.840000 1.793311 -22.227804 497.291260
6.200000 -6.120000 -3.800000 3.393997 -15.556842 253.534546
6.200000 -6.080000 -4.200000 4.093015 -4.629676 38.186668
6.200000 -6.080000 -4.160000 5.868192 -5.242870 61.923363
6.200000 -6.080000 -4.120000 7.279314 -1.284636 54.638702
6.200000 -6.080000 -4.080000 3.304865 4.400667 30.288006
6.200000 -6.080000 -4.040000 -5.909405 5.738715 67.853920
6.200000 -6.080000 -4.000000 -14.952886 -0.534487 223.874466
6.200000 -6.080000 -3.960000 -17.990553 -11.954174 466.562286
6.200000 -6.080000 -3.920000 -13.389201 -22.712383 695.123047
6.200000 -6.080000 -3.880000 -4.120470 -28.256584 815.412842
6.200000 -6.080000 -3.840000 5.246137 -27.720638 795.955750
6.200000 -6.080000 -3.800000 11.471966 -23.105461 665.468323
6.200000 -6.040000 -4.200000 12.269186 0.837651 151.234589
6.200000 -6.040000 -4.160000 8.488247 4.713902 94.271217
6.200000 -6.040000 -4.120000 2.338544 5.373166 34.339703
6.200000 -6.040000 -4.080000 -3.075173 2.254431 14.539147
6.200000 -6.040000 -4.040000 -6.121279 -2.677025 44.636524
6.200000 -6.040000 -4.000000 -7.556100 -8.079894 122.379333
6.200000 -6.040000 -3.960000 -7.715620 -14.788702 278.236511
6.200000 -6.040000 -3.920000 -4.333269 -23.169674 555.611023
6.200000 -6.040000 -3.880000 5.043730 -29.852823 916.630249
6.200000 -6.040000 -3.840000 18.258823 -29.208210 1186.504150
6.200000 -6.040000 -3.800000 27.840702 -19.506073 1155.591553
6.200000 -6.000000 -4.200000 14.857246 14.247252 423.721954
6.200000 -6.000000 -4.160000 2.117353 16.174788 266.106934
6.200000 -6.000000 -4.120000 -7.326907 7.384330 108.211899
6.200000 -6.000000 -4.080000 -6.817859 -4.024164 62.677090
6.200000 -6.000000 -4.040000 -0.441771 -9.372195 88.033203
6.200000 -6.000000 -4.000000 3.315755 -9.202162 95.674011
6.200000 -6.000000 -3.960000 2.824344 -11.093146 131.034805
6.200000 -6.000000 -3.920000 5.297001 -18.353693 364.916260
6.200000 -6.000000 -3.880000 16.658798 -24.009693 853.980957
6.200000 -6.000000 -3.840000 31.761475 -18.436537 1348.697144
6.200000 -6.000000 -3.800000 37.898781 -2.212109 1441.211060
6.200000 -5.960000 -4.200000 5.703703 28.191105 827.270630
6.200000 -5.960000 -4.160000 -12.696630 20.942802 599.805420
6.200000 -5.960000 -4.120000 -17.511852 1.917063 310.340118
6.200000 -5.960000 -4.080000 -6.379237 -11.886041 181.972641
6.200000 -5.960000 -4.040000 7.596078 -11.387476 187.375000
6.200000 -5.960000 -4.000000 12.037562 -3.946504 160.477798
6.200000 -5.960000 -3.960000 9.103751 -2.341590 88.361336
6.200000 -5.960000 -3.920000 10.822927 -8.266109 185.464310
6.200000 -5.960000 -3.880000 22.335201 -10.552474 610.215942
6.200000 -5.960000 -3.840000 34.010689 -0.066914 1156.731445
6.200000 -5.960000 -3.800000 32.596973 17.099520 1354.956177
6.200000 -5.920000 -4.200000 -11.978739 32.061699 1171.442749
6.200000 -5.920000 -4.160000 -28.093290 13.643806 975.386414
6.200000 -5.920000 -4.120000 -22.445103 -10.197623 607.774170
6.200000 -5.920000 -4.080000 -1.638279 -19.231724 372.543152
6.200000 -5.920000 -4.040000 14.822179 -9.940832 318.517151
6.200000 -5.920000 -4.000000 16.152842 3.451531 272.827332
6.200000 -5.920000 -3.960000 9.804229 7.110173 146.677460
6.200000 -5.920000 -3.920000 9.528728 2.755805 98.391129
6.200000 -5.920000 -3.880000 17.757055 2.857860 323.480377
6.200000 -5.920000 -3.840000 23.556538 13.262390 730.801453
6.200000 -5.920000 -3.800000 17.718105 25.215891 949.772339
6.200000 -5.880000 -4.200000 -26.449787 22.452339 1203.698730
6.200000 -5.880000 -4.160000 -33.989769 -2.352392 1160.838135
6.200000 -5.880000 -4.120000 -18.037939 -23.545807 879.772278
6.200000 -5.880000 -4.080000 7.297789 -23.951786 626.945801
6.200000 -5.880000 -4.040000 21.488655 -6.884255 509.155273
6.200000 -5.880000 -4.000000 17.953621 10.070848 423.754486
6.200000 -5.880000 -3.960000 7.473229 14.621788 269.645844
6.200000 -5.880000 -3.920000 3.390256 10.392836 119.504868
6.200000 -5.880000 -3.880000 7.258836 8.835957 130.764832
6.200000 -5.880000 -3.840000 10.413706 14.423999 316.497009
6.200000 -5.880000 -3.800000 6.939145 21.061123 491.722626
6.200000 -5.840000 -4.200000 -27.947981 8.036579 845.676270
6.200000 -5.840000 -4.160000 -26.955084 -16.030687 983.559448
6.200000 -5.840000 -4.120000 -5.721349 -30.494566 962.652405
6.200000 -5.840000 -4.080000 19.000595 -23.051283 892.384277
6.200000 -5.840000 -4.040000 28.699400 -0.958326 824.573975
6.200000 -5.840000 -4.000000 19.805840 17.713863 706.052246
6.200000 -5.840000 -3.960000 4.283198 21.590857 484.510895
6.200000 -5.840000 -3.920000 -3.981192 14.297038 220.255203
6.200000 -5.840000 -3.880000 -1.552546 7.481173 58.378349
6.200000 -5.840000 -3.840000 4.706167 8.489973 94.227646
6.200000 -5.840000 -3.800000 6.851029 15.599862 290.292297
6.200000 -5.800000 -4.200000 -18.995459 2.341436 366.309784
6.200000 -5.800000 -4.160000 -14.607160 -17.791855 529.919189
6.200000 -5.800000 -4.120000 6.904268 -26.794472 765.612671
6.200000 -5.800000 -4.080000 28.945913 -14.567596 1050.080811
6.200000 -5.800000 -4.040000 33.931381 10.500517 1261.599487
6.200000 -5.800000 -4.000000 19.123260 29.466320 1233.963135
6.200000 -5.800000 -3.960000 -1.790060 30.019962 904.402405
6.200000 -5.800000 -3.920000 -11.952815 16.504555 415.270111
6.200000 -5.800000 -3.880000 -6.132086 4.364142 56.648216
6.200000 -5.800000 -3.840000 6.171110 5.558424 68.978676
6.200000 -5.800000 -3.800000 10.615914 18.673702 461.404785
