#kx 	ky 	kz 	real 	imag 	intensity
4.800000 2.800000 6.800000 -20.093184 -4.913260 427.876160
4.800000 2.800000 6.840000 -17.346241 -7.365424 355.141571
4.800000 2.800000 6.880000 -15.373593 -11.060355 358.678833
4.800000 2.800000 6.920000 -10.494981 -16.176422 371.821259
4.800000 2.800000 6.960000 -1.002221 -18.601616 347.024567
4.800000 2.800000 7.000000 9.710890 -14.186749 295.565247
4.800000 2.800000 7.040000 15.671312 -3.596607 258.525604
4.800000 2.800000 7.080000 13.918400 7.753236 253.834518
4.800000 2.800000 7.120000 6.985899 14.667724 263.944916
4.800000 2.800000 7.160000 -0.360825 16.519447 273.022339
4.800000 2.800000 7.200000 -6.166893 16.115471 297.738983
4.800000 2.840000 6.800000 -12.843758 -18.601379 510.973450
4.800000 2.840000 6.840000 -10.176657 -16.223648 366.771088
4.800000 2.840000 6.880000 -8.874496 -17.267492 376.922974
4.800000 2.840000 6.920000 -4.071312 -19.227089 386.256531
4.800000 2.840000 6.960000 3.032898 -16.799288 291.414520
4.800000 2.840000 7.000000 6.615423 -9.424407 132.583282
4.800000 2.840000 7.040000 3.718790 -2.705792 21.150711
4.800000 2.840000 7.080000 -1.489286 -1.861707 5.683928
4.800000 2.840000 7.120000 -2.363102 -5.025471 30.839613
4.800000 2.840000 7.160000 1.833141 -4.979759 28.158409
4.800000 2.840000 7.200000 4.010718 1.903000 19.707270
4.800000 2.880000 6.800000 2.806961 -25.233894 644.628479
4.800000 2.880000 6.840000 2.708088 -19.581629 390.773926
4.800000 2.880000 6.880000 2.161862 -18.723183 355.231201
4.800000 2.880000 6.920000 4.272167 -18.077904 345.062012
4.800000 2.880000 6.960000 5.544566 -14.799952 249.780762
4.800000 2.880000 7.000000 2.799490 -12.540572 165.103088
4.800000 2.880000 7.040000 -0.160385 -16.148342 260.794678
4.800000 2.880000 7.080000 4.234545 -23.063711 549.866150
4.800000 2.880000 7.120000 16.995680 -23.236874 828.805420
4.800000 2.880000 7.160000 27.823597 -9.850475 871.184387
4.800000 2.880000 7.200000 23.629040 10.581072 670.290649
4.800000 2.920000 6.800000 20.362289 -19.662666 801.243286
4.800000 2.920000 6.840000 16.296600 -12.982352 434.120667
4.800000 2.920000 6.880000 12.780655 -11.642189 298.885681
4.800000 2.920000 6.920000 10.747450 -11.571240 249.401276
4.800000 2.920000 6.960000 8.058340 -13.100469 236.559128
4.800000 2.920000 7.000000 7.087972 -19.393482 426.346497
4.800000 2.920000 7.040000 14.663160 -28.114309 1005.422607
4.800000 2.920000 7.080000 32.481720 -28.651230 1875.955078
4.800000 2.920000 7.120000 49.684052 -11.681950 2604.972900
4.800000 2.920000 7.160000 49.214386 17.909258 2742.797363
4.800000 2.920000 7.200000 24.478270 40.365631 2228.569824
4.800000 2.960000 6.800000 30.402733 -2.886337 932.657104
4.800000 2.960000 6.840000 22.163177 2.487483 497.394012
4.800000 2.960000 6.880000 15.510679 1.741813 243.615097
4.800000 2.960000 6.920000 11.381841 -2.529817 135.946274
4.800000 2.960000 6.960000 11.236195 -10.442273 235.293137
4.800000 2.960000 7.000000 19.785496 -19.489677 771.313354
4.800000 2.960000 7.040000 38.656418 -20.304359 1906.585571
4.800000 2.960000 7.080000 58.297256 -2.953173 3407.291260
4.800000 2.960000 7.120000 60.892715 30.182894 4618.929688
4.800000 2.960000 7.160000 35.859306 59.979362 4883.414062
4.800000 2.960000 7.200000 -6.504984 63.482075 4072.288574
4.800000 3.000000 6.800000 26.595819 16.952553 994.726624
4.800000 3.000000 6.840000 14.987095 18.482464 566.214478
4.800000 3.000000 6.880000 7.319110 12.962528 221.596512
4.800000 3.000000 6.920000 6.121006 3.597392 50.407944
4.800000 3.000000 6.960000 13.984161 -5.599241 226.908264
4.800000 3.000000 7.000000 31.150204 -6.761951 1016.059204
4.800000 3.000000 7.040000 49.557430 8.644403 2530.664551
4.800000 3.000000 7.080000 53.355568 39.829411 4433.198730
4.800000 3.000000 7.120000 30.758434 70.725838 5948.225586
4.800000 3.000000 7.160000 -12.092056 78.511856 6310.329102
4.800000 3.000000 7.200000 -50.712177 52.575367 5335.894043
4.800000 3.040000 6.800000 10.626070 29.328983 973.102661
4.800000 3.040000 6.840000 -1.882308 24.774553 617.321594
4.800000 3.040000 6.880000 -6.331298 13.979527 235.512527
4.800000 3.040000 6.920000 -0.372433 3.524254 12.559074
4.800000 3.040000 6.960000 14.340809 1.233164 207.179489
4.800000 3.040000 7.000000 29.926764 13.654493 1082.056396
4.800000 3.040000 7.040000 33.183128 39.743423 2680.659668
4.800000 3.040000 7.080000 13.918781 66.467148 4611.614258
4.800000 3.040000 7.120000 -24.102079 74.342880 6107.773926
4.800000 3.040000 7.160000 -60.992363 52.187180 6443.570312
4.800000 3.040000 7.200000 -73.229294 8.937527 5442.408691
4.800000 3.080000 6.800000 -8.760859 28.522911 890.309082
4.800000 3.080000 6.840000 -18.145561 17.461618 634.169495
4.800000 3.080000 6.880000 -15.512426 4.510364 260.978760
4.800000 3.080000 6.920000 -2.891727 -0.607332 8.730938
4.800000 3.080000 6.960000 10.810337 8.290325 185.592880
4.800000 3.080000 7.000000 13.447323 29.022797 1023.153259
4.800000 3.080000 7.040000 -2.834043 49.701469 2478.267822
4.800000 3.080000 7.080000 -34.064953 54.451523 4125.389160
4.800000 3.080000 7.120000 -63.939445 34.671852 5290.390137
4.800000 3.080000 7.160000 -73.557800 -2.442673 5416.716797
4.800000 3.080000 7.200000 -55.531319 -36.700134 4430.626953
4.800000 3.120000 6.800000 -22.292101 17.023182 786.726501
4.800000 3.120000 6.840000 -24.706871 1.968655 614.305115
4.800000 3.120000 6.880000 -14.494722 -7.743144 270.053253
4.800000 3.120000 6.920000 -0.752303 -3.535228 13.063795
4.800000 3.120000 6.960000 3.302658 12.838845 175.743500
4.800000 3.120000 7.000000 -9.859241 29.146591 946.728455
4.800000 3.120000 7.040000 -35.228302 30.746620 2186.387939
4.800000 3.120000 7.080000 -57.351883 11.703135 3426.201904
4.800000 3.120000 7.120000 -60.955109 -19.602959 4099.801270
4.800000 3.120000 7.160000 -42.398872 -45.582619 3875.439453
4.800000 3.120000 7.200000 -12.775465 -52.017418 2869.024170
4.800000 3.160000 6.800000 -26.401237 2.168694 701.728577
4.800000 3.160000 6.840000 -20.464407 -12.275158 569.471436
4.800000 3.160000 6.880000 -6.217987 -14.538168 250.021683
4.800000 3.160000 6.920000 1.959438 -2.585569 10.524566
4.800000 3.160000 6.960000 -6.234532 12.145382 186.379700
4.800000 3.160000 7.000000 -26.987652 13.788020 918.442871
4.800000 3.160000 7.040000 -44.304100 -4.004403 1978.888550
4.800000 3.160000 7.080000 -43.066204 -31.619410 2854.484863
4.800000 3.160000 7.120000 -21.970188 -50.816578 3065.013916
4.800000 3.160000 7.160000 5.216436 -49.626705 2490.020996
4.800000 3.160000 7.200000 21.124352 -31.763645 1455.167358
4.800000 3.200000 6.800000 -23.657299 -10.417929 668.201050
4.800000 3.200000 6.840000 -11.157218 -20.027164 525.570801
4.800000 3.200000 6.880000 1.983623 -14.391245 211.042679
4.800000 3.200000 6.920000 1.552353 -0.445315 2.608105
4.800000 3.200000 6.960000 -13.752539 5.089702 215.037384
4.800000 3.200000 7.000000 -29.407089 -8.113604 930.607483
4.800000 3.200000 7.040000 -28.004332 -32.730133 1855.504150
4.800000 3.200000 7.080000 -6.157012 -49.255230 2463.986328
4.800000 3.200000 7.120000 21.228714 -43.677746 2358.403809
4.800000 3.200000 7.160000 33.961582 -20.654398 1579.993164
4.800000 3.200000 7.200000 24.646646 0.558213 607.768738
4.840000 2.800000 6.800000 -22.062946 -6.561030 529.820679
4.840000 2.800000 6.840000 -18.300098 -10.336956 441.746277
4.840000 2.800000 6.880000 -13.949401 -14.123918 394.070831
4.840000 2.800000 6.920000 -7.144771 -17.274902 349.470001
4.840000 2.800000 6.960000 2.227873 -16.949818 292.259735
4.840000 2.800000 7.000000 11.177193 -10.930639 244.408508
4.840000 2.800000 7.040000 15.471243 -0.282553 239.439194
4.840000 2.800000 7.080000 12.938568 10.917012 286.587708
4.840000 2.800000 7.120000 4.917707 18.421204 363.524567
4.840000 2.800000 7.160000 -5.221201 20.276138 438.382721
4.840000 2.800000 7.200000 -14.439911 16.810211 491.094238
4.840000 2.840000 6.800000 -8.075832 -20.279270 476.467896
4.840000 2.840000 6.840000 -1.384344 -17.034834 292.101990
4.840000 2.840000 6.880000 2.607389 -12.089739 152.960266
4.840000 2.840000 6.920000 3.528244 -6.621043 56.286720
4.840000 2.840000 6.960000 1.367214 -2.519715 8.218240
4.840000 2.840000 7.000000 -2.082290 -1.791845 7.546640
4.840000 2.840000 7.040000 -3.415743 -4.228149 29.544546
4.840000 2.840000 7.080000 -0.597000 -6.298151 40.023117
4.840000 2.840000 7.120000 4.061115 -3.799278 30.927172
4.840000 2.840000 7.160000 4.908043 3.448719 35.982552
4.840000 2.840000 7.200000 -1.719432 9.878445 100.540115
4.840000 2.880000 6.800000 13.577108 -19.622013 569.361267
4.840000 2.880000 6.840000 17.552456 -7.050338 357.795990
4.840000 2.880000 6.880000 12.732633 5.742103 195.091675
4.840000 2.880000 6.920000 -0.375076 12.024273 144.723831
4.840000 2.880000 6.960000 -14.984684 5.961459 260.079742
4.840000 2.880000 7.000000 -20.119221 -10.863728 522.803650
4.840000 2.880000 7.040000 -9.099548 -27.214821 823.448242
4.840000 2.880000 7.080000 12.631939 -29.307985 1018.523926
4.840000 2.880000 7.120000 29.356720 -12.781647 1025.187500
4.840000 2.880000 7.160000 27.267351 11.578148 877.561951
4.840000 2.880000 7.200000 6.928125 25.411366 693.736389
4.840000 2.920000 6.800000 28.885056 -1.996346 838.331848
4.840000 2.920000 6.840000 22.676279 16.718229 793.712769
4.840000 2.920000 6.880000 3.316589 28.026768 796.499451
4.840000 2.920000 6.920000 -21.452232 21.438402 919.803345
4.840000 2.920000 6.960000 -34.986240 -4.475660 1244.068481
4.840000 2.920000 7.000000 -23.152390 -35.316883 1783.315430
4.840000 2.920000 7.040000 11.215248 -47.973003 2427.190674
4.840000 2.920000 7.080000 45.907425 -29.113111 2955.064941
4.840000 2.920000 7.120000 54.950787 11.038553 3141.438477
4.840000 2.920000 7.160000 30.400410 44.349861 2891.095215
4.840000 2.920000 7.200000 -9.688633 47.101330 2312.404785
4.840000 2.960000 6.800000 26.031082 22.383673 1178.645996
4.840000 2.960000 6.840000 6.324119 37.883804 1475.177124
4.840000 2.960000 6.880000 -23.079006 35.489151 1792.120361
4.840000 2.960000 6.920000 -45.015541 8.973417 2106.921143
4.840000 2.960000 6.960000 -39.632160 -30.231026 2484.623047
4.840000 2.960000 7.000000 -2.624955 -55.176994 3051.391113
4.840000 2.960000 7.040000 44.909203 -42.927689 3859.623047
4.840000 2.960000 7.080000 68.737129 3.728244 4738.692871
4.840000 2.960000 7.120000 48.891003 54.012672 5307.699219
4.840000 2.960000 7.160000 -1.862167 72.095703 5201.258301
4.840000 2.960000 7.200000 -46.937870 46.402832 4356.386719
4.840000 3.000000 6.800000 5.747238 37.137054 1412.191528
4.840000 3.000000 6.840000 -22.013046 39.493847 2044.338135
4.840000 3.000000 6.880000 -47.650963 18.778423 2623.243408
4.840000 3.000000 6.920000 -50.964951 -19.538883 2979.194336
4.840000 3.000000 6.960000 -21.123018 -51.984657 3148.586426
4.840000 3.000000 7.000000 28.337736 -51.233452 3427.894043
4.840000 3.000000 7.040000 63.567368 -10.114546 4143.114258
4.840000 3.000000 7.080000 55.515991 46.919601 5283.474609
4.840000 3.000000 7.120000 5.872264 79.505310 6355.577637
4.840000 3.000000 7.160000 -51.195709 63.631008 6669.906250
4.840000 3.000000 7.200000 -75.695412 12.016559 5874.192871
4.840000 3.040000 6.800000 -18.524981 32.733265 1414.641602
4.840000 3.040000 6.840000 -42.454025 19.285915 2174.290771
4.840000 3.040000 6.880000 -51.363735 -11.437299 2769.045166
4.840000 3.040000 6.920000 -32.774319 -43.220211 2942.142578
4.840000 3.040000 6.960000 8.076742 -51.777115 2746.103516
4.840000 3.040000 7.000000 45.336536 -23.937679 2628.414062
4.840000 3.040000 7.040000 49.189766 26.709614 3133.036621
4.840000 3.040000 7.080000 11.203566 65.306213 4390.421387
4.840000 3.040000 7.120000 -44.852200 62.034046 5859.942871
4.840000 3.040000 7.160000 -79.555794 17.526814 6636.313477
4.840000 3.040000 7.200000 -69.320915 -36.331841 6125.391602
4.840000 3.080000 6.800000 -31.677813 13.873526 1195.958496
4.840000 3.080000 6.840000 -41.828438 -8.050098 1814.422241
4.840000 3.080000 6.880000 -32.339825 -33.433231 2163.645264
4.840000 3.080000 6.920000 -4.404012 -44.925232 2037.671753
4.840000 3.080000 6.960000 25.645443 -30.134136 1565.754883
4.840000 3.080000 7.000000 34.850952 5.630510 1246.291504
4.840000 3.080000 7.040000 11.649705 38.668034 1630.932373
4.840000 3.080000 7.080000 -31.575817 42.996544 2845.734863
4.840000 3.080000 7.120000 -64.975250 11.880301 4362.924805
4.840000 3.080000 7.160000 -64.018639 -34.596039 5295.271973
4.840000 3.080000 7.200000 -29.583252 -64.472015 5031.809570
4.840000 3.120000 6.800000 -28.987270 -5.783013 873.705078
4.840000 3.120000 6.840000 -24.486036 -24.433662 1196.569824
4.840000 3.120000 6.880000 -7.008070 -34.181244 1217.470459
4.840000 3.120000 6.920000 12.637612 -26.994099 888.390564
4.840000 3.120000 6.960000 19.859171 -5.975803 430.096893
4.840000 3.120000 7.000000 6.850903 14.408545 254.541016
4.840000 3.120000 7.040000 -19.682877 17.529755 694.707886
4.840000 3.120000 7.080000 -41.346760 -2.324223 1714.956543
4.840000 3.120000 7.120000 -41.244003 -33.854469 2847.192871
4.840000 3.120000 7.160000 -17.566101 -56.152287 3461.647217
4.840000 3.120000 7.200000 14.338736 -54.680023 3195.504395
4.840000 3.160000 6.800000 -17.860968 -16.200119 581.458008
4.840000 3.160000 6.840000 -6.223652 -24.312258 629.819702
4.840000 3.160000 6.880000 6.338974 -20.176088 447.257141
4.840000 3.160000 6.920000 9.441176 -7.993155 153.026337
4.840000 3.160000 6.960000 0.107902 1.135775 1.301627
4.840000 3.160000 7.000000 -14.397541 -2.151130 211.916550
4.840000 3.160000 7.040000 -21.851788 -17.809830 794.690674
4.840000 3.160000 7.080000 -14.569818 -35.941246 1504.052856
4.840000 3.160000 7.120000 4.459454 -44.221294 1975.409546
4.840000 3.160000 7.160000 23.824551 -37.271393 1956.765869
4.840000 3.160000 7.200000 32.460594 -20.478535 1473.060547
4.840000 3.200000 6.800000 -8.389071 -18.386780 408.450165
4.840000 3.200000 6.840000 2.021530 -17.122160 297.254944
4.840000 3.200000 6.880000 4.630413 -8.617287 95.698349
4.840000 3.200000 6.920000 -3.195191 -3.845678 24.998489
4.840000 3.200000 6.960000 -12.885233 -11.070822 288.592316
4.840000 3.200000 7.000000 -12.208958 -27.108887 883.950378
4.840000 3.200000 7.040000 3.019959 -39.224770 1547.702637
4.840000 3.200000 7.080000 24.184624 -36.345493 1905.890869
4.840000 3.200000 7.120000 36.929668 -19.248358 1734.299683
4.840000 3.200000 7.160000 33.586388 -0.128429 1128.061890
4.840000 3.200000 7.200000 19.564524 7.970676 446.302277
4.880000 2.800000 6.800000 -22.868965 -13.271164 699.113342
4.880000 2.800000 6.840000 -16.523687 -16.783762 554.726929
4.880000 2.800000 6.880000 -9.994241 -18.600889 445.877930
4.880000 2.800000 6.920000 -2.642406 -18.949953 366.083008
4.880000 2.800000 6.960000 5.725880 -16.400894 301.775024
4.880000 2.800000 7.000000 13.160648 -9.312077 259.917419
4.880000 2.800000 7.040000 16.127892 1.757872 263.199005
4.880000 2.800000 7.080000 12.123444 13.184750 320.815491
4.880000 2.800000 7.120000 2.046261 20.088642 407.740723
4.880000 2.800000 7.160000 -9.862143 19.415178 474.210999
4.880000 2.800000 7.200000 -18.395290 11.761179 476.712036
4.880000 2.840000 6.800000 -0.942253 -21.368923 457.518738
4.880000 2.840000 6.840000 7.693991 -11.427662 189.788956
4.880000 2.840000 6.880000 6.538017 1.180401 44.139015
4.880000 2.840000 6.920000 -3.251907 7.649003 69.082153
4.880000 2.840000 6.960000 -13.365728 3.337143 189.779221
4.880000 2.840000 7.000000 -14.791248 -7.522640 275.371124
4.880000 2.840000 7.040000 -5.789841 -14.822269 253.221924
4.880000 2.840000 7.080000 6.121916 -11.277218 164.653503
4.880000 2.840000 7.120000 10.539799 0.959869 112.008705
4.880000 2.840000 7.160000 3.346605 11.964314 154.344559
4.880000 2.840000 7.200000 -9.582560 12.686008 252.760254
4.880000 2.880000 6.800000 21.007355 -7.926665 504.140991
4.880000 2.880000 6.840000 18.733950 16.609470 626.835388
4.880000 2.880000 6.880000 -4.257107 33.614723 1148.072510
4.880000 2.880000 6.920000 -35.582363 26.498444 1968.272217
4.880000 2.880000 6.960000 -51.813606 -4.623096 2706.022949
4.880000 2.880000 7.000000 -37.810135 -39.140682 2961.599365
4.880000 2.880000 7.040000 -1.537872 -51.210854 2624.916504
4.880000 2.880000 7.080000 30.777782 -31.646587 1948.778320
4.880000 2.880000 7.120000 36.208286 3.807697 1325.538574
4.880000 2.880000 7.160000 14.094314 27.991911 982.196716
4.880000 2.880000 7.200000 -14.785233 25.355446 861.501709
4.880000 2.920000 6.800000 24.049726 19.714857 967.064941
4.880000 2.920000 6.840000 -0.428202 46.710052 2182.012451
4.880000 2.920000 6.880000 -45.237766 46.749779 4231.997070
4.880000 2.920000 6.920000 -80.381744 7.886295 6523.418457
4.880000 2.920000 6.960000 -74.463638 -50.323036 8077.241211
4.880000 2.920000 7.000000 -24.076691 -87.276520 8196.877930
4.880000 2.920000 7.040000 38.393826 -74.157303 6973.391602
4.880000 2.920000 7.080000 69.183388 -19.886036 5181.795898
4.880000 2.920000 7.120000 49.365059 35.097370 3668.734375
4.880000 2.920000 7.160000 -0.235981 52.725445 2780.028076
4.880000 2.920000 7.200000 -38.879166 27.959566 2293.326904
4.880000 2.960000 6.800000 2.899642 40.333084 1635.165649
4.880000 2.960000 6.840000 -40.914803 50.690002 4243.497559
4.880000 2.960000 6.880000 -87.779305 19.023071 8067.083984
4.880000 2.960000 6.920000 -97.921906 -47.209583 11817.444336
4.880000 2.960000 6.960000 -51.069973 -106.120934 13869.794922
4.880000 2.960000 7.000000 29.154484 -111.990738 13391.910156
4.880000 2.960000 7.040000 88.625519 -55.581768 10943.815430
4.880000 2.960000 7.080000 86.105560 24.210674 8000.324219
4.880000 2.960000 7.120000 28.075790 71.015900 5831.507812
4.880000 2.960000 7.160000 -37.624588 57.384773 4708.622070
4.880000 2.960000 7.200000 -63.470470 4.759326 4051.151855
4.880000 3.000000 6.800000 -27.519466 36.658569 2101.171875
4.880000 3.000000 6.840000 -72.390808 19.718073 5629.231445
4.880000 3.000000 6.880000 -95.440987 -36.363937 10431.317383
4.880000 3.000000 6.920000 -65.627510 -102.010880 14713.189453
4.880000 3.000000 6.960000 11.132025 -128.159653 16548.818359
4.880000 3.000000 7.000000 87.467384 -87.253189 15263.662109
4.880000 3.000000 7.040000 109.264000 -1.841774 11942.014648
4.880000 3.000000 7.080000 61.292862 69.314194 8561.272461
4.880000 3.000000 7.120000 -18.463461 78.564735 6513.316895
4.880000 3.000000 7.160000 -70.634140 27.985500 5772.370117
4.880000 3.000000 7.200000 -63.700058 -35.743561 5335.299316
4.880000 3.040000 6.800000 -44.265041 10.992215 2080.222656
4.880000 3.040000 6.840000 -69.700256 -25.377523 5502.144531
4.880000 3.040000 6.880000 -58.518703 -80.160141 9850.086914
4.880000 3.040000 6.920000 -2.360875 -115.482811 13341.853516
4.880000 3.040000 6.960000 69.843063 -97.187309 14323.426758
4.880000 3.040000 7.000000 108.377953 -27.711010 12513.680664
4.880000 3.040000 7.040000 82.831573 49.004402 9262.500977
4.880000 3.040000 7.080000 10.312441 80.091301 6520.962891
4.880000 3.040000 7.120000 -56.252945 47.117004 5384.406250
4.880000 3.040000 7.160000 -71.329010 -19.168713 5455.267090
4.880000 3.040000 7.200000 -32.866791 -66.401672 5489.408203
4.880000 3.080000 6.800000 -36.425743 -16.963940 1614.609985
4.880000 3.080000 6.840000 -35.977402 -52.179741 4017.098633
4.880000 3.080000 6.880000 -4.297201 -82.218613 6778.366211
4.880000 3.080000 6.920000 46.955257 -80.255592 8645.755859
4.880000 3.080000 6.960000 85.135681 -37.643547 8665.121094
4.880000 3.080000 7.000000 80.164856 22.984951 6954.712402
4.880000 3.080000 7.040000 31.258636 61.023460 4700.965332
4.880000 3.080000 7.080000 -28.515179 49.771049 3290.272949
4.880000 3.080000 7.120000 -57.163322 -0.643457 3268.059570
4.880000 3.080000 7.160000 -37.606888 -51.063629 4021.771973
4.880000 3.080000 7.200000 9.740974 -65.783440 4422.347656
4.880000 3.120000 6.800000 -13.666197 -28.302383 987.789856
4.880000 3.120000 6.840000 1.164341 -45.936630 2111.529785
4.880000 3.120000 6.880000 28.305676 -48.392578 3143.052734
4.880000 3.120000 6.920000 52.200142 -28.660440 3546.275635
4.880000 3.120000 6.960000 55.217461 5.032196 3074.291016
4.880000 3.120000 7.000000 31.780956 31.773201 2019.565430
4.880000 3.120000 7.040000 -4.439850 32.510323 1076.633301
4.880000 3.120000 7.080000 -28.724489 5.842716 859.233582
4.880000 3.120000 7.120000 -24.120066 -29.189054 1433.778564
4.880000 3.120000 7.160000 4.768879 -47.424965 2271.869385
4.880000 3.120000 7.200000 35.669712 -37.456146 2675.291260
4.880000 3.160000 6.800000 4.772021 -21.198902 472.165649
4.880000 3.160000 6.840000 16.419876 -20.919937 707.256104
4.880000 3.160000 6.880000 24.297092 -12.276026 741.049500
4.880000 3.160000 6.920000 23.587854 -0.840672 557.093628
4.880000 3.160000 6.960000 15.027824 6.234760 264.707733
4.880000 3.160000 7.000000 4.246037 4.542397 38.662193
4.880000 3.160000 7.040000 -1.586769 -4.921947 26.743402
4.880000 3.160000 7.080000 1.867527 -16.162008 264.698151
4.880000 3.160000 7.120000 13.182812 -21.714365 645.300171
4.880000 3.160000 7.160000 25.764172 -17.501335 970.089233
4.880000 3.160000 7.200000 32.141422 -5.755455 1066.196289
4.880000 3.200000 6.800000 8.955107 -9.574339 171.861908
4.880000 3.200000 6.840000 9.282588 -3.310421 97.125328
4.880000 3.200000 6.880000 2.855360 -1.197044 9.585997
4.880000 3.200000 6.920000 -2.783485 -7.803579 68.643639
4.880000 3.200000 6.960000 0.449127 -18.593929 345.935913
4.880000 3.200000 7.000000 12.908909 -23.876411 736.722900
4.880000 3.200000 7.040000 26.438446 -17.917240 1020.018921
4.880000 3.200000 7.080000 31.704727 -4.275745 1023.471680
4.880000 3.200000 7.120000 26.433002 7.602264 756.498047
4.880000 3.200000 7.160000 16.770229 10.915122 400.380493
4.880000 3.200000 7.200000 11.076817 6.866043 169.838409
4.920000 2.800000 6.800000 -16.740036 -20.601307 704.642700
4.920000 2.800000 6.840000 -9.081978 -21.117870 528.446777
4.920000 2.800000 6.880000 -2.954147 -20.109440 413.116547
4.920000 2.800000 6.920000 3.250645 -18.701344 360.306946
4.920000 2.800000 6.960000 10.679014 -15.033928 340.060333
4.920000 2.800000 7.000000 17.164856 -6.647987 338.828033
4.920000 2.800000 7.040000 18.257572 5.667595 365.460571
4.920000 2.800000 7.080000 11.437210 16.939732 417.764282
4.920000 2.800000 7.120000 -0.757986 21.418406 459.322662
4.920000 2.800000 7.160000 -12.001362 17.204062 440.012421
4.920000 2.800000 7.200000 -16.749762 7.734441 340.376068
4.920000 2.840000 6.800000 7.542385 -16.735563 336.966644
4.920000 2.840000 6.840000 9.953651 0.757484 99.648964
4.920000 2.840000 6.880000 -3.092106 13.377436 188.516907
4.920000 2.840000 6.920000 -21.198248 9.530399 540.194214
4.920000 2.840000 6.960000 -28.136848 -8.360771 861.584717
4.920000 2.840000 7.000000 -16.700924 -24.955231 901.684448
4.920000 2.840000 7.040000 4.236637 -25.547243 670.610718
4.920000 2.840000 7.080000 17.611488 -9.303721 396.723755
4.920000 2.840000 7.120000 13.454824 10.394852 289.085236
4.920000 2.840000 7.160000 -2.898689 18.475403 349.742920
4.920000 2.840000 7.200000 -16.868076 11.271063 411.568878
4.920000 2.880000 6.800000 18.815538 8.005074 418.105682
4.920000 2.880000 6.840000 -1.806110 35.759571 1282.009033
4.920000 2.880000 6.880000 -43.534203 37.143906 3274.896484
4.920000 2.880000 6.920000 -75.308655 1.199852 5672.833008
4.920000 2.880000 6.960000 -67.875267 -50.855301 7193.313477
4.920000 2.880000 7.000000 -21.689728 -80.629944 6971.632324
4.920000 2.880000 7.040000 30.842621 -65.493797 5240.704590
4.920000 2.880000 7.080000 52.520729 -18.564968 3103.084961
4.920000 2.880000 7.120000 32.794182 23.435299 1624.671631
4.920000 2.880000 7.160000 -5.688858 32.567570 1093.009766
4.920000 2.880000 7.200000 -30.100666 11.618047 1041.029053
4.920000 2.920000 6.800000 3.168842 33.588654 1138.239136
4.920000 2.920000 6.840000 -45.624336 48.520596 4435.828125
4.920000 2.920000 6.880000 -99.675064 13.459148 10116.266602
4.920000 2.920000 6.920000 -110.832375 -61.693527 16089.906250
4.920000 2.920000 6.960000 -57.422256 -126.809288 19377.910156
4.920000 2.920000 7.000000 30.504974 -131.621933 18254.886719
4.920000 2.920000 7.040000 92.548737 -70.604958 13550.328125
4.920000 2.920000 7.080000 88.562500 10.654419 7956.833008
4.920000 2.920000 7.120000 31.558134 54.728600 3991.135498
4.920000 2.920000 7.160000 -27.373201 40.385033 2380.242920
4.920000 2.920000 7.200000 -45.870026 -4.889930 2127.970703
4.920000 2.960000 6.800000 -29.522474 35.765221 2150.727539
4.920000 2.960000 6.840000 -89.003265 17.215090 8217.940430
4.920000 2.960000 6.880000 -121.024506 -56.215561 17807.119141
4.920000 2.960000 6.920000 -82.066460 -143.348373 27283.660156
4.920000 2.960000 6.960000 18.424778 -177.888336 31983.732422
4.920000 2.960000 7.000000 116.730392 -126.040237 29512.125000
4.920000 2.960000 7.040000 145.260330 -20.268955 21511.394531
4.920000 2.960000 7.080000 89.967712 65.447372 12377.547852
4.920000 2.960000 7.120000 0.841057 77.720879 6041.242676
4.920000 2.960000 7.160000 -53.890900 25.592072 3559.183105
4.920000 2.960000 7.200000 -45.543114 -34.999100 3299.112305
4.920000 3.000000 6.800000 -52.306717 9.188166 2820.415039
4.920000 3.000000 6.840000 -93.239578 -41.586971 10423.095703
4.920000 3.000000 6.880000 -79.125923 -124.993698 21884.335938
4.920000 3.000000 6.920000 5.457624 -180.798386 32717.841797
4.920000 3.000000 6.960000 115.715317 -155.515533 37575.117188
4.920000 3.000000 7.000000 176.376450 -53.849266 34008.394531
4.920000 3.000000 7.040000 144.464996 58.318340 24271.164062
4.920000 3.000000 7.080000 47.347336 106.632050 13612.164062
4.920000 3.000000 7.120000 -40.849258 69.567986 6508.366211
4.920000 3.000000 7.160000 -62.700363 -8.037297 3995.933594
4.920000 3.000000 7.200000 -21.681944 -59.548149 4016.088867
4.920000 3.040000 6.800000 -45.355026 -26.195057 2743.259277
4.920000 3.040000 6.840000 -50.366066 -84.727402 9715.472656
4.920000 3.040000 6.880000 1.782293 -140.778809 19821.849609
4.920000 3.040000 6.920000 93.822861 -141.989136 28963.644531
4.920000 3.040000 6.960000 166.703674 -69.205460 32579.511719
4.920000 3.040000 7.000000 165.381042 38.732193 28851.072266
4.920000 3.040000 7.040000 87.550392 111.320053 20057.226562
4.920000 3.040000 7.080000 -11.283024 103.736977 10888.666992
4.920000 3.040000 7.120000 -63.475281 33.256374 5135.097656
4.920000 3.040000 7.160000 -44.348221 -38.696571 3464.189453
4.920000 3.040000 7.200000 13.189667 -60.839855 3875.455322
4.920000 3.080000 6.800000 -14.285547 -42.912312 2045.543335
4.920000 3.080000 6.840000 8.002729 -81.304489 6674.463379
4.920000 3.080000 6.880000 64.484581 -94.321808 13054.865234
4.920000 3.080000 6.920000 123.516373 -56.885307 18492.232422
4.920000 3.080000 6.960000 140.862976 19.608795 20226.882812
4.920000 3.080000 7.000000 96.929352 89.328690 17374.914062
4.920000 3.080000 7.040000 17.258953 106.399246 11618.670898
4.920000 3.080000 7.080000 -45.279930 62.858723 6001.491211
4.920000 3.080000 7.120000 -52.835922 -4.634747 2813.115723
4.920000 3.080000 7.160000 -11.754478 -46.133881 2266.502686
4.920000 3.080000 7.200000 37.070824 -39.073730 2901.002441
4.920000 3.120000 6.800000 15.659121 -30.929901 1201.866821
4.920000 3.120000 6.840000 39.773529 -40.240494 3201.230957
4.920000 3.120000 6.880000 70.513184 -26.719015 5686.014648
4.920000 3.120000 6.920000 86.302490 10.583900 7560.138672
4.920000 3.120000 6.960000 70.678238 53.388783 7845.775391
4.920000 3.120000 7.000000 27.671509 74.872681 6371.630859
4.920000 3.120000 7.040000 -17.869678 60.208733 3944.416992
4.920000 3.120000 7.080000 -37.858158 19.661079 1819.798096
4.920000 3.120000 7.120000 -22.729675 -18.396381 855.064941
4.920000 3.120000 7.160000 11.604084 -29.619715 1011.982300
4.920000 3.120000 7.200000 37.771435 -11.906054 1568.435425
4.920000 3.160000 6.800000 23.752527 -5.247109 591.714722
4.920000 3.160000 6.840000 30.494953 0.648651 930.362915
4.920000 3.160000 6.880000 32.401833 10.829342 1167.153442
4.920000 3.160000 6.920000 27.763371 21.351696 1226.699707
4.920000 3.160000 6.960000 17.267670 28.056044 1085.313965
4.920000 3.160000 7.000000 4.084618 27.488211 772.285828
4.920000 3.160000 7.040000 -6.315098 18.697266 389.468201
4.920000 3.160000 7.080000 -8.372692 5.177704 96.910591
4.920000 3.160000 7.120000 -0.434845 -5.718171 32.886570
4.920000 3.160000 7.160000 12.743275 -7.166731 213.753082
4.920000 3.160000 7.200000 22.386303 1.812206 504.430634
4.920000 3.200000 6.800000 12.016211 10.706367 259.015625
4.920000 3.200000 6.840000 2.729614 12.078482 153.340515
4.920000 3.200000 6.880000 -4.381807 3.586452 32.062878
4.920000 3.200000 6.920000 -0.557686 -8.248825 68.354126
4.920000 3.200000 6.960000 12.580669 -11.803259 297.590149
4.920000 3.200000 7.000000 23.581615 -2.437012 562.031616
4.920000 3.200000 7.040000 22.318115 12.136631 645.396057
4.920000 3.200000 7.080000 10.265190 19.144737 471.895081
4.920000 3.200000 7.120000 -0.905933 13.389297 180.093994
4.920000 3.200000 7.160000 -0.986556 2.231146 5.951304
4.920000 3.200000 7.200000 8.757616 -2.072248 80.990051
4.960000 2.800000 6.800000 -5.903147 -20.458126 453.382050
4.960000 2.800000 6.840000 -0.817036 -17.979233 323.920349
4.960000 2.800000 6.880000 2.668243 -16.574127 281.821228
4.960000 2.800000 6.920000 8.127476 -15.614788 309.877472
4.960000 2.800000 6.960000 15.786970 -10.886604 367.746582
4.960000 2.800000 7.000000 20.903141 -0.056072 436.944458
4.960000 2.800000 7.040000 18.180557 13.395554 509.973511
4.960000 2.800000 7.080000 7.495247 22.403200 558.082092
4.960000 2.800000 7.120000 -5.293810 22.530125 535.630920
4.960000 2.800000 7.160000 -13.320677 15.753435 425.611145
4.960000 2.800000 7.200000 -14.275703 8.165242 270.466888
4.960000 2.840000 6.800000 9.956430 -5.451475 128.849091
4.960000 2.840000 6.840000 0.068127 11.283051 127.311867
4.960000 2.840000 6.880000 -21.327404 12.124371 601.858521
4.960000 2.840000 6.920000 -35.049126 -6.865097 1275.570679
4.960000 2.840000 6.960000 -26.769924 -30.891644 1670.922485
4.960000 2.840000 7.000000 -1.124794 -39.240936 1541.116211
4.960000 2.840000 7.040000 21.972855 -24.148882 1065.974854
4.960000 2.840000 7.080000 25.202198 2.520603 641.504211
4.960000 2.840000 7.120000 8.586437 20.713600 502.780121
4.960000 2.840000 7.160000 -12.463182 19.996675 555.197937
4.960000 2.840000 7.200000 -22.428925 6.765575 548.829712
4.960000 2.880000 6.800000 3.592270 18.612194 359.318146
4.960000 2.880000 6.840000 -34.200443 31.404366 2155.904541
4.960000 2.880000 6.880000 -75.467499 3.678780 5708.876465
4.960000 2.880000 6.920000 -81.280792 -54.119957 9535.537109
4.960000 2.880000 6.960000 -37.454155 -100.593529 11521.871094
4.960000 2.880000 7.000000 28.787682 -98.611359 10552.930664
4.960000 2.880000 7.040000 70.562065 -48.923454 7372.509277
4.960000 2.880000 7.080000 61.681335 10.418461 3913.131592
4.960000 2.880000 7.120000 17.392208 38.109936 1754.856079
4.960000 2.880000 7.160000 -22.950478 24.108673 1107.952515
4.960000 2.880000 7.200000 -32.393349 -7.199029 1101.155029
4.960000 2.920000 6.800000 -24.091618 26.770855 1297.084717
4.960000 2.920000 6.840000 -80.766754 10.181049 6626.922363
4.960000 2.920000 6.880000 -110.330551 -59.973488 15769.649414
4.960000 2.920000 6.920000 -71.042168 -141.507019 25071.226562
4.960000 2.920000 6.960000 24.792625 -170.448669 29667.421875
4.960000 2.920000 7.000000 114.281715 -118.240631 27041.156250
4.960000 2.920000 7.040000 136.088043 -20.027092 18921.039062
4.960000 2.920000 7.080000 82.914734 54.733147 9870.570312
4.960000 2.920000 7.120000 4.681599 61.902996 3853.898438
4.960000 2.920000 7.160000 -38.883793 16.102566 1771.241943
4.960000 2.920000 7.200000 -29.103741 -30.941605 1804.410645
4.960000 2.960000 6.800000 -49.604752 5.758842 2493.795654
4.960000 2.960000 6.840000 -95.731949 -49.227547 11587.958008
4.960000 2.960000 6.880000 -79.545174 -141.794128 26433.007812
4.960000 2.960000 6.920000 15.558533 -202.187958 41122.035156
4.960000 2.960000 6.960000 136.770309 -171.474091 48109.480469
4.960000 2.960000 7.000000 200.349564 -58.812840 43598.898438
4.960000 2.960000 7.040000 163.326416 60.777653 30369.441406
4.960000 2.960000 7.080000 60.682678 109.199989 15607.025391
4.960000 2.960000 7.120000 -27.476496 70.053291 5662.421875
4.960000 2.960000 7.160000 -46.345612 -4.696826 2169.975830
4.960000 2.960000 7.200000 -7.322621 -48.419308 2398.050293
4.960000 3.000000 6.800000 -47.677280 -30.832180 3223.746338
4.960000 3.000000 6.840000 -56.292679 -104.860954 14164.685547
4.960000 3.000000 6.880000 10.487930 -177.339493 31559.291016
4.960000 3.000000 6.920000 129.362503 -178.048080 48435.773438
4.960000 3.000000 6.960000 221.894623 -83.393723 56191.734375
4.960000 3.000000 7.000000 218.537109 53.631538 50634.812500
4.960000 3.000000 7.040000 120.794693 143.100189 35069.023438
4.960000 3.000000 7.080000 1.380966 133.357101 17786.023438
4.960000 3.000000 7.120000 -58.822235 51.669949 6129.838867
4.960000 3.000000 7.160000 -37.261299 -26.310585 2080.651367
4.960000 3.000000 7.200000 21.251373 -45.873203 2555.971680
4.960000 3.040000 6.800000 -15.894869 -53.213196 3084.291016
4.960000 3.040000 6.840000 14.076000 -112.353371 12821.414062
4.960000 3.040000 6.880000 99.788445 -134.334167 28003.402344
4.960000 3.040000 6.920000 190.978363 -77.495682 42478.316406
4.960000 3.040000 6.960000 217.543610 39.703823 48901.617188
4.960000 3.040000 7.000000 150.874329 145.143204 43829.609375
4.960000 3.040000 7.040000 32.884735 170.665009 30207.951172
4.960000 3.040000 7.080000 -57.219093 109.083115 15173.150391
4.960000 3.040000 7.120000 -68.803391 17.428953 5037.675293
4.960000 3.040000 7.160000 -17.388092 -35.364914 1553.022827
4.960000 3.040000 7.200000 38.233017 -25.632662 2118.796875
4.960000 3.080000 6.800000 21.781557 -42.720108 2299.443848
4.960000 3.080000 6.840000 64.682655 -66.231659 8570.478516
4.960000 3.080000 6.880000 127.149490 -44.421635 18140.275391
4.960000 3.080000 6.920000 162.022705 28.870537 27084.865234
4.960000 3.080000 6.960000 132.573273 115.451500 30904.720703
4.960000 3.080000 7.000000 47.666588 159.080780 27578.798828
4.960000 3.080000 7.040000 -40.930023 131.561203 18983.617188
4.960000 3.080000 7.080000 -79.419632 56.710461 9523.554688
4.960000 3.080000 7.120000 -54.724636 -10.380146 3102.533203
4.960000 3.080000 7.160000 -0.701925 -29.422216 866.159485
4.960000 3.080000 7.200000 35.510101 -4.038429 1277.276245
4.960000 3.120000 6.800000 36.937477 -8.997690 1445.335571
4.960000 3.120000 6.840000 63.293831 -4.691725 4028.121338
4.960000 3.120000 6.880000 84.455872 25.848629 7800.946289
4.960000 3.120000 6.920000 77.812912 71.897278 11224.068359
4.960000 3.120000 6.960000 36.978149 106.124237 12629.737305
4.960000 3.120000 7.000000 -19.431389 104.445206 11286.379883
4.960000 3.120000 7.040000 -59.551323 65.895622 7888.592773
4.960000 3.120000 7.080000 -62.170181 14.696636 4081.122559
4.960000 3.120000 7.120000 -32.471382 -18.202810 1385.732910
4.960000 3.120000 7.160000 3.797892 -18.347795 351.065582
4.960000 3.120000 7.200000 21.839329 3.990015 492.876495
4.960000 3.160000 6.800000 22.504734 20.019793 907.255127
4.960000 3.160000 6.840000 23.259731 26.881443 1263.627075
4.960000 3.160000 6.880000 19.398302 35.618279 1644.955811
4.960000 3.160000 6.920000 9.967529 43.264084 1971.132690
4.960000 3.160000 6.960000 -4.597603 46.145477 2150.542969
4.960000 3.160000 7.000000 -21.090714 40.383663 2075.658447
4.960000 3.160000 7.040000 -32.891602 24.792648 1696.532837
4.960000 3.160000 7.080000 -32.994392 4.133713 1105.717407
4.960000 3.160000 7.120000 -19.796600 -11.691935 528.606750
4.960000 3.160000 7.160000 -0.363738 -13.895546 193.218506
4.960000 3.160000 7.200000 13.194008 -2.036418 178.228851
4.960000 3.200000 6.800000 -2.870385 24.895370 628.018616
4.960000 3.200000 6.840000 -13.720184 16.591478 463.520630
4.960000 3.200000 6.880000 -13.706818 1.526400 190.206741
4.960000 3.200000 6.920000 -0.960976 -6.856251 47.931648
4.960000 3.200000 6.960000 12.535900 0.260117 157.216446
4.960000 3.200000 7.000000 12.215717 16.237495 412.880005
4.960000 3.200000 7.040000 -3.403658 24.172184 595.879395
4.960000 3.200000 7.080000 -19.690395 13.909729 581.192261
4.960000 3.200000 7.120000 -19.859516 -6.641726 438.512909
4.960000 3.200000 7.160000 -2.193490 -18.388609 342.952332
4.960000 3.200000 7.200000 17.409403 -9.822971 399.578064
5.000000 2.800000 6.800000 0.119148 -10.992250 120.843765
5.000000 2.800000 6.840000 0.370903 -9.834178 96.848625
5.000000 2.800000 6.880000 2.759117 -11.736622 145.361023
5.000000 2.800000 6.920000 10.152148 -11.586342 237.309433
5.000000 2.800000 6.960000 18.380234 -4.024910 354.032898
5.000000 2.800000 7.000000 19.846390 9.624895 486.517792
5.000000 2.800000 7.040000 11.507935 21.625824 600.108826
5.000000 2.800000 7.080000 -1.729147 25.123320 634.171143
5.000000 2.800000 7.120000 -11.862286 20.462069 559.410095
5.000000 2.800000 7.160000 -15.377584 13.834375 427.860016
5.000000 2.800000 7.200000 -15.359356 10.335858 342.739807
5.000000 2.840000 6.800000 0.698107 4.331716 19.251112
5.000000 2.840000 6.840000 -17.064873 8.930603 370.965546
5.000000 2.840000 6.880000 -33.218449 -6.057144 1140.154297
5.000000 2.840000 6.920000 -30.075537 -31.315269 1885.184082
5.000000 2.840000 6.960000 -5.924522 -45.805099 2133.207031
5.000000 2.840000 7.000000 22.157722 -36.014591 1788.015381
5.000000 2.840000 7.040000 33.338493 -8.319557 1180.670166
5.000000 2.840000 7.080000 21.023741 17.230843 738.899658
5.000000 2.840000 7.120000 -3.082262 24.779701 623.533936
5.000000 2.840000 7.160000 -21.281023 14.733054 669.944824
5.000000 2.840000 7.200000 -25.290627 -0.107239 639.627258
5.000000 2.880000 6.800000 -17.085417 12.742599 454.285309
5.000000 2.880000 6.840000 -53.996342 -0.011559 2915.605225
5.000000 2.880000 6.880000 -70.086693 -47.829304 7199.787109
5.000000 2.880000 6.920000 -39.307037 -99.264122 11398.409180
5.000000 2.880000 6.960000 25.648239 -111.902161 13179.925781
5.000000 2.880000 7.000000 80.622665 -71.274002 11579.998047
5.000000 2.880000 7.040000 87.712906 -5.340553 7722.075195
5.000000 2.880000 7.080000 47.550262 39.824017 3846.979492
5.000000 2.880000 7.120000 -4.075686 39.552341 1580.998901
5.000000 2.880000 7.160000 -30.191322 7.856464 973.239990
5.000000 2.880000 7.200000 -23.190189 -21.364975 994.247070
5.000000 2.920000 6.800000 -38.089996 -1.340611 1452.645020
5.000000 2.920000 6.840000 -74.023270 -46.817440 7671.317383
5.000000 2.920000 6.880000 -57.405472 -121.685265 18102.691406
5.000000 2.920000 6.920000 22.931763 -166.903915 28382.781250
5.000000 2.920000 6.960000 120.327530 -136.159546 33018.136719
5.000000 2.920000 7.000000 166.401276 -41.613285 29421.050781
5.000000 2.920000 7.040000 130.622910 52.927826 19863.699219
5.000000 2.920000 7.080000 46.332897 86.586906 9644.029297
5.000000 2.920000 7.120000 -21.254269 51.781151 3133.031494
5.000000 2.920000 7.160000 -32.746300 -6.356346 1112.723389
5.000000 2.920000 7.200000 -2.520508 -36.928608 1370.074951
5.000000 2.960000 6.800000 -39.016365 -32.175591 2557.545410
5.000000 2.960000 6.840000 -46.121262 -102.118652 12555.389648
5.000000 2.960000 6.880000 19.714952 -169.508362 29121.763672
5.000000 2.960000 6.920000 133.731796 -166.083405 45467.890625
5.000000 2.960000 6.960000 218.661774 -71.993729 52996.070312
5.000000 2.960000 7.000000 209.990326 58.154877 47477.925781
5.000000 2.960000 7.040000 114.355942 138.376923 32225.453125
5.000000 2.960000 7.080000 4.051889 124.492126 15514.708008
5.000000 2.960000 7.120000 -47.193691 48.043182 4535.391602
5.000000 2.960000 7.160000 -24.977909 -19.171442 991.440125
5.000000 2.960000 7.200000 24.449287 -31.856682 1612.615845
5.000000 3.000000 6.800000 -11.828222 -54.887871 3152.585205
5.000000 3.000000 6.840000 20.980095 -119.808517 14794.245117
5.000000 3.000000 6.880000 116.732918 -142.727814 33997.804688
5.000000 3.000000 6.920000 216.919983 -76.707870 52938.375000
5.000000 3.000000 6.960000 242.433609 54.628471 61758.324219
5.000000 3.000000 7.000000 164.781052 168.444183 55526.238281
5.000000 3.000000 7.040000 35.207180 191.423141 37882.367188
5.000000 3.000000 7.080000 -58.405296 121.863625 18261.921875
5.000000 3.000000 7.120000 -66.314774 26.427662 5096.070801
5.000000 3.000000 7.160000 -12.711963 -22.932989 687.515991
5.000000 3.000000 7.200000 37.566944 -9.258194 1496.989380
5.000000 3.040000 6.800000 25.900269 -47.893745 2964.634766
5.000000 3.040000 6.840000 81.486755 -80.331085 13093.173828
5.000000 3.040000 6.880000 164.751984 -51.407532 29785.951172
5.000000 3.040000 6.920000 209.824554 47.083427 46243.191406
5.000000 3.040000 6.960000 167.643036 160.928391 54002.132812
5.000000 3.040000 7.000000 54.146881 214.154572 48794.062500
5.000000 3.040000 7.040000 -58.585075 173.745453 33619.695312
5.000000 3.040000 7.080000 -102.366318 77.350258 16461.925781
5.000000 3.040000 7.120000 -68.055527 -1.981781 4635.481934
5.000000 3.040000 7.160000 -5.234466 -19.142317 393.827911
5.000000 3.040000 7.200000 28.893154 11.643826 970.393005
5.000000 3.080000 6.800000 45.496651 -13.936806 2264.179932
5.000000 3.080000 6.840000 92.422173 -11.009583 8663.069336
5.000000 3.080000 6.880000 132.347229 41.160942 19210.011719
5.000000 3.080000 6.920000 121.135201 122.245972 29617.812500
5.000000 3.080000 6.960000 48.504181 179.717392 34650.996094
5.000000 3.080000 7.000000 -47.384823 171.458801 31643.443359
5.000000 3.080000 7.040000 -108.700668 102.439804 22309.748047
5.000000 3.080000 7.080000 -104.878204 20.745310 11429.805664
5.000000 3.080000 7.120000 -54.774872 -23.298725 3543.117188
5.000000 3.080000 7.160000 -5.286345 -16.495056 300.032318
5.000000 3.080000 7.200000 10.696204 14.251565 317.515869
5.000000 3.120000 6.800000 33.179855 21.635292 1568.988770
5.000000 3.120000 6.840000 51.979095 38.050842 4149.692871
5.000000 3.120000 6.880000 52.813007 74.689445 8367.726562
5.000000 3.120000 6.920000 21.595161 109.934860 12552.024414
5.000000 3.120000 6.960000 -32.383762 116.981644 14733.413086
5.000000 3.120000 7.000000 -80.751175 85.655716 13857.654297
5.000000 3.120000 7.040000 -96.969284 31.725662 10409.559570
5.000000 3.120000 7.080000 -76.204193 -14.805601 6026.285156
5.000000 3.120000 7.120000 -37.273773 -32.236038 2428.496338
5.000000 3.120000 7.160000 -6.232644 -21.131205 485.373657
5.000000 3.120000 7.200000 2.989916 0.631504 9.338394
5.000000 3.160000 6.800000 1.912526 34.065426 1164.110962
5.000000 3.160000 6.840000 -1.446972 38.797455 1507.336304
5.000000 3.160000 6.880000 -9.622570 43.300827 1967.555542
5.000000 3.160000 6.920000 -22.178425 44.293442 2453.791504
5.000000 3.160000 6.960000 -37.122528 38.716011 2877.011719
5.000000 3.160000 7.000000 -50.147789 24.324326 3106.473633
5.000000 3.160000 7.040000 -54.674595 2.255795 2994.399902
5.000000 3.160000 7.080000 -45.350746 -20.603525 2481.195312
5.000000 3.160000 7.120000 -23.540047 -33.618320 1684.325317
5.000000 3.160000 7.160000 0.628612 -29.547688 873.460999
5.000000 3.160000 7.200000 13.739096 -11.462475 320.151093
5.000000 3.200000 6.800000 -22.225422 20.878468 929.879761
5.000000 3.200000 6.840000 -27.179100 6.655193 782.995117
5.000000 3.200000 6.880000 -18.966034 -7.320301 413.297241
5.000000 3.200000 6.920000 -3.553665 -8.284153 81.255722
5.000000 3.200000 6.960000 3.295827 4.435997 30.540546
5.000000 3.200000 7.000000 -7.255634 15.874249 304.635986
5.000000 3.200000 7.040000 -25.483784 9.753468 744.553345
5.000000 3.200000 7.080000 -30.842691 -13.324305 1128.808716
5.000000 3.200000 7.120000 -12.863115 -33.866901 1312.426758
5.000000 3.200000 7.160000 16.285448 -31.717495 1271.215332
5.000000 3.200000 7.200000 31.931278 -6.813440 1066.029419
5.040000 2.800000 6.800000 -5.764457 -0.601248 33.590462
5.040000 2.800000 6.840000 -7.171685 -5.775717 84.791977
5.040000 2.800000 6.880000 -0.995337 -11.357727 129.988663
5.040000 2.800000 6.920000 10.109322 -8.976894 182.783020
5.040000 2.800000 6.960000 16.605171 3.120224 285.467529
5.040000 2.800000 7.000000 11.842102 17.170643 435.066345
5.040000 2.800000 7.040000 -0.955963 23.467548 551.639709
5.040000 2.800000 7.080000 -12.343767 19.943722 550.120605
5.040000 2.800000 7.120000 -16.605358 13.111076 447.638245
5.040000 2.800000 7.160000 -16.724491 9.808168 375.908783
5.040000 2.800000 7.200000 -19.177900 9.594481 459.845917
5.040000 2.840000 6.800000 -15.217768 1.595816 234.127090
5.040000 2.840000 6.840000 -27.393536 -8.937706 830.288391
5.040000 2.840000 6.880000 -26.198463 -29.854801 1577.668701
5.040000 2.840000 6.920000 -6.482208 -44.812965 2050.220947
5.040000 2.840000 6.960000 20.179405 -39.701683 1983.432007
5.040000 2.840000 7.000000 35.085796 -16.009613 1487.320801
5.040000 2.840000 7.040000 28.553349 10.478558 925.093872
5.040000 2.840000 7.080000 7.065157 23.488373 601.620117
5.040000 2.840000 7.120000 -14.161964 18.841415 555.560181
5.040000 2.840000 7.160000 -24.484741 4.768618 622.242249
5.040000 2.840000 7.200000 -24.199463 -7.980144 649.296692
5.040000 2.880000 6.800000 -26.866302 -10.125502 824.323975
5.040000 2.880000 6.840000 -42.184788 -38.878521 3291.095703
5.040000 2.880000 6.880000 -25.641842 -79.712784 7011.631836
5.040000 2.880000 6.920000 24.231277 -98.312424 10252.488281
5.040000 2.880000 6.960000 77.231400 -72.496201 11220.388672
5.040000 2.880000 7.000000 95.927803 -14.795425 9421.047852
5.040000 2.880000 7.040000 68.326958 36.636902 6010.835938
5.040000 2.880000 7.080000 17.513321 50.415833 2848.472412
5.040000 2.880000 7.120000 -20.067184 26.756329 1118.593018
5.040000 2.880000 7.160000 -25.677523 -7.504900 715.658691
5.040000 2.880000 7.200000 -9.530776 -26.064293 770.183044
5.040000 2.920000 6.800000 -24.365196 -33.232574 1698.066895
5.040000 2.920000 6.840000 -24.130802 -81.040970 7149.934082
5.040000 2.920000 6.880000 26.245373 -123.380020 15911.448242
5.040000 2.920000 6.920000 106.099579 -113.724434 24190.367188
5.040000 2.920000 6.960000 160.290802 -42.386799 27489.781250
5.040000 2.920000 7.000000 146.799149 48.745667 23926.130859
5.040000 2.920000 7.040000 75.234192 99.977409 15655.666016
5.040000 2.920000 7.080000 -1.488533 84.690125 7174.632812
5.040000 2.920000 7.120000 -34.053696 28.940632 1997.214355
5.040000 2.920000 7.160000 -16.603569 -17.064041 566.859985
5.040000 2.920000 7.200000 16.780521 -25.167986 915.013428
5.040000 2.960000 6.800000 -0.579138 -49.885765 2488.925049
5.040000 2.960000 6.840000 28.837700 -99.509102 10733.674805
5.040000 2.960000 6.880000 107.975014 -113.069244 24443.257812
5.040000 2.960000 6.920000 187.036560 -53.666306 37862.750000
5.040000 2.960000 6.960000 201.627411 55.920036 43780.664062
5.040000 2.960000 7.000000 132.184021 145.890411 38756.625000
5.040000 2.960000 7.040000 24.870361 158.484833 25735.976562
5.040000 2.960000 7.080000 -47.920654 97.375290 11778.335938
5.040000 2.960000 7.120000 -49.666626 20.273874 2877.803711
5.040000 2.960000 7.160000 -5.066006 -15.973967 280.832031
5.040000 2.960000 7.200000 32.183830 -2.857212 1043.962646
5.040000 3.000000 6.800000 31.938776 -42.381721 2816.295654
5.040000 3.000000 6.840000 84.456558 -70.340523 12080.699219
5.040000 3.000000 6.880000 162.199860 -39.435226 27863.931641
5.040000 3.000000 6.920000 200.995453 56.820206 43627.707031
5.040000 3.000000 6.960000 155.275452 163.935608 50985.351562
5.040000 3.000000 7.000000 44.325661 209.083557 45680.699219
5.040000 3.000000 7.040000 -60.171494 164.801605 30780.177734
5.040000 3.000000 7.080000 -95.385612 72.266800 14320.905273
5.040000 3.000000 7.120000 -58.830235 2.069393 3465.279053
5.040000 3.000000 7.160000 -2.105573 -8.067816 69.523087
5.040000 3.000000 7.200000 22.748211 21.421312 976.353699
5.040000 3.040000 6.800000 49.573273 -11.150387 2581.840332
5.040000 3.040000 6.840000 101.975113 -7.467308 10454.684570
5.040000 3.040000 6.880000 146.097321 53.009689 24154.455078
5.040000 3.040000 6.920000 130.051880 145.357910 38042.414062
5.040000 3.040000 6.960000 44.185665 207.085083 44836.601562
5.040000 3.040000 7.000000 -63.665100 191.446762 40705.109375
5.040000 3.040000 7.040000 -126.482925 109.722603 28036.980469
5.040000 3.040000 7.080000 -114.644936 21.164852 13591.412109
5.040000 3.040000 7.120000 -57.093582 -19.448259 3637.911865
5.040000 3.040000 7.160000 -9.115030 -5.689791 115.457497
5.040000 3.040000 7.200000 -1.243004 25.141586 633.644409
5.040000 3.080000 6.800000 38.485031 23.358528 2026.718506
5.040000 3.080000 6.840000 68.968475 46.600403 6928.248047
5.040000 3.080000 6.880000 71.612640 102.487183 15631.993164
5.040000 3.080000 6.920000 23.609955 154.978394 24575.732422
5.040000 3.080000 6.960000 -57.158089 161.077454 29212.992188
5.040000 3.080000 7.000000 -123.094193 109.195236 27075.781250
5.040000 3.080000 7.040000 -135.988617 30.736813 19437.656250
5.040000 3.080000 7.080000 -97.836090 -26.511774 10274.774414
5.040000 3.080000 7.120000 -45.206726 -37.650166 3461.183105
5.040000 3.080000 7.160000 -14.834095 -16.132099 480.294983
5.040000 3.080000 7.200000 -14.627361 5.925442 249.070557
5.040000 3.120000 6.800000 7.375896 37.956196 1495.076660
5.040000 3.120000 6.840000 12.593113 57.672363 3484.687988
5.040000 3.120000 6.880000 -5.258186 83.772827 7045.535156
5.040000 3.120000 6.920000 -45.675655 93.090065 10752.025391
5.040000 3.120000 6.960000 -88.507301 71.084305 12886.521484
5.040000 3.120000 7.000000 -108.951859 24.709206 12481.052734
5.040000 3.120000 7.040000 -96.627411 -22.613239 9848.214844
5.040000 3.120000 7.080000 -62.138313 -48.943836 6256.668945
5.040000 3.120000 7.120000 -26.830704 -48.613289 3083.138672
5.040000 3.120000 7.160000 -6.397820 -32.328323 1086.052612
5.040000 3.120000 7.200000 -2.587883 -15.418409 244.424484
5.040000 3.160000 6.800000 -20.679531 26.696022 1140.320557
5.040000 3.160000 6.840000 -25.963737 28.350780 1477.882446
5.040000 3.160000 6.880000 -35.271988 26.509832 1946.884399
5.040000 3.160000 6.920000 -45.235836 19.133308 2412.364258
5.040000 3.160000 6.960000 -52.828369 6.320488 2830.785156
5.040000 3.160000 7.000000 -55.223400 -11.198608 3175.032959
5.040000 3.160000 7.040000 -48.819496 -31.053425 3347.658447
5.040000 3.160000 7.080000 -31.215197 -47.092613 3192.102539
5.040000 3.160000 7.120000 -5.831727 -50.885368 2623.329834
5.040000 3.160000 7.160000 16.658026 -38.289581 1743.581787
5.040000 3.160000 7.200000 24.373793 -15.545484 835.743835
5.040000 3.200000 6.800000 -29.208630 4.163026 870.474854
5.040000 3.200000 6.840000 -27.835587 -9.017694 856.138672
5.040000 3.200000 6.880000 -16.087257 -17.736715 573.390869
5.040000 3.200000 6.920000 -3.293393 -13.564613 194.845169
5.040000 3.200000 6.960000 -2.648067 -2.063259 11.269300
5.040000 3.200000 7.000000 -15.056065 0.657272 227.117081
5.040000 3.200000 7.040000 -24.852943 -14.502491 827.991089
5.040000 3.200000 7.080000 -14.810242 -36.874985 1579.107788
5.040000 3.200000 7.120000 14.098995 -44.003700 2135.107422
5.040000 3.200000 7.160000 40.207077 -24.399883 2211.963379
5.040000 3.200000 7.200000 41.026966 8.457262 1754.737183
5.080000 2.800000 6.800000 -19.682270 -0.695820 387.875916
5.080000 2.800000 6.840000 -15.765785 -12.198425 397.361572
5.080000 2.800000 6.880000 -2.459421 -16.630861 282.634308
5.080000 2.800000 6.920000 10.042854 -8.146716 167.227905
5.080000 2.800000 6.960000 11.058033 7.134398 173.179733
5.080000 2.800000 7.000000 0.409912 16.911875 286.179535
5.080000 2.800000 7.040000 -11.821503 15.200912 370.815674
5.080000 2.800000 7.080000 -16.490358 7.571941 329.266205
5.080000 2.800000 7.120000 -14.706705 3.505494 228.575653
5.080000 2.800000 7.160000 -14.875683 5.036453 246.651794
5.080000 2.800000 7.200000 -21.364491 4.927110 480.717865
5.080000 2.840000 6.800000 -24.022120 -15.652590 822.065796
5.080000 2.840000 6.840000 -19.721313 -31.156307 1359.645630
5.080000 2.840000 6.880000 -2.533550 -41.513313 1729.774048
5.080000 2.840000 6.920000 19.391472 -36.625275 1717.439941
5.080000 2.840000 6.960000 32.315582 -17.338509 1344.920776
5.080000 2.840000 7.000000 28.624998 4.849369 842.906860
5.080000 2.840000 7.040000 12.425211 17.568230 463.028564
5.080000 2.840000 7.080000 -5.470661 16.754143 310.629425
5.080000 2.840000 7.120000 -16.832203 7.131854 334.186401
5.080000 2.840000 7.160000 -20.391865 -4.386689 435.071198
5.080000 2.840000 7.200000 -18.857098 -14.327507 560.867554
5.080000 2.880000 6.800000 -14.360489 -35.212070 1446.113525
5.080000 2.880000 6.840000 -3.883942 -56.628220 3221.840332
5.080000 2.880000 6.880000 27.177530 -68.266838 5398.979492
5.080000 2.880000 6.920000 64.274414 -52.769726 6915.844238
5.080000 2.880000 6.960000 82.276443 -12.351250 6921.966309
5.080000 2.880000 7.000000 67.156281 30.097473 5415.823730
5.080000 2.880000 7.040000 28.735374 49.125801 3239.065918
5.080000 2.880000 7.080000 -7.618851 37.162865 1439.125366
5.080000 2.880000 7.120000 -22.013126 8.553061 557.732544
5.080000 2.880000 7.160000 -14.031503 -15.052258 423.453522
5.080000 2.880000 7.200000 1.758552 -22.814466 523.592407
5.080000 2.920000 6.800000 11.259105 -44.469734 2104.324707
5.080000 2.920000 6.840000 34.619583 -66.145462 5573.737793
5.080000 2.920000 6.880000 81.136932 -64.221695 10707.627930
5.080000 2.920000 6.920000 121.296638 -22.048019 15198.989258
5.080000 2.920000 6.960000 121.071465 43.369186 16539.185547
5.080000 2.920000 7.000000 74.076157 91.619087 13881.333984
5.080000 2.920000 7.040000 9.939495 92.816887 8713.768555
5.080000 2.920000 7.080000 -30.356733 52.969868 3727.338135
5.080000 2.920000 7.120000 -28.708427 6.648175 868.372070
5.080000 2.920000 7.160000 -1.323340 -14.857051 222.483200
5.080000 2.920000 7.200000 21.383915 -8.452477 528.716187
5.080000 2.960000 6.800000 39.724808 -31.322792 2559.177734
5.080000 2.960000 6.840000 75.230820 -42.053406 7428.165039
5.080000 2.960000 6.880000 123.315704 -14.262451 15410.180664
5.080000 2.960000 6.920000 142.008377 53.787186 23059.439453
5.080000 2.960000 6.960000 103.686752 123.986000 26123.470703
5.080000 2.960000 7.000000 24.858921 148.521973 22676.742188
5.080000 2.960000 7.040000 -44.623589 112.462875 14639.163086
5.080000 2.960000 7.080000 -64.130241 47.055954 6326.950684
5.080000 2.960000 7.120000 -35.633904 0.624798 1270.165405
5.080000 2.960000 7.160000 3.569924 -3.814993 27.298531
5.080000 2.960000 7.200000 19.125885 16.786718 647.593384
5.080000 3.000000 6.800000 51.323730 0.434981 2634.314453
5.080000 3.000000 6.840000 88.166862 8.115513 7839.256836
5.080000 3.000000 6.880000 116.860962 57.761223 16992.843750
5.080000 3.000000 6.920000 97.919151 128.961670 26219.273438
5.080000 3.000000 6.960000 26.101902 172.473969 30428.578125
5.080000 3.000000 7.000000 -58.540649 153.606842 27022.070312
5.080000 3.000000 7.040000 -103.243034 85.132675 17906.695312
5.080000 3.000000 7.080000 -88.149788 16.449604 8040.974609
5.080000 3.000000 7.120000 -40.653877 -10.621778 1765.559937
5.080000 3.000000 7.160000 -5.846359 4.173197 51.595490
5.080000 3.000000 7.200000 -4.383384 27.414064 770.744995
5.080000 3.040000 6.800000 36.595154 31.487885 2330.692139
5.080000 3.040000 6.840000 61.086086 53.648994 6609.724609
5.080000 3.040000 6.880000 59.704700 104.873375 14563.076172
5.080000 3.040000 6.920000 11.439819 150.727798 22849.738281
5.080000 3.040000 6.960000 -64.832245 150.881317 26968.392578
5.080000 3.040000 7.000000 -122.540573 97.256241 24474.968750
5.080000 3.040000 7.040000 -127.464378 23.554523 16801.984375
5.080000 3.040000 7.080000 -86.860535 -24.138521 8127.420898
5.080000 3.040000 7.120000 -39.661087 -26.837030 2293.228027
5.080000 3.040000 7.160000 -19.047691 -4.093386 379.570343
5.080000 3.040000 7.200000 -25.368147 11.085326 766.427307
5.080000 3.080000 6.800000 5.501214 42.259232 1816.105957
5.080000 3.080000 6.840000 11.819493 65.657959 4450.667969
5.080000 3.080000 6.880000 -10.495419 97.197510 9557.509766
5.080000 3.080000 6.920000 -60.568909 106.403862 14990.375000
5.080000 3.080000 6.960000 -110.467682 75.512260 17905.210938
5.080000 3.080000 7.000000 -128.112030 17.474327 16718.042969
5.080000 3.080000 7.040000 -104.939560 -34.213039 12182.843750
5.080000 3.080000 7.080000 -61.758003 -54.044746 6734.885742
5.080000 3.080000 7.120000 -28.278830 -43.762589 2714.856445
5.080000 3.080000 7.160000 -17.670691 -25.221287 948.366577
5.080000 3.080000 7.200000 -20.430439 -16.917017 703.588257
5.080000 3.120000 6.800000 -20.851377 29.209976 1288.002686
5.080000 3.120000 6.840000 -26.547539 41.453163 2423.136475
5.080000 3.120000 6.880000 -48.538803 47.406780 4603.417969
5.080000 3.120000 6.920000 -75.900131 33.788025 6902.460938
5.080000 3.120000 6.960000 -90.802780 1.671516 8247.938477
5.080000 3.120000 7.000000 -83.160011 -34.210461 8085.942871
5.080000 3.120000 7.040000 -57.706146 -57.604805 6648.312500
5.080000 3.120000 7.080000 -28.238110 -62.264641 4674.276367
5.080000 3.120000 7.120000 -6.261876 -53.334610 2883.791748
5.080000 3.120000 7.160000 5.151293 -39.897129 1618.316650
5.080000 3.120000 7.200000 8.836096 -27.730530 847.058899
5.080000 3.160000 6.800000 -28.401901 6.422682 847.918823
5.080000 3.160000 6.840000 -33.980515 4.625679 1176.072266
5.080000 3.160000 6.880000 -39.623955 -3.263153 1580.705933
5.080000 3.160000 6.920000 -40.756134 -14.764439 1879.051147
5.080000 3.160000 6.960000 -37.232891 -26.195431 2072.488770
5.080000 3.160000 7.000000 -30.501299 -36.774895 2282.722168
5.080000 3.160000 7.040000 -19.485008 -46.781013 2568.128662
5.080000 3.160000 7.080000 -1.923088 -52.893326 2801.402100
5.080000 3.160000 7.120000 19.647562 -48.488106 2737.123047
5.080000 3.160000 7.160000 35.629135 -30.905132 2224.562500
5.080000 3.160000 7.200000 36.228714 -7.734738 1372.345947
5.080000 3.200000 6.800000 -20.675268 -8.763118 504.258942
5.080000 3.200000 6.840000 -17.701172 -18.309914 648.584412
5.080000 3.200000 6.880000 -6.676688 -23.172153 581.526855
5.080000 3.200000 6.920000 3.079155 -17.723160 323.591583
5.080000 3.200000 6.960000 2.018353 -9.390594 92.257011
5.080000 3.200000 7.000000 -6.190224 -11.270753 165.348740
5.080000 3.200000 7.040000 -6.189240 -25.551796 691.200989
5.080000 3.200000 7.080000 11.905910 -37.456539 1544.743042
5.080000 3.200000 7.120000 38.436432 -29.209253 2330.539795
5.080000 3.200000 7.160000 50.833305 -0.504227 2584.279053
5.080000 3.200000 7.200000 36.411129 27.647209 2090.138428
5.120000 2.800000 6.800000 -29.215565 -14.305051 1058.183716
5.120000 2.800000 6.840000 -15.589799 -25.607048 898.762695
5.120000 2.800000 6.880000 2.259012 -22.690102 519.943848
5.120000 2.800000 6.920000 10.779699 -7.941935 179.276245
5.120000 2.800000 6.960000 4.968557 5.777670 58.068031
5.120000 2.800000 7.000000 -6.923668 8.118240 113.843002
5.120000 2.800000 7.040000 -12.842848 1.266394 166.542496
5.120000 2.800000 7.080000 -9.898915 -4.038822 114.300613
5.120000 2.800000 7.120000 -6.270106 -1.641789 42.009705
5.120000 2.800000 7.160000 -10.230659 2.948097 113.357651
5.120000 2.800000 7.200000 -19.298157 -0.347264 372.539459
5.120000 2.840000 6.800000 -15.622816 -36.090118 1546.569092
5.120000 2.840000 6.840000 2.904762 -41.310539 1714.998291
5.120000 2.840000 6.880000 21.504131 -32.753094 1535.192871
5.120000 2.840000 6.920000 29.672569 -14.508316 1090.952637
5.120000 2.840000 6.960000 24.332893 2.714943 599.460632
5.120000 2.840000 7.000000 11.583523 10.714439 248.977203
5.120000 2.840000 7.040000 0.011995 9.467768 89.638771
5.120000 2.840000 7.080000 -6.682314 4.247524 62.694778
5.120000 2.840000 7.120000 -10.216299 -1.339332 106.166573
5.120000 2.840000 7.160000 -12.316017 -7.978924 215.347504
5.120000 2.840000 7.200000 -11.000175 -16.772770 402.329651
5.120000 2.880000 6.800000 14.528467 -43.155380 2073.463135
5.120000 2.880000 6.840000 33.997101 -40.562164 2801.092041
5.120000 2.880000 6.880000 51.605362 -25.153332 3295.803467
5.120000 2.880000 6.920000 57.311211 -0.017605 3284.575195
5.120000 2.880000 6.960000 46.238503 24.045757 2716.197510
5.120000 2.880000 7.000000 23.378420 35.585712 1812.893433
5.120000 2.880000 7.040000 0.474079 30.536688 932.714050
5.120000 2.880000 7.080000 -12.128784 14.383642 353.996582
5.120000 2.880000 7.120000 -11.677255 -2.799804 144.197174
5.120000 2.880000 7.160000 -2.728515 -13.507795 189.905334
5.120000 2.880000 7.200000 7.999441 -16.252876 328.147034
5.120000 2.920000 6.800000 44.166599 -24.594433 2555.574707
5.120000 2.920000 6.840000 60.448357 -14.878611 3875.376953
5.120000 2.920000 6.880000 73.093300 8.109170 5408.389160
5.120000 2.920000 6.920000 69.342377 40.124901 6418.373047
5.120000 2.920000 6.960000 44.049717 65.581497 6241.310059
5.120000 2.920000 7.000000 7.494125 68.963608 4812.141113
5.120000 2.920000 7.040000 -20.612455 48.451462 2772.417480
5.120000 2.920000 7.080000 -26.432556 18.359489 1035.750977
5.120000 2.920000 7.120000 -12.544533 -2.509241 163.661591
5.120000 2.920000 7.160000 6.062340 -5.776706 70.122299
5.120000 2.920000 7.200000 16.082945 2.138732 263.235291
5.120000 2.960000 6.800000 52.123985 11.826120 2856.767090
5.120000 2.960000 6.840000 62.162277 25.903778 4535.154297
5.120000 2.960000 6.880000 64.567184 53.530884 7034.476562
5.120000 2.960000 6.920000 45.309132 84.692871 9225.799805
5.120000 2.960000 6.960000 5.243174 98.546448 9738.893555
5.120000 2.960000 7.000000 -35.801956 82.177322 8034.892578
5.120000 2.960000 7.040000 -54.158970 44.446857 4908.717285
5.120000 2.960000 7.080000 -42.828098 9.906084 1932.376465
5.120000 2.960000 7.120000 -16.990353 -2.240097 293.690125
5.120000 2.960000 7.160000 1.032373 6.428989 42.397697
5.120000 2.960000 7.200000 2.074431 18.537323 347.935608
5.120000 3.000000 6.800000 31.284046 43.162422 2841.686035
5.120000 3.000000 6.840000 34.028698 57.683563 4485.345703
5.120000 3.000000 6.880000 23.864315 82.584457 7389.697754
5.120000 3.000000 6.920000 -8.413173 101.024200 10276.669922
5.120000 3.000000 6.960000 -51.569603 93.347214 11373.125977
5.120000 3.000000 7.000000 -80.386543 57.651531 9785.695312
5.120000 3.000000 7.040000 -77.896515 14.561368 6279.900391
5.120000 3.000000 7.080000 -51.152771 -10.158714 2719.805420
5.120000 3.000000 7.120000 -24.160583 -8.205240 651.059753
5.120000 3.000000 7.160000 -15.019741 6.125515 263.114563
5.120000 3.000000 7.200000 -20.721863 12.795177 593.112183
5.120000 3.040000 6.800000 -4.069880 49.451447 2462.009521
5.120000 3.040000 6.840000 -7.358338 60.712143 3740.109375
5.120000 3.040000 6.880000 -26.066900 74.967903 6299.669922
5.120000 3.040000 6.920000 -59.420731 74.031525 9011.490234
5.120000 3.040000 6.960000 -89.177666 47.873737 10244.550781
5.120000 3.040000 7.000000 -95.194336 7.032202 9111.414062
5.120000 3.040000 7.040000 -74.598526 -25.149475 6197.436035
5.120000 3.040000 7.080000 -44.585068 -33.362694 3100.897461
5.120000 3.040000 7.120000 -25.836561 -23.030952 1197.952637
5.120000 3.040000 7.160000 -23.786705 -12.306344 717.253418
5.120000 3.040000 7.200000 -26.765282 -12.599724 875.133362
5.120000 3.080000 6.800000 -29.849579 30.323364 1810.503784
5.120000 3.080000 6.840000 -36.343746 36.071373 2622.011719
5.120000 3.080000 6.880000 -54.607670 36.760021 4333.296875
5.120000 3.080000 6.920000 -75.550323 21.258877 6159.791504
5.120000 3.080000 6.960000 -83.557419 -8.371418 7051.922852
5.120000 3.080000 7.000000 -71.279709 -37.347576 6475.638184
5.120000 3.080000 7.040000 -46.553070 -51.305126 4799.404297
5.120000 3.080000 7.080000 -24.516712 -48.592140 2962.265137
5.120000 3.080000 7.120000 -13.630311 -39.423119 1739.967651
5.120000 3.080000 7.160000 -10.090290 -33.957932 1254.955078
5.120000 3.080000 7.200000 -5.337794 -32.629276 1093.161743
5.120000 3.120000 6.800000 -32.660286 4.095291 1083.465698
5.120000 3.120000 6.840000 -39.143593 3.835575 1546.932495
5.120000 3.120000 6.880000 -48.618763 -4.789398 2386.722412
5.120000 3.120000 6.920000 -51.948135 -21.755661 3171.917725
5.120000 3.120000 6.960000 -44.281258 -39.418549 3514.651855
5.120000 3.120000 7.000000 -28.917694 -50.033310 3339.564941
5.120000 3.120000 7.040000 -12.826310 -52.072182 2876.026367
5.120000 3.120000 7.080000 0.171420 -49.134819 2414.259766
5.120000 3.120000 7.120000 10.878109 -44.108803 2063.919678
5.120000 3.120000 7.160000 20.364830 -36.278286 1730.840332
5.120000 3.120000 7.200000 26.294458 -24.469769 1290.168213
5.120000 3.160000 6.800000 -19.680408 -9.901388 485.355957
5.120000 3.160000 6.840000 -23.271093 -15.378102 778.029785
5.120000 3.160000 6.880000 -21.194920 -25.029972 1075.724121
5.120000 3.160000 6.920000 -12.904611 -31.822781 1179.218384
5.120000 3.160000 6.960000 -4.062012 -33.000961 1105.563477
5.120000 3.160000 7.000000 1.622692 -32.649456 1068.620117
5.120000 3.160000 7.040000 7.485962 -34.895844 1273.759521
5.120000 3.160000 7.080000 18.975927 -36.617378 1700.918213
5.120000 3.160000 7.120000 34.474968 -29.790648 2076.006104
5.120000 3.160000 7.160000 43.929131 -11.800101 2069.010986
5.120000 3.160000 7.200000 38.713211 8.493115 1570.845825
5.120000 3.200000 6.800000 -8.862833 -8.422569 149.489487
5.120000 3.200000 6.840000 -7.021507 -17.283361 348.016144
5.120000 3.200000 6.880000 3.360659 -20.997137 452.173798
5.120000 3.200000 6.920000 12.099394 -14.917786 368.935669
5.120000 3.200000 6.960000 11.279615 -7.179023 178.768097
5.120000 3.200000 7.000000 6.242186 -8.427201 109.982605
5.120000 3.200000 7.040000 9.959604 -17.146900 393.209900
5.120000 3.200000 7.080000 26.373564 -19.052868 1058.576660
5.120000 3.200000 7.120000 42.564468 -3.215630 1822.074341
5.120000 3.200000 7.160000 40.967285 23.036652 2209.005859
5.120000 3.200000 7.200000 19.426500 38.957024 1895.038574
5.160000 2.800000 6.800000 -24.831263 -32.522980 1674.335938
5.160000 2.800000 6.840000 -4.544955 -35.803654 1302.558228
5.160000 2.800000 6.880000 10.759953 -24.125313 697.807251
5.160000 2.800000 6.920000 11.856382 -7.982489 204.293930
5.160000 2.800000 6.960000 2.738249 -0.169032 7.526581
5.160000 2.800000 7.000000 -4.444055 -3.241460 30.256687
5.160000 2.800000 7.040000 -2.720104 -8.303272 76.343292
5.160000 2.800000 7.080000 2.866645 -6.245070 47.218559
5.160000 2.800000 7.120000 2.353345 1.477097 7.720049
5.160000 2.800000 7.160000 -6.480380 4.761100 64.663406
5.160000 2.800000 7.200000 -14.592169 -2.768025 220.593353
5.160000 2.840000 6.800000 6.008605 -44.489075 2015.381104
5.160000 2.840000 6.840000 24.999279 -32.721676 1695.672119
5.160000 2.840000 6.880000 30.314821 -12.510895 1075.510864
5.160000 2.840000 6.920000 21.502708 2.850803 470.493530
5.160000 2.840000 6.960000 8.555013 6.049549 109.785278
5.160000 2.840000 7.000000 1.615643 1.124429 3.874641
5.160000 2.840000 7.040000 1.767256 -2.800426 10.965579
5.160000 2.840000 7.080000 2.404800 -1.983088 9.715701
5.160000 2.840000 7.120000 -1.240015 -1.080944 2.706076
5.160000 2.840000 7.160000 -5.734508 -5.921494 67.948669
5.160000 2.840000 7.200000 -3.583720 -14.911816 235.205292
5.160000 2.880000 6.800000 39.785522 -27.493523 2338.781738
5.160000 2.880000 6.840000 45.942581 -5.423703 2140.137207
5.160000 2.880000 6.880000 37.135685 13.966840 1574.131714
5.160000 2.880000 6.920000 20.772404 21.771782 905.503296
5.160000 2.880000 6.960000 7.223049 18.336189 388.388306
5.160000 2.880000 7.000000 1.397725 10.796268 118.513046
5.160000 2.880000 7.040000 0.764256 5.304117 28.717741
5.160000 2.880000 7.080000 0.690357 2.159316 5.139238
5.160000 2.880000 7.120000 0.413744 -1.743842 3.212168
5.160000 2.880000 7.160000 3.051646 -7.052125 59.045006
5.160000 2.880000 7.200000 10.379830 -9.920489 206.156982
5.160000 2.920000 6.800000 50.830978 12.091654 2729.996338
5.160000 2.920000 6.840000 40.147831 32.051914 2639.173584
5.160000 2.920000 6.880000 21.415812 40.944080 2135.054688
5.160000 2.920000 6.920000 4.047813 37.835899 1447.940063
5.160000 2.920000 6.960000 -5.973479 28.107370 825.706726
5.160000 2.920000 7.000000 -8.578302 18.074183 400.263367
5.160000 2.920000 7.040000 -7.005034 10.785812 165.404251
5.160000 2.920000 7.080000 -3.845971 6.057542 51.485306
5.160000 2.920000 7.120000 0.298149 3.165426 10.108816
5.160000 2.920000 7.160000 5.332344 2.511420 34.741116
5.160000 2.920000 7.200000 10.079771 4.827743 124.908882
5.160000 2.960000 6.800000 28.251314 48.090389 3110.822266
5.160000 2.960000 6.840000 7.639869 54.894142 3071.734619
5.160000 2.960000 6.880000 -11.214210 49.855736 2611.353027
5.160000 2.960000 6.920000 -22.623020 37.862709 1945.385742
5.160000 2.960000 6.960000 -25.868366 24.842545 1286.324463
5.160000 2.960000 7.000000 -23.316223 14.584464 756.352844
5.160000 2.960000 7.040000 -17.888397 8.457064 391.516663
5.160000 2.960000 7.080000 -12.073008 6.391566 186.609619
5.160000 2.960000 7.120000 -7.817730 7.274700 114.038162
5.160000 2.960000 7.160000 -5.924500 9.082092 117.584091
5.160000 2.960000 7.200000 -5.363765 10.016506 129.100372
5.160000 3.000000 6.800000 -12.841224 55.346840 3228.169678
5.160000 3.000000 6.840000 -31.105923 47.375511 3212.017334
5.160000 3.000000 6.880000 -41.549232 32.983734 2814.265625
5.160000 3.000000 6.920000 -43.520210 17.950653 2216.234619
5.160000 3.000000 6.960000 -39.300308 6.153979 1582.385742
5.160000 3.000000 7.000000 -31.965794 -0.673975 1022.266174
5.160000 3.000000 7.040000 -24.686949 -2.415927 615.282166
5.160000 3.000000 7.080000 -20.243729 -0.786091 410.426514
5.160000 3.000000 7.120000 -19.498709 0.843046 380.910370
5.160000 3.000000 7.160000 -20.111328 -0.428986 404.649536
5.160000 3.000000 7.200000 -18.054251 -4.001011 341.964050
5.160000 3.040000 6.800000 -43.178307 31.327314 2845.766846
5.160000 3.040000 6.840000 -51.155842 16.319691 2883.252441
5.160000 3.040000 6.880000 -51.170448 0.758206 2618.989746
5.160000 3.040000 6.920000 -44.908516 -11.442756 2147.711426
5.160000 3.040000 6.960000 -35.475647 -18.079445 1585.387817
5.160000 3.040000 7.000000 -26.620665 -18.925600 1066.838135
5.160000 3.040000 7.040000 -21.605961 -16.274410 731.673950
5.160000 3.040000 7.080000 -21.082939 -14.352491 650.484314
5.160000 3.040000 7.120000 -21.856163 -16.493927 749.741455
5.160000 3.040000 7.160000 -18.931345 -21.747152 831.334473
5.160000 3.040000 7.200000 -10.260093 -24.716183 716.159180
5.160000 3.080000 6.800000 -44.467438 -2.171143 1982.066895
5.160000 3.080000 6.840000 -43.540108 -15.035280 2121.800537
5.160000 3.080000 6.880000 -36.997227 -26.313614 2061.201172
5.160000 3.080000 6.920000 -26.356930 -32.713123 1764.836182
5.160000 3.080000 6.960000 -15.722883 -32.534866 1305.726685
5.160000 3.080000 7.000000 -9.673969 -27.988472 876.940247
5.160000 3.080000 7.040000 -9.318883 -24.496120 686.901489
5.160000 3.080000 7.080000 -10.520023 -26.261841 800.355164
5.160000 3.080000 7.120000 -7.123490 -31.855068 1065.489502
5.160000 3.080000 7.160000 2.996826 -34.721760 1214.581543
5.160000 3.080000 7.200000 14.981604 -29.045517 1068.090454
5.160000 3.120000 6.800000 -24.212698 -19.445261 964.372925
5.160000 3.120000 6.840000 -21.110640 -27.494766 1201.621216
5.160000 3.120000 6.880000 -12.569857 -34.304958 1334.831543
5.160000 3.120000 6.920000 -1.085754 -34.830887 1214.369507
5.160000 3.120000 6.960000 6.816695 -28.813068 876.660278
5.160000 3.120000 7.000000 7.434567 -22.387218 556.460327
5.160000 3.120000 7.040000 4.697919 -22.108334 510.848846
5.160000 3.120000 7.080000 6.720830 -27.430225 797.586792
5.160000 3.120000 7.120000 16.965191 -30.317986 1206.997925
5.160000 3.120000 7.160000 29.586605 -23.344349 1420.325806
5.160000 3.120000 7.200000 34.603615 -7.923930 1260.198853
5.160000 3.160000 6.800000 -6.173998 -13.909552 231.593872
5.160000 3.160000 6.840000 -4.549122 -21.310768 474.843353
5.160000 3.160000 6.880000 4.884489 -25.717836 685.265320
5.160000 3.160000 6.920000 15.115252 -21.288126 681.655151
5.160000 3.160000 6.960000 17.803204 -12.247407 466.953064
5.160000 3.160000 7.000000 13.596232 -8.157127 251.396255
5.160000 3.160000 7.040000 11.940264 -12.192738 291.232758
5.160000 3.160000 7.080000 19.844912 -16.395683 662.638916
5.160000 3.160000 7.120000 32.549889 -10.271914 1165.007446
5.160000 3.160000 7.160000 37.558647 6.547516 1453.521973
5.160000 3.160000 7.200000 28.325851 22.486734 1308.007080
5.160000 3.200000 6.800000 -6.242144 -1.514878 41.259209
5.160000 3.200000 6.840000 -2.749874 -12.222364 156.947998
5.160000 3.200000 6.880000 8.954900 -14.037535 277.242615
5.160000 3.200000 6.920000 16.289591 -5.390547 294.408752
5.160000 3.200000 6.960000 13.257454 3.130762 185.561752
5.160000 3.200000 7.000000 7.475829 2.415130 61.720867
5.160000 3.200000 7.040000 10.259958 -3.341771 116.434181
5.160000 3.200000 7.080000 21.575218 -1.292668 467.161041
5.160000 3.200000 7.120000 28.396755 13.860413 998.486755
5.160000 3.200000 7.160000 19.516521 31.550949 1376.357056
5.160000 3.200000 7.200000 -0.173173 35.932697 1291.188721
5.200000 2.800000 6.800000 -8.630857 -42.823528 1908.346313
5.200000 2.800000 6.840000 10.104741 -36.094769 1404.938110
5.200000 2.800000 6.880000 17.733776 -20.841246 748.844360
5.200000 2.800000 6.920000 13.761881 -9.005547 270.489227
5.200000 2.800000 6.960000 7.295555 -6.501927 95.500183
5.200000 2.800000 7.000000 6.708447 -8.496945 117.201340
5.200000 2.800000 7.040000 10.930096 -6.303103 159.196106
5.200000 2.800000 7.080000 11.747739 2.013620 142.064026
5.200000 2.800000 7.120000 4.275835 9.224525 103.374634
5.200000 2.800000 7.160000 -6.455913 7.413203 96.634384
5.200000 2.800000 7.200000 -10.417308 -2.302034 113.819664
5.200000 2.840000 6.800000 26.118023 -35.884750 1969.866455
5.200000 2.840000 6.840000 33.024052 -14.536394 1301.894775
5.200000 2.840000 6.880000 23.375942 2.041460 550.602234
5.200000 2.840000 6.920000 8.878551 4.044987 95.190590
5.200000 2.840000 6.960000 2.874556 -3.929401 23.703270
5.200000 2.840000 7.000000 7.538570 -9.251522 142.420700
5.200000 2.840000 7.040000 13.444117 -5.094304 206.696213
5.200000 2.840000 7.080000 11.242686 3.107097 136.052048
5.200000 2.840000 7.120000 2.288037 4.985973 30.095043
5.200000 2.840000 7.160000 -3.315927 -2.289092 16.235312
5.200000 2.840000 7.200000 1.380301 -10.453479 111.180458
5.200000 2.880000 6.800000 44.896866 -1.208163 2017.188232
5.200000 2.880000 6.840000 30.167305 20.554110 1332.537720
5.200000 2.880000 6.880000 6.533731 22.682358 557.179016
5.200000 2.880000 6.920000 -6.790199 7.557419 103.221390
5.200000 2.880000 6.960000 -2.031685 -8.290537 72.860748
5.200000 2.880000 7.000000 11.435097 -10.857100 248.638062
5.200000 2.880000 7.040000 18.354897 -1.313364 338.627136
5.200000 2.880000 7.080000 13.293577 7.637721 235.053970
5.200000 2.880000 7.120000 4.538619 6.513272 63.021774
5.200000 2.880000 7.160000 3.319996 -1.286676 12.677908
5.200000 2.880000 7.200000 11.030396 -4.571464 142.567902
5.200000 2.920000 6.800000 29.560963 38.161201 2330.127930
5.200000 2.920000 6.840000 -1.189791 42.492371 1807.017212
5.200000 2.920000 6.880000 -23.080029 22.431032 1035.838989
5.200000 2.920000 6.920000 -20.950680 -4.562510 459.747467
5.200000 2.920000 6.960000 -0.654246 -17.107229 293.085327
5.200000 2.920000 7.000000 18.145123 -8.875564 408.021118
5.200000 2.920000 7.040000 21.060219 8.080191 508.822296
5.200000 2.920000 7.080000 10.717413 17.258286 412.711365
5.200000 2.920000 7.120000 0.897935 13.604597 185.891357
5.200000 2.920000 7.160000 1.086856 5.809168 34.927685
5.200000 2.920000 7.200000 7.998461 4.798431 87.000313
5.200000 2.960000 6.800000 -11.361943 52.517761 2887.208984
5.200000 2.960000 6.840000 -39.965488 32.494148 2653.109863
5.200000 2.960000 6.880000 -43.561989 -1.956833 1901.476074
5.200000 2.960000 6.920000 -20.898117 -25.536793 1088.859131
5.200000 2.960000 6.960000 8.656456 -23.109009 608.960510
5.200000 2.960000 7.000000 22.965508 -1.432140 529.465576
5.200000 2.960000 7.040000 15.646713 19.305199 617.510376
5.200000 2.960000 7.080000 -1.501820 24.378742 596.578491
5.200000 2.960000 7.120000 -12.154656 15.519683 388.596222
5.200000 2.960000 7.160000 -10.297966 5.391553 135.116943
5.200000 2.960000 7.200000 -2.616564 3.737399 20.814556
5.200000 3.000000 6.800000 -48.064362 31.278023 3288.497559
5.200000 3.000000 6.840000 -57.951473 -3.194750 3368.579834
5.200000 3.000000 6.880000 -38.993210 -34.308006 2697.509766
5.200000 3.000000 6.920000 -4.507137 -40.801559 1685.081543
5.200000 3.000000 6.960000 20.871578 -20.758089 866.520996
5.200000 3.000000 7.000000 21.657745 7.981633 532.764404
5.200000 3.000000 7.040000 2.679425 24.017754 584.031799
5.200000 3.000000 7.080000 -17.802729 19.513626 697.718750
5.200000 3.000000 7.120000 -24.790953 3.620641 627.700317
5.200000 3.000000 7.160000 -17.350306 -8.468181 372.743195
5.200000 3.000000 7.200000 -5.674401 -8.773224 109.168289
5.200000 3.040000 6.800000 -54.885017 -7.316360 3065.894287
5.200000 3.040000 6.840000 -43.910484 -38.147087 3383.330811
5.200000 3.040000 6.880000 -13.013990 -52.361099 2911.048828
5.200000 3.040000 6.920000 17.950333 -39.962059 1919.180664
5.200000 3.040000 6.960000 28.801229 -10.705684 944.122437
5.200000 3.040000 7.000000 15.053284 13.907780 420.027679
5.200000 3.040000 7.040000 -9.580470 18.003500 415.911407
5.200000 3.040000 7.080000 -25.551212 2.847300 660.971558
5.200000 3.040000 7.120000 -23.083012 -16.525768 805.926453
5.200000 3.040000 7.160000 -7.833736 -24.978302 685.283020
5.200000 3.040000 7.200000 6.409446 -18.604971 387.225952
5.200000 3.080000 6.800000 -32.486824 -32.758373 2128.504639
5.200000 3.080000 6.840000 -12.578251 -48.873901 2546.870605
5.200000 3.080000 6.880000 14.929418 -46.352825 2371.471924
5.200000 3.080000 6.920000 32.544609 -24.770357 1672.722168
5.200000 3.080000 6.960000 28.704334 1.566784 826.393616
5.200000 3.080000 7.000000 7.824955 14.409010 268.849487
5.200000 3.080000 7.040000 -12.953793 6.285443 207.307526
5.200000 3.080000 7.080000 -17.828285 -13.756300 507.083557
5.200000 3.080000 7.120000 -4.853456 -28.419519 831.225098
5.200000 3.080000 7.160000 13.856693 -26.704544 905.140625
5.200000 3.080000 7.200000 23.521149 -11.818051 692.910767
5.200000 3.120000 6.800000 -5.488131 -29.860664 921.778870
5.200000 3.120000 6.840000 9.979447 -34.595520 1296.439331
5.200000 3.120000 6.880000 26.864481 -25.869221 1390.916870
5.200000 3.120000 6.920000 32.615906 -6.452526 1105.432495
5.200000 3.120000 6.960000 21.906696 10.415453 588.385010
5.200000 3.120000 7.000000 3.202264 12.005131 154.377655
5.200000 3.120000 7.040000 -7.590426 -1.853510 61.050064
5.200000 3.120000 7.080000 -1.332060 -17.853083 320.506958
5.200000 3.120000 7.120000 15.966375 -21.126141 701.238953
5.200000 3.120000 7.160000 28.982700 -8.662755 915.040283
5.200000 3.120000 7.200000 27.399466 8.835651 828.799438
5.200000 3.160000 6.800000 2.021620 -10.941875 123.811562
5.200000 3.160000 6.840000 10.337664 -15.225523 338.683838
5.200000 3.160000 6.880000 20.821056 -9.327515 520.518921
5.200000 3.160000 6.920000 22.468945 4.070198 521.419983
5.200000 3.160000 6.960000 12.447849 13.131395 327.382507
5.200000 3.160000 7.000000 0.437162 9.358562 87.773781
5.200000 3.160000 7.040000 -0.968297 -2.540394 7.391202
5.200000 3.160000 7.080000 10.154978 -8.832911 181.143890
5.200000 3.160000 7.120000 22.494749 -1.111590 507.249359
5.200000 3.160000 7.160000 23.228470 14.772469 757.787659
5.200000 3.160000 7.200000 11.343212 25.046568 755.999023
5.200000 3.200000 6.800000 -10.990165 -1.229366 122.295067
5.200000 3.200000 6.840000 -2.018521 -10.499037 114.304199
5.200000 3.200000 6.880000 9.648045 -7.041451 142.666779
5.200000 3.200000 6.920000 11.915614 3.934649 157.463318
5.200000 3.200000 6.960000 4.425323 9.895760 117.509537
5.200000 3.200000 7.000000 -1.957819 5.807758 37.563114
5.200000 3.200000 7.040000 1.297301 -0.340885 1.799192
5.200000 3.200000 7.080000 9.906639 2.374365 103.779106
5.200000 3.200000 7.120000 11.824514 14.168641 340.569519
5.200000 3.200000 7.160000 1.883404 23.746771 567.456360
5.200000 3.200000 7.200000 -11.550013 21.536266 597.213562
