#kx 	ky 	kz 	real 	imag 	intensity
3.800000 3.800000 1.800000 -12.240150 -5.973123 185.499481
3.800000 3.800000 1.840000 -9.326252 -7.923264 149.757080
3.800000 3.800000 1.880000 -8.517047 -8.151613 138.988892
3.800000 3.800000 1.920000 -9.208925 -10.655043 198.334229
3.800000 3.800000 1.960000 -6.918797 -16.098995 307.047394
3.800000 3.800000 2.000000 1.164696 -19.872437 396.270233
3.800000 3.800000 2.040000 11.882615 -16.474207 412.596069
3.800000 3.800000 2.080000 18.177567 -5.614881 361.950806
3.800000 3.800000 2.120000 15.658072 6.812672 291.587738
3.800000 3.800000 2.160000 6.536247 14.043869 239.952789
3.800000 3.800000 2.200000 -3.144211 14.260189 213.239059
3.800000 3.840000 1.800000 -8.724075 -16.887001 361.280304
3.800000 3.840000 1.840000 -4.123184 -17.188763 312.454193
3.800000 3.840000 1.880000 -1.890505 -17.278412 302.117523
3.800000 3.840000 1.920000 0.955440 -18.914122 358.656860
3.800000 3.840000 1.960000 6.699834 -19.405216 421.450195
3.800000 3.840000 2.000000 13.095385 -15.283589 405.077209
3.800000 3.840000 2.040000 15.413240 -7.292267 290.745117
3.800000 3.840000 2.080000 11.988066 -0.348370 143.835083
3.800000 3.840000 2.120000 6.440536 1.745673 44.527885
3.800000 3.840000 2.160000 3.543510 0.575740 12.887942
3.800000 3.840000 2.200000 3.462941 0.936255 12.868534
3.800000 3.880000 1.800000 2.817366 -24.036709 585.700928
3.800000 3.880000 1.840000 8.469685 -21.708996 543.016052
3.800000 3.880000 1.880000 12.280003 -19.568865 533.738892
3.800000 3.880000 1.920000 16.418411 -16.808437 552.087769
3.800000 3.880000 1.960000 19.530762 -11.396912 511.340240
3.800000 3.880000 2.000000 18.421551 -4.847471 362.851532
3.800000 3.880000 2.040000 13.418620 -1.868317 183.549973
3.800000 3.880000 2.080000 9.908998 -4.517511 118.596146
3.800000 3.880000 2.120000 12.818845 -8.132914 230.467072
3.800000 3.880000 2.160000 19.801470 -5.189016 419.024109
3.800000 3.880000 2.200000 21.843609 5.903307 511.992279
3.800000 3.920000 1.800000 18.146618 -21.318897 783.795166
3.800000 3.920000 1.840000 22.866186 -15.290235 756.653748
3.800000 3.920000 1.880000 25.408899 -9.459505 735.094421
3.800000 3.920000 1.920000 25.897198 -2.876126 678.936951
3.800000 3.920000 1.960000 22.393192 3.090259 511.004761
3.800000 3.920000 2.000000 15.964218 4.125310 271.874451
3.800000 3.920000 2.040000 12.836289 -1.336886 166.557587
3.800000 3.920000 2.080000 18.767101 -7.232812 404.517670
3.800000 3.920000 2.120000 30.889084 -3.628313 967.300171
3.800000 3.920000 2.160000 37.272457 12.728345 1551.246826
3.800000 3.920000 2.200000 27.301620 32.215584 1783.222412
3.800000 3.960000 1.800000 28.625984 -7.473237 875.296204
3.800000 3.960000 1.840000 29.004307 1.299779 842.939270
3.800000 3.960000 1.880000 26.541832 8.424282 775.437378
3.800000 3.960000 1.920000 21.207867 13.357611 628.199402
3.800000 3.960000 1.960000 14.185320 13.269136 377.293274
3.800000 3.960000 2.000000 10.943009 6.947561 168.018051
3.800000 3.960000 2.040000 17.296394 0.065163 299.169495
3.800000 3.960000 2.080000 31.166058 3.106672 980.974548
3.800000 3.960000 2.120000 40.265095 21.132971 2067.880371
3.800000 3.960000 2.160000 31.363308 45.475075 3051.639648
3.800000 3.960000 2.200000 3.827846 58.063980 3386.078125
3.800000 4.000000 1.800000 26.594116 11.270910 834.280396
3.800000 4.000000 1.840000 20.448170 18.445538 758.365479
3.800000 4.000000 1.880000 12.919981 21.145069 614.039856
3.800000 4.000000 1.920000 6.003487 18.982645 396.382660
3.800000 4.000000 1.960000 3.523287 12.233719 162.077423
3.800000 4.000000 2.000000 9.650356 5.701594 125.637550
3.800000 4.000000 2.040000 22.711224 8.331124 585.207336
3.800000 4.000000 2.080000 31.974073 25.393181 1667.155029
3.800000 4.000000 2.120000 24.276665 50.108345 3100.202637
3.800000 4.000000 2.160000 -3.318800 65.256416 4269.414551
3.800000 4.000000 2.200000 -37.382530 56.437325 4582.625000
3.800000 4.040000 1.800000 11.491735 24.189850 717.208862
3.800000 4.040000 1.840000 1.092435 24.098431 581.927795
3.800000 4.040000 1.880000 -5.881723 18.276060 368.609039
3.800000 4.040000 1.920000 -6.463969 9.745435 136.756393
3.800000 4.040000 1.960000 0.831262 3.647185 13.992957
3.800000 4.040000 2.000000 13.060804 6.753211 216.190460
3.800000 4.040000 2.040000 20.969318 22.485573 945.313293
3.800000 4.040000 2.080000 13.574764 44.834000 2194.361816
3.800000 4.040000 2.120000 -12.083041 58.949753 3621.073242
3.800000 4.040000 2.160000 -44.968491 51.279488 4651.750977
3.800000 4.040000 2.200000 -65.801132 21.720594 4801.573242
3.800000 4.080000 1.800000 -8.721591 23.388428 623.084717
3.800000 4.080000 1.840000 -16.618330 13.633159 462.031921
3.800000 4.080000 1.880000 -15.341570 1.602918 237.933121
3.800000 4.080000 1.920000 -5.205064 -5.535378 57.733101
3.800000 4.080000 1.960000 8.349236 -1.754375 72.787560
3.800000 4.080000 2.000000 15.759660 13.895631 441.455444
3.800000 4.080000 2.040000 8.156241 34.204956 1236.503296
3.800000 4.080000 2.080000 -15.497557 45.847656 2342.181885
3.800000 4.080000 2.120000 -44.819714 37.713043 3431.080566
3.800000 4.080000 2.160000 -63.091728 10.168911 4083.972900
3.800000 4.080000 2.200000 -58.911034 -23.231686 4010.220947
3.800000 4.120000 1.800000 -22.806059 9.625280 612.762329
3.800000 4.120000 1.840000 -21.299438 -5.981145 489.440186
3.800000 4.120000 1.880000 -8.501193 -16.033930 329.357208
3.800000 4.120000 1.920000 8.441303 -12.963879 239.317749
3.800000 4.120000 1.960000 18.035683 3.382442 336.726776
3.800000 4.120000 2.000000 11.407135 23.917992 702.193054
3.800000 4.120000 2.040000 -10.805134 34.733479 1323.165527
3.800000 4.120000 2.080000 -37.092716 26.174934 2060.996826
3.800000 4.120000 2.120000 -51.743519 0.370275 2677.529053
3.800000 4.120000 2.160000 -45.579758 -29.218967 2931.262451
3.800000 4.120000 2.200000 -22.525440 -46.819824 2699.491455
3.800000 4.160000 1.800000 -24.277386 -8.436101 660.559265
3.800000 4.160000 1.840000 -11.535400 -21.951881 614.950562
3.800000 4.160000 1.880000 8.383407 -21.994827 554.053955
3.800000 4.160000 1.920000 22.443604 -6.297144 543.369385
3.800000 4.160000 1.960000 19.516165 15.908123 633.949036
3.800000 4.160000 2.000000 -0.593142 29.085648 846.326721
3.800000 4.160000 2.040000 -25.525944 22.510954 1158.316895
3.800000 4.160000 2.080000 -38.635674 -1.226701 1494.219971
3.800000 4.160000 2.120000 -31.132868 -27.656445 1734.134277
3.800000 4.160000 2.160000 -8.320112 -41.096813 1758.172241
3.800000 4.160000 2.200000 15.130009 -35.865467 1515.248901
3.800000 4.200000 1.800000 -15.433233 -21.137609 684.983215
3.800000 4.200000 1.840000 4.030446 -26.132526 699.153442
3.800000 4.200000 1.880000 22.283321 -14.393937 703.731812
3.800000 4.200000 1.920000 25.634708 8.009097 721.283875
3.800000 4.200000 1.960000 10.134542 25.374208 746.559448
3.800000 4.200000 2.000000 -13.689766 24.208561 773.464111
3.800000 4.200000 2.040000 -28.192581 4.558091 815.597839
3.800000 4.200000 2.080000 -22.508392 -19.484743 886.282959
3.800000 4.200000 2.120000 -1.105148 -30.976898 960.789612
3.800000 4.200000 2.160000 20.491497 -23.419386 968.369141
3.800000 4.200000 2.200000 28.634638 -4.688637 841.925842
3.840000 3.800000 1.800000 -7.618810 1.390426 59.979553
3.840000 3.800000 1.840000 -9.907657 -2.843633 106.247910
3.840000 3.800000 1.880000 -9.710584 -8.908612 173.658813
3.840000 3.800000 1.920000 -5.346302 -14.940191 251.792267
3.840000 3.800000 1.960000 2.935139 -17.583372 317.790039
3.840000 3.800000 2.000000 11.959663 -14.333240 348.475311
3.840000 3.800000 2.040000 17.332458 -5.913527 335.383911
3.840000 3.800000 2.080000 16.586941 3.885181 290.221252
3.840000 3.800000 2.120000 10.754982 10.969395 235.997253
3.840000 3.800000 2.160000 2.921741 13.606771 193.680801
3.840000 3.800000 2.200000 -4.495056 12.432709 174.777771
3.840000 3.840000 1.800000 -5.145384 -8.282099 95.068138
3.840000 3.840000 1.840000 1.833806 -12.640495 163.144958
3.840000 3.840000 1.880000 10.998270 -10.577055 232.836029
3.840000 3.840000 1.920000 16.305864 -1.886843 269.441406
3.840000 3.840000 1.960000 13.448734 8.187609 247.905396
3.840000 3.840000 2.000000 4.220261 12.524143 174.664764
3.840000 3.840000 2.040000 -4.185562 8.319778 86.737640
3.840000 3.840000 2.080000 -5.222836 0.102587 27.288536
3.840000 3.840000 2.120000 0.818874 -4.016265 16.800940
3.840000 3.840000 2.160000 6.709748 0.027824 45.021496
3.840000 3.840000 2.200000 5.015036 7.950729 88.364677
3.840000 3.880000 1.800000 5.584771 -13.419002 211.259277
3.840000 3.880000 1.840000 20.158222 -8.210199 473.761292
3.840000 3.880000 1.880000 27.392811 9.440510 839.489319
3.840000 3.880000 1.920000 17.562511 29.439531 1175.127808
3.840000 3.880000 1.960000 -6.399244 35.819771 1324.006348
3.840000 3.880000 2.000000 -28.122534 20.821585 1224.415283
3.840000 3.880000 2.040000 -30.462543 -6.088217 965.032959
3.840000 3.880000 2.080000 -11.043453 -24.434925 719.023438
3.840000 3.880000 2.120000 14.343047 -20.111187 610.182861
3.840000 3.880000 2.160000 24.967363 1.920454 627.057434
3.840000 3.880000 2.200000 13.327820 21.932007 658.643677
3.840000 3.920000 1.800000 18.058270 -7.576614 383.506195
3.840000 3.920000 1.840000 29.294626 12.202194 1007.068665
3.840000 3.920000 1.880000 19.969328 39.506855 1959.565674
3.840000 3.920000 1.920000 -11.881971 52.747719 2923.502930
3.840000 3.920000 1.960000 -47.008030 35.460213 3467.181641
3.840000 3.920000 2.000000 -57.727928 -5.592979 3363.795166
3.840000 3.920000 2.040000 -32.358189 -41.701344 2786.054443
3.840000 3.920000 2.080000 11.785497 -45.126278 2175.278809
3.840000 3.920000 2.120000 41.213428 -13.668613 1885.377686
3.840000 3.920000 2.160000 34.689407 26.653872 1913.783936
3.840000 3.920000 2.200000 1.105696 44.250961 1959.370117
3.840000 3.960000 1.800000 21.910515 7.618011 538.104736
3.840000 3.960000 1.840000 17.654661 35.049797 1540.175293
3.840000 3.960000 1.880000 -12.325871 54.382694 3109.404541
3.840000 3.960000 1.920000 -53.803776 42.778973 4724.886719
3.840000 3.960000 1.960000 -75.190155 -1.613670 5656.163574
3.840000 3.960000 2.000000 -53.916256 -51.019779 5509.980469
3.840000 3.960000 2.040000 -0.059721 -67.679085 4580.461914
3.840000 3.960000 2.080000 47.799911 -36.694496 3631.317627
3.840000 3.960000 2.120000 53.993584 18.843075 3270.368652
3.840000 3.960000 2.160000 16.397631 56.532318 3464.785400
3.840000 3.960000 2.200000 -32.582157 50.750092 3637.168701
3.840000 4.000000 1.800000 11.662712 21.871346 614.374634
3.840000 4.000000 1.840000 -9.952041 41.520283 1822.976929
3.840000 4.000000 1.880000 -47.635353 37.796295 3697.687012
3.840000 4.000000 1.920000 -74.839470 0.691938 5601.425293
3.840000 4.000000 1.960000 -63.658871 -51.031769 6656.693359
3.840000 4.000000 2.000000 -12.800954 -79.108887 6422.080078
3.840000 4.000000 2.040000 44.617199 -57.628853 5311.779297
3.840000 4.000000 2.080000 65.574539 1.292004 4301.689453
3.840000 4.000000 2.120000 33.955757 54.477959 4120.841309
3.840000 4.000000 2.160000 -24.794685 63.444473 4639.977539
3.840000 4.000000 2.200000 -65.828369 26.380955 5029.328613
3.840000 4.040000 1.800000 -7.435786 23.773373 620.464111
3.840000 4.040000 1.840000 -34.475311 24.131563 1770.879395
3.840000 4.040000 1.880000 -58.945251 -1.271451 3476.159424
3.840000 4.040000 1.920000 -56.348267 -44.257374 5133.842285
3.840000 4.040000 1.960000 -17.431330 -75.256081 5967.328613
3.840000 4.040000 2.000000 36.654274 -65.607979 5647.942383
3.840000 4.040000 2.040000 66.458191 -15.317195 4651.307617
3.840000 4.040000 2.080000 46.835045 41.681297 3930.852051
3.840000 4.040000 2.120000 -9.467665 63.472313 4118.371094
3.840000 4.040000 2.160000 -60.915749 35.340355 4959.668945
3.840000 4.040000 2.200000 -71.992424 -18.486156 5524.646973
3.840000 4.080000 1.800000 -22.612858 10.412100 619.753174
3.840000 4.080000 1.840000 -38.302662 -5.924978 1502.199219
3.840000 4.080000 1.880000 -37.881401 -35.326393 2682.954590
3.840000 4.080000 1.920000 -11.778749 -59.883408 3724.761475
3.840000 4.080000 1.960000 29.578901 -57.113510 4136.864258
3.840000 4.080000 2.000000 57.963825 -20.912514 3797.138184
3.840000 4.080000 2.040000 48.802032 27.648708 3146.089355
3.840000 4.080000 2.080000 4.175415 53.616291 2892.140869
3.840000 4.080000 2.120000 -45.476460 36.636086 3410.311035
3.840000 4.080000 2.160000 -65.112030 -11.117611 4363.177734
3.840000 4.080000 2.200000 -43.691265 -54.987267 4932.525879
3.840000 4.120000 1.800000 -23.682049 -9.796276 656.806458
3.840000 4.120000 1.840000 -20.095379 -28.160603 1196.843750
3.840000 4.120000 1.880000 -1.617587 -42.184059 1782.111450
3.840000 4.120000 1.920000 25.692263 -39.063374 2186.039551
3.840000 4.120000 1.960000 44.951653 -14.362495 2226.932373
3.840000 4.120000 2.000000 39.527966 19.853699 1956.629395
3.840000 4.120000 2.040000 8.195967 40.350342 1695.323853
3.840000 4.120000 2.080000 -30.085489 30.221487 1818.474854
3.840000 4.120000 2.120000 -48.919765 -5.977715 2428.876709
3.840000 4.120000 2.160000 -35.265713 -44.241989 3201.024170
3.840000 4.120000 2.200000 0.113504 -59.861603 3583.424316
3.840000 4.160000 1.800000 -11.159870 -24.016676 701.343445
3.840000 4.160000 1.840000 5.120798 -30.170948 936.508728
3.840000 4.160000 1.880000 23.452288 -23.167173 1086.727783
3.840000 4.160000 1.920000 32.917091 -3.784096 1097.854248
3.840000 4.160000 1.960000 25.445549 18.322180 983.178223
3.840000 4.160000 2.000000 2.829142 29.044809 851.604980
3.840000 4.160000 2.040000 -22.066532 19.434452 864.629761
3.840000 4.160000 2.080000 -32.910229 -6.522541 1125.626709
3.840000 4.160000 2.120000 -21.671406 -33.237495 1574.380859
3.840000 4.160000 2.160000 4.929836 -44.276302 1984.694336
3.840000 4.160000 2.200000 30.304352 -34.313972 2095.802490
3.840000 4.200000 1.800000 5.028370 -25.477461 674.385498
3.840000 4.200000 1.840000 20.187235 -16.706326 686.625732
3.840000 4.200000 1.880000 24.884502 1.142356 620.543457
3.840000 4.200000 1.920000 14.954528 17.313026 523.378784
3.840000 4.200000 1.960000 -4.054706 21.051331 459.599152
3.840000 4.200000 2.000000 -20.013483 9.228497 485.704651
3.840000 4.200000 2.040000 -22.334496 -11.067279 621.314331
3.840000 4.200000 2.080000 -9.220964 -27.248299 827.495972
3.840000 4.200000 2.120000 11.328156 -29.788088 1015.657349
3.840000 4.200000 2.160000 27.430353 -18.302151 1087.392944
3.840000 4.200000 2.200000 31.431696 -0.817707 988.620178
3.880000 3.800000 1.800000 -11.497782 11.133343 256.150299
3.880000 3.800000 1.840000 -15.470224 0.081518 239.334488
3.880000 3.800000 1.880000 -10.350082 -11.112736 230.617096
3.880000 3.800000 1.920000 1.028221 -15.568226 243.426895
3.880000 3.800000 1.960000 11.619217 -11.287667 262.417633
3.880000 3.800000 2.000000 15.954006 -2.354073 260.071991
3.880000 3.800000 2.040000 14.106636 5.290909 226.990891
3.880000 3.800000 2.080000 10.102596 9.089890 184.688538
3.880000 3.800000 2.120000 6.903671 10.831730 164.987045
3.880000 3.800000 2.160000 3.607435 12.790785 176.617767
3.880000 3.800000 2.200000 -2.090416 13.786851 194.447098
3.880000 3.840000 1.800000 -10.686243 -0.030568 114.196724
3.880000 3.840000 1.840000 2.511651 -3.767242 20.500507
3.880000 3.840000 1.880000 13.577757 7.608307 242.241821
3.880000 3.840000 1.920000 9.070076 25.671434 741.288818
3.880000 3.840000 1.960000 -10.811031 33.272476 1223.936035
3.880000 3.840000 2.000000 -30.451378 20.932732 1365.465698
3.880000 3.840000 2.040000 -32.749477 -2.875092 1080.794434
3.880000 3.840000 2.080000 -15.588985 -18.687046 592.222168
3.880000 3.840000 2.120000 5.642223 -14.215615 233.918411
3.880000 3.840000 2.160000 12.538360 4.095411 173.982864
3.880000 3.840000 2.200000 1.051447 17.590418 310.528320
3.880000 3.880000 1.800000 -0.989268 -5.207464 28.096334
3.880000 3.880000 1.840000 16.890167 13.630573 471.070251
3.880000 3.880000 1.880000 8.536182 46.983772 2280.341309
3.880000 3.880000 1.920000 -31.138947 63.803185 5040.480469
3.880000 3.880000 1.960000 -75.974213 40.564621 7417.569336
3.880000 3.880000 2.000000 -88.876434 -13.252159 8074.640137
3.880000 3.880000 2.040000 -55.980438 -59.630558 6689.613281
3.880000 3.880000 2.080000 -1.277374 -64.712341 4189.318848
3.880000 3.880000 2.120000 33.910542 -29.038986 1993.187500
3.880000 3.880000 2.160000 27.537369 13.952234 952.971558
3.880000 3.880000 2.200000 -5.496769 29.421234 895.823486
3.880000 3.920000 1.800000 8.091100 0.927106 66.325424
3.880000 3.920000 1.840000 8.108727 40.234306 1684.550903
3.880000 3.920000 1.880000 -35.328995 70.835991 6265.875488
3.880000 3.920000 1.920000 -99.570251 52.602314 12681.238281
3.880000 3.920000 1.960000 -132.737305 -18.010464 17943.568359
3.880000 3.920000 2.000000 -99.576027 -96.373726 19203.281250
3.880000 3.920000 2.040000 -17.334198 -124.831650 15883.415039
3.880000 3.920000 2.080000 55.584045 -83.674065 10090.935547
3.880000 3.920000 2.120000 69.805336 -8.963863 4953.136230
3.880000 3.920000 2.160000 26.719604 40.467789 2351.579102
3.880000 3.920000 2.200000 -27.327665 34.864479 1962.333130
3.880000 3.960000 1.800000 6.382935 12.636162 200.414444
3.880000 3.960000 1.840000 -23.958477 50.685253 3143.003418
3.880000 3.960000 1.880000 -90.076706 48.441761 10460.416992
3.880000 3.960000 1.920000 -141.273132 -17.022909 20247.876953
3.880000 3.960000 1.960000 -123.929474 -112.346909 27980.343750
3.880000 3.960000 2.000000 -34.537888 -168.313202 29522.199219
3.880000 3.960000 2.040000 69.224800 -139.374100 24217.212891
3.880000 3.960000 2.080000 114.970139 -46.384392 15369.644531
3.880000 3.960000 2.120000 77.788483 40.231220 7669.598633
3.880000 3.960000 2.160000 -0.759813 61.945595 3837.833984
3.880000 3.960000 2.200000 -53.728004 19.865791 3281.348145
3.880000 4.000000 1.800000 -6.611517 17.465570 348.758301
3.880000 4.000000 1.840000 -56.416023 29.895378 4076.501221
3.880000 4.000000 1.880000 -111.482101 -13.542952 12611.669922
3.880000 4.000000 1.920000 -115.209816 -101.678123 23611.742188
3.880000 4.000000 1.960000 -41.906166 -173.835312 31974.841797
3.880000 4.000000 2.000000 69.963364 -168.389359 33249.847656
3.880000 4.000000 2.040000 143.255829 -80.346695 26977.824219
3.880000 4.000000 2.080000 127.305771 29.048481 17050.574219
3.880000 4.000000 2.120000 42.006657 83.325752 8707.740234
3.880000 4.000000 2.160000 -41.574902 55.408653 4798.591309
3.880000 4.000000 2.200000 -64.851875 -14.641338 4420.134277
3.880000 4.040000 1.800000 -20.011641 7.917562 463.153564
3.880000 4.040000 1.840000 -62.611877 -11.088417 4043.200195
3.880000 4.040000 1.880000 -79.092575 -73.225800 11617.652344
3.880000 4.040000 1.920000 -34.080322 -140.781250 20980.828125
3.880000 4.040000 1.960000 59.661301 -155.559052 27758.089844
3.880000 4.040000 2.000000 141.241425 -91.653046 28349.421875
3.880000 4.040000 2.040000 149.902023 14.435848 22679.011719
3.880000 4.040000 2.080000 79.008453 89.710297 14290.273438
3.880000 4.040000 2.120000 -16.426695 85.806389 7632.572754
3.880000 4.040000 2.160000 -67.340469 18.520128 4877.733887
3.880000 4.040000 2.200000 -48.550304 -50.748814 4932.574219
3.880000 4.080000 1.800000 -21.074699 -10.762955 559.984131
3.880000 4.080000 1.840000 -36.325821 -43.486645 3210.653564
3.880000 4.080000 1.880000 -15.645567 -89.517731 8258.208008
3.880000 4.080000 1.920000 45.219597 -109.921455 14127.538086
3.880000 4.080000 1.960000 111.809006 -74.441513 18042.792969
3.880000 4.080000 2.000000 133.803940 5.467285 17933.384766
3.880000 4.080000 2.040000 88.833023 78.563866 14063.586914
3.880000 4.080000 2.080000 5.916069 94.141724 8897.664062
3.880000 4.080000 2.120000 -56.396980 45.214321 5224.954102
3.880000 4.080000 2.160000 -58.777271 -26.214384 4141.961426
3.880000 4.080000 2.200000 -11.682677 -66.823105 4601.812012
3.880000 4.120000 1.800000 -7.022810 -24.792976 664.011536
3.880000 4.120000 1.840000 2.668296 -46.003777 2123.467285
3.880000 4.120000 1.880000 33.456367 -57.633972 4441.003418
3.880000 4.120000 1.920000 71.963089 -40.592880 6826.467773
3.880000 4.120000 1.960000 89.991653 5.842758 8132.635254
3.880000 4.120000 2.000000 67.231941 56.180443 7676.375977
3.880000 4.120000 2.040000 12.442478 75.374084 5836.067871
3.880000 4.120000 2.080000 -39.057373 48.047794 3834.068848
3.880000 4.120000 2.120000 -52.619995 -6.613527 2812.602539
3.880000 4.120000 2.160000 -22.577713 -49.708385 2980.676758
3.880000 4.120000 2.200000 24.472790 -54.514984 3570.801025
3.880000 4.160000 1.800000 12.356325 -24.220867 739.329163
3.880000 4.160000 1.840000 26.936893 -22.601078 1236.405029
3.880000 4.160000 1.880000 40.384964 -10.119003 1733.339600
3.880000 4.160000 1.920000 43.695854 11.680809 2045.768921
3.880000 4.160000 1.960000 30.216417 33.244705 2018.242310
3.880000 4.160000 2.000000 2.982380 40.738716 1668.537476
3.880000 4.160000 2.040000 -23.630833 26.104877 1239.880859
3.880000 4.160000 2.080000 -32.344978 -4.435608 1065.872192
3.880000 4.160000 2.120000 -16.244444 -32.470367 1318.206665
3.880000 4.160000 2.160000 14.687762 -40.349007 1843.772705
3.880000 4.160000 2.200000 40.602921 -24.614765 2254.483887
3.880000 4.200000 1.800000 23.873774 -11.534043 702.991211
3.880000 4.200000 1.840000 25.421349 3.689128 659.854614
3.880000 4.200000 1.880000 15.818193 15.674038 495.890686
3.880000 4.200000 1.920000 1.001183 17.618092 311.399536
3.880000 4.200000 1.960000 -10.729694 9.283680 201.313049
3.880000 4.200000 2.000000 -13.958733 -4.297056 213.310913
3.880000 4.200000 2.040000 -7.999662 -16.739731 344.213196
3.880000 4.200000 2.080000 4.321472 -23.231491 558.377258
3.880000 4.200000 2.120000 18.497211 -21.455097 802.468018
3.880000 4.200000 2.160000 29.506945 -11.743910 1008.579224
3.880000 4.200000 2.200000 33.122604 2.622309 1103.983398
3.920000 3.800000 1.800000 -23.232885 15.880239 791.948975
3.920000 3.800000 1.840000 -23.118431 -1.878864 537.992004
3.920000 3.800000 1.880000 -10.462002 -13.426983 289.737366
3.920000 3.800000 1.920000 4.957039 -12.003139 168.647598
3.920000 3.800000 1.960000 12.649834 -1.643879 162.720627
3.920000 3.800000 2.000000 10.608040 7.673477 171.412766
3.920000 3.800000 2.040000 5.539009 10.166626 134.040909
3.920000 3.800000 2.080000 4.343910 8.958462 99.123596
3.920000 3.800000 2.120000 6.426548 10.737913 156.603302
3.920000 3.800000 2.160000 5.287026 16.757607 308.770020
3.920000 3.800000 2.200000 -2.632618 20.625357 432.335999
3.920000 3.840000 1.800000 -22.350189 1.403929 501.501953
3.920000 3.840000 1.840000 -5.981941 4.161959 53.105518
3.920000 3.840000 1.880000 -3.082893 23.312191 552.962463
3.920000 3.840000 1.920000 -23.397797 37.609112 1961.902222
3.920000 3.840000 1.960000 -52.121948 26.558090 3422.029785
3.920000 3.840000 2.000000 -62.218235 -7.415878 3926.104248
3.920000 3.840000 2.040000 -40.836105 -38.650761 3161.468750
3.920000 3.840000 2.080000 -3.271660 -41.708946 1750.339966
3.920000 3.840000 2.120000 20.525322 -15.745390 669.206177
3.920000 3.840000 2.160000 14.017051 14.771019 414.660706
3.920000 3.840000 2.200000 -11.177565 23.790184 690.910767
3.920000 3.880000 1.800000 -12.775134 -5.239068 190.651886
3.920000 3.880000 1.840000 -6.298985 27.436049 792.413940
3.920000 3.880000 1.880000 -42.150536 57.015244 5027.405762
3.920000 3.880000 1.920000 -101.098633 41.816040 11969.514648
3.920000 3.880000 1.960000 -132.460846 -24.329285 18137.789062
3.920000 3.880000 2.000000 -100.609589 -98.980217 19919.371094
3.920000 3.880000 2.040000 -21.631439 -126.011902 16346.917969
3.920000 3.880000 2.080000 47.939850 -86.583527 9794.936523
3.920000 3.880000 2.120000 61.184769 -16.284435 4008.758789
3.920000 3.880000 2.160000 21.284161 28.542355 1267.681519
3.920000 3.880000 2.200000 -26.095930 21.707745 1152.223755
3.920000 3.920000 1.800000 -5.627495 -1.709541 34.591228
3.920000 3.920000 1.840000 -34.050205 42.273880 2946.497559
3.920000 3.920000 1.880000 -107.577278 42.013565 13338.010742
3.920000 3.920000 1.920000 -166.372284 -32.458092 28733.263672
3.920000 3.920000 1.960000 -146.077972 -142.898895 41758.867188
3.920000 3.920000 2.000000 -42.109535 -208.163574 45105.289062
3.920000 3.920000 2.040000 78.269272 -175.713211 37001.210938
3.920000 3.920000 2.080000 132.204803 -70.760956 22485.222656
3.920000 3.920000 2.120000 93.391190 25.963173 9396.000000
3.920000 3.920000 2.160000 10.861570 50.544022 2672.671875
3.920000 3.920000 2.200000 -41.374146 8.140410 1778.086182
3.920000 3.960000 1.800000 -7.983248 3.348270 74.943161
3.920000 3.960000 1.840000 -70.223564 24.807087 5546.740723
3.920000 3.960000 1.880000 -144.482880 -29.790306 21762.765625
3.920000 3.960000 1.920000 -151.241898 -147.637390 44670.910156
3.920000 3.960000 1.960000 -53.611122 -246.195068 63486.164062
3.920000 3.960000 2.000000 97.120468 -241.690063 67846.468750
3.920000 3.960000 2.040000 198.076721 -127.471718 55483.425781
3.920000 3.960000 2.080000 183.333130 15.484734 33850.812500
3.920000 3.960000 2.120000 80.221573 88.801689 14321.241211
3.920000 3.960000 2.160000 -20.133331 60.647133 4083.425781
3.920000 3.960000 2.200000 -47.030746 -15.876323 2463.948730
3.920000 4.000000 1.800000 -15.140232 -0.297611 229.315201
3.920000 4.000000 1.840000 -81.764648 -21.096058 7130.500977
3.920000 4.000000 1.880000 -112.783455 -113.785156 25667.167969
3.920000 4.000000 1.920000 -48.128769 -220.668945 51011.164062
3.920000 4.000000 1.960000 95.568535 -249.372437 71319.960938
3.920000 4.000000 2.000000 225.344208 -157.345276 75537.546875
3.920000 4.000000 2.040000 248.050217 1.809877 61532.187500
3.920000 4.000000 2.080000 152.606491 119.693970 37615.386719
3.920000 4.000000 2.120000 18.908892 125.726318 16164.653320
3.920000 4.000000 2.160000 -55.037098 43.321732 4905.854492
3.920000 4.000000 2.200000 -36.575340 -41.314201 3044.618652
3.920000 4.040000 1.800000 -15.344482 -12.969822 403.669434
3.920000 4.040000 1.840000 -52.872276 -63.761482 6861.003906
3.920000 4.040000 1.880000 -27.218367 -149.015869 22946.568359
3.920000 4.040000 1.920000 76.871033 -195.884430 44279.867188
3.920000 4.040000 1.960000 200.597733 -143.814545 60922.070312
3.920000 4.040000 2.000000 252.694763 -7.304802 63908.003906
3.920000 4.040000 2.040000 189.195862 126.557785 51811.945312
3.920000 4.040000 2.080000 55.398705 169.399475 31765.197266
3.920000 4.040000 2.120000 -52.351097 106.245758 14028.798828
3.920000 4.040000 2.160000 -69.467789 3.206534 4836.055176
3.920000 4.040000 2.200000 -12.124181 -56.567345 3346.860352
3.920000 4.080000 1.800000 -2.433306 -23.771805 571.019653
3.920000 4.080000 1.840000 -1.479603 -71.405334 5100.911133
3.920000 4.080000 1.880000 53.280571 -112.457359 15485.476562
3.920000 4.080000 1.920000 140.290314 -95.176483 28739.935547
3.920000 4.080000 1.960000 196.605606 -6.365845 38694.289062
3.920000 4.080000 2.000000 169.851181 105.825279 40048.414062
3.920000 4.080000 2.040000 68.423370 166.055725 32256.261719
3.920000 4.080000 2.080000 -40.385799 135.219009 19915.193359
3.920000 4.080000 2.120000 -85.862534 43.858570 9295.949219
3.920000 4.080000 2.160000 -51.803490 -36.271080 3999.192871
3.920000 4.080000 2.200000 16.485991 -54.692738 3263.083496
3.920000 4.120000 1.800000 16.840904 -21.267975 735.942810
3.920000 4.120000 1.840000 36.183678 -40.881851 2980.584473
3.920000 4.120000 1.880000 77.527794 -38.306610 7477.955078
3.920000 4.120000 1.920000 113.284943 3.598625 12846.428711
3.920000 4.120000 1.960000 108.127647 69.940414 16583.250000
3.920000 4.120000 2.000000 51.913483 118.459251 16727.605469
3.920000 4.120000 2.040000 -25.273132 112.630775 13324.422852
3.920000 4.120000 2.080000 -73.912575 54.286507 8410.093750
3.920000 4.120000 2.120000 -65.156403 -15.773228 4494.151855
3.920000 4.120000 2.160000 -13.689596 -51.272800 2816.305176
3.920000 4.120000 2.200000 37.485191 -37.421494 2805.507812
3.920000 4.160000 1.800000 28.722675 -5.252102 852.576660
3.920000 4.160000 1.840000 38.013527 0.684620 1445.496948
3.920000 4.160000 1.880000 44.888493 15.661896 2260.271729
3.920000 4.160000 1.920000 40.371517 37.576763 3041.872559
3.920000 4.160000 1.960000 18.804100 55.372173 3419.671875
3.920000 4.160000 2.000000 -13.756683 54.673401 3178.427002
3.920000 4.160000 2.040000 -39.667030 30.030777 2475.320801
3.920000 4.160000 2.080000 -41.467136 -7.271896 1772.403931
3.920000 4.160000 2.120000 -16.463381 -35.052055 1499.689453
3.920000 4.160000 2.160000 19.513271 -36.612083 1721.212402
3.920000 4.160000 2.200000 43.778255 -13.639202 2102.563477
3.920000 4.200000 1.800000 25.708103 12.708650 822.416321
3.920000 4.200000 1.840000 13.722315 22.229301 682.443787
3.920000 4.200000 1.880000 -1.155304 20.149668 407.343842
3.920000 4.200000 1.920000 -9.392727 9.293434 174.591248
3.920000 4.200000 1.960000 -8.404442 -2.076624 74.947014
3.920000 4.200000 2.000000 -2.637161 -8.696457 82.582985
3.920000 4.200000 2.040000 3.217924 -11.639641 145.836273
3.920000 4.200000 2.080000 9.340393 -13.844376 278.909668
3.920000 4.200000 2.120000 18.451323 -14.277546 544.299622
3.920000 4.200000 2.160000 29.587038 -8.272085 943.820190
3.920000 4.200000 2.200000 36.183697 6.111279 1346.607666
3.960000 3.800000 1.800000 -36.880089 11.222385 1486.082886
3.960000 3.800000 1.840000 -29.289932 -8.986034 938.648987
3.960000 3.800000 1.880000 -10.989922 -16.424152 390.531158
3.960000 3.800000 1.920000 3.990646 -9.081619 98.401062
3.960000 3.800000 1.960000 7.093189 3.155258 60.268990
3.960000 3.800000 2.000000 2.120338 9.305717 91.092209
3.960000 3.800000 2.040000 -0.855164 8.140430 66.997917
3.960000 3.800000 2.080000 2.464432 7.654037 64.657715
3.960000 3.800000 2.120000 6.063271 14.240753 239.562302
3.960000 3.800000 2.160000 1.424513 24.146667 585.090759
3.960000 3.800000 2.200000 -11.302282 27.083958 861.282349
3.960000 3.840000 1.800000 -33.800476 -6.487061 1184.554077
3.960000 3.840000 1.840000 -21.404205 2.532551 464.553833
3.960000 3.840000 1.880000 -30.675690 18.631683 1288.137573
3.960000 3.840000 1.920000 -57.546810 15.659599 3556.858398
3.960000 3.840000 1.960000 -74.775604 -15.993927 5847.196777
3.960000 3.840000 2.000000 -58.453949 -55.856659 6536.830566
3.960000 3.840000 2.040000 -13.898018 -70.577492 5174.336914
3.960000 3.840000 2.080000 26.484085 -46.082382 2824.992676
3.960000 3.840000 2.120000 32.750832 -2.195934 1077.439087
3.960000 3.840000 2.160000 5.248423 25.620541 683.958069
3.960000 3.840000 2.200000 -27.038591 19.386322 1106.914917
3.960000 3.880000 1.800000 -22.826801 -15.417957 758.776245
3.960000 3.880000 1.840000 -36.889019 16.752422 1641.443359
3.960000 3.880000 1.880000 -89.122803 18.887268 8299.602539
3.960000 3.880000 1.920000 -133.512436 -36.828033 19181.875000
3.960000 3.880000 1.960000 -116.958405 -122.565735 28701.628906
3.960000 3.880000 2.000000 -33.619904 -173.320816 31170.404297
3.960000 3.880000 2.040000 62.970840 -145.698746 25193.451172
3.960000 3.880000 2.080000 105.373375 -59.750629 14673.685547
3.960000 3.880000 2.120000 72.295494 18.469231 5567.750977
3.960000 3.880000 2.160000 4.683285 36.896793 1383.306519
3.960000 3.880000 2.200000 -36.320786 1.093874 1320.395996
3.960000 3.920000 1.800000 -13.915867 -15.905946 446.650452
3.960000 3.920000 1.840000 -67.679970 6.705780 4625.545410
3.960000 3.920000 1.880000 -136.748840 -42.928585 20543.109375
3.960000 3.920000 1.920000 -142.466141 -154.915314 44295.355469
3.960000 3.920000 1.960000 -47.223495 -249.126617 64294.128906
3.960000 3.920000 2.000000 99.397049 -243.395065 69120.929688
3.960000 3.920000 2.040000 197.012955 -131.531433 56114.625000
3.960000 3.920000 2.080000 182.277161 6.923553 33272.902344
3.960000 3.920000 2.120000 83.485825 76.902328 12883.851562
3.960000 3.920000 2.160000 -10.310062 49.958492 2602.148193
3.960000 3.920000 2.200000 -32.801102 -20.069708 1478.705444
3.960000 3.960000 1.800000 -10.293043 -15.747574 353.932831
3.960000 3.960000 1.840000 -82.738396 -34.353142 8025.780273
3.960000 3.960000 1.880000 -118.184357 -135.870758 32428.406250
3.960000 3.960000 1.920000 -45.940956 -255.546539 67414.609375
3.960000 3.960000 1.960000 116.184097 -287.745605 96296.273438
3.960000 3.960000 2.000000 262.822968 -184.039886 102946.593750
3.960000 3.960000 2.040000 289.344452 -5.491722 83750.367188
3.960000 3.960000 2.080000 184.927948 126.370590 50167.875000
3.960000 3.960000 2.120000 39.954365 134.970825 19813.474609
3.960000 3.960000 2.160000 -38.434601 49.362305 3913.855713
3.960000 3.960000 2.200000 -18.664459 -34.804909 1559.743774
3.960000 4.000000 1.800000 -6.156094 -19.748325 427.893860
3.960000 4.000000 1.840000 -57.778900 -80.752686 9859.397461
3.960000 4.000000 1.880000 -28.211349 -191.134033 37328.097656
3.960000 4.000000 1.920000 105.506180 -254.191925 75745.085938
3.960000 4.000000 1.960000 267.069183 -188.938736 107023.796875
3.960000 4.000000 2.000000 337.343170 -13.560314 113984.296875
3.960000 4.000000 2.040000 259.795227 159.474854 92925.789062
3.960000 4.000000 2.080000 93.223526 217.984467 56207.851562
3.960000 4.000000 2.120000 -40.695282 145.252579 22754.417969
3.960000 4.000000 2.160000 -64.104828 25.719078 4770.900391
3.960000 4.000000 2.200000 -1.346774 -39.657043 1574.494995
3.960000 4.040000 1.800000 4.896114 -23.309168 567.289246
3.960000 4.040000 1.840000 -1.870972 -95.354721 9096.023438
3.960000 4.040000 1.880000 76.717209 -163.231415 32530.023438
3.960000 4.040000 1.920000 209.927948 -143.459152 64650.273438
3.960000 4.040000 1.960000 300.538269 -12.703831 90484.640625
3.960000 4.040000 2.000000 267.264526 156.999008 96079.015625
3.960000 4.040000 2.040000 121.697960 252.516495 78574.976562
3.960000 4.040000 2.080000 -36.988995 216.269852 48140.835938
3.960000 4.040000 2.120000 -107.067528 93.560326 20216.988281
3.960000 4.040000 2.160000 -68.149345 -13.397095 4823.815430
3.960000 4.040000 2.200000 13.800254 -37.396759 1588.964600
3.960000 4.080000 1.800000 20.403990 -17.525848 723.478149
3.960000 4.080000 1.840000 47.485405 -64.336700 6394.074707
3.960000 4.080000 1.880000 126.101234 -72.547852 21164.712891
3.960000 4.080000 1.920000 202.415024 -2.213120 40976.742188
3.960000 4.080000 1.960000 204.726410 121.542984 56685.601562
3.960000 4.080000 2.000000 110.049774 218.810333 59988.914062
3.960000 4.080000 2.040000 -27.866600 220.338806 49325.738281
3.960000 4.080000 2.080000 -120.090042 128.197922 30856.324219
3.960000 4.080000 2.120000 -116.670387 13.486435 13793.863281
3.960000 4.080000 2.160000 -44.142426 -46.530827 4113.671875
3.960000 4.080000 2.200000 26.401745 -31.283207 1675.691162
3.960000 4.120000 1.800000 29.716032 -0.256571 883.108398
3.960000 4.120000 1.840000 57.481209 -11.011326 3425.338623
3.960000 4.120000 1.880000 96.834778 13.176262 9550.588867
3.960000 4.120000 1.920000 109.103050 74.812943 17500.453125
3.960000 4.120000 1.960000 66.394394 138.749588 23659.662109
3.960000 4.120000 2.000000 -17.907829 156.724030 24883.111328
3.960000 4.120000 2.040000 -93.742416 109.077530 20685.546875
3.960000 4.120000 2.080000 -113.599030 24.559639 13507.915039
3.960000 4.120000 2.120000 -71.416794 -42.051491 6868.686523
3.960000 4.120000 2.160000 -5.306007 -54.513008 2999.821777
3.960000 4.120000 2.200000 37.199745 -21.029545 1826.062744
3.960000 4.160000 1.800000 24.688572 19.442293 987.528320
3.960000 4.160000 1.840000 28.922359 25.579765 1490.827271
3.960000 4.160000 1.880000 29.157450 40.041626 2453.488770
3.960000 4.160000 1.920000 16.156219 57.928585 3616.744385
3.960000 4.160000 1.960000 -12.225754 65.723282 4469.019043
3.960000 4.160000 2.000000 -44.559181 50.985218 4585.013184
3.960000 4.160000 2.040000 -61.065331 14.854744 3949.637939
3.960000 4.160000 2.080000 -48.601189 -24.893387 2981.756104
3.960000 4.160000 2.120000 -12.650600 -45.321915 2214.113525
3.960000 4.160000 2.160000 25.249949 -35.649784 1908.467041
3.960000 4.160000 2.200000 43.491764 -5.272177 1919.329468
3.960000 4.200000 1.800000 8.858345 29.161171 928.844177
3.960000 4.200000 1.840000 -7.258057 25.925407 724.806152
3.960000 4.200000 1.880000 -15.908043 11.685253 389.610962
3.960000 4.200000 1.920000 -11.823853 -2.830920 147.817596
3.960000 4.200000 1.960000 -1.295593 -8.294418 70.475937
3.960000 4.200000 2.000000 5.571312 -5.874084 65.544388
3.960000 4.200000 2.040000 6.236452 -4.295769 57.346962
3.960000 4.200000 2.080000 7.833435 -8.413879 132.156067
3.960000 4.200000 2.120000 17.623093 -12.480810 466.344025
3.960000 4.200000 2.160000 32.593002 -6.132721 1099.914062
3.960000 4.200000 2.200000 40.380779 13.173695 1804.153564
4.000000 3.800000 1.800000 -45.376041 -1.459824 2061.116211
4.000000 3.800000 1.840000 -31.082209 -19.513329 1346.873657
4.000000 3.800000 1.880000 -10.738205 -21.753143 588.508301
4.000000 3.800000 1.920000 2.035000 -11.216797 129.957748
4.000000 3.800000 1.960000 2.958031 0.386139 8.899049
4.000000 3.800000 2.000000 -1.003769 5.012085 26.128548
4.000000 3.800000 2.040000 -1.305939 5.354521 30.376375
4.000000 3.800000 2.080000 2.003952 9.447186 93.265137
4.000000 3.800000 2.120000 0.964924 19.445484 379.057953
4.000000 3.800000 2.160000 -9.777771 27.742332 865.241821
4.000000 3.800000 2.200000 -24.962898 25.129986 1254.662476
4.000000 3.840000 1.800000 -38.830399 -21.455734 1968.148315
4.000000 3.840000 1.840000 -33.565170 -13.080908 1297.730713
4.000000 3.840000 1.880000 -46.968128 -9.812752 2302.295166
4.000000 3.840000 1.920000 -62.520424 -29.424316 4774.593750
4.000000 3.840000 1.960000 -54.293213 -64.450027 7101.559082
4.000000 3.840000 2.000000 -15.350479 -85.583290 7560.136719
4.000000 3.840000 2.040000 30.922455 -69.551491 5793.607910
4.000000 3.840000 2.080000 50.230080 -23.767303 3087.945557
4.000000 3.840000 2.120000 29.421509 18.220413 1197.608643
4.000000 3.840000 2.160000 -11.004894 27.101974 855.624756
4.000000 3.840000 2.200000 -36.664410 4.016750 1360.413208
4.000000 3.880000 1.800000 -24.170008 -32.669498 1651.485352
4.000000 3.880000 1.840000 -51.083469 -18.018467 2934.186035
4.000000 3.880000 1.880000 -91.583595 -48.065857 10697.880859
4.000000 3.880000 1.920000 -92.646599 -119.823929 22941.166016
4.000000 3.880000 1.960000 -26.680283 -180.384094 33250.257812
4.000000 3.880000 2.000000 73.801849 -172.933762 35352.796875
4.000000 3.880000 2.040000 139.468399 -92.460739 28000.421875
4.000000 3.880000 2.080000 125.815628 5.447983 15859.252930
4.000000 3.880000 2.120000 53.098003 53.437271 5674.939941
4.000000 3.880000 2.160000 -14.664482 31.495991 1207.044434
4.000000 3.880000 2.200000 -29.680145 -20.874628 1316.661133
4.000000 3.920000 1.800000 -8.974733 -35.134430 1314.974121
4.000000 3.920000 1.840000 -62.921989 -47.571583 6222.232422
4.000000 3.920000 1.880000 -89.291687 -128.173355 24401.414062
4.000000 3.920000 1.920000 -27.568100 -224.480011 51151.273438
4.000000 3.920000 1.960000 108.381248 -247.906403 73204.078125
4.000000 3.920000 2.000000 230.047272 -157.698868 77790.679688
4.000000 3.920000 2.040000 249.506332 -6.025536 62289.718750
4.000000 3.920000 2.080000 158.975006 104.067856 36103.171875
4.000000 3.920000 2.120000 36.442886 108.990738 13207.064453
4.000000 3.920000 2.160000 -27.462353 35.728119 2030.679443
4.000000 3.920000 2.200000 -8.366693 -33.186848 1171.368408
4.000000 3.960000 1.800000 4.173540 -32.770229 1091.306396
4.000000 3.960000 1.840000 -43.936161 -87.587250 9601.912109
4.000000 3.960000 1.880000 -14.871376 -191.974396 37075.324219
4.000000 3.960000 1.920000 115.521408 -251.090042 76391.406250
4.000000 3.960000 1.960000 272.584900 -185.049988 108546.031250
4.000000 3.960000 2.000000 339.452148 -12.275196 115378.437500
4.000000 3.960000 2.040000 261.994568 156.275162 93063.078125
4.000000 3.960000 2.080000 99.806953 211.819641 54828.984375
4.000000 3.960000 2.120000 -27.870281 141.035431 20667.744141
4.000000 3.960000 2.160000 -47.973366 28.703304 3125.323486
4.000000 3.960000 2.200000 11.464547 -28.138655 923.219727
4.000000 4.000000 1.800000 16.603260 -26.721676 989.716187
4.000000 4.000000 1.840000 6.894745 -104.952484 11062.560547
4.000000 4.000000 1.880000 93.942932 -181.034210 41598.660156
4.000000 4.000000 1.920000 243.851746 -158.651352 84633.929688
4.000000 4.000000 1.960000 345.823425 -10.827714 119711.085938
4.000000 4.000000 2.000000 308.118713 180.191559 127406.140625
4.000000 4.000000 2.040000 145.526154 286.974182 103532.039062
4.000000 4.000000 2.080000 -29.429955 247.332733 62039.601562
4.000000 4.000000 2.120000 -105.066978 115.092186 24285.281250
4.000000 4.000000 2.160000 -63.563347 4.041286 4056.631104
4.000000 4.000000 2.200000 18.593693 -16.259171 610.086060
4.000000 4.040000 1.800000 27.410675 -14.515211 962.036438
4.000000 4.040000 1.840000 59.530533 -78.621002 9725.146484
4.000000 4.040000 1.880000 163.630600 -92.938873 35412.605469
4.000000 4.040000 1.920000 266.913849 -1.508236 71245.273438
4.000000 4.040000 1.960000 272.285095 162.159012 100434.718750
4.000000 4.040000 2.000000 149.660568 291.143066 107162.562500
4.000000 4.040000 2.040000 -28.589645 295.151611 87931.843750
4.000000 4.040000 2.080000 -146.633255 179.917206 53871.511719
4.000000 4.040000 2.120000 -143.796234 39.310085 22222.640625
4.000000 4.040000 2.160000 -59.018299 -30.604435 4419.791016
4.000000 4.040000 2.200000 16.957260 -10.883574 406.000854
4.000000 4.080000 1.800000 30.981138 4.127987 976.871216
4.000000 4.080000 1.840000 77.509445 -22.291515 6504.625488
4.000000 4.080000 1.880000 149.094269 12.641994 22388.921875
4.000000 4.080000 1.920000 176.478912 114.928345 44353.332031
4.000000 4.080000 1.960000 110.782738 223.623398 62280.242188
4.000000 4.080000 2.000000 -24.429344 257.195312 66746.218750
4.000000 4.080000 2.040000 -145.676270 185.419037 55601.796875
4.000000 4.080000 2.080000 -178.643463 57.847595 35259.832031
4.000000 4.080000 2.120000 -119.352943 -39.293320 15789.089844
4.000000 4.080000 2.160000 -30.557201 -56.156277 4087.270020
4.000000 4.080000 2.200000 19.241426 -13.366560 548.897400
4.000000 4.120000 1.800000 22.325962 22.667280 1012.254150
4.000000 4.120000 1.840000 51.100739 25.635387 3268.458496
4.000000 4.120000 1.880000 72.651558 66.026375 9637.730469
4.000000 4.120000 1.920000 50.942020 125.538429 18354.986328
4.000000 4.120000 1.960000 -19.970932 158.485687 25516.550781
4.000000 4.120000 2.000000 -103.140900 130.079575 27558.740234
4.000000 4.120000 2.040000 -145.536789 49.512115 23632.406250
4.000000 4.120000 2.080000 -121.721031 -34.634232 16015.540039
4.000000 4.120000 2.120000 -54.119011 -73.642349 8352.063477
4.000000 4.120000 2.160000 8.216195 -56.455387 3254.716553
4.000000 4.120000 2.200000 30.964260 -12.399002 1112.520630
4.000000 4.160000 1.800000 4.337450 31.391827 1004.260254
4.000000 4.160000 1.840000 5.795021 36.054577 1333.514771
4.000000 4.160000 1.880000 0.279209 47.299622 2237.332031
4.000000 4.160000 1.920000 -18.598267 55.989792 3480.752197
4.000000 4.160000 1.960000 -46.396194 49.027203 4556.273438
4.000000 4.160000 2.000000 -67.549072 20.864273 4998.194824
4.000000 4.160000 2.040000 -65.751488 -18.828003 4677.751953
4.000000 4.160000 2.080000 -37.414127 -49.542702 3854.296143
4.000000 4.160000 2.120000 3.696846 -54.226376 2954.166504
4.000000 4.160000 2.160000 35.464951 -31.909576 2275.983887
4.000000 4.160000 2.200000 43.004395 1.984540 1853.316284
4.000000 4.200000 1.800000 -12.352692 26.638411 862.193909
4.000000 4.200000 1.840000 -22.359123 13.772312 689.606995
4.000000 4.200000 1.880000 -19.831387 -3.431723 405.060638
4.000000 4.200000 1.920000 -6.468830 -12.741936 204.202698
4.000000 4.200000 1.960000 6.222471 -9.657562 131.987656
4.000000 4.200000 2.000000 9.227740 -2.083405 89.491768
4.000000 4.200000 2.040000 5.907246 -1.167412 36.258400
4.000000 4.200000 2.080000 8.012421 -8.017666 128.481842
4.000000 4.200000 2.120000 21.551785 -11.344027 593.166321
4.000000 4.200000 2.160000 37.955231 0.495016 1440.844482
4.000000 4.200000 2.200000 41.004135 25.476519 2330.392090
4.040000 3.800000 1.800000 -45.114243 -16.444250 2305.708252
4.040000 3.800000 1.840000 -26.976404 -30.298611 1645.732178
4.040000 3.800000 1.880000 -6.503794 -28.556026 857.745972
4.040000 3.800000 1.920000 5.202499 -16.245270 290.974792
4.040000 3.800000 1.960000 6.174538 -3.699642 51.812267
4.040000 3.800000 2.000000 2.618164 3.412986 18.503254
4.040000 3.800000 2.040000 0.248314 7.605095 57.899128
4.040000 3.800000 2.080000 -2.068604 13.593597 189.065002
4.040000 3.800000 2.120000 -9.393593 20.546013 510.378235
4.040000 3.800000 2.160000 -22.522396 21.927372 988.067993
4.040000 3.800000 2.200000 -34.619434 13.281068 1374.891968
4.040000 3.840000 1.800000 -34.186855 -37.865913 2602.568359
4.040000 3.840000 1.840000 -31.060518 -36.356998 2286.587158
4.040000 3.840000 1.880000 -35.248081 -43.964577 3175.311279
4.040000 3.840000 1.920000 -29.752563 -64.061737 4989.121094
4.040000 3.840000 1.960000 -2.764229 -80.292114 6454.464844
4.040000 3.840000 2.000000 35.639267 -71.336342 6359.030762
4.040000 3.840000 2.040000 58.856201 -34.051224 4623.538086
4.040000 3.840000 2.080000 47.894363 9.390091 2382.043945
4.040000 3.840000 2.120000 10.524776 29.527489 982.643555
4.040000 3.840000 2.160000 -24.577736 15.958691 858.744934
4.040000 3.840000 2.200000 -33.603996 -14.039404 1326.333374
4.040000 3.880000 1.800000 -13.168102 -49.458344 2619.526611
4.040000 3.880000 1.840000 -33.633064 -55.501808 4211.633789
4.040000 3.880000 1.880000 -41.500786 -96.660431 11065.554688
4.040000 3.880000 1.920000 -2.226364 -145.573120 21196.490234
4.040000 3.880000 1.960000 77.154465 -152.368637 29169.011719
4.040000 3.880000 2.000000 145.683853 -93.692886 30002.142578
4.040000 3.880000 2.040000 151.933502 -0.777542 23084.394531
4.040000 3.880000 2.080000 92.062355 64.418724 12625.250000
4.040000 3.880000 2.120000 14.294968 63.599659 4249.262695
4.040000 3.880000 2.160000 -25.135363 14.132313 831.508667
4.040000 3.880000 2.200000 -11.104096 -31.754629 1131.657349
4.040000 3.920000 1.800000 10.378686 -48.140991 2425.271973
4.040000 3.920000 1.840000 -17.015966 -82.662659 7122.658203
4.040000 3.920000 1.880000 7.508625 -151.290115 22945.078125
4.040000 3.920000 1.920000 102.038620 -187.361908 45516.363281
4.040000 3.920000 1.960000 213.282532 -133.943024 63430.171875
4.040000 3.920000 2.000000 257.088440 -5.238449 66121.906250
4.040000 3.920000 2.040000 195.393036 117.216904 51918.242188
4.040000 3.920000 2.080000 73.685555 154.361816 29257.130859
4.040000 3.920000 2.120000 -19.422245 98.433975 10066.470703
4.040000 3.920000 2.160000 -31.082676 14.170254 1166.928833
4.040000 3.920000 2.200000 15.456331 -26.083611 919.252930
4.040000 3.960000 1.800000 29.697130 -35.186935 2120.040039
4.040000 3.960000 1.840000 23.998371 -95.218315 9642.449219
4.040000 3.960000 1.880000 97.552399 -154.146973 33277.757812
4.040000 3.960000 1.920000 222.627777 -130.687408 66642.328125
4.040000 3.960000 1.960000 305.515320 -2.338406 93345.078125
4.040000 3.960000 2.000000 269.131958 160.120285 98070.515625
4.040000 3.960000 2.040000 128.105072 248.247269 78037.617188
4.040000 3.960000 2.080000 -20.035648 211.183075 44999.718750
4.040000 3.960000 2.120000 -80.934479 97.958794 16146.314453
4.040000 3.960000 2.160000 -42.933563 6.897814 1890.870728
4.040000 3.960000 2.200000 25.272062 -5.131636 665.010803
4.040000 4.000000 1.800000 39.764908 -14.247677 1784.244263
4.040000 4.000000 1.840000 69.959740 -73.233475 10257.506836
4.040000 4.000000 1.880000 170.394287 -84.882019 36239.171875
4.040000 4.000000 1.920000 269.723846 6.595345 72794.453125
4.040000 4.000000 1.960000 272.309052 167.789642 102305.578125
4.040000 4.000000 2.000000 149.845779 292.856293 108218.562500
4.040000 4.000000 2.040000 -24.457289 294.312500 87218.000000
4.040000 4.000000 2.080000 -136.802551 181.122681 51520.363281
4.040000 4.000000 2.120000 -131.191650 47.724312 19488.859375
4.040000 4.000000 2.160000 -50.499599 -13.753021 2739.354980
4.040000 4.000000 2.200000 15.294289 9.362688 321.575195
4.040000 4.040000 1.800000 37.330734 8.923832 1473.218506
4.040000 4.040000 1.840000 89.684021 -21.942432 8524.694336
4.040000 4.040000 1.880000 172.569550 18.224566 30112.384766
4.040000 4.040000 1.920000 204.210175 137.055527 60486.015625
4.040000 4.040000 1.960000 127.683495 262.605225 85264.585938
4.040000 4.040000 2.000000 -27.799248 300.209137 90898.320312
4.040000 4.040000 2.040000 -164.438385 217.660446 74416.054688
4.040000 4.040000 2.080000 -199.124786 75.477310 45347.503906
4.040000 4.040000 2.120000 -132.807556 -27.773399 18409.208984
4.040000 4.040000 2.160000 -40.614357 -41.040634 3333.859619
4.040000 4.040000 2.200000 2.922121 4.912191 32.668415
4.040000 4.080000 1.800000 22.681702 26.574810 1220.680176
4.040000 4.080000 1.840000 68.175217 28.099646 5437.450195
4.040000 4.080000 1.880000 104.102966 87.920883 18567.509766
4.040000 4.080000 1.920000 74.642303 177.510635 37081.500000
4.040000 4.080000 1.960000 -27.866928 227.216217 52403.777344
4.040000 4.080000 2.000000 -146.376236 187.206070 56472.117188
4.040000 4.080000 2.040000 -204.114319 75.265671 47327.578125
4.040000 4.080000 2.080000 -170.077545 -36.263634 30241.421875
4.040000 4.080000 2.120000 -82.672272 -82.518692 13644.039062
4.040000 4.080000 2.160000 -10.855721 -57.558090 3430.780518
4.040000 4.080000 2.200000 6.812691 -8.582526 120.072510
4.040000 4.120000 1.800000 1.779600 31.926016 1022.437500
4.040000 4.120000 1.840000 21.820965 46.129910 2604.123047
4.040000 4.120000 1.880000 18.784706 85.914162 7734.108398
4.040000 4.120000 1.920000 -26.187248 119.600273 14989.998047
4.040000 4.120000 1.960000 -95.377434 109.746902 21141.238281
4.040000 4.120000 2.000000 -144.418320 48.302124 23189.746094
4.040000 4.120000 2.040000 -138.723145 -32.564751 20304.574219
4.040000 4.120000 2.080000 -82.782471 -85.597710 14179.905273
4.040000 4.120000 2.120000 -15.194275 -86.388840 7693.897949
4.040000 4.120000 2.160000 24.660315 -49.391624 3047.663574
4.040000 4.120000 2.200000 26.218994 -9.768989 782.868774
4.040000 4.160000 1.800000 -15.427850 24.299137 828.466614
4.040000 4.160000 1.840000 -15.532881 27.848083 1016.786133
4.040000 4.160000 1.880000 -24.698685 33.240452 1714.952637
4.040000 4.160000 1.920000 -42.642265 29.944553 2715.039062
4.040000 4.160000 1.960000 -59.302879 10.907364 3635.802246
4.040000 4.160000 2.000000 -61.175896 -20.053078 4144.616211
4.040000 4.160000 2.040000 -41.646282 -48.902145 4125.833008
4.040000 4.160000 2.080000 -6.971832 -60.329079 3688.204102
4.040000 4.160000 2.120000 26.979595 -48.170013 3048.248535
4.040000 4.160000 2.160000 44.857033 -19.451401 2390.510498
4.040000 4.160000 2.200000 41.111485 10.632261 1803.199219
4.040000 4.200000 1.800000 -21.591368 11.089176 589.156982
4.040000 4.200000 1.840000 -22.727762 -2.680889 523.738342
4.040000 4.200000 1.880000 -12.708544 -14.991871 386.263275
4.040000 4.200000 1.920000 2.911348 -16.615280 284.543488
4.040000 4.200000 1.960000 12.857149 -7.968742 228.807144
4.040000 4.200000 2.000000 12.235878 0.635262 150.120270
4.040000 4.200000 2.040000 8.356323 0.327499 69.935394
4.040000 4.200000 2.080000 12.712685 -5.549307 192.407166
4.040000 4.200000 2.120000 27.015314 -3.958069 745.493530
4.040000 4.200000 2.160000 38.849083 13.409380 1689.062744
4.040000 4.200000 2.200000 33.049408 38.926365 2607.525146
4.080000 3.800000 1.800000 -37.541542 -27.760494 2180.012451
4.080000 3.800000 1.840000 -17.724567 -37.501900 1720.552734
4.080000 3.800000 1.880000 2.768925 -32.338570 1053.450073
4.080000 3.800000 1.920000 13.932472 -16.952234 481.492004
4.080000 3.800000 1.960000 13.256607 -0.902339 176.551834
4.080000 3.800000 2.000000 5.543793 9.257542 116.435715
4.080000 3.800000 2.040000 -3.275028 13.438766 191.326263
4.080000 3.800000 2.080000 -11.313200 14.639305 342.297729
4.080000 3.800000 2.120000 -19.852432 13.716560 582.263123
4.080000 3.800000 2.160000 -28.708576 8.593426 898.029358
4.080000 3.800000 2.200000 -34.219765 -1.697873 1173.875122
4.080000 3.840000 1.800000 -20.992807 -49.254253 2866.679443
4.080000 3.840000 1.840000 -11.824080 -52.891823 2937.353760
4.080000 3.840000 1.880000 -1.338058 -58.525478 3427.021973
4.080000 3.840000 1.920000 16.896393 -61.831482 4108.620117
4.080000 3.840000 1.960000 40.495655 -52.301716 4375.367676
4.080000 3.840000 2.000000 55.931137 -25.629211 3785.148438
4.080000 3.840000 2.040000 49.522816 7.617172 2510.530518
4.080000 3.840000 2.080000 21.697786 27.816662 1244.560547
4.080000 3.840000 2.120000 -10.534025 22.719368 627.135376
4.080000 3.840000 2.160000 -26.882496 -1.325541 724.425659
4.080000 3.840000 2.200000 -20.763861 -24.830393 1047.686279
4.080000 3.880000 1.800000 7.488930 -56.924278 3296.457520
4.080000 3.880000 1.840000 6.822445 -69.189255 4833.698730
4.080000 3.880000 1.880000 26.335938 -92.382263 9228.064453
4.080000 3.880000 1.920000 73.163620 -98.383461 15032.220703
4.080000 3.880000 1.960000 122.555794 -63.145508 19007.277344
4.080000 3.880000 2.000000 135.940796 4.493820 18500.095703
4.080000 3.880000 2.040000 97.236732 64.263367 13584.762695
4.080000 3.880000 2.080000 31.015869 77.999802 7045.953125
4.080000 3.880000 2.120000 -17.311840 43.522495 2193.907471
4.080000 3.880000 2.160000 -21.011553 -4.604000 462.682159
4.080000 3.880000 2.200000 7.112991 -27.985874 833.803833
4.080000 3.920000 1.800000 36.214005 -45.299469 3363.496094
4.080000 3.920000 1.840000 40.132984 -72.827927 6914.562988
4.080000 3.920000 1.880000 86.280914 -98.036377 17055.527344
4.080000 3.920000 1.920000 158.581619 -74.853020 30751.105469
4.080000 3.920000 1.960000 202.038147 8.473770 40891.218750
4.080000 3.920000 2.000000 171.999908 108.112198 41272.214844
4.080000 3.920000 2.040000 79.765305 158.273636 31413.046875
4.080000 3.920000 2.080000 -13.037151 129.596985 16965.345703
4.080000 3.920000 2.120000 -48.111755 55.007496 5340.565430
4.080000 3.920000 2.160000 -20.107828 -2.557098 410.863495
4.080000 3.920000 2.200000 25.485804 -7.777801 710.020386
4.080000 3.960000 1.800000 52.390381 -18.233767 3077.222168
4.080000 3.960000 1.840000 74.927429 -51.066216 8221.877930
4.080000 3.960000 1.880000 143.434326 -51.786854 23255.285156
4.080000 3.960000 1.920000 208.742798 18.255697 43906.824219
4.080000 3.960000 1.960000 204.016998 134.761292 59783.542969
4.080000 3.960000 2.000000 110.728363 221.920654 61509.546875
4.080000 3.960000 2.040000 -16.647934 218.117462 47852.378906
4.080000 3.960000 2.080000 -95.499962 132.501495 26676.890625
4.080000 3.960000 2.120000 -87.243637 35.875923 8898.534180
4.080000 3.960000 2.160000 -26.464766 -4.922482 724.614624
4.080000 3.960000 2.200000 19.175116 16.263618 632.190308
4.080000 4.000000 1.800000 48.877125 12.601909 2547.781494
4.080000 4.000000 1.840000 89.016243 -7.188541 7975.566895
4.080000 4.000000 1.880000 153.253052 29.303135 24345.171875
4.080000 4.000000 1.920000 174.745956 128.868317 47143.191406
4.080000 4.000000 1.960000 106.892876 231.749695 65134.007812
4.080000 4.000000 2.000000 -24.583527 259.540710 67965.734375
4.080000 4.000000 2.040000 -137.006348 187.404633 53891.234375
4.080000 4.000000 2.080000 -162.187408 68.750618 31031.402344
4.080000 4.000000 2.120000 -104.692383 -13.161469 11133.719727
4.080000 4.000000 2.160000 -30.758030 -18.707964 1296.044312
4.080000 4.000000 2.200000 -2.094158 21.124428 450.626953
4.080000 4.040000 1.800000 28.322739 33.625404 1932.845459
4.080000 4.040000 1.840000 69.759811 36.591270 6205.352051
4.080000 4.040000 1.880000 102.479019 95.634995 19648.000000
4.080000 4.040000 1.920000 71.222832 183.125580 38607.667969
4.080000 4.040000 1.960000 -31.015747 230.121094 53917.695312
4.080000 4.040000 2.000000 -146.605240 188.497070 57024.242188
4.080000 4.040000 2.040000 -200.084595 78.578079 46208.359375
4.080000 4.040000 2.080000 -164.336197 -26.500004 27708.634766
4.080000 4.040000 2.120000 -81.619064 -65.233582 10917.091797
4.080000 4.040000 2.160000 -20.449352 -37.894108 1854.139404
4.080000 4.040000 2.200000 -13.323540 4.357344 196.503159
4.080000 4.080000 1.800000 1.964119 36.887520 1364.546875
4.080000 4.080000 1.840000 27.580826 54.910545 3775.869873
4.080000 4.080000 1.880000 24.224651 106.031227 11829.455078
4.080000 4.080000 1.920000 -32.563854 149.207748 23323.357422
4.080000 4.080000 1.960000 -118.896492 136.746368 32835.945312
4.080000 4.080000 2.000000 -177.724121 60.869949 35291.015625
4.080000 4.080000 2.040000 -168.158142 -34.891068 29494.546875
4.080000 4.080000 2.080000 -101.387871 -92.257797 18791.000000
4.080000 4.080000 2.120000 -28.567268 -87.475861 8468.115234
4.080000 4.080000 2.160000 5.966427 -46.212585 2171.201172
4.080000 4.080000 2.200000 -0.458824 -12.943398 167.742065
4.080000 4.120000 1.800000 -16.976347 24.743029 900.413818
4.080000 4.120000 1.840000 -10.584417 40.481602 1750.790039
4.080000 4.120000 1.880000 -29.489548 63.023041 4841.537109
4.080000 4.120000 1.920000 -72.146896 63.834507 9280.019531
4.080000 4.120000 1.960000 -111.070969 27.025818 13067.154297
4.080000 4.120000 2.000000 -115.263962 -33.032372 14376.918945
4.080000 4.120000 2.040000 -77.607956 -81.744118 12705.095703
4.080000 4.120000 2.080000 -21.034496 -92.774788 9049.611328
4.080000 4.120000 2.120000 21.627598 -68.092560 5104.349609
4.080000 4.120000 2.160000 33.979382 -32.074448 2183.368652
4.080000 4.120000 2.200000 24.316006 -8.053802 656.131836
4.080000 4.160000 1.800000 -21.673546 8.049305 534.533875
4.080000 4.160000 1.840000 -23.542046 10.139946 657.046387
4.080000 4.160000 1.880000 -32.201042 8.179207 1103.806519
4.080000 4.160000 1.920000 -41.118446 -3.802002 1705.181885
4.080000 4.160000 1.960000 -40.899189 -23.845612 2241.356934
4.080000 4.160000 2.000000 -26.839951 -42.955311 2565.541504
4.080000 4.160000 2.040000 -2.439072 -51.368782 2644.700684
4.080000 4.160000 2.080000 23.103706 -44.646759 2527.114258
4.080000 4.160000 2.120000 40.413296 -25.439077 2280.381104
4.080000 4.160000 2.160000 44.190182 -1.246655 1954.326416
4.080000 4.160000 2.200000 34.656952 19.278900 1572.780396
4.080000 4.200000 1.800000 -15.916056 -1.808565 256.591736
4.080000 4.200000 1.840000 -12.939814 -10.996531 288.362457
4.080000 4.200000 1.880000 -1.870378 -17.357338 304.775513
4.080000 4.200000 1.920000 11.693295 -14.116501 336.008728
4.080000 4.200000 1.960000 18.465172 -3.268658 351.646667
4.080000 4.200000 2.000000 15.936104 5.682610 286.251465
4.080000 4.200000 2.040000 11.815712 6.352564 179.966125
4.080000 4.200000 2.080000 15.321377 3.592606 247.651398
4.080000 4.200000 2.120000 25.395409 8.780869 722.030396
4.080000 4.200000 2.160000 29.688652 26.278908 1571.997070
4.080000 4.200000 2.200000 17.058430 45.881828 2396.132080
4.120000 3.800000 1.800000 -27.301310 -32.591709 1807.581055
4.120000 3.800000 1.840000 -6.875343 -38.423981 1523.672729
4.120000 3.800000 1.880000 12.828209 -29.055416 1008.780151
4.120000 3.800000 1.920000 21.015060 -9.550070 532.836609
4.120000 3.800000 1.960000 14.682018 8.828178 293.498413
4.120000 3.800000 2.000000 0.055677 17.272308 298.335754
4.120000 3.800000 2.040000 -13.556505 15.146671 413.200500
4.120000 3.800000 2.080000 -21.181807 8.015091 512.910583
4.120000 3.800000 2.120000 -24.061485 1.107239 580.181030
4.120000 3.800000 2.160000 -25.472494 -4.806607 671.951416
4.120000 3.800000 2.200000 -25.985220 -11.702049 812.169556
4.120000 3.840000 1.800000 -4.480773 -51.368118 2658.760986
4.120000 3.840000 1.840000 13.076468 -51.766106 2850.723633
4.120000 3.840000 1.880000 30.051983 -44.036793 2842.360840
4.120000 3.840000 1.920000 42.381706 -28.204563 2591.706299
4.120000 3.840000 1.960000 45.150520 -6.907814 2086.287354
4.120000 3.840000 2.000000 35.268570 13.240143 1419.173462
4.120000 3.840000 2.040000 15.195066 23.737228 794.346069
4.120000 3.840000 2.080000 -6.385170 19.552731 423.079651
4.120000 3.840000 2.120000 -19.150427 3.565718 379.453217
4.120000 3.840000 2.160000 -18.154160 -14.616257 543.208496
4.120000 3.840000 2.200000 -7.182075 -25.373421 695.392700
4.120000 3.880000 1.800000 28.875607 -50.266407 3360.512207
4.120000 3.880000 1.840000 43.126713 -50.231049 4383.071289
4.120000 3.880000 1.880000 64.223625 -43.993172 6060.073242
4.120000 3.880000 1.920000 85.372284 -21.503521 7750.828125
4.120000 3.880000 1.960000 90.089020 16.480732 8387.645508
4.120000 3.880000 2.000000 67.310722 52.729492 7311.132812
4.120000 3.880000 2.040000 25.234272 65.161140 4882.742676
4.120000 3.880000 2.080000 -11.813927 46.312447 2284.411621
4.120000 3.880000 2.120000 -22.696644 11.383129 644.713257
4.120000 3.880000 2.160000 -7.083711 -14.245935 253.125626
4.120000 3.880000 2.200000 15.826296 -16.678787 528.653564
4.120000 3.920000 1.800000 55.069523 -25.733458 3694.863281
4.120000 3.920000 1.840000 69.892632 -26.929867 5610.197754
4.120000 3.920000 1.880000 97.604065 -14.079696 9724.791992
4.120000 3.920000 1.920000 118.330093 26.375364 14697.670898
4.120000 3.920000 1.960000 105.258759 81.884476 17784.472656
4.120000 3.920000 2.000000 53.210094 118.325668 16832.277344
4.120000 3.920000 2.040000 -10.366508 109.321091 12058.565430
4.120000 3.920000 2.080000 -46.264568 62.066719 5992.687988
4.120000 3.920000 2.120000 -37.576439 12.580812 1570.265625
4.120000 3.920000 2.160000 -3.429343 -6.214935 50.385811
4.120000 3.920000 2.200000 21.106327 7.544876 502.402222
4.120000 3.960000 1.800000 58.631790 10.867069 3555.780029
4.120000 3.960000 1.840000 76.533752 11.863204 5998.150879
4.120000 3.960000 1.880000 103.121475 38.867058 12144.687500
4.120000 3.960000 1.920000 105.427429 95.105164 20159.933594
4.120000 3.960000 1.960000 60.222694 148.924591 25805.306641
4.120000 3.960000 2.000000 -16.962656 158.608154 25444.279297
4.120000 3.960000 2.040000 -79.543884 112.331726 18945.646484
4.120000 3.960000 2.080000 -89.993805 42.304176 9888.528320
4.120000 3.960000 2.120000 -53.245502 -3.068260 2844.497803
4.120000 3.960000 2.160000 -9.864163 -2.200594 102.144333
4.120000 3.960000 2.200000 3.704353 24.066223 592.905334
4.120000 4.000000 1.800000 37.550110 39.861000 2998.910156
4.120000 4.000000 1.840000 55.713253 47.217735 5333.480957
4.120000 4.000000 1.880000 68.406334 85.503342 11990.248047
4.120000 4.000000 1.920000 42.063808 138.970184 21082.076172
4.120000 4.000000 1.960000 -27.526440 164.779861 27910.107422
4.120000 4.000000 2.000000 -102.926659 132.889648 28253.554688
4.120000 4.000000 2.040000 -135.204590 58.097218 21655.568359
4.120000 4.000000 2.080000 -108.295731 -10.163813 11831.267578
4.120000 4.000000 2.120000 -52.974648 -31.798733 3817.472656
4.120000 4.000000 2.160000 -16.324366 -10.180491 370.127319
4.120000 4.000000 2.200000 -18.051327 16.849586 609.758972
4.120000 4.040000 1.800000 5.177176 46.691933 2206.939697
4.120000 4.040000 1.840000 17.631683 59.851540 3893.083008
4.120000 4.040000 1.880000 10.523598 95.859138 9299.720703
4.120000 4.040000 1.920000 -35.175568 125.250343 16924.968750
4.120000 4.040000 1.960000 -101.669510 112.082970 22899.281250
4.120000 4.040000 2.000000 -145.075546 51.160805 23664.341797
4.120000 4.040000 2.040000 -134.768265 -22.438910 18665.988281
4.120000 4.040000 2.080000 -82.140907 -63.272858 10750.583008
4.120000 4.040000 2.120000 -29.416405 -55.668766 3964.336426
4.120000 4.040000 2.160000 -10.031097 -24.198727 686.201294
4.120000 4.040000 2.200000 -20.777361 -5.647481 463.592773
4.120000 4.080000 1.800000 -19.370037 31.938843 1395.287964
4.120000 4.080000 1.840000 -15.855099 45.065289 2282.264404
4.120000 4.080000 1.880000 -35.244335 65.101028 5480.307129
4.120000 4.080000 1.920000 -77.087524 64.311630 10078.472656
4.120000 4.080000 1.960000 -114.284637 27.064514 13793.466797
4.120000 4.080000 2.000000 -116.414139 -31.278019 14530.566406
4.120000 4.080000 2.040000 -78.657524 -75.519440 11890.191406
4.120000 4.080000 2.080000 -26.862411 -81.627686 7384.668457
4.120000 4.080000 2.120000 6.341040 -56.676880 3252.477539
4.120000 4.080000 2.160000 9.917376 -28.673927 920.548462
4.120000 4.080000 2.200000 -0.504773 -18.392509 338.539185
4.120000 4.120000 1.800000 -25.070860 9.829448 725.166077
4.120000 4.120000 1.840000 -27.729244 16.654518 1046.283936
4.120000 4.120000 1.880000 -44.153008 18.184834 2280.176270
4.120000 4.120000 1.920000 -63.439453 1.274441 4026.188477
4.120000 4.120000 1.960000 -66.887650 -31.310379 5454.297363
4.120000 4.120000 2.000000 -45.819073 -61.301208 5857.225586
4.120000 4.120000 2.040000 -10.266838 -70.642799 5095.813477
4.120000 4.120000 2.080000 19.938717 -56.787460 3622.368164
4.120000 4.120000 2.120000 32.180481 -32.868401 2115.915039
4.120000 4.120000 2.160000 29.269409 -14.147818 1056.859009
4.120000 4.120000 2.200000 22.459249 -5.432291 533.927673
4.120000 4.160000 1.800000 -16.069696 -3.656034 271.601715
4.120000 4.160000 1.840000 -18.667534 -4.814541 371.656616
4.120000 4.160000 1.880000 -21.555828 -12.094593 610.932861
4.120000 4.160000 1.920000 -17.982147 -23.548500 877.889465
4.120000 4.160000 1.960000 -6.051842 -32.161232 1070.969604
4.120000 4.160000 2.000000 9.644989 -32.513199 1150.133911
4.120000 4.160000 2.040000 22.770287 -24.948772 1140.927246
4.120000 4.160000 2.080000 30.398949 -13.458649 1105.231323
4.120000 4.160000 2.120000 33.098736 -1.006893 1096.540161
4.120000 4.160000 2.160000 31.334288 11.706982 1118.890991
4.120000 4.160000 2.200000 23.855852 23.304596 1112.205811
4.120000 4.200000 1.800000 -6.310653 -3.224124 50.219315
4.120000 4.200000 1.840000 -4.307217 -9.219912 103.558884
4.120000 4.200000 1.880000 5.198478 -12.907024 193.615448
4.120000 4.200000 1.920000 16.648769 -7.479769 333.128448
4.120000 4.200000 1.960000 20.895592 4.905113 460.685913
4.120000 4.200000 2.000000 15.724216 14.818744 466.846130
4.120000 4.200000 2.040000 8.725178 16.216328 339.097992
4.120000 4.200000 2.080000 8.434147 13.728653 259.610748
4.120000 4.200000 2.120000 13.585054 17.366226 486.139526
4.120000 4.200000 2.160000 13.453812 29.934509 1077.079834
4.120000 4.200000 2.200000 0.066202 41.705654 1739.365967
4.160000 3.800000 1.800000 -18.996174 -32.048134 1387.937500
4.160000 3.800000 1.840000 0.585798 -33.887608 1148.713135
4.160000 3.800000 1.880000 16.925926 -20.631382 712.140869
4.160000 3.800000 1.920000 19.076788 0.453424 364.129425
4.160000 3.800000 1.960000 6.117278 15.982784 292.870483
4.160000 3.800000 2.000000 -12.120075 17.349426 447.898804
4.160000 3.800000 2.040000 -23.775963 7.129507 616.126282
4.160000 3.800000 2.080000 -24.687616 -4.804526 632.561890
4.160000 3.800000 2.120000 -19.968889 -11.049667 520.851685
4.160000 3.800000 2.160000 -16.835394 -12.449710 438.425751
4.160000 3.800000 2.200000 -16.789137 -14.767503 499.954254
4.160000 3.840000 1.800000 8.410640 -44.752819 2073.553711
4.160000 3.840000 1.840000 27.876083 -35.756710 2055.618408
4.160000 3.840000 1.880000 37.725544 -15.880826 1675.417358
4.160000 3.840000 1.920000 32.982731 5.274906 1115.685181
4.160000 3.840000 1.960000 17.172359 17.747805 609.874512
4.160000 3.840000 2.000000 -0.690563 17.519482 307.409119
4.160000 3.840000 2.040000 -12.488589 7.908666 218.511856
4.160000 3.840000 2.080000 -15.483174 -4.265231 257.920868
4.160000 3.840000 2.120000 -11.967003 -13.724264 331.564575
4.160000 3.840000 2.160000 -5.729821 -18.957281 392.209351
4.160000 3.840000 2.200000 0.933348 -20.867157 436.309357
4.160000 3.880000 1.800000 40.747185 -32.971970 2747.483887
4.160000 3.880000 1.840000 52.537842 -15.498055 3000.414551
4.160000 3.880000 1.880000 53.480076 5.905693 2894.995605
4.160000 3.880000 1.920000 43.221844 24.630001 2474.764648
4.160000 3.880000 1.960000 24.965445 34.897865 1841.134399
4.160000 3.880000 2.000000 4.842587 33.429443 1140.978394
4.160000 3.880000 2.040000 -9.693613 21.257635 545.853210
4.160000 3.880000 2.080000 -13.196200 4.347417 193.039749
4.160000 3.880000 2.120000 -5.745962 -8.904875 112.312881
4.160000 3.880000 2.160000 6.591303 -12.710331 204.997803
4.160000 3.880000 2.200000 15.867731 -7.758718 311.982605
4.160000 3.920000 1.800000 56.756973 0.630595 3221.751709
4.160000 3.920000 1.840000 57.228241 19.487497 3654.833984
4.160000 3.920000 1.880000 50.395752 37.550377 3949.762695
4.160000 3.920000 1.920000 35.667847 52.570370 4035.839111
4.160000 3.920000 1.960000 13.480903 59.403629 3710.525879
4.160000 3.920000 2.000000 -10.186491 52.504616 2860.499268
4.160000 3.920000 2.040000 -24.665749 32.689114 1676.977295
4.160000 3.920000 2.080000 -22.558710 10.099667 610.898682
4.160000 3.920000 2.120000 -7.429571 -2.126100 59.718826
4.160000 3.920000 2.160000 7.838973 1.151649 62.775795
4.160000 3.920000 2.200000 11.984783 12.533892 300.733459
4.160000 3.960000 1.800000 44.368904 36.756115 3319.611572
4.160000 3.960000 1.840000 35.920135 49.691383 3759.489746
4.160000 3.960000 1.880000 24.473780 61.533726 4385.365234
4.160000 3.960000 1.920000 6.054430 70.949928 5070.548340
4.160000 3.960000 1.960000 -19.311840 70.081360 5284.344238
4.160000 3.960000 2.000000 -41.897667 52.892685 4553.050781
4.160000 3.960000 2.040000 -48.487030 25.024406 2977.213135
4.160000 3.960000 2.080000 -35.543106 2.435953 1269.246216
4.160000 3.960000 2.120000 -14.762552 -2.100974 222.347046
4.160000 3.960000 2.160000 -3.329198 8.749994 87.645958
4.160000 3.960000 2.200000 -7.795720 19.500645 441.048401
4.160000 4.000000 1.800000 11.196952 53.295769 2965.810791
4.160000 4.000000 1.840000 0.143319 57.213593 3273.415771
4.160000 4.000000 1.880000 -12.385759 62.036816 4001.973389
4.160000 4.000000 1.920000 -31.902424 63.259869 5019.575684
4.160000 4.000000 1.960000 -54.606750 51.450985 5629.101074
4.160000 4.000000 2.000000 -67.210640 25.129845 5148.779297
4.160000 4.000000 2.040000 -59.727654 -3.246257 3577.930664
4.160000 4.000000 2.080000 -37.540531 -16.932562 1696.003174
4.160000 4.000000 2.120000 -18.193344 -11.113743 454.513062
4.160000 4.000000 2.160000 -14.843199 1.981738 224.247849
4.160000 4.000000 2.200000 -23.545792 5.571224 585.442810
4.160000 4.040000 1.800000 -20.876312 42.489807 2241.204102
4.160000 4.040000 1.840000 -28.859892 39.495510 2392.788574
4.160000 4.040000 1.880000 -39.335724 38.004562 2991.645996
4.160000 4.040000 1.920000 -54.689224 30.422974 3916.468506
4.160000 4.040000 1.960000 -66.591995 10.677275 4548.498047
4.160000 4.040000 2.000000 -63.576523 -15.501251 4282.263184
4.160000 4.040000 2.040000 -44.416447 -33.397053 3088.183838
4.160000 4.040000 2.080000 -21.726238 -33.420853 1588.982788
4.160000 4.040000 2.120000 -10.489786 -21.235222 560.970276
4.160000 4.040000 2.160000 -13.321497 -12.138657 324.809265
4.160000 4.040000 2.200000 -18.552498 -15.126740 573.013428
4.160000 4.080000 1.800000 -33.077034 16.437973 1364.297119
4.160000 4.080000 1.840000 -36.251945 11.039266 1436.068848
4.160000 4.080000 1.880000 -42.215492 5.087571 1808.031250
4.160000 4.080000 1.920000 -48.086090 -7.412731 2367.220459
4.160000 4.080000 1.960000 -45.568398 -25.619114 2732.817871
4.160000 4.080000 2.000000 -30.926149 -40.188362 2571.531250
4.160000 4.080000 2.040000 -10.940266 -42.124905 1894.197021
4.160000 4.080000 2.080000 2.677750 -32.415707 1057.948364
4.160000 4.080000 2.120000 4.785056 -21.386917 480.296997
4.160000 4.080000 2.160000 1.527538 -17.979836 325.607849
4.160000 4.080000 2.200000 2.909598 -20.669027 435.674438
4.160000 4.120000 1.800000 -24.089861 -4.039822 596.641541
4.160000 4.120000 1.840000 -24.336933 -8.898289 671.465881
4.160000 4.120000 1.880000 -24.443136 -16.519251 870.352539
4.160000 4.120000 1.920000 -19.647764 -26.633768 1095.392212
4.160000 4.120000 1.960000 -7.863119 -33.632812 1192.994629
4.160000 4.120000 2.000000 6.451105 -32.160881 1075.938965
4.160000 4.120000 2.040000 15.911880 -23.246748 793.599243
4.160000 4.120000 2.080000 17.561954 -13.631509 494.240295
4.160000 4.120000 2.120000 15.513446 -8.785072 317.844513
4.160000 4.120000 2.160000 15.815878 -7.432973 305.391083
4.160000 4.120000 2.200000 19.327227 -3.853208 388.388885
4.160000 4.160000 1.800000 -8.877831 -7.161839 130.107819
4.160000 4.160000 1.840000 -8.489372 -11.840765 212.273163
4.160000 4.160000 1.880000 -2.991276 -18.075581 335.674347
4.160000 4.160000 1.920000 7.898916 -19.663994 449.065552
4.160000 4.160000 1.960000 18.114628 -13.054907 498.570312
4.160000 4.160000 2.000000 21.173649 -1.998588 452.317749
4.160000 4.160000 2.040000 17.155008 5.975108 329.996216
4.160000 4.160000 2.080000 12.531227 7.603417 214.843597
4.160000 4.160000 2.120000 12.632087 7.226698 211.794769
4.160000 4.160000 2.160000 15.370133 11.288809 363.678192
4.160000 4.160000 2.200000 13.634178 20.151249 591.963623
4.160000 4.200000 1.800000 -3.653027 1.373585 15.231340
4.160000 4.200000 1.840000 -2.413769 -5.099545 31.831638
4.160000 4.200000 1.880000 6.965238 -7.623666 106.634811
4.160000 4.200000 1.920000 16.646235 0.164169 277.124084
4.160000 4.200000 1.960000 16.895035 13.892111 478.432922
4.160000 4.200000 2.000000 7.090766 22.588001 560.496765
4.160000 4.200000 2.040000 -3.273182 20.694336 438.969269
4.160000 4.200000 2.080000 -5.209441 14.245956 230.085556
4.160000 4.200000 2.120000 -0.526683 13.767625 189.824890
4.160000 4.200000 2.160000 0.238431 21.745043 472.903748
4.160000 4.200000 2.200000 -9.676497 29.081770 939.383911
4.200000 3.800000 1.800000 -14.809272 -29.695673 1101.147583
4.200000 3.800000 1.840000 1.848769 -28.814680 833.703735
4.200000 3.800000 1.880000 13.058648 -14.948727 393.992737
4.200000 3.800000 1.920000 9.966742 2.797804 107.163651
4.200000 3.800000 1.960000 -5.019382 11.589485 159.510345
4.200000 3.800000 2.000000 -20.098032 6.112576 441.294464
4.200000 3.800000 2.040000 -24.771160 -7.156621 664.827576
4.200000 3.800000 2.080000 -18.829578 -16.891676 639.881714
4.200000 3.800000 2.120000 -10.871395 -17.821819 435.804474
4.200000 3.800000 2.160000 -8.436379 -14.564570 283.299194
4.200000 3.800000 2.200000 -10.361713 -14.986023 331.945984
4.200000 3.840000 1.800000 13.203682 -34.984982 1398.286133
4.200000 3.840000 1.840000 26.082355 -19.518209 1061.249756
4.200000 3.840000 1.880000 23.537563 0.632088 554.416443
4.200000 3.840000 1.920000 7.657779 11.910177 200.493912
4.200000 3.840000 1.960000 -9.761679 8.007793 159.415131
4.200000 3.840000 2.000000 -17.350906 -5.697089 333.510773
4.200000 3.840000 2.040000 -13.046597 -18.021729 494.996368
4.200000 3.840000 2.080000 -3.824611 -22.029242 499.915131
4.200000 3.840000 2.120000 2.367442 -19.584459 389.155823
4.200000 3.840000 2.160000 3.902536 -17.053272 306.043884
4.200000 3.840000 2.200000 5.155547 -17.578009 335.566040
4.200000 3.880000 1.800000 38.902145 -15.472588 1752.777954
4.200000 3.880000 1.840000 36.142212 7.745039 1366.245117
4.200000 3.880000 1.880000 18.049511 21.040373 768.482178
4.200000 3.880000 1.920000 -2.021032 17.153999 298.344269
4.200000 3.880000 1.960000 -11.199209 1.974152 129.319565
4.200000 3.880000 2.000000 -6.836533 -12.091549 192.943726
4.200000 3.880000 2.040000 3.767748 -16.938635 301.113281
4.200000 3.880000 2.080000 11.748927 -13.673924 325.013489
4.200000 3.880000 2.120000 14.114877 -8.590045 273.018616
4.200000 3.880000 2.160000 13.904704 -5.859209 227.671112
4.200000 3.880000 2.200000 14.794461 -4.522682 239.330734
4.200000 3.920000 1.800000 42.177479 19.234707 2148.913574
4.200000 3.920000 1.840000 21.538353 35.495594 1723.837891
4.200000 3.920000 1.880000 -2.580021 31.605003 1005.532715
4.200000 3.920000 1.920000 -14.218311 13.568928 386.276184
4.200000 3.920000 1.960000 -9.201241 -3.679229 98.199547
4.200000 3.920000 2.000000 4.049814 -9.478765 106.247986
4.200000 3.920000 2.040000 14.139954 -4.372468 219.056763
4.200000 3.920000 2.080000 16.212574 3.911304 278.145874
4.200000 3.920000 2.120000 13.102455 9.079446 254.110672
4.200000 3.920000 2.160000 9.619824 10.524588 203.307968
4.200000 3.920000 2.200000 7.533038 10.812824 173.663834
4.200000 3.960000 1.800000 18.338160 45.997513 2452.059326
4.200000 3.960000 1.840000 -9.784048 43.821365 2016.039551
4.200000 3.960000 1.880000 -25.663801 23.412979 1206.798340
4.200000 3.960000 1.920000 -21.493170 1.365983 463.822266
4.200000 3.960000 1.960000 -5.218279 -7.737451 87.098579
4.200000 3.960000 2.000000 8.798176 -1.979935 81.328041
4.200000 3.960000 2.040000 12.145340 9.857579 244.681152
4.200000 3.960000 2.080000 6.528580 18.191395 373.549194
4.200000 3.960000 2.120000 -1.489777 19.750877 392.316589
4.200000 3.960000 2.160000 -7.308933 16.724215 333.119843
4.200000 3.960000 2.200000 -10.035881 12.074018 246.500824
4.200000 4.000000 1.800000 -16.564680 46.751858 2460.124756
4.200000 4.000000 1.840000 -36.777542 26.913788 2076.939697
4.200000 4.000000 1.880000 -35.981613 0.954591 1295.587769
4.200000 4.000000 1.920000 -18.641653 -13.584196 532.041626
4.200000 4.000000 1.960000 0.116590 -10.337500 106.877495
4.200000 4.000000 2.000000 7.793879 3.553290 73.370415
4.200000 4.000000 2.040000 2.650815 16.033543 264.101318
4.200000 4.000000 2.080000 -8.582396 19.835272 467.095520
4.200000 4.000000 2.120000 -18.201578 15.173109 561.520691
4.200000 4.000000 2.160000 -22.225571 6.195096 532.355225
4.200000 4.000000 2.200000 -20.094645 -2.860302 411.976074
4.200000 4.040000 1.800000 -38.673470 23.649597 2054.940674
4.200000 4.040000 1.840000 -42.398914 -2.051307 1801.875854
4.200000 4.040000 1.880000 -27.666376 -21.122526 1211.589478
4.200000 4.040000 1.920000 -6.399451 -23.189983 578.728333
4.200000 4.040000 1.960000 7.139546 -10.743293 166.391464
4.200000 4.040000 2.000000 6.539762 5.037585 68.145760
4.200000 4.040000 2.040000 -4.511512 13.574763 204.627945
4.200000 4.040000 2.080000 -17.215271 11.083237 419.203705
4.200000 4.040000 2.120000 -24.015200 0.581775 577.068237
4.200000 4.040000 2.160000 -21.789934 -11.606021 609.500977
4.200000 4.040000 2.200000 -12.003541 -19.201508 512.782898
4.200000 4.080000 1.800000 -36.313068 -3.483379 1330.772827
4.200000 4.080000 1.840000 -27.210159 -22.473074 1245.431885
4.200000 4.080000 1.880000 -8.392903 -29.683981 951.579590
4.200000 4.080000 1.920000 8.685163 -22.385195 576.528992
4.200000 4.080000 1.960000 14.765680 -6.840355 264.815765
4.200000 4.080000 2.000000 8.197222 6.572166 110.387810
4.200000 4.080000 2.040000 -5.038752 9.987837 125.145897
4.200000 4.080000 2.080000 -15.639120 2.314812 249.940430
4.200000 4.080000 2.120000 -16.634209 -10.753826 392.341675
4.200000 4.080000 2.160000 -7.315707 -20.445305 471.530060
4.200000 4.080000 2.200000 6.481847 -20.280609 453.317444
4.200000 4.120000 1.800000 -18.613228 -15.188851 577.153442
4.200000 4.120000 1.840000 -7.197314 -23.793575 617.935547
4.200000 4.120000 1.880000 7.681385 -23.075211 591.468994
4.200000 4.120000 1.920000 18.496983 -12.608777 501.119629
4.200000 4.120000 1.960000 19.117596 2.100399 369.894135
4.200000 4.120000 2.000000 9.380228 12.170969 236.121170
4.200000 4.120000 2.040000 -3.739224 11.238129 140.277328
4.200000 4.120000 2.080000 -10.449240 0.676153 109.643791
4.200000 4.120000 2.120000 -5.595049 -10.730580 146.449936
4.200000 4.120000 2.160000 6.917469 -13.366373 226.511307
4.200000 4.120000 2.200000 16.999088 -4.610002 310.221100
4.200000 4.160000 1.800000 -5.055896 -8.908489 104.923264
4.200000 4.160000 1.840000 1.672095 -12.871359 168.467773
4.200000 4.160000 1.880000 11.818714 -10.887565 258.221069
4.200000 4.160000 1.920000 18.862194 -0.750964 356.346313
4.200000 4.160000 1.960000 16.214348 12.467540 418.344635
4.200000 4.160000 2.000000 4.483957 19.303389 392.726685
4.200000 4.160000 2.040000 -7.378204 14.608362 267.842163
4.200000 4.160000 2.080000 -9.695644 3.337814 105.146523
4.200000 4.160000 2.120000 -1.466114 -3.395899 13.681619
4.200000 4.160000 2.160000 8.300234 1.142556 70.199318
4.200000 4.160000 2.200000 9.232279 12.777679 248.504059
4.200000 4.200000 1.800000 -6.592028 1.338280 45.245823
4.200000 4.200000 1.840000 -2.755607 -5.125038 33.859383
4.200000 4.200000 1.880000 6.800750 -4.377724 65.414665
4.200000 4.200000 1.920000 12.325886 5.918906 186.960907
4.200000 4.200000 1.960000 6.703434 17.733730 359.421204
4.200000 4.200000 2.000000 -6.280398 20.494162 459.454041
4.200000 4.200000 2.040000 -15.294771 12.376135 387.098755
4.200000 4.200000 2.080000 -13.336502 2.499529 184.109940
4.200000 4.200000 2.120000 -5.173718 1.188122 28.178995
4.200000 4.200000 2.160000 -2.003334 8.862551 82.558151
4.200000 4.200000 2.200000 -9.133347 15.824384 333.829132
