#kx 	ky 	kz 	real 	imag 	intensity
3.800000 3.800000 1.983333 -43.336830 -51.382278 4518.219238
3.800000 3.800000 1.991667 -2.102253 -9.214874 89.333374
3.800000 3.800000 2.000000 -37.286400 -29.327330 2250.367920
3.800000 3.800000 2.008333 -23.800920 -71.764275 5716.595215
3.800000 3.800000 2.016667 63.972412 -63.202637 8087.042969
3.800000 3.900000 1.983333 -35.237026 -38.743473 2742.704834
3.800000 3.900000 1.991667 16.245892 -14.258566 467.235687
3.800000 3.900000 2.000000 -11.636534 -2.868294 143.636032
3.800000 3.900000 2.008333 -8.680622 -38.020206 1520.889282
3.800000 3.900000 2.016667 41.746441 -41.633991 3476.154785
3.800000 4.000000 1.983333 3.744196 -79.706810 6367.194824
3.800000 4.000000 1.991667 84.417549 -41.201729 8823.905273
3.800000 4.000000 2.000000 25.907074 71.907372 5841.846191
3.800000 4.000000 2.008333 -17.778782 -62.011864 4161.556152
3.800000 4.000000 2.016667 133.407089 52.272644 20529.880859
3.800000 4.100000 1.983333 29.327240 -22.226719 1354.114014
3.800000 4.100000 1.991667 146.337143 116.607292 35011.820312
3.800000 4.100000 2.000000 -177.273468 130.851196 48547.917969
3.800000 4.100000 2.008333 17.478958 -72.677139 5587.480957
3.800000 4.100000 2.016667 -120.827042 120.275894 29065.464844
3.800000 4.200000 1.983333 12.128128 -29.775551 1033.674927
3.800000 4.200000 1.991667 -42.622753 179.717133 34114.945312
3.800000 4.200000 2.000000 -177.149994 -140.066223 51000.667969
3.800000 4.200000 2.008333 65.512878 -37.619503 5707.164062
3.800000 4.200000 2.016667 -38.174213 -145.582504 22651.537109
3.900000 3.800000 1.983333 -53.527702 18.647453 3212.942383
3.900000 3.800000 1.991667 -45.192142 -135.381210 20370.402344
3.900000 3.800000 2.000000 53.407333 28.393112 3658.512207
3.900000 3.800000 2.008333 -71.971939 -111.275360 17562.166016
3.900000 3.800000 2.016667 161.769302 -10.140048 26272.126953
3.900000 3.900000 1.983333 280.597260 -907.361389 902039.500000
3.900000 3.900000 1.991667 52.934921 668.217285 449316.437500
3.900000 3.900000 2.000000 -923.215149 -468.004303 1071354.250000
3.900000 3.900000 2.008333 -9.306183 -793.427429 629613.687500
3.900000 3.900000 2.016667 364.657837 -751.728882 698071.625000
3.900000 4.000000 1.983333 1416.914551 203.804459 2049183.125000
3.900000 4.000000 1.991667 -1015.551941 192.100006 1068248.125000
3.900000 4.000000 2.000000 472.307526 -1421.350952 2243313.000000
3.900000 4.000000 2.008333 1056.175781 -331.456757 1225370.875000
3.900000 4.000000 2.016667 1384.865723 329.743439 2026583.875000
3.900000 4.100000 1.983333 104.420021 882.899963 790415.937500
3.900000 4.100000 1.991667 -267.947388 -467.699036 290538.187500
3.900000 4.100000 2.000000 780.994690 65.818138 614284.687500
3.900000 4.100000 2.008333 378.107178 541.655945 436356.187500
3.900000 4.100000 2.016667 -75.184563 912.079956 837542.562500
3.900000 4.200000 1.983333 51.156502 171.380661 31988.318359
3.900000 4.200000 1.991667 -272.108734 -30.519842 74974.625000
3.900000 4.200000 2.000000 98.438942 -202.368744 50643.335938
3.900000 4.200000 2.008333 42.164932 72.018204 6964.502930
3.900000 4.200000 2.016667 12.141507 -47.180332 2373.399902
4.000000 3.800000 1.983333 -107.796150 -131.646957 28950.931641
4.000000 3.800000 1.991667 172.553757 -117.543755 43591.332031
4.000000 3.800000 2.000000 -22.969231 54.729332 3522.885254
4.000000 3.800000 2.008333 77.450317 -172.693817 35821.707031
4.000000 3.800000 2.016667 163.185242 94.547165 35568.589844
4.000000 3.900000 1.983333 1462.964966 158.394760 2165355.500000
4.000000 3.900000 1.991667 -987.005127 230.086151 1027118.750000
4.000000 3.900000 2.000000 502.955780 -1519.199463 2560931.500000
4.000000 3.900000 2.008333 1211.042480 -249.130341 1528689.750000
4.000000 3.900000 2.016667 1314.466309 373.395966 1867246.125000
4.000000 4.000000 1.983333 9.498749 2181.020020 4756938.500000
4.000000 4.000000 1.991667 -503.245117 -1550.092773 2656043.250000
4.000000 4.000000 2.000000 2336.944336 425.539429 5642393.000000
4.000000 4.000000 2.008333 719.015503 1513.529541 2807755.000000
4.000000 4.000000 2.016667 -55.909027 2180.154541 4756200.000000
4.000000 4.100000 1.983333 -1325.979492 306.477661 1852150.125000
4.000000 4.100000 1.991667 806.464111 -486.519531 887085.625000
4.000000 4.100000 2.000000 -21.302578 1352.396240 1829429.375000
4.000000 4.100000 2.008333 -739.565369 609.956177 919003.500000
4.000000 4.100000 2.016667 -1430.400146 219.029617 2094018.625000
4.000000 4.200000 1.983333 -211.551758 77.274582 50725.503906
4.000000 4.200000 1.991667 5.579611 -233.746429 54668.527344
4.000000 4.200000 2.000000 172.000076 6.269524 29623.332031
4.000000 4.200000 2.008333 -11.163063 62.654476 4050.197510
4.000000 4.200000 2.016667 36.240952 -96.900742 10703.160156
4.100000 3.800000 1.983333 107.400818 -114.919312 24741.382812
4.100000 3.800000 1.991667 91.285278 85.875130 15707.540039
4.100000 3.800000 2.000000 -40.273792 48.544041 3978.502441
4.100000 3.800000 2.008333 68.304016 -60.300346 8301.570312
4.100000 3.800000 2.016667 104.704605 168.858490 39476.242188
4.100000 3.900000 1.983333 51.618698 991.519531 985775.500000
4.100000 3.900000 1.991667 -250.385284 -621.875488 449421.906250
4.100000 3.900000 2.000000 998.661255 170.444641 1026375.687500
4.100000 3.900000 2.008333 325.399048 716.642334 619460.812500
4.100000 3.900000 2.016667 -129.140259 944.389771 908549.250000
4.100000 4.000000 1.983333 -1432.088257 168.023697 2079108.750000
4.100000 4.000000 1.991667 940.704956 -512.403931 1147483.625000
4.100000 4.000000 2.000000 -34.461189 1513.675903 2292402.250000
4.100000 4.000000 2.008333 -885.253235 570.685303 1109355.000000
4.100000 4.000000 2.016667 -1331.839233 169.146713 1802406.375000
4.100000 4.100000 1.983333 -254.063187 -873.240784 827097.562500
4.100000 4.100000 1.991667 428.261719 456.000519 391344.562500
4.100000 4.100000 2.000000 -824.680542 92.886696 688725.937500
4.100000 4.100000 2.008333 -379.928802 -407.905701 310732.937500
4.100000 4.100000 2.016667 -246.974533 -818.186157 730425.000000
4.100000 4.200000 1.983333 -4.981667 -93.968758 8854.944336
4.100000 4.200000 1.991667 134.941605 2.772283 18216.921875
4.100000 4.200000 2.000000 74.622444 141.187469 25502.412109
4.100000 4.200000 2.008333 -63.814545 64.148575 8187.335938
4.100000 4.200000 2.016667 85.320213 46.088615 9403.699219
4.200000 3.800000 1.983333 50.738091 47.919701 4870.651367
4.200000 3.800000 1.991667 -2.739075 -19.662079 394.099884
4.200000 3.800000 2.000000 -59.976910 -29.362740 4459.400391
4.200000 3.800000 2.008333 128.573135 -87.909531 24259.136719
4.200000 3.800000 2.016667 -17.013268 180.416306 32839.496094
4.200000 3.900000 1.983333 -105.128960 -23.640131 11610.954102
4.200000 3.900000 1.991667 93.436386 -33.471863 9850.723633
4.200000 3.900000 2.000000 14.963347 28.209969 1019.704102
4.200000 3.900000 2.008333 38.408516 75.238251 7136.008789
4.200000 3.900000 2.016667 -97.406509 -10.278452 9593.674805
4.200000 4.000000 1.983333 96.358101 -156.761169 33858.949219
4.200000 4.000000 1.991667 104.696655 45.152191 13000.110352
4.200000 4.000000 2.000000 -6.278580 14.184256 240.613663
4.200000 4.000000 2.008333 38.914246 -13.525417 1697.255371
4.200000 4.000000 2.016667 56.120361 48.957615 5546.342773
4.200000 4.100000 1.983333 159.622711 78.013206 31565.470703
4.200000 4.100000 1.991667 64.069855 87.641945 11786.056641
4.200000 4.100000 2.000000 44.975967 90.562607 10224.423828
4.200000 4.100000 2.008333 16.349216 106.726334 11657.807617
4.200000 4.100000 2.016667 -64.898689 106.493942 15552.799805
4.200000 4.200000 1.983333 -10.978750 116.239120 13632.066406
4.200000 4.200000 1.991667 -16.892845 65.421997 4565.405762
4.200000 4.200000 2.000000 -105.802032 102.645737 21730.218750
4.200000 4.200000 2.008333 -85.882721 -28.009787 8160.390137
4.200000 4.200000 2.016667 -79.420052 23.640997 6866.441406
