#kx 	ky 	kz 	real 	imag 	intensity
6.800000 -1.200000 -7.200000 -25.510075 5.205420 677.860291
6.800000 -1.200000 -7.160000 -13.548788 -13.766445 373.084656
6.800000 -1.200000 -7.120000 7.209906 -9.225059 137.084442
6.800000 -1.200000 -7.080000 9.370258 13.110967 259.699188
6.800000 -1.200000 -7.040000 -13.689953 25.247440 824.848022
6.800000 -1.200000 -7.000000 -38.836491 8.382623 1578.541260
6.800000 -1.200000 -6.960000 -37.908554 -24.779037 2051.059082
6.800000 -1.200000 -6.920000 -9.243839 -42.504921 1892.116943
6.800000 -1.200000 -6.880000 19.336658 -28.312534 1175.505981
6.800000 -1.200000 -6.840000 20.144436 0.674513 406.253265
6.800000 -1.200000 -6.800000 -4.374039 12.022806 163.680084
6.800000 -1.160000 -7.200000 -20.632374 -17.811550 742.946167
6.800000 -1.160000 -7.160000 0.980879 -26.264507 690.786438
6.800000 -1.160000 -7.120000 17.507057 -12.152658 454.184143
6.800000 -1.160000 -7.080000 11.679452 7.268126 189.235260
6.800000 -1.160000 -7.040000 -8.556349 8.796753 150.593964
6.800000 -1.160000 -7.000000 -18.726147 -10.620091 463.454926
6.800000 -1.160000 -6.960000 -5.232714 -30.182091 938.339905
6.800000 -1.160000 -6.920000 19.161615 -28.356104 1171.236084
6.800000 -1.160000 -6.880000 29.346901 -7.069631 911.220276
6.800000 -1.160000 -6.840000 15.892153 10.195917 356.517242
6.800000 -1.160000 -6.800000 -4.237927 4.528478 38.467140
6.800000 -1.120000 -7.200000 -2.289060 -27.175797 743.763733
6.800000 -1.120000 -7.160000 18.688881 -23.228054 888.816772
6.800000 -1.120000 -7.120000 27.280022 -5.478420 774.212646
6.800000 -1.120000 -7.080000 18.770899 8.650250 427.173492
6.800000 -1.120000 -7.040000 5.930557 7.484702 91.192276
6.800000 -1.120000 -7.000000 3.972589 -2.924586 24.334671
6.800000 -1.120000 -6.960000 13.580588 -7.079151 234.546753
6.800000 -1.120000 -6.920000 21.200335 1.420985 451.473389
6.800000 -1.120000 -6.880000 15.859640 12.461882 406.826660
6.800000 -1.120000 -6.840000 2.841155 11.672229 144.313080
6.800000 -1.120000 -6.800000 -1.848785 -1.912368 7.075155
6.800000 -1.080000 -7.200000 13.164045 -19.879442 568.484314
6.800000 -1.080000 -7.160000 26.985693 -9.075792 810.597595
6.800000 -1.080000 -7.120000 29.089031 7.425847 901.314941
6.800000 -1.080000 -7.080000 20.818077 18.707417 783.359741
6.800000 -1.080000 -7.040000 10.902148 20.913462 556.229736
6.800000 -1.080000 -7.000000 5.327602 18.790936 381.482605
6.800000 -1.080000 -6.960000 2.315049 17.724308 319.510559
6.800000 -1.080000 -6.920000 -2.470570 16.714174 285.467346
6.800000 -1.080000 -6.880000 -7.900937 10.933573 181.967819
6.800000 -1.080000 -6.840000 -7.264477 0.294399 52.859291
6.800000 -1.080000 -6.800000 3.152111 -7.312486 63.408253
6.800000 -1.040000 -7.200000 15.695221 -6.493694 288.508026
6.800000 -1.040000 -7.160000 22.341549 4.933582 523.485046
6.800000 -1.040000 -7.120000 20.363148 18.754898 766.403992
6.800000 -1.040000 -7.080000 10.708422 28.752728 941.389648
6.800000 -1.040000 -7.040000 -2.421122 31.760967 1014.620850
6.800000 -1.040000 -7.000000 -14.977457 27.682676 990.654785
6.800000 -1.040000 -6.960000 -23.860989 17.562550 877.789917
6.800000 -1.040000 -6.920000 -25.900593 3.481017 682.958191
6.800000 -1.040000 -6.880000 -18.679146 -9.858521 446.100922
6.800000 -1.040000 -6.840000 -3.858538 -15.646521 259.701935
6.800000 -1.040000 -6.800000 11.168538 -9.590017 216.704681
6.800000 -1.000000 -7.200000 8.333531 1.115792 70.692741
6.800000 -1.000000 -7.160000 10.441746 10.669479 222.867844
6.800000 -1.000000 -7.120000 4.881001 21.179382 472.390381
6.800000 -1.000000 -7.080000 -7.641733 26.711082 771.877991
6.800000 -1.000000 -7.040000 -22.481443 23.268898 1046.856934
6.800000 -1.000000 -7.000000 -33.312717 10.702873 1224.288696
6.800000 -1.000000 -6.960000 -34.702148 -6.993047 1253.141846
6.800000 -1.000000 -6.920000 -24.667793 -22.697744 1123.687622
6.800000 -1.000000 -6.880000 -6.620181 -28.938299 881.251953
6.800000 -1.000000 -6.840000 11.126191 -22.171953 615.387634
6.800000 -1.000000 -6.800000 19.542496 -5.967089 417.515289
6.800000 -0.960000 -7.200000 0.462095 0.234533 0.268538
6.800000 -0.960000 -7.160000 -1.002328 7.598151 58.736565
6.800000 -0.960000 -7.120000 -9.564981 12.023268 236.047821
6.800000 -0.960000 -7.080000 -20.702524 8.513550 501.075043
6.800000 -0.960000 -7.040000 -27.808125 -2.804829 781.158875
6.800000 -0.960000 -7.000000 -26.480846 -17.378511 1003.247925
6.800000 -0.960000 -6.960000 -16.364901 -29.179392 1119.246826
6.800000 -0.960000 -6.920000 -0.707050 -33.314793 1110.375244
6.800000 -0.960000 -6.880000 14.893357 -27.590763 983.062256
6.800000 -0.960000 -6.840000 24.171167 -13.649822 770.562988
6.800000 -0.960000 -6.800000 22.912716 2.803412 532.851685
6.800000 -0.920000 -7.200000 -2.933165 -3.805071 23.082020
6.800000 -0.920000 -7.160000 -8.221953 -0.561547 67.915855
6.800000 -0.920000 -7.120000 -15.424967 -5.504164 268.225403
6.800000 -0.920000 -7.080000 -16.236258 -16.662865 541.267090
6.800000 -0.920000 -7.040000 -8.156911 -26.238256 754.981323
6.800000 -0.920000 -7.000000 4.091486 -28.459579 826.687927
6.800000 -0.920000 -6.960000 14.287619 -23.888210 774.782654
6.800000 -0.920000 -6.920000 20.220890 -16.498999 681.101318
6.800000 -0.920000 -6.880000 23.124777 -8.427147 605.772095
6.800000 -0.920000 -6.840000 23.251316 0.860609 541.364380
6.800000 -0.920000 -6.800000 18.229239 10.688925 446.558258
6.800000 -0.880000 -7.200000 -4.251053 -6.459370 59.794914
6.800000 -0.880000 -7.160000 -10.996315 -11.044088 242.890839
6.800000 -0.880000 -7.120000 -9.099958 -24.097996 663.522644
6.800000 -0.880000 -7.080000 6.007866 -32.827976 1113.770508
6.800000 -0.880000 -7.040000 24.746063 -26.774792 1329.257080
6.800000 -0.880000 -7.000000 33.092670 -9.191501 1179.608521
6.800000 -0.880000 -6.960000 26.962210 6.529664 769.597290
6.800000 -0.880000 -6.920000 15.344492 10.965500 355.695618
6.800000 -0.880000 -6.880000 9.373579 7.429804 143.065964
6.800000 -0.880000 -6.840000 10.208725 6.058445 140.922821
6.800000 -0.880000 -6.800000 9.372735 10.805638 204.609985
6.800000 -0.840000 -7.200000 -7.071965 -9.265971 135.870911
6.800000 -0.840000 -7.160000 -8.863414 -22.903435 603.127441
6.800000 -0.840000 -7.120000 7.530596 -35.905296 1345.900146
6.800000 -0.840000 -7.080000 33.652203 -29.718489 2015.659302
6.800000 -0.840000 -7.040000 47.479233 -2.737978 2261.774170
6.800000 -0.840000 -7.000000 35.857536 25.909336 1957.056641
6.800000 -0.840000 -6.960000 8.465615 34.752178 1279.380493
6.800000 -0.840000 -6.920000 -11.873541 21.044355 583.845886
6.800000 -0.840000 -6.880000 -12.116924 2.037024 150.969315
6.800000 -0.840000 -6.840000 -0.445921 -4.261494 18.359173
6.800000 -0.840000 -6.800000 5.224590 2.615740 34.138439
6.800000 -0.800000 -7.200000 -9.775146 -16.128025 355.666656
6.800000 -0.800000 -7.160000 -0.080490 -33.918865 1150.495850
6.800000 -0.800000 -7.120000 28.105827 -36.081429 2091.807129
6.800000 -0.800000 -7.080000 51.480057 -10.261292 2755.490479
6.800000 -0.800000 -7.040000 45.744282 28.190411 2887.238525
6.800000 -0.800000 -7.000000 11.451009 48.876495 2520.037354
6.800000 -0.800000 -6.960000 -24.763847 35.801666 1895.007324
6.800000 -0.800000 -6.920000 -35.586014 2.805249 1274.233765
6.800000 -0.800000 -6.880000 -18.598022 -21.099066 791.057007
6.800000 -0.800000 -6.840000 4.308853 -20.460243 437.187775
6.800000 -0.800000 -6.800000 11.532663 -5.915748 167.998383
6.840000 -1.200000 -7.200000 -7.806000 -10.148397 163.923599
6.840000 -1.200000 -7.160000 7.545214 -8.579224 130.533325
6.840000 -1.200000 -7.120000 11.666986 9.100168 218.931641
6.840000 -1.200000 -7.080000 -5.953979 22.451334 539.512268
6.840000 -1.200000 -7.040000 -30.063272 11.694805 1040.568848
6.840000 -1.200000 -7.000000 -34.143082 -17.965960 1488.525635
6.840000 -1.200000 -6.960000 -9.994560 -38.826405 1607.380981
6.840000 -1.200000 -6.920000 20.734196 -29.466351 1298.172607
6.840000 -1.200000 -6.880000 27.709772 0.946349 768.727051
6.840000 -1.200000 -6.840000 4.299053 20.465088 437.301666
6.840000 -1.200000 -6.800000 -24.082684 7.528562 636.654907
6.840000 -1.160000 -7.200000 5.117846 -19.004515 387.363922
6.840000 -1.160000 -7.160000 20.463745 -10.024610 519.257690
6.840000 -1.160000 -7.120000 20.762245 8.364773 501.040253
6.840000 -1.160000 -7.080000 5.233291 17.324457 327.524139
6.840000 -1.160000 -7.040000 -8.970032 7.633060 138.725082
6.840000 -1.160000 -7.000000 -5.675514 -9.004497 113.292419
6.840000 -1.160000 -6.960000 11.453781 -12.456305 286.348633
6.840000 -1.160000 -6.920000 22.055376 2.769775 494.111267
6.840000 -1.160000 -6.880000 11.830322 20.053314 542.091919
6.840000 -1.160000 -6.840000 -10.214259 18.262819 437.861664
6.840000 -1.160000 -6.800000 -20.024439 -4.282652 419.319244
6.840000 -1.120000 -7.200000 18.555565 -13.883780 537.068359
6.840000 -1.120000 -7.160000 30.478210 0.379349 929.065247
6.840000 -1.120000 -7.120000 28.321218 19.609087 1186.607666
6.840000 -1.120000 -7.080000 14.325560 30.564121 1139.387207
6.840000 -1.120000 -7.040000 0.299652 28.901419 835.381775
6.840000 -1.120000 -7.000000 -5.501236 22.089144 518.193848
6.840000 -1.120000 -6.960000 -6.209505 19.054853 401.645386
6.840000 -1.120000 -6.920000 -10.102430 19.246920 472.502991
6.840000 -1.120000 -6.880000 -18.281094 14.272572 537.904663
6.840000 -1.120000 -6.840000 -21.562410 0.151906 464.960602
6.840000 -1.120000 -6.800000 -11.107635 -14.756498 341.133789
6.840000 -1.080000 -7.200000 21.534454 -1.582679 466.237610
6.840000 -1.080000 -7.160000 29.190460 15.707217 1098.799561
6.840000 -1.080000 -7.120000 23.021366 37.150864 1910.169922
6.840000 -1.080000 -7.080000 3.378332 51.148643 2627.596924
6.840000 -1.080000 -7.040000 -21.017513 50.598228 3001.916504
6.840000 -1.080000 -7.000000 -40.056015 36.772266 2956.684082
6.840000 -1.080000 -6.960000 -48.176788 16.211781 2583.824707
6.840000 -1.080000 -6.920000 -44.879440 -4.288584 2032.556152
6.840000 -1.080000 -6.880000 -32.228027 -19.634342 1424.153076
6.840000 -1.080000 -6.840000 -13.831896 -25.779127 855.884766
6.840000 -1.080000 -6.800000 4.251064 -20.383167 433.545044
6.840000 -1.040000 -7.200000 14.350546 6.277805 245.349014
6.840000 -1.040000 -7.160000 17.149651 25.652712 952.172119
6.840000 -1.040000 -7.120000 2.923851 47.304283 2246.244141
6.840000 -1.040000 -7.080000 -27.091610 56.134769 3885.067627
6.840000 -1.040000 -7.040000 -59.535942 42.365993 5339.405762
6.840000 -1.040000 -7.000000 -77.299217 9.368391 6062.935547
6.840000 -1.040000 -6.960000 -70.790497 -27.931740 5791.476562
6.840000 -1.040000 -6.920000 -43.754730 -52.478043 4668.421387
6.840000 -1.040000 -6.880000 -10.171507 -55.113911 3141.002686
6.840000 -1.040000 -6.840000 14.665477 -38.717697 1714.136230
6.840000 -1.040000 -6.800000 22.479702 -14.808656 724.633301
6.840000 -1.000000 -7.200000 5.995801 4.963678 60.587734
6.840000 -1.000000 -7.160000 2.064688 24.846691 621.620972
6.840000 -1.000000 -7.120000 -21.513113 39.699257 2038.844971
6.840000 -1.000000 -7.080000 -55.845154 32.733990 4190.195312
6.840000 -1.000000 -7.040000 -80.230103 -0.105189 6436.880371
6.840000 -1.000000 -7.000000 -76.912003 -44.752838 7918.272461
6.840000 -1.000000 -6.960000 -44.587833 -77.760147 8034.715332
6.840000 -1.000000 -6.920000 0.261575 -82.355385 6782.477539
6.840000 -1.000000 -6.880000 34.901085 -59.202362 4723.005371
6.840000 -1.000000 -6.840000 45.259178 -24.252083 2636.556885
6.840000 -1.000000 -6.800000 33.158535 3.375628 1110.883301
6.840000 -0.960000 -7.200000 3.524767 -0.578078 12.758156
6.840000 -0.960000 -7.160000 -8.320105 15.477075 308.763977
6.840000 -0.960000 -7.120000 -35.237373 16.164536 1502.964722
6.840000 -0.960000 -7.080000 -59.115677 -8.106027 3560.371094
6.840000 -0.960000 -7.040000 -59.623837 -48.231091 5881.240234
6.840000 -0.960000 -7.000000 -30.473375 -81.546219 7578.412109
6.840000 -0.960000 -6.960000 14.978145 -88.029259 7973.495117
6.840000 -0.960000 -6.920000 53.171902 -64.322876 6964.683594
6.840000 -0.960000 -6.880000 66.500336 -24.850229 5039.828125
6.840000 -0.960000 -6.840000 53.543037 9.416892 2955.534668
6.840000 -0.960000 -6.800000 26.962467 24.638729 1334.041504
6.840000 -0.920000 -7.200000 5.551309 -3.337641 41.956879
6.840000 -0.920000 -7.160000 -11.276983 3.244859 137.699463
6.840000 -0.920000 -7.120000 -30.135595 -10.713859 1022.940857
6.840000 -0.920000 -7.080000 -31.848026 -40.148945 2626.234375
6.840000 -0.920000 -7.040000 -8.692308 -65.851944 4412.034668
6.840000 -0.920000 -7.000000 28.937855 -69.526917 5671.391602
6.840000 -0.920000 -6.960000 60.693542 -47.387810 5929.310547
6.840000 -0.920000 -6.920000 71.036613 -11.460750 5177.549316
6.840000 -0.920000 -6.880000 58.240234 20.395012 3807.881348
6.840000 -0.920000 -6.840000 32.311481 36.007553 2340.575684
6.840000 -0.920000 -6.800000 6.477606 33.565693 1168.615112
6.840000 -0.880000 -7.200000 6.120352 -2.511801 43.767857
6.840000 -0.880000 -7.160000 -8.233502 -7.780710 128.330002
6.840000 -0.880000 -7.120000 -10.150243 -27.376657 852.508789
6.840000 -0.880000 -7.080000 8.270599 -44.065853 2010.202271
6.840000 -0.880000 -7.040000 36.944809 -41.605419 3095.929688
6.840000 -0.880000 -7.000000 57.209263 -18.837526 3627.751953
6.840000 -0.880000 -6.960000 57.651005 10.915073 3442.777344
6.840000 -0.880000 -6.920000 41.184601 32.375988 2744.375977
6.840000 -0.880000 -6.880000 18.935223 39.233463 1897.807373
6.840000 -0.880000 -6.840000 -0.059958 34.303757 1176.751221
6.840000 -0.880000 -6.800000 -12.646538 22.601301 670.753723
6.840000 -0.840000 -7.200000 3.176661 -3.180504 20.206787
6.840000 -0.840000 -7.160000 -0.988517 -16.174156 262.580505
6.840000 -0.840000 -7.120000 13.361231 -28.278603 978.201904
6.840000 -0.840000 -7.080000 36.759525 -22.099804 1839.664062
6.840000 -0.840000 -7.040000 48.948025 2.908153 2404.366455
6.840000 -0.840000 -7.000000 38.865223 29.836716 2400.735107
6.840000 -0.840000 -6.960000 14.401402 41.020416 1890.074951
6.840000 -0.840000 -6.920000 -7.105211 33.712608 1187.023926
6.840000 -0.840000 -6.880000 -15.831779 19.074951 614.499023
6.840000 -0.840000 -6.840000 -15.531803 7.998451 305.212128
6.840000 -0.840000 -6.800000 -14.251436 0.946108 203.998566
6.840000 -0.800000 -7.200000 1.260415 -8.730529 77.810783
6.840000 -0.800000 -7.160000 9.717758 -20.682026 522.181030
6.840000 -0.800000 -7.120000 30.371048 -17.107777 1215.076660
6.840000 -0.800000 -7.080000 41.941963 7.187011 1810.781372
6.840000 -0.800000 -7.040000 28.669800 35.100380 2053.994141
6.840000 -0.800000 -7.000000 -2.534331 43.544212 1902.521240
6.840000 -0.800000 -6.960000 -28.376238 26.253639 1494.464478
6.840000 -0.800000 -6.920000 -31.917702 -1.030084 1019.800781
6.840000 -0.800000 -6.880000 -17.338310 -17.587999 609.954712
6.840000 -0.800000 -6.840000 -2.095018 -17.634655 315.370148
6.840000 -0.800000 -6.800000 3.053097 -12.094656 155.602097
6.880000 -1.200000 -7.200000 12.530305 -3.303064 167.918777
6.880000 -1.200000 -7.160000 13.813509 12.293097 341.933258
6.880000 -1.200000 -7.120000 -2.450387 25.010080 631.508484
6.880000 -1.200000 -7.080000 -26.143644 17.589312 992.874023
6.880000 -1.200000 -7.040000 -34.474018 -8.975056 1269.009521
6.880000 -1.200000 -7.000000 -16.144249 -32.057938 1288.348145
6.880000 -1.200000 -6.960000 13.571571 -28.955065 1022.583313
6.880000 -1.200000 -6.920000 25.672119 -1.847641 662.471436
6.880000 -1.200000 -6.880000 7.115193 21.679586 520.630432
6.880000 -1.200000 -6.840000 -23.861534 15.636127 813.861267
6.880000 -1.200000 -6.800000 -34.578060 -16.975033 1483.793945
6.880000 -1.160000 -7.200000 19.746174 0.779273 390.518646
6.880000 -1.160000 -7.160000 19.040722 15.619507 606.518066
6.880000 -1.160000 -7.120000 5.778717 25.657396 691.695557
6.880000 -1.160000 -7.080000 -10.061028 21.328182 556.115601
6.880000 -1.160000 -7.040000 -14.514378 7.487865 266.735291
6.880000 -1.160000 -7.000000 -5.618172 -0.528198 31.842846
6.880000 -1.160000 -6.960000 3.105167 5.991726 45.542843
6.880000 -1.160000 -6.920000 -2.701213 17.986015 330.793274
6.880000 -1.160000 -6.880000 -20.832983 17.250582 731.595764
6.880000 -1.160000 -6.840000 -32.414429 -3.022472 1059.830566
6.880000 -1.160000 -6.800000 -21.057955 -28.272110 1242.749634
6.880000 -1.120000 -7.200000 20.579552 9.913740 521.800171
6.880000 -1.120000 -7.160000 20.178139 25.892143 1077.560303
6.880000 -1.120000 -7.120000 7.879181 40.466011 1699.579590
6.880000 -1.120000 -7.080000 -11.748295 44.696724 2135.819580
6.880000 -1.120000 -7.040000 -29.269066 37.246807 2244.002930
6.880000 -1.120000 -7.000000 -39.130054 23.949188 2104.724609
6.880000 -1.120000 -6.960000 -42.613869 10.376183 1923.606934
6.880000 -1.120000 -6.920000 -42.570347 -3.092880 1821.800293
6.880000 -1.120000 -6.880000 -37.577618 -17.936941 1733.811279
6.880000 -1.120000 -6.840000 -23.729925 -30.891502 1517.394287
6.880000 -1.120000 -6.800000 -2.251745 -33.703934 1141.025513
6.880000 -1.080000 -7.200000 13.824291 16.131413 451.333496
6.880000 -1.080000 -7.160000 11.710809 36.767090 1488.961914
6.880000 -1.080000 -7.120000 -8.667145 56.608067 3279.592529
6.880000 -1.080000 -7.080000 -43.171585 59.691284 5426.834961
6.880000 -1.080000 -7.040000 -75.576599 38.498276 7193.939453
6.880000 -1.080000 -7.000000 -89.000381 0.445625 7921.266602
6.880000 -1.080000 -6.960000 -77.453049 -37.423191 7399.469727
6.880000 -1.080000 -6.920000 -48.327900 -59.997162 5935.245117
6.880000 -1.080000 -6.880000 -15.628658 -62.114582 4102.476074
6.880000 -1.080000 -6.840000 8.874708 -48.414303 2422.705322
6.880000 -1.080000 -6.800000 20.091602 -27.904694 1182.344482
6.880000 -1.040000 -7.200000 5.679098 14.720319 248.939941
6.880000 -1.040000 -7.160000 -4.061993 39.649345 1588.570312
6.880000 -1.040000 -7.120000 -38.758377 55.159798 4544.814941
6.880000 -1.040000 -7.080000 -84.413147 39.976269 8723.681641
6.880000 -1.040000 -7.040000 -112.601410 -8.185299 12746.076172
6.880000 -1.040000 -7.000000 -102.056366 -67.360199 14952.898438
6.880000 -1.040000 -6.960000 -55.735168 -106.292427 14404.489258
6.880000 -1.040000 -6.920000 1.324465 -106.945229 11439.036133
6.880000 -1.040000 -6.880000 40.816872 -75.681976 7393.778809
6.880000 -1.040000 -6.840000 50.089058 -35.298981 3754.931885
6.880000 -1.040000 -6.800000 36.545357 -6.856498 1382.574707
6.880000 -1.000000 -7.200000 2.837848 8.708046 83.883446
6.880000 -1.000000 -7.160000 -18.707085 31.265406 1327.480591
6.880000 -1.000000 -7.120000 -62.433918 29.620075 4775.342773
6.880000 -1.000000 -7.080000 -100.280182 -11.277412 10183.294922
6.880000 -1.000000 -7.040000 -99.845215 -76.629082 15841.083984
6.880000 -1.000000 -7.000000 -51.806049 -129.247269 19388.724609
6.880000 -1.000000 -6.960000 20.328022 -137.205170 19238.486328
6.880000 -1.000000 -6.920000 77.256577 -97.912598 15555.455078
6.880000 -1.000000 -6.880000 92.829521 -38.289322 10083.392578
6.880000 -1.000000 -6.840000 70.287384 7.542563 4997.206543
6.880000 -1.000000 -6.800000 34.245346 22.546314 1681.080078
6.880000 -0.960000 -7.200000 5.674732 4.877799 55.995510
6.880000 -0.960000 -7.160000 -24.725363 16.092243 870.303833
6.880000 -0.960000 -7.120000 -62.330193 -6.988630 3933.894043
6.880000 -0.960000 -7.080000 -73.170029 -61.811794 9174.550781
6.880000 -0.960000 -7.040000 -36.960678 -116.656921 14974.928711
6.880000 -0.960000 -7.000000 33.080963 -133.525330 18923.363281
6.880000 -0.960000 -6.960000 97.995087 -98.243546 19254.832031
6.880000 -0.960000 -6.920000 122.217880 -31.493994 15929.082031
6.880000 -0.960000 -6.880000 98.922501 28.061033 10573.083008
6.880000 -0.960000 -6.840000 51.051796 52.729004 5386.633789
6.880000 -0.960000 -6.800000 10.170779 42.172665 1881.978394
6.880000 -0.920000 -7.200000 8.765835 6.230490 115.658859
6.880000 -0.920000 -7.160000 -20.965908 1.927709 443.285370
6.880000 -0.920000 -7.120000 -38.601727 -33.228134 2594.202148
6.880000 -0.920000 -7.080000 -19.412720 -78.628853 6559.350098
6.880000 -0.920000 -7.040000 34.590668 -99.447083 11086.237305
6.880000 -0.920000 -7.000000 93.173355 -74.866150 14286.214844
6.880000 -0.920000 -6.960000 120.498856 -15.517096 14760.754883
6.880000 -0.920000 -6.920000 102.053726 44.853439 12426.793945
6.880000 -0.920000 -6.880000 53.244602 75.074471 8471.164062
6.880000 -0.920000 -6.840000 4.668053 67.154587 4531.529297
6.880000 -0.920000 -6.800000 -20.850092 36.525761 1768.857544
6.880000 -0.880000 -7.200000 7.593483 9.319784 144.519363
6.880000 -0.880000 -7.160000 -11.727006 -6.276778 176.920624
6.880000 -0.880000 -7.120000 -7.325674 -37.035748 1425.312134
6.880000 -0.880000 -7.080000 26.178898 -55.946602 3815.356934
6.880000 -0.880000 -7.040000 68.920410 -41.860477 6502.322266
6.880000 -0.880000 -7.000000 91.271851 2.013493 8334.604492
6.880000 -0.880000 -6.960000 77.412582 50.552902 8548.303711
6.880000 -0.880000 -6.920000 36.280613 76.646599 7190.983887
6.880000 -0.880000 -6.880000 -7.743958 70.204712 4988.670410
6.880000 -0.880000 -6.840000 -33.606762 41.332886 2837.821777
6.880000 -0.880000 -6.800000 -35.314022 8.804799 1324.604736
6.880000 -0.840000 -7.200000 3.578172 9.016880 94.107437
6.880000 -0.840000 -7.160000 -1.891791 -8.409117 74.292114
6.880000 -0.840000 -7.120000 14.378801 -23.123882 741.463867
6.880000 -0.840000 -7.080000 40.663944 -16.385838 1922.052002
6.880000 -0.840000 -7.040000 54.333336 12.273731 3102.755859
6.880000 -0.840000 -7.000000 42.044552 44.526527 3750.355957
6.880000 -0.840000 -6.960000 10.431143 59.412720 3638.680176
6.880000 -0.840000 -6.920000 -21.355476 49.808239 2936.916992
6.880000 -0.840000 -6.880000 -37.714760 24.752060 2035.067627
6.880000 -0.840000 -6.840000 -35.710556 -1.172779 1276.619141
6.880000 -0.840000 -6.800000 -21.629807 -18.643438 815.426331
6.880000 -0.800000 -7.200000 1.858366 4.820484 26.690590
6.880000 -0.800000 -7.160000 6.273348 -6.467387 81.181984
6.880000 -0.800000 -7.120000 20.933979 -5.015842 463.390137
6.880000 -0.800000 -7.080000 28.399208 12.537979 963.715942
6.880000 -0.800000 -7.040000 16.893997 32.332760 1330.814453
6.880000 -0.800000 -7.000000 -7.782106 36.985332 1428.475952
6.880000 -0.800000 -6.960000 -28.276600 22.055044 1285.991089
6.880000 -0.800000 -6.920000 -32.099476 -1.370683 1032.255127
6.880000 -0.800000 -6.880000 -20.991419 -18.781990 793.402832
6.880000 -0.800000 -6.840000 -5.265963 -24.696346 637.639893
6.880000 -0.800000 -6.800000 7.957167 -22.992203 591.957886
6.920000 -1.200000 -7.200000 15.961245 16.766960 535.892273
6.920000 -1.200000 -7.160000 -1.342291 28.731119 827.278992
6.920000 -1.200000 -7.120000 -25.912985 22.755848 1189.311401
6.920000 -1.200000 -7.080000 -38.239883 -2.305719 1467.604980
6.920000 -1.200000 -7.040000 -25.580971 -28.176846 1448.320679
6.920000 -1.200000 -7.000000 2.293640 -32.419422 1056.279663
6.920000 -1.200000 -6.960000 19.424868 -11.545547 510.625122
6.920000 -1.200000 -6.920000 8.672097 12.831589 239.854950
6.920000 -1.200000 -6.880000 -19.561638 13.820225 573.656311
6.920000 -1.200000 -6.840000 -35.654884 -13.412259 1451.159424
6.920000 -1.200000 -6.800000 -19.622885 -45.027012 2412.489258
6.920000 -1.160000 -7.200000 11.411367 22.612974 641.565918
6.920000 -1.160000 -7.160000 -2.213640 29.395290 868.983276
6.920000 -1.160000 -7.120000 -18.301859 25.170650 968.519653
6.920000 -1.160000 -7.080000 -26.482597 11.605243 836.009583
6.920000 -1.160000 -7.040000 -22.694778 -0.565128 515.372375
6.920000 -1.160000 -7.000000 -14.900890 -2.281021 227.239594
6.920000 -1.160000 -6.960000 -15.252587 3.092739 242.206451
6.920000 -1.160000 -6.920000 -25.909689 2.148838 675.929504
6.920000 -1.160000 -6.880000 -34.387169 -13.707883 1370.383423
6.920000 -1.160000 -6.840000 -25.445986 -36.474823 1977.910889
6.920000 -1.160000 -6.800000 1.753197 -46.790264 2192.402588
6.920000 -1.120000 -7.200000 3.831119 24.672504 623.409973
6.920000 -1.120000 -7.160000 -5.536243 34.955803 1252.558228
6.920000 -1.120000 -7.120000 -23.784927 39.843102 2153.195557
6.920000 -1.120000 -7.080000 -44.975685 32.590897 3084.978760
6.920000 -1.120000 -7.040000 -59.817799 13.627670 3763.882324
6.920000 -1.120000 -7.000000 -62.782833 -10.287941 4047.525879
6.920000 -1.120000 -6.960000 -54.515305 -31.882751 3988.428223
6.920000 -1.120000 -6.920000 -38.565979 -47.275341 3722.292480
6.920000 -1.120000 -6.880000 -17.854561 -54.774601 3319.042236
6.920000 -1.120000 -6.840000 4.672965 -52.289665 2756.045654
6.920000 -1.120000 -6.800000 23.369694 -38.423035 2022.472168
6.920000 -1.080000 -7.200000 -2.934151 21.609259 475.569305
6.920000 -1.080000 -7.160000 -16.566563 39.644592 1846.144775
6.920000 -1.080000 -7.120000 -49.423794 46.108871 4568.739258
6.920000 -1.080000 -7.080000 -86.849236 25.110481 8173.325684
6.920000 -1.080000 -7.040000 -104.834816 -21.209137 11440.166016
6.920000 -1.080000 -7.000000 -88.950676 -71.750282 13060.326172
6.920000 -1.080000 -6.960000 -45.806026 -101.618118 12424.434570
6.920000 -1.080000 -6.920000 2.625366 -99.712662 9949.507812
6.920000 -1.080000 -6.880000 35.526527 -73.970047 6733.702148
6.920000 -1.080000 -6.840000 45.784702 -41.999161 3860.168457
6.920000 -1.080000 -6.800000 39.686413 -17.549847 1883.008545
6.920000 -1.040000 -7.200000 -5.343801 15.867068 280.320068
6.920000 -1.040000 -7.160000 -32.171505 35.194839 2273.682617
6.920000 -1.040000 -7.120000 -79.077721 26.346092 6947.402832
6.920000 -1.040000 -7.080000 -114.701752 -23.329840 13700.773438
6.920000 -1.040000 -7.040000 -106.582596 -94.204407 20234.320312
6.920000 -1.040000 -7.000000 -49.645340 -145.828262 23730.542969
6.920000 -1.040000 -6.960000 27.220701 -147.899353 22615.185547
6.920000 -1.040000 -6.920000 83.007431 -103.197357 17539.927734
6.920000 -1.040000 -6.880000 95.094070 -42.892822 10882.675781
6.920000 -1.040000 -6.840000 72.036819 -0.283424 5189.383789
6.920000 -1.040000 -6.800000 40.340370 12.536111 1784.499512
6.920000 -1.000000 -7.200000 -3.301069 11.753678 149.046021
6.920000 -1.000000 -7.160000 -42.720993 19.846218 2218.955566
6.920000 -1.000000 -7.120000 -87.479965 -14.478800 7862.379883
6.920000 -1.000000 -7.080000 -96.071960 -85.680305 16570.935547
6.920000 -1.000000 -7.040000 -45.798851 -152.743042 25427.972656
6.920000 -1.000000 -7.000000 43.475632 -169.317734 30558.625000
6.920000 -1.000000 -6.960000 121.569550 -121.513268 29544.628906
6.920000 -1.000000 -6.920000 146.480316 -39.220818 22994.755859
6.920000 -1.000000 -6.880000 115.010666 28.745079 14053.732422
6.920000 -1.000000 -6.840000 59.830910 52.308914 6315.959961
6.920000 -1.000000 -6.800000 18.966059 37.591721 1772.848877
6.920000 -0.960000 -7.200000 -0.143274 11.724213 137.477692
6.920000 -0.960000 -7.160000 -40.980495 1.003405 1680.407837
6.920000 -0.960000 -7.120000 -64.434654 -51.569061 6811.192871
6.920000 -0.960000 -7.080000 -35.769821 -118.319550 15278.996094
6.920000 -0.960000 -7.040000 43.136845 -149.855606 24317.490234
6.920000 -0.960000 -7.000000 129.021759 -115.462112 29978.113281
6.920000 -0.960000 -6.960000 169.267044 -30.473347 29579.957031
6.920000 -0.960000 -6.920000 142.942932 54.843262 23440.464844
6.920000 -0.960000 -6.880000 74.744675 94.771500 14568.403320
6.920000 -0.960000 -6.840000 11.453573 80.651840 6635.903809
6.920000 -0.960000 -6.800000 -15.527994 39.927666 1835.337158
6.920000 -0.920000 -7.200000 0.513742 14.482849 210.016846
6.920000 -0.920000 -7.160000 -28.761667 -11.165696 951.906311
6.920000 -0.920000 -7.120000 -24.420374 -62.490578 4501.426758
6.920000 -0.920000 -7.080000 27.716513 -100.435631 10855.521484
6.920000 -0.920000 -7.040000 102.020676 -87.020103 17980.716797
6.920000 -0.920000 -7.000000 149.677322 -19.476933 22782.652344
6.920000 -0.920000 -6.960000 137.357193 64.382454 23012.097656
6.920000 -0.920000 -6.920000 73.654999 115.205368 18697.335938
6.920000 -0.920000 -6.880000 0.407883 109.619881 12016.684570
6.920000 -0.920000 -6.840000 -41.439877 63.896378 5800.010742
6.920000 -0.920000 -6.800000 -40.335548 15.101912 1855.024170
6.920000 -0.880000 -7.200000 -2.104946 16.679632 282.640930
6.920000 -0.880000 -7.160000 -14.779659 -12.395809 372.094421
6.920000 -0.880000 -7.120000 7.301662 -46.111382 2179.573730
6.920000 -0.880000 -7.080000 57.018791 -50.548241 5806.267578
6.920000 -0.880000 -7.040000 99.850540 -10.646282 10083.473633
6.920000 -0.880000 -7.000000 101.231194 53.860806 13148.741211
6.920000 -0.880000 -6.960000 55.467072 102.591293 13601.569336
6.920000 -0.880000 -6.920000 -9.667843 106.185287 11368.782227
6.920000 -0.880000 -6.880000 -55.656029 67.494591 7653.113281
6.920000 -0.880000 -6.840000 -61.921177 15.480548 4073.879639
6.920000 -0.880000 -6.800000 -36.380379 -19.537024 1705.227295
6.920000 -0.840000 -7.200000 -5.883122 16.258686 298.955994
6.920000 -0.840000 -7.160000 -6.580330 -6.670715 87.799187
6.920000 -0.840000 -7.120000 16.817568 -20.306580 695.187744
6.920000 -0.840000 -7.080000 46.371071 -5.995499 2186.222168
6.920000 -0.840000 -7.040000 55.037544 31.619106 4028.899170
6.920000 -0.840000 -7.000000 30.413067 66.870071 5396.561035
6.920000 -0.840000 -6.960000 -14.216145 74.112808 5694.807129
6.920000 -0.840000 -6.920000 -50.955524 48.117805 4911.789062
6.920000 -0.840000 -6.880000 -59.248997 6.303425 3550.176758
6.920000 -0.840000 -6.840000 -39.134094 -26.718285 2245.343994
6.920000 -0.840000 -6.800000 -6.799273 -36.738029 1395.912964
6.920000 -0.800000 -7.200000 -8.547198 13.944263 267.497070
6.920000 -0.800000 -7.160000 -5.088066 -0.908071 26.713009
6.920000 -0.800000 -7.120000 9.877136 -3.283978 108.342331
6.920000 -0.800000 -7.080000 19.414524 11.036491 498.727875
6.920000 -0.800000 -7.040000 10.908958 29.564894 993.088318
6.920000 -0.800000 -7.000000 -11.905029 34.752380 1349.457642
6.920000 -0.800000 -6.960000 -32.517315 19.819988 1450.207642
6.920000 -0.800000 -6.920000 -36.183506 -6.186771 1347.522217
6.920000 -0.800000 -6.880000 -21.091148 -27.218380 1185.676758
6.920000 -0.800000 -6.840000 2.858479 -32.825378 1085.676392
6.920000 -0.800000 -6.800000 23.543148 -23.155712 1090.466797
6.960000 -1.200000 -7.200000 0.285208 29.346062 861.272705
6.960000 -1.200000 -7.160000 -24.052931 24.610666 1184.228271
6.960000 -1.200000 -7.120000 -39.480606 1.372803 1560.602905
6.960000 -1.200000 -7.080000 -32.399578 -26.767944 1766.255493
6.960000 -1.200000 -7.040000 -6.990959 -38.749027 1550.360596
6.960000 -1.200000 -7.000000 15.300381 -25.987007 909.426147
6.960000 -1.200000 -6.960000 14.849602 -2.766914 228.166473
6.960000 -1.200000 -6.920000 -6.225716 5.795002 72.341583
6.960000 -1.200000 -6.880000 -24.436901 -11.701241 734.081177
6.960000 -1.200000 -6.840000 -17.201183 -40.317249 1921.361328
6.960000 -1.200000 -6.800000 14.277089 -52.027275 2910.672607
6.960000 -1.160000 -7.200000 -10.306337 27.000084 835.225098
6.960000 -1.160000 -7.160000 -24.927711 20.618410 1046.509644
6.960000 -1.160000 -7.120000 -33.477360 6.083551 1157.743286
6.960000 -1.160000 -7.080000 -31.303421 -9.455320 1069.307251
6.960000 -1.160000 -7.040000 -22.228565 -17.504890 800.530273
6.960000 -1.160000 -7.000000 -15.878120 -17.172821 547.020508
6.960000 -1.160000 -6.960000 -17.429108 -16.991295 592.477905
6.960000 -1.160000 -6.920000 -20.727722 -25.801075 1095.333984
6.960000 -1.160000 -6.880000 -13.663948 -41.471020 1906.548950
6.960000 -1.160000 -6.840000 8.193986 -50.352196 2602.484863
6.960000 -1.160000 -6.800000 34.003143 -39.949944 2752.211914
6.960000 -1.120000 -7.200000 -15.883243 20.142944 658.015625
6.960000 -1.120000 -7.160000 -27.915604 22.347073 1278.672607
6.960000 -1.120000 -7.120000 -45.430641 15.860907 2315.511475
6.960000 -1.120000 -7.080000 -59.557926 -3.485920 3559.298096
6.960000 -1.120000 -7.040000 -60.773262 -30.834007 4644.125488
6.960000 -1.120000 -7.000000 -46.423279 -55.703873 5258.041992
6.960000 -1.120000 -6.960000 -21.790653 -69.524071 5308.428711
6.960000 -1.120000 -6.920000 4.889309 -69.905029 4910.618164
6.960000 -1.120000 -6.880000 27.317825 -59.121765 4241.646484
6.960000 -1.120000 -6.840000 41.876328 -40.744999 3413.781738
6.960000 -1.120000 -6.800000 46.058838 -18.848888 2476.697021
6.960000 -1.080000 -7.200000 -16.074156 13.846243 450.096924
6.960000 -1.080000 -7.160000 -38.442131 22.253162 1973.000732
6.960000 -1.080000 -7.120000 -71.636230 7.592339 5189.393066
6.960000 -1.080000 -7.080000 -91.133026 -35.489639 9564.743164
6.960000 -1.080000 -7.040000 -75.790985 -88.658035 13604.520508
6.960000 -1.080000 -7.000000 -26.862728 -122.164078 15645.667969
6.960000 -1.080000 -6.960000 31.649048 -117.762711 14869.717773
6.960000 -1.080000 -6.920000 71.437836 -81.684334 11775.695312
6.960000 -1.080000 -6.880000 80.010948 -37.183968 7784.399414
6.960000 -1.080000 -6.840000 65.532806 -5.393615 4323.640137
6.960000 -1.080000 -6.800000 45.184433 7.753645 2101.751953
6.960000 -1.040000 -7.200000 -13.977026 10.748903 310.896179
6.960000 -1.040000 -7.160000 -50.995422 11.591906 2734.905518
6.960000 -1.040000 -7.120000 -87.570641 -26.890553 8391.718750
6.960000 -1.040000 -7.080000 -86.435127 -94.717972 16442.525391
6.960000 -1.040000 -7.040000 -31.804678 -151.757080 24041.748047
6.960000 -1.040000 -7.000000 52.703476 -158.282440 27830.986328
6.960000 -1.040000 -6.960000 120.140121 -107.802483 26055.023438
6.960000 -1.040000 -6.920000 136.597992 -32.098343 19689.314453
6.960000 -1.040000 -6.880000 105.286072 25.421253 11731.397461
6.960000 -1.040000 -6.840000 58.345276 42.912376 5245.643066
6.960000 -1.040000 -6.800000 27.126442 30.797569 1684.334229
6.960000 -1.000000 -7.200000 -12.426296 10.098375 256.390015
6.960000 -1.000000 -7.160000 -53.945526 -8.514124 2982.610107
6.960000 -1.000000 -7.120000 -72.005157 -69.058128 9953.767578
6.960000 -1.000000 -7.080000 -32.934776 -138.641510 20306.167969
6.960000 -1.000000 -7.040000 55.910820 -165.117828 30389.916016
6.960000 -1.000000 -7.000000 145.243622 -120.653702 35653.023438
6.960000 -1.000000 -6.960000 181.066254 -27.469759 33539.574219
6.960000 -1.000000 -6.920000 147.339111 58.936657 25182.343750
6.960000 -1.000000 -6.880000 75.856766 93.946625 14580.217773
6.960000 -1.000000 -6.840000 16.345787 75.440903 5958.514160
6.960000 -1.000000 -6.800000 -3.715555 36.879570 1373.907959
6.960000 -0.960000 -7.200000 -11.944278 10.185112 246.402283
6.960000 -0.960000 -7.160000 -41.906784 -26.392933 2452.765625
6.960000 -0.960000 -7.120000 -29.348513 -89.509514 8873.288086
6.960000 -0.960000 -7.080000 39.471054 -131.866852 18946.832031
6.960000 -0.960000 -7.040000 130.863419 -109.888161 29200.642578
6.960000 -0.960000 -7.000000 185.518341 -24.076225 34996.718750
6.960000 -0.960000 -6.960000 166.103424 76.791992 33487.359375
6.960000 -0.960000 -6.920000 87.735367 133.454468 25507.589844
6.960000 -0.960000 -6.880000 3.882576 122.185959 14944.482422
6.960000 -0.960000 -6.840000 -38.106247 68.375008 6127.227539
6.960000 -0.960000 -6.800000 -30.908634 18.808773 1309.113647
6.960000 -0.920000 -7.200000 -11.938650 10.642445 255.792999
6.960000 -0.920000 -7.160000 -22.204483 -30.708672 1436.061523
6.960000 -0.920000 -7.120000 13.246284 -75.361465 5854.814453
6.960000 -0.920000 -7.080000 84.568268 -78.989197 13391.084961
6.960000 -0.920000 -7.040000 145.173996 -21.625498 21543.150391
6.960000 -0.920000 -7.000000 147.727661 69.450058 26646.771484
6.960000 -0.920000 -6.960000 84.662155 137.966049 26202.312500
6.960000 -0.920000 -6.920000 -4.335978 143.242676 20537.265625
6.960000 -0.920000 -6.880000 -64.806679 91.111115 12501.140625
6.960000 -0.920000 -6.840000 -69.934738 24.659637 5498.965332
6.960000 -0.920000 -6.800000 -35.615257 -13.812237 1459.224365
6.960000 -0.880000 -7.200000 -12.864270 11.954834 308.407501
6.960000 -0.880000 -7.160000 -8.363705 -21.376709 526.915222
6.960000 -0.880000 -7.120000 30.718916 -41.224251 2643.090576
6.960000 -0.880000 -7.080000 80.630783 -18.799080 6854.728516
6.960000 -0.880000 -7.040000 100.095169 42.589657 11832.921875
6.960000 -0.880000 -7.000000 65.766273 104.984749 15347.000000
6.960000 -0.880000 -6.960000 -5.471283 125.155739 15693.893555
6.960000 -0.880000 -6.920000 -68.814392 89.948540 12826.160156
6.960000 -0.880000 -6.880000 -87.391785 25.741514 8299.950195
6.960000 -0.880000 -6.840000 -59.289646 -25.117422 4146.146973
6.960000 -0.880000 -6.800000 -13.428934 -37.796028 1608.876099
6.960000 -0.840000 -7.200000 -16.219110 13.328040 440.696198
6.960000 -0.840000 -7.160000 -7.544868 -9.216084 141.861237
6.960000 -0.840000 -7.120000 21.254822 -13.689247 639.162964
6.960000 -0.840000 -7.080000 45.434547 12.286503 2215.256348
6.960000 -0.840000 -7.040000 38.862389 53.699272 4393.896973
6.960000 -0.840000 -7.000000 -1.244938 78.544350 6170.764648
6.960000 -0.840000 -6.960000 -49.671654 64.949074 6685.655273
6.960000 -0.840000 -6.920000 -73.481201 20.031013 5800.728516
6.960000 -0.840000 -6.880000 -58.538345 -26.454151 4126.560059
6.960000 -0.840000 -6.840000 -18.671610 -46.659599 2525.747070
6.960000 -0.840000 -6.800000 18.502590 -34.609215 1540.143555
6.960000 -0.800000 -7.200000 -22.226645 12.053616 639.313354
6.960000 -0.800000 -7.160000 -14.874615 -5.154276 247.820724
6.960000 -0.800000 -7.120000 3.465295 -6.827181 58.618668
6.960000 -0.800000 -7.080000 13.736969 9.533090 279.584106
6.960000 -0.800000 -7.040000 3.423771 28.476105 822.610779
6.960000 -0.800000 -7.000000 -20.967667 30.601757 1376.110596
6.960000 -0.800000 -6.960000 -39.291599 10.498116 1654.040283
6.960000 -0.800000 -6.920000 -35.538422 -18.369644 1600.423218
6.960000 -0.800000 -6.880000 -11.079599 -35.541767 1385.974731
6.960000 -0.800000 -6.840000 17.879364 -30.192141 1231.237061
6.960000 -0.800000 -6.800000 34.285477 -7.621464 1233.580566
7.000000 -1.200000 -7.200000 -18.375637 22.578892 847.470398
7.000000 -1.200000 -7.160000 -33.552864 3.431587 1137.570435
7.000000 -1.200000 -7.120000 -31.384056 -23.283827 1527.095581
7.000000 -1.200000 -7.080000 -10.514751 -40.728249 1769.350342
7.000000 -1.200000 -7.040000 14.695724 -36.887577 1576.657715
7.000000 -1.200000 -7.000000 25.083532 -17.235947 926.261475
7.000000 -1.200000 -6.960000 14.655109 -1.572048 217.243561
7.000000 -1.200000 -6.920000 -2.469788 -5.744046 39.093918
7.000000 -1.200000 -6.880000 -4.907404 -25.538103 676.277344
7.000000 -1.200000 -6.840000 14.710241 -39.660061 1789.311646
7.000000 -1.200000 -6.800000 41.233692 -30.268265 2616.385254
7.000000 -1.160000 -7.200000 -24.661800 12.100022 754.614929
7.000000 -1.160000 -7.160000 -30.664211 -1.303520 941.992981
7.000000 -1.160000 -7.120000 -28.601837 -17.113510 1110.937256
7.000000 -1.160000 -7.080000 -18.281599 -28.672955 1156.355225
7.000000 -1.160000 -7.040000 -5.758295 -31.571041 1029.888672
7.000000 -1.160000 -7.000000 1.834717 -28.819595 833.935303
7.000000 -1.160000 -6.960000 4.033699 -28.164375 809.502808
7.000000 -1.160000 -6.920000 8.136635 -33.098587 1161.721313
7.000000 -1.160000 -6.880000 20.907078 -37.393993 1835.416748
7.000000 -1.160000 -6.840000 39.082680 -30.546240 2460.528564
7.000000 -1.160000 -6.800000 49.848755 -9.763526 2580.224854
7.000000 -1.120000 -7.200000 -22.424847 3.713293 516.662292
7.000000 -1.120000 -7.160000 -32.422508 -0.091228 1051.227295
7.000000 -1.120000 -7.120000 -42.694618 -15.096935 2050.747803
7.000000 -1.120000 -7.080000 -41.995537 -39.441235 3319.236084
7.000000 -1.120000 -7.040000 -24.818605 -62.055016 4466.788086
7.000000 -1.120000 -7.000000 3.589363 -71.488441 5123.480469
7.000000 -1.120000 -6.960000 31.807594 -64.310951 5147.621582
7.000000 -1.120000 -6.920000 50.795475 -45.648914 4664.003906
7.000000 -1.120000 -6.880000 58.105690 -23.331114 3920.612061
7.000000 -1.120000 -6.840000 55.607754 -2.785979 3099.983887
7.000000 -1.120000 -6.800000 45.704163 13.025809 2258.541992
7.000000 -1.080000 -7.200000 -18.316481 1.642434 338.191071
7.000000 -1.080000 -7.160000 -41.752419 -3.512325 1755.600830
7.000000 -1.080000 -7.120000 -59.819160 -34.802711 4789.560547
7.000000 -1.080000 -7.080000 -48.887833 -80.537430 8876.297852
7.000000 -1.080000 -7.040000 -3.929123 -112.122055 12586.793945
7.000000 -1.080000 -7.000000 54.505894 -106.819733 14381.347656
7.000000 -1.080000 -6.960000 95.595840 -66.309715 13535.542969
7.000000 -1.080000 -6.920000 101.731384 -14.397511 10556.562500
7.000000 -1.080000 -6.880000 79.327515 22.718550 6808.986816
7.000000 -1.080000 -6.840000 49.303295 34.951546 3652.425537
7.000000 -1.080000 -6.800000 28.622276 30.402168 1743.526489
7.000000 -1.040000 -7.200000 -17.731951 2.365255 320.016510
7.000000 -1.040000 -7.160000 -48.859383 -18.744329 2738.589111
7.000000 -1.040000 -7.120000 -55.285728 -71.268585 8135.723145
7.000000 -1.040000 -7.080000 -13.785648 -123.868515 15533.453125
7.000000 -1.040000 -7.040000 62.925125 -135.156418 22226.828125
7.000000 -1.040000 -7.000000 131.596924 -88.959061 25231.464844
7.000000 -1.040000 -6.960000 151.844116 -9.737900 23151.460938
7.000000 -1.040000 -6.920000 117.737961 56.650784 17071.539062
7.000000 -1.040000 -6.880000 59.506859 79.134109 9803.273438
7.000000 -1.040000 -6.840000 15.771718 62.056168 4099.715332
7.000000 -1.040000 -6.800000 3.293036 34.243668 1183.472900
7.000000 -1.000000 -7.200000 -19.345390 0.811028 374.901917
7.000000 -1.000000 -7.160000 -41.635208 -39.128094 3264.498291
7.000000 -1.000000 -7.120000 -20.187296 -97.974236 10006.478516
7.000000 -1.000000 -7.080000 51.475410 -129.755188 19486.125000
7.000000 -1.000000 -7.040000 136.273285 -98.203682 28214.371094
7.000000 -1.000000 -7.000000 179.057877 -11.314932 32189.750000
7.000000 -1.000000 -6.960000 151.319580 80.983398 29455.925781
7.000000 -1.000000 -6.920000 74.506088 125.911942 21404.974609
7.000000 -1.000000 -6.880000 0.741792 108.686966 11813.406250
7.000000 -1.000000 -6.840000 -30.355316 58.987938 4401.021973
7.000000 -1.000000 -6.800000 -19.297745 20.315220 785.111084
7.000000 -0.960000 -7.200000 -18.508299 -2.758917 350.168762
7.000000 -0.960000 -7.160000 -20.161097 -49.193207 2826.441406
7.000000 -0.960000 -7.120000 26.401615 -91.639633 9094.867188
7.000000 -0.960000 -7.080000 104.880844 -85.553589 18319.408203
7.000000 -0.960000 -7.040000 164.006241 -16.200533 27160.503906
7.000000 -0.960000 -7.000000 157.588928 81.833321 31530.960938
7.000000 -0.960000 -6.960000 84.697952 148.525818 29233.660156
7.000000 -0.960000 -6.920000 -7.879657 146.256760 21453.128906
7.000000 -0.960000 -6.880000 -63.978188 88.457581 11917.952148
7.000000 -0.960000 -6.840000 -62.068600 24.046623 4430.750977
7.000000 -0.960000 -6.800000 -26.016977 -5.718667 709.586243
7.000000 -0.920000 -7.200000 -14.663754 -3.481054 227.143402
7.000000 -0.920000 -7.160000 1.125385 -40.494644 1641.082642
7.000000 -0.920000 -7.120000 53.561333 -55.489395 5947.889648
7.000000 -0.920000 -7.080000 111.677704 -19.210550 12840.954102
7.000000 -0.920000 -7.040000 128.169403 59.125237 19923.189453
7.000000 -0.920000 -7.000000 80.299789 132.183792 23920.611328
7.000000 -0.920000 -6.960000 -6.904316 150.887451 22814.693359
7.000000 -0.920000 -6.920000 -78.763046 105.009781 17230.671875
7.000000 -0.920000 -6.880000 -94.964890 30.618368 9955.814453
7.000000 -0.920000 -6.840000 -59.602097 -21.789860 4027.208008
7.000000 -0.920000 -6.800000 -11.543242 -28.133991 924.767944
7.000000 -0.880000 -7.200000 -13.210547 0.832805 175.212128
7.000000 -0.880000 -7.160000 6.859335 -21.223663 497.494354
7.000000 -0.880000 -7.120000 46.895733 -16.726076 2478.971436
7.000000 -0.880000 -7.080000 74.882210 26.038687 6285.358398
7.000000 -0.880000 -7.040000 59.339653 84.667664 10689.807617
7.000000 -0.880000 -7.000000 0.065826 116.838409 13651.217773
7.000000 -0.880000 -6.960000 -67.115295 95.731705 13669.022461
7.000000 -0.880000 -6.920000 -98.349449 34.034058 10830.931641
7.000000 -0.880000 -6.880000 -77.472672 -26.342369 6695.935059
7.000000 -0.880000 -6.840000 -26.942440 -49.193317 3145.877441
7.000000 -0.880000 -6.800000 14.454115 -31.227211 1184.060181
7.000000 -0.840000 -7.200000 -19.137554 5.065524 391.905518
7.000000 -0.840000 -7.160000 -4.093215 -8.876326 95.543564
7.000000 -0.840000 -7.120000 20.353619 -1.026527 415.323578
7.000000 -0.840000 -7.080000 29.100832 29.728668 1730.652100
7.000000 -0.840000 -7.040000 6.122356 60.462170 3693.157227
7.000000 -0.840000 -7.000000 -37.569458 62.811825 5356.789551
7.000000 -0.840000 -6.960000 -70.673401 29.143745 5844.087402
7.000000 -0.840000 -6.920000 -68.027306 -19.028004 4989.779297
7.000000 -0.840000 -6.880000 -32.045624 -48.839714 3412.239746
7.000000 -0.840000 -6.840000 10.543058 -43.298908 1985.951538
7.000000 -0.840000 -6.800000 32.315392 -12.833773 1208.990234
7.000000 -0.800000 -7.200000 -29.714052 1.085342 884.102905
7.000000 -0.800000 -7.160000 -17.696774 -13.355731 491.551331
7.000000 -0.800000 -7.120000 0.530117 -10.360798 107.627151
7.000000 -0.800000 -7.080000 6.402077 7.306750 94.375183
7.000000 -0.800000 -7.040000 -7.451557 21.569645 520.775269
7.000000 -0.800000 -7.000000 -28.977236 16.208950 1102.410278
7.000000 -0.800000 -6.960000 -37.472313 -7.131638 1455.034424
7.000000 -0.800000 -6.920000 -22.854528 -29.919315 1417.494873
7.000000 -0.800000 -6.880000 5.256783 -33.477592 1148.382935
7.000000 -0.800000 -6.840000 26.674709 -14.962091 935.404297
7.000000 -0.800000 -6.800000 28.069000 11.934685 930.305481
7.040000 -1.200000 -7.200000 -22.531013 4.213662 525.401550
7.040000 -1.200000 -7.160000 -22.329563 -15.678622 744.428589
7.040000 -1.200000 -7.120000 -8.205400 -32.685150 1135.647705
7.040000 -1.200000 -7.080000 14.412886 -35.969555 1501.540161
7.040000 -1.200000 -7.040000 31.885494 -22.929459 1542.444824
7.040000 -1.200000 -7.000000 33.274097 -3.922688 1122.552979
7.040000 -1.200000 -6.960000 21.165447 5.548232 478.759033
7.040000 -1.200000 -6.920000 10.388115 -0.668323 108.359589
7.040000 -1.200000 -6.880000 13.941046 -12.705633 355.785889
7.040000 -1.200000 -6.840000 29.469467 -13.962976 1063.414185
7.040000 -1.200000 -6.800000 40.624557 1.780420 1653.524536
7.040000 -1.160000 -7.200000 -20.135742 -6.059704 442.168121
7.040000 -1.160000 -7.160000 -17.628399 -16.689281 589.292542
7.040000 -1.160000 -7.120000 -9.132556 -27.286787 827.972290
7.040000 -1.160000 -7.080000 5.191441 -32.238209 1066.253174
7.040000 -1.160000 -7.040000 19.359627 -28.202044 1170.150391
7.040000 -1.160000 -7.000000 26.915298 -18.819370 1078.602051
7.040000 -1.160000 -6.960000 27.936302 -11.419222 910.835571
7.040000 -1.160000 -6.920000 28.823832 -8.760347 907.557007
7.040000 -1.160000 -6.880000 34.180389 -5.664791 1200.388916
7.040000 -1.160000 -6.840000 40.001350 4.512543 1620.471069
7.040000 -1.160000 -6.800000 37.012333 20.262392 1780.477417
7.040000 -1.120000 -7.200000 -13.804939 -8.319380 259.788452
7.040000 -1.120000 -7.160000 -20.438053 -14.919208 640.296753
7.040000 -1.120000 -7.120000 -20.290518 -32.079159 1440.777466
7.040000 -1.120000 -7.080000 -4.699940 -49.704578 2492.634521
7.040000 -1.120000 -7.040000 22.428143 -54.252960 3446.405273
7.040000 -1.120000 -7.000000 47.757076 -40.897743 3953.363770
7.040000 -1.120000 -6.960000 59.954479 -16.781235 3876.149414
7.040000 -1.120000 -6.920000 57.608627 6.499199 3360.993408
7.040000 -1.120000 -6.880000 46.954285 22.202013 2697.634277
7.040000 -1.120000 -6.840000 34.158741 30.409008 2091.527344
7.040000 -1.120000 -6.800000 21.419216 33.142128 1557.183472
7.040000 -1.080000 -7.200000 -12.428808 -5.511148 184.848038
7.040000 -1.080000 -7.160000 -28.106831 -21.637276 1258.165527
7.040000 -1.080000 -7.120000 -23.970739 -54.273560 3520.215820
7.040000 -1.080000 -7.080000 9.764435 -79.888489 6477.514648
7.040000 -1.080000 -7.040000 58.648895 -75.089348 9078.103516
7.040000 -1.080000 -7.000000 94.242889 -37.101387 10258.235352
7.040000 -1.080000 -6.960000 96.794739 13.575111 9553.504883
7.040000 -1.080000 -6.920000 69.664581 50.072422 7360.401367
7.040000 -1.080000 -6.880000 33.646027 59.378288 4657.835938
7.040000 -1.080000 -6.840000 8.671134 48.368088 2414.660400
7.040000 -1.080000 -6.800000 0.370840 33.219231 1103.654907
7.040000 -1.040000 -7.200000 -16.124224 -6.104288 297.252930
7.040000 -1.040000 -7.160000 -27.584759 -38.560692 2247.845947
7.040000 -1.040000 -7.120000 -3.544269 -79.158356 6278.607422
7.040000 -1.040000 -7.080000 53.842388 -92.732628 11498.342773
7.040000 -1.040000 -7.040000 112.120224 -58.230740 15961.763672
7.040000 -1.040000 -7.000000 132.674698 10.695377 17716.966797
7.040000 -1.040000 -6.960000 102.099564 74.551270 15982.212891
7.040000 -1.040000 -6.920000 42.494904 99.033073 11613.366211
7.040000 -1.040000 -6.880000 -7.983542 80.473793 6539.768066
7.040000 -1.040000 -6.840000 -25.670391 44.115555 2605.151123
7.040000 -1.040000 -6.800000 -15.954377 19.515966 635.415100
7.040000 -1.000000 -7.200000 -17.084267 -12.502017 448.172607
7.040000 -1.000000 -7.160000 -10.724048 -52.793427 2902.151123
7.040000 -1.000000 -7.120000 35.767052 -81.934860 7992.603516
7.040000 -1.000000 -7.080000 101.719795 -65.546051 14643.201172
7.040000 -1.000000 -7.040000 142.608597 0.828650 20337.898438
7.040000 -1.000000 -7.000000 125.422813 82.206764 22488.833984
7.040000 -1.000000 -6.960000 57.594059 129.416534 20065.714844
7.040000 -1.000000 -6.920000 -17.850574 118.025360 14248.627930
7.040000 -1.000000 -6.880000 -57.126862 66.212791 7647.612305
7.040000 -1.000000 -6.840000 -49.200069 16.363520 2688.411621
7.040000 -1.000000 -6.800000 -18.953960 -1.326169 361.011353
7.040000 -0.960000 -7.200000 -10.565254 -17.574492 420.487366
7.040000 -0.960000 -7.160000 13.866042 -49.253906 2618.214355
7.040000 -0.960000 -7.120000 67.637489 -53.068352 7391.080078
7.040000 -0.960000 -7.080000 117.424515 -8.229933 13856.248047
7.040000 -0.960000 -7.040000 121.743568 69.004761 19583.152344
7.040000 -0.960000 -7.000000 67.140121 131.926376 21912.363281
7.040000 -0.960000 -6.960000 -16.362427 139.319672 19677.699219
7.040000 -0.960000 -6.920000 -77.316132 89.528931 13993.212891
7.040000 -0.960000 -6.880000 -83.908020 21.230362 7491.284180
7.040000 -0.960000 -6.840000 -47.266441 -19.897976 2630.045898
7.040000 -0.960000 -6.800000 -7.012125 -17.819643 366.709564
7.040000 -0.920000 -7.200000 -2.343205 -13.704003 193.290329
7.040000 -0.920000 -7.160000 27.027668 -27.849194 1506.072388
7.040000 -0.920000 -7.120000 68.333214 -10.496191 4779.598145
7.040000 -0.920000 -7.080000 88.297836 42.470856 9600.281250
7.040000 -0.920000 -7.040000 60.467350 102.737717 14211.338867
7.040000 -0.920000 -7.000000 -7.684647 127.989777 16440.437500
7.040000 -0.920000 -6.960000 -75.512665 97.172318 15144.621094
7.040000 -0.920000 -6.920000 -100.528595 30.190481 11017.462891
7.040000 -0.920000 -6.880000 -72.964554 -27.669870 6089.447754
7.040000 -0.920000 -6.840000 -21.880264 -43.183998 2343.603516
7.040000 -0.920000 -6.800000 12.229625 -20.261316 560.084656
7.040000 -0.880000 -7.200000 -3.001958 -3.673015 22.502790
7.040000 -0.880000 -7.160000 18.145538 -6.072025 366.130066
7.040000 -0.880000 -7.120000 39.740902 15.462635 1818.432373
7.040000 -0.880000 -7.080000 37.232670 55.247089 4438.512695
7.040000 -0.880000 -7.040000 -0.080452 85.715820 7347.208008
7.040000 -0.880000 -7.000000 -53.928787 79.007698 9150.530273
7.040000 -0.880000 -6.960000 -88.288246 33.201115 8897.128906
7.040000 -0.880000 -6.920000 -79.154778 -22.780216 6784.416992
7.040000 -0.880000 -6.880000 -35.430305 -52.298332 3990.421875
7.040000 -0.880000 -6.840000 9.210342 -41.306988 1791.097656
7.040000 -0.880000 -6.800000 25.803505 -7.782228 726.383911
7.040000 -0.840000 -7.200000 -14.860416 0.220558 220.880615
7.040000 -0.840000 -7.160000 -2.980522 -2.763428 16.520046
7.040000 -0.840000 -7.120000 7.812899 9.917665 159.401459
7.040000 -0.840000 -7.080000 1.306549 31.072886 967.231323
7.040000 -0.840000 -7.040000 -24.902641 40.452667 2256.559814
7.040000 -0.840000 -7.000000 -53.085201 23.575901 3373.861816
7.040000 -0.840000 -6.960000 -59.397217 -12.267059 3678.510010
7.040000 -0.840000 -6.920000 -35.861794 -42.034019 3052.927002
7.040000 -0.840000 -6.880000 1.357952 -44.385414 1971.908936
7.040000 -0.840000 -6.840000 25.970675 -20.133759 1079.844238
7.040000 -0.840000 -6.800000 24.271597 9.919245 687.501831
7.040000 -0.800000 -7.200000 -26.851624 -10.849749 838.726746
7.040000 -0.800000 -7.160000 -14.858820 -19.329035 594.396118
7.040000 -0.800000 -7.120000 -2.137280 -14.012106 200.907074
7.040000 -0.800000 -7.080000 -1.224522 -1.321756 3.246493
7.040000 -0.800000 -7.040000 -12.552834 4.234055 175.500839
7.040000 -0.800000 -7.000000 -23.247360 -4.987667 565.316589
7.040000 -0.800000 -6.960000 -19.875595 -21.321808 849.658752
7.040000 -0.800000 -6.920000 -2.173786 -28.863201 837.809692
7.040000 -0.800000 -6.880000 16.297514 -18.877926 621.985046
7.040000 -0.800000 -6.840000 20.984888 2.094540 444.752625
7.040000 -0.800000 -6.800000 9.323060 19.037006 449.327087
7.080000 -1.200000 -7.200000 -10.427808 -7.609686 166.646484
7.080000 -1.200000 -7.160000 -2.494706 -17.079487 297.932434
7.080000 -1.200000 -7.120000 11.590281 -22.180016 626.287720
7.080000 -1.200000 -7.080000 28.203987 -17.222168 1092.067993
7.080000 -1.200000 -7.040000 38.213650 -1.596337 1462.831421
7.080000 -1.200000 -7.000000 34.625599 16.260971 1463.351318
7.080000 -1.200000 -6.960000 20.726826 24.685154 1038.958130
7.080000 -1.200000 -6.920000 8.576954 19.943462 471.305847
7.080000 -1.200000 -6.880000 7.595506 10.557705 169.156845
7.080000 -1.200000 -6.840000 14.708766 8.744528 292.814575
7.080000 -1.200000 -6.800000 17.493681 17.077330 597.664062
7.080000 -1.160000 -7.200000 -4.384786 -10.518153 129.857895
7.080000 -1.160000 -7.160000 -0.710214 -14.451208 209.341827
7.080000 -1.160000 -7.120000 8.434612 -19.517437 452.073059
7.080000 -1.160000 -7.080000 23.135752 -17.775312 851.224731
7.080000 -1.160000 -7.040000 34.913391 -5.308483 1247.124756
7.080000 -1.160000 -7.000000 35.460373 11.697849 1394.277710
7.080000 -1.160000 -6.960000 26.027212 22.634785 1189.749268
7.080000 -1.160000 -6.920000 16.140469 23.586828 816.853149
7.080000 -1.160000 -6.880000 12.854511 20.817738 598.616699
7.080000 -1.160000 -6.840000 13.151046 22.329342 671.549561
7.080000 -1.160000 -6.800000 8.768738 27.450508 830.421143
7.080000 -1.120000 -7.200000 -1.954116 -6.819396 50.322723
7.080000 -1.120000 -7.160000 -5.878088 -14.421899 242.543091
7.080000 -1.120000 -7.120000 2.931908 -27.162777 746.412537
7.080000 -1.120000 -7.080000 24.406767 -29.881453 1488.591431
7.080000 -1.120000 -7.040000 44.891575 -14.630719 2229.311523
7.080000 -1.120000 -7.000000 50.214008 11.352158 2650.318115
7.080000 -1.120000 -6.960000 38.482460 32.955139 2566.940918
7.080000 -1.120000 -6.920000 19.849766 41.054848 2079.513672
7.080000 -1.120000 -6.880000 5.279152 38.303841 1495.053711
7.080000 -1.120000 -6.840000 -2.525028 32.595566 1068.846680
7.080000 -1.120000 -6.800000 -7.229480 27.615780 814.896667
7.080000 -1.080000 -7.200000 -6.395002 -5.291205 68.892906
7.080000 -1.080000 -7.160000 -9.936927 -24.274492 687.993469
7.080000 -1.080000 -7.120000 9.468378 -43.195244 1955.479248
7.080000 -1.080000 -7.080000 43.823746 -40.605473 3569.325195
7.080000 -1.080000 -7.040000 69.778175 -10.615829 4981.689453
7.080000 -1.080000 -7.000000 68.409698 31.099648 5647.074707
7.080000 -1.080000 -6.960000 40.692410 60.450474 5310.131836
7.080000 -1.080000 -6.920000 5.002281 64.197395 4146.328613
7.080000 -1.080000 -6.880000 -19.129337 47.859512 2656.464600
7.080000 -1.080000 -6.840000 -25.029119 27.352839 1374.634644
7.080000 -1.080000 -6.800000 -19.403358 14.835917 596.594727
7.080000 -1.040000 -7.200000 -10.110283 -11.764312 240.616852
7.080000 -1.040000 -7.160000 -1.272663 -38.211433 1461.733276
7.080000 -1.040000 -7.120000 33.555717 -50.837387 3710.426270
7.080000 -1.040000 -7.080000 74.146576 -30.011532 6398.406738
7.080000 -1.040000 -7.040000 90.428864 19.391659 8553.416016
7.080000 -1.040000 -7.000000 67.182068 69.330620 9320.165039
7.080000 -1.040000 -6.960000 17.050343 90.110214 8410.564453
7.080000 -1.040000 -6.920000 -29.614281 73.212875 6237.130859
7.080000 -1.040000 -6.880000 -48.683716 35.944664 3662.123047
7.080000 -1.040000 -6.840000 -38.936562 5.290424 1544.044434
7.080000 -1.040000 -6.800000 -18.618320 -3.443087 358.496704
7.080000 -1.000000 -7.200000 -4.452665 -20.452349 438.124786
7.080000 -1.000000 -7.160000 19.851334 -40.790596 2057.948242
7.080000 -1.000000 -7.120000 61.031239 -34.671162 4926.901367
7.080000 -1.000000 -7.080000 90.871063 6.603791 8301.160156
7.080000 -1.000000 -7.040000 82.474289 64.138374 10915.739258
7.080000 -1.000000 -7.000000 33.754265 102.619080 11670.026367
7.080000 -1.000000 -6.960000 -28.042366 97.347893 10262.986328
7.080000 -1.000000 -6.920000 -66.438271 54.105408 7341.439453
7.080000 -1.000000 -6.880000 -63.814323 4.152369 4089.510010
7.080000 -1.000000 -6.840000 -33.345375 -21.399361 1569.846680
7.080000 -1.000000 -6.800000 -5.160604 -15.302397 260.795166
7.080000 -0.960000 -7.200000 8.071839 -19.963860 463.710266
7.080000 -0.960000 -7.160000 37.551811 -23.761417 1974.743530
7.080000 -0.960000 -7.120000 68.410461 0.696524 4680.476562
7.080000 -0.960000 -7.080000 74.478081 48.877480 7935.992188
7.080000 -0.960000 -7.040000 41.118267 93.880058 10504.177734
7.080000 -0.960000 -7.000000 -18.578604 104.373497 11238.991211
7.080000 -0.960000 -6.960000 -69.784943 70.254021 9805.565430
7.080000 -0.960000 -6.920000 -81.991135 13.044610 6892.708008
7.080000 -0.960000 -6.880000 -53.345013 -30.142633 3754.268799
7.080000 -0.960000 -6.840000 -11.296400 -36.285320 1444.233154
7.080000 -0.960000 -6.800000 11.537240 -13.624634 318.738556
7.080000 -0.920000 -7.200000 14.567270 -7.669880 271.032410
7.080000 -0.920000 -7.160000 34.882969 2.092636 1221.200684
7.080000 -0.920000 -7.120000 45.993401 30.798193 3063.921387
7.080000 -0.920000 -7.080000 31.334213 66.886002 5455.570312
7.080000 -0.920000 -7.040000 -10.519447 85.977158 7502.730469
7.080000 -0.920000 -7.000000 -58.640175 69.310669 8242.638672
7.080000 -0.920000 -6.960000 -82.499619 22.076962 7293.579102
7.080000 -0.920000 -6.920000 -66.471100 -26.948887 5144.649902
7.080000 -0.920000 -6.880000 -24.082468 -47.280094 2815.372559
7.080000 -0.920000 -6.840000 12.627052 -31.702280 1164.477051
7.080000 -0.920000 -6.800000 20.315903 -1.230114 414.249084
7.080000 -0.880000 -7.200000 6.061728 4.708244 58.912117
7.080000 -0.880000 -7.160000 12.424885 14.941965 377.640076
7.080000 -0.880000 -7.120000 9.806492 32.823612 1173.556763
7.080000 -0.880000 -7.080000 -9.190258 48.321571 2419.435303
7.080000 -0.880000 -7.040000 -39.677910 46.022308 3692.389648
7.080000 -0.880000 -7.000000 -63.142212 19.497089 4367.075684
7.080000 -0.880000 -6.960000 -60.910595 -18.767866 4062.333496
7.080000 -0.880000 -6.920000 -31.601254 -44.269806 2958.454834
7.080000 -0.880000 -6.880000 5.073786 -40.551842 1670.195190
7.080000 -0.880000 -6.840000 24.057056 -13.979222 774.160583
7.080000 -0.880000 -6.800000 16.534773 11.881029 414.557556
7.080000 -0.840000 -7.200000 -10.468204 2.341321 115.065086
7.080000 -0.840000 -7.160000 -9.757837 3.310211 106.172882
7.080000 -0.840000 -7.120000 -11.619862 7.657347 193.656143
7.080000 -0.840000 -7.080000 -20.229984 10.281588 514.963318
7.080000 -0.840000 -7.040000 -31.846689 3.278093 1024.957520
7.080000 -0.840000 -7.000000 -35.466812 -14.208927 1459.788330
7.080000 -0.840000 -6.960000 -23.188549 -31.612972 1537.088867
7.080000 -0.840000 -6.920000 -0.008064 -34.808064 1211.601440
7.080000 -0.840000 -6.880000 18.382898 -19.638865 723.615967
7.080000 -0.840000 -6.840000 19.282106 2.910385 380.269958
7.080000 -0.840000 -6.800000 4.729823 16.292419 287.814148
7.080000 -0.800000 -7.200000 -17.083130 -15.857050 543.279358
7.080000 -0.800000 -7.160000 -10.715241 -21.223652 565.259766
7.080000 -0.800000 -7.120000 -3.607958 -20.437729 430.718140
7.080000 -0.800000 -7.080000 -0.766738 -16.570757 275.177887
7.080000 -0.800000 -7.040000 -1.392040 -15.108067 230.191452
7.080000 -0.800000 -7.000000 -0.182709 -17.146326 294.029877
7.080000 -0.800000 -6.960000 5.824200 -17.788597 350.355469
7.080000 -0.800000 -6.920000 12.824854 -11.880843 305.631317
7.080000 -0.800000 -6.880000 13.744555 -0.649801 189.335022
7.080000 -0.800000 -6.840000 5.940376 8.587917 109.040390
7.080000 -0.800000 -6.800000 -5.572638 9.633904 123.866409
7.120000 -1.200000 -7.200000 3.671326 -3.011530 22.547947
7.120000 -1.200000 -7.160000 7.254653 -3.161771 62.626793
7.120000 -1.200000 -7.120000 14.799675 -3.931748 234.489029
7.120000 -1.200000 -7.080000 25.996071 2.426000 681.681213
7.120000 -1.200000 -7.040000 31.272751 19.062008 1341.345093
7.120000 -1.200000 -7.000000 21.738903 37.308510 1864.504883
7.120000 -1.200000 -6.960000 0.753880 43.315224 1876.776978
7.120000 -1.200000 -6.920000 -17.122559 32.336067 1338.803223
7.120000 -1.200000 -6.880000 -20.081806 14.481947 613.005737
7.120000 -1.200000 -6.840000 -10.911772 4.528320 139.572449
7.120000 -1.200000 -6.800000 -3.115854 6.502255 51.987877
7.120000 -1.160000 -7.200000 5.124527 0.331274 26.370525
7.120000 -1.160000 -7.160000 4.116479 -1.250496 18.509142
7.120000 -1.160000 -7.120000 11.744952 -4.141649 155.097168
7.120000 -1.160000 -7.080000 24.232893 3.299367 598.118896
7.120000 -1.160000 -7.040000 28.014473 22.247799 1279.775269
7.120000 -1.160000 -7.000000 15.209302 39.943153 1826.778320
7.120000 -1.160000 -6.960000 -6.476940 42.523525 1850.201050
7.120000 -1.160000 -6.920000 -21.082325 29.685719 1325.706299
7.120000 -1.160000 -6.880000 -20.808846 14.534107 644.248291
7.120000 -1.160000 -6.840000 -12.923927 8.913439 246.477295
7.120000 -1.160000 -6.800000 -9.611499 11.205061 217.934296
7.120000 -1.120000 -7.200000 0.446359 2.839605 8.262591
7.120000 -1.120000 -7.160000 -1.181351 -5.508121 31.734982
7.120000 -1.120000 -7.120000 11.054379 -10.580402 234.144196
7.120000 -1.120000 -7.080000 26.650007 0.212908 710.268250
7.120000 -1.120000 -7.040000 28.899624 23.331535 1379.548828
7.120000 -1.120000 -7.000000 12.399407 42.149250 1930.304688
7.120000 -1.120000 -6.960000 -11.635902 43.551338 2032.113281
7.120000 -1.120000 -6.920000 -27.161865 29.909550 1632.348145
7.120000 -1.120000 -6.880000 -28.469585 14.428549 1018.700317
7.120000 -1.120000 -6.840000 -22.650715 6.666300 557.494446
7.120000 -1.120000 -6.800000 -18.648529 4.921523 371.989014
7.120000 -1.080000 -7.200000 -5.213599 -2.414159 33.009781
7.120000 -1.080000 -7.160000 0.628851 -16.058010 258.255127
7.120000 -1.080000 -7.120000 20.394072 -17.372980 717.738586
7.120000 -1.080000 -7.080000 36.761311 1.675739 1354.202026
7.120000 -1.080000 -7.040000 33.121887 30.515945 2028.282349
7.120000 -1.080000 -7.000000 8.830433 49.359138 2514.301025
7.120000 -1.080000 -6.960000 -20.861141 46.517120 2599.029785
7.120000 -1.080000 -6.920000 -38.791737 26.903076 2228.574219
7.120000 -1.080000 -6.880000 -39.256519 5.217747 1568.299194
7.120000 -1.080000 -6.840000 -29.047428 -7.295244 896.973633
7.120000 -1.080000 -6.800000 -18.284534 -9.391644 422.527161
7.120000 -1.040000 -7.200000 -2.259889 -12.509432 161.592987
7.120000 -1.040000 -7.160000 14.385279 -22.192204 699.430176
7.120000 -1.040000 -7.120000 37.007751 -12.265008 1520.004028
7.120000 -1.040000 -7.080000 46.170189 16.308861 2397.665283
7.120000 -1.040000 -7.040000 30.419071 46.527618 3090.139160
7.120000 -1.040000 -7.000000 -3.771864 58.351818 3419.161621
7.120000 -1.040000 -6.960000 -36.801029 44.170273 3305.328857
7.120000 -1.040000 -6.920000 -50.845894 13.839594 2776.839355
7.120000 -1.040000 -6.880000 -42.161453 -13.834494 1968.981323
7.120000 -1.040000 -6.840000 -21.669641 -25.096800 1099.422729
7.120000 -1.040000 -6.800000 -5.109606 -19.477991 405.500214
7.120000 -1.000000 -7.200000 10.617342 -15.841549 363.682617
7.120000 -1.000000 -7.160000 31.173006 -12.641157 1131.555176
7.120000 -1.000000 -7.120000 45.841232 9.061941 2183.537109
7.120000 -1.000000 -7.080000 40.193275 39.897789 3207.333008
7.120000 -1.000000 -7.040000 11.696749 61.186974 3880.659668
7.120000 -1.000000 -7.000000 -26.377316 57.655178 4019.882324
7.120000 -1.000000 -6.960000 -52.803478 29.127424 3636.614258
7.120000 -1.000000 -6.920000 -53.098389 -8.166842 2886.136230
7.120000 -1.000000 -6.880000 -30.141718 -32.635853 1973.622070
7.120000 -1.000000 -6.840000 -2.013541 -32.915146 1087.461182
7.120000 -1.000000 -6.800000 11.873400 -15.861591 392.567688
7.120000 -0.960000 -7.200000 22.121033 -5.254734 516.952332
7.120000 -0.960000 -7.160000 34.298302 10.000092 1276.375366
7.120000 -0.960000 -7.120000 33.216228 33.862656 2249.997314
7.120000 -0.960000 -7.080000 13.929476 54.571579 3172.087402
7.120000 -0.960000 -7.040000 -18.145432 58.388561 3738.480713
7.120000 -0.960000 -7.000000 -47.471832 38.717239 3752.599609
7.120000 -0.960000 -6.960000 -56.816952 3.159170 3238.146484
7.120000 -0.960000 -6.920000 -39.844765 -28.832752 2418.932861
7.120000 -0.960000 -6.880000 -7.885351 -38.900646 1575.438965
7.120000 -0.960000 -6.840000 17.105064 -24.336128 884.830322
7.120000 -0.960000 -6.800000 19.734085 -1.124891 390.699493
7.120000 -0.920000 -7.200000 19.300726 11.703117 509.480988
7.120000 -0.920000 -7.160000 16.590780 27.950144 1056.464478
7.120000 -0.920000 -7.120000 3.076184 41.094467 1698.218140
7.120000 -0.920000 -7.080000 -18.404743 44.226921 2294.755127
7.120000 -0.920000 -7.040000 -40.210175 32.361099 2664.098877
7.120000 -0.920000 -7.000000 -50.997574 6.856222 2647.760254
7.120000 -0.920000 -6.960000 -42.084984 -21.419260 2229.930664
7.120000 -0.920000 -6.920000 -16.020329 -36.495186 1588.549561
7.120000 -0.920000 -6.880000 11.753529 -29.127930 986.581726
7.120000 -0.920000 -6.840000 23.306499 -6.305806 582.956116
7.120000 -0.920000 -6.800000 13.660694 12.678690 347.363739
7.120000 -0.880000 -7.200000 2.700007 18.560966 351.799530
7.120000 -0.880000 -7.160000 -9.369047 24.296207 678.084778
7.120000 -0.880000 -7.120000 -22.787172 21.739557 991.863586
7.120000 -0.880000 -7.080000 -33.181511 11.843580 1241.283081
7.120000 -0.880000 -7.040000 -37.037220 -3.429450 1383.516724
7.120000 -0.880000 -7.000000 -30.935509 -20.026443 1358.064087
7.120000 -0.880000 -6.960000 -14.387632 -30.461071 1134.880859
7.120000 -0.880000 -6.920000 6.085218 -27.378513 786.612915
7.120000 -0.880000 -6.880000 18.633633 -11.022583 468.709625
7.120000 -0.880000 -6.840000 15.299109 7.790596 294.756104
7.120000 -0.880000 -6.800000 0.670651 15.325757 235.328598
7.120000 -0.840000 -7.200000 -11.777563 7.234944 191.055420
7.120000 -0.840000 -7.160000 -21.112576 1.000463 446.741760
7.120000 -0.840000 -7.120000 -23.601233 -10.103997 659.108948
7.120000 -0.840000 -7.080000 -18.685999 -20.120045 753.982788
7.120000 -0.840000 -7.040000 -9.242642 -25.517805 736.584839
7.120000 -0.840000 -7.000000 1.682778 -25.253632 640.577637
7.120000 -0.840000 -6.960000 11.292610 -19.048084 490.352570
7.120000 -0.840000 -6.920000 15.931671 -7.875562 315.842621
7.120000 -0.840000 -6.880000 12.476635 4.013497 171.774597
7.120000 -0.840000 -6.840000 2.254148 10.063998 106.365242
7.120000 -0.840000 -6.800000 -7.732161 6.870878 106.995277
7.120000 -0.800000 -7.200000 -8.250734 -11.659399 204.016205
7.120000 -0.800000 -7.160000 -8.059830 -20.820751 498.464539
7.120000 -0.800000 -7.120000 0.211203 -28.523209 813.618042
7.120000 -0.800000 -7.080000 13.007442 -28.721817 994.136292
7.120000 -0.800000 -7.040000 23.584887 -20.263874 966.871460
7.120000 -0.800000 -7.000000 26.775372 -7.052163 766.653564
7.120000 -0.800000 -6.960000 21.629221 4.974244 492.566315
7.120000 -0.800000 -6.920000 11.137729 11.092644 247.095749
7.120000 -0.800000 -6.880000 0.378034 9.718760 94.597191
7.120000 -0.800000 -6.840000 -5.881444 2.983885 43.494957
7.120000 -0.800000 -6.800000 -5.734424 -4.193321 50.467552
7.160000 -1.200000 -7.200000 4.924025 10.740756 139.609863
7.160000 -1.200000 -7.160000 0.021868 9.663918 93.391785
7.160000 -1.200000 -7.120000 4.349171 5.768063 52.185837
7.160000 -1.200000 -7.080000 14.344155 12.305284 357.174805
7.160000 -1.200000 -7.040000 14.542130 30.942951 1168.939819
7.160000 -1.200000 -7.000000 -4.373118 46.460022 2177.657959
7.160000 -1.200000 -6.960000 -32.433300 41.563934 2779.479492
7.160000 -1.200000 -6.920000 -48.192162 16.055599 2580.266602
7.160000 -1.200000 -6.880000 -40.055073 -11.357436 1733.400146
7.160000 -1.200000 -6.840000 -17.883175 -21.508286 782.414307
7.160000 -1.200000 -6.800000 -1.889772 -13.514410 186.210526
7.160000 -1.160000 -7.200000 -1.058463 12.848936 166.215500
7.160000 -1.160000 -7.160000 -5.204997 6.909993 74.839996
7.160000 -1.160000 -7.120000 2.722289 4.112767 24.325712
7.160000 -1.160000 -7.080000 11.063816 15.702620 368.980286
7.160000 -1.160000 -7.040000 3.662869 34.812973 1225.359741
7.160000 -1.160000 -7.000000 -20.511013 42.294132 2209.495117
7.160000 -1.160000 -6.960000 -43.988155 27.382036 2684.733643
7.160000 -1.160000 -6.920000 -48.143711 0.119395 2317.831055
7.160000 -1.160000 -6.880000 -32.205956 -18.638012 1384.598999
7.160000 -1.160000 -6.840000 -12.864604 -18.499105 507.714905
7.160000 -1.160000 -6.800000 -5.453754 -8.414406 100.545662
7.160000 -1.120000 -7.200000 -7.973719 7.984527 127.332863
7.160000 -1.120000 -7.160000 -6.619157 -0.882311 44.591717
7.160000 -1.120000 -7.120000 4.041263 0.522436 16.604748
7.160000 -1.120000 -7.080000 7.875957 15.764694 310.556274
7.160000 -1.120000 -7.040000 -5.856387 31.218889 1008.916260
7.160000 -1.120000 -7.000000 -29.841412 30.273155 1806.973755
7.160000 -1.120000 -6.960000 -45.653465 10.980685 2204.814209
7.160000 -1.120000 -6.920000 -42.368908 -12.110472 1941.787964
7.160000 -1.120000 -6.880000 -26.398262 -23.215368 1235.821533
7.160000 -1.120000 -6.840000 -12.699812 -20.255507 571.570801
7.160000 -1.120000 -6.800000 -8.579700 -13.549716 257.206055
7.160000 -1.080000 -7.200000 -7.406301 -2.440103 60.807388
7.160000 -1.080000 -7.160000 0.869802 -7.848759 62.359566
7.160000 -1.080000 -7.120000 10.346323 0.184424 107.080414
7.160000 -1.080000 -7.080000 7.376271 16.281193 319.486603
7.160000 -1.080000 -7.040000 -10.217760 25.521486 755.748901
7.160000 -1.080000 -7.000000 -30.787336 18.130386 1276.571045
7.160000 -1.080000 -6.960000 -40.123287 -1.619718 1612.501709
7.160000 -1.080000 -6.920000 -34.034489 -20.540987 1580.278564
7.160000 -1.080000 -6.880000 -19.916359 -28.944458 1234.442993
7.160000 -1.080000 -6.840000 -7.737352 -27.195242 799.447815
7.160000 -1.080000 -6.800000 -1.498433 -21.467878 463.115112
7.160000 -1.040000 -7.200000 3.727879 -8.444909 85.213570
7.160000 -1.040000 -7.160000 13.627937 -4.485238 205.838028
7.160000 -1.040000 -7.120000 15.958719 8.639545 329.322479
7.160000 -1.040000 -7.080000 5.451326 20.915257 467.164917
7.160000 -1.040000 -7.040000 -12.907776 22.148193 657.153137
7.160000 -1.040000 -7.000000 -28.274853 9.974237 898.952698
7.160000 -1.040000 -6.960000 -32.265293 -9.268391 1126.952271
7.160000 -1.040000 -6.920000 -23.901419 -25.953501 1244.862061
7.160000 -1.040000 -6.880000 -8.663042 -33.289154 1183.216064
7.160000 -1.040000 -6.840000 5.699528 -30.071407 936.774170
7.160000 -1.040000 -6.800000 13.005961 -20.078943 572.318970
7.160000 -1.000000 -7.200000 16.925579 -1.252098 288.042969
7.160000 -1.000000 -7.160000 19.280060 11.220259 497.614899
7.160000 -1.000000 -7.120000 10.855990 22.632515 630.083252
7.160000 -1.000000 -7.080000 -4.236065 25.634657 675.079895
7.160000 -1.000000 -7.040000 -18.727716 18.204317 682.124512
7.160000 -1.000000 -7.000000 -26.487864 3.080791 711.098206
7.160000 -1.000000 -6.960000 -24.183857 -14.387669 791.863953
7.160000 -1.000000 -6.920000 -11.880739 -27.566322 901.054077
7.160000 -1.000000 -6.880000 5.788609 -30.367107 955.669189
7.160000 -1.000000 -6.840000 19.972904 -21.224091 849.378906
7.160000 -1.000000 -6.800000 22.463295 -6.445565 546.144897
7.160000 -0.960000 -7.200000 18.872337 15.731567 603.647339
7.160000 -0.960000 -7.160000 8.250120 28.065836 855.755615
7.160000 -0.960000 -7.120000 -7.813743 29.268644 917.708130
7.160000 -0.960000 -7.080000 -20.248024 20.358536 824.452454
7.160000 -0.960000 -7.040000 -25.197247 6.933138 682.969666
7.160000 -0.960000 -7.000000 -23.012346 -6.781714 575.559692
7.160000 -0.960000 -6.960000 -14.161200 -18.258387 533.908264
7.160000 -0.960000 -6.920000 0.591381 -23.597847 557.208130
7.160000 -0.960000 -6.880000 16.301376 -18.455193 606.328979
7.160000 -0.960000 -6.840000 23.934422 -4.084050 589.535950
7.160000 -0.960000 -6.800000 18.118807 9.562190 419.726654
7.160000 -0.920000 -7.200000 5.465051 28.087753 818.788635
7.160000 -0.920000 -7.160000 -14.440237 30.124798 1116.023926
7.160000 -0.920000 -7.120000 -28.806080 17.441557 1133.998169
7.160000 -0.920000 -7.080000 -30.371277 0.271181 922.487976
7.160000 -0.920000 -7.040000 -22.447193 -12.041506 648.874390
7.160000 -0.920000 -7.000000 -11.524576 -17.523693 439.895691
7.160000 -0.920000 -6.960000 -0.437874 -18.021843 324.978577
7.160000 -0.920000 -6.920000 10.192549 -13.465252 285.201050
7.160000 -0.920000 -6.880000 16.967497 -2.935437 296.512726
7.160000 -0.920000 -6.840000 14.755838 9.650878 310.874207
7.160000 -0.920000 -6.800000 4.193228 15.339461 252.882233
7.160000 -0.880000 -7.200000 -12.202240 24.309349 739.839111
7.160000 -0.880000 -7.160000 -31.060177 12.729086 1126.764160
7.160000 -0.880000 -7.120000 -34.410423 -9.000722 1265.090210
7.160000 -0.880000 -7.080000 -21.669804 -25.242201 1106.749023
7.160000 -0.880000 -7.040000 -3.647053 -27.821337 787.327759
7.160000 -0.880000 -7.000000 9.220705 -19.912344 481.522827
7.160000 -0.880000 -6.960000 14.139752 -8.916057 279.428650
7.160000 -0.880000 -6.920000 13.343872 0.915065 178.896271
7.160000 -0.880000 -6.880000 8.531944 8.396091 143.288422
7.160000 -0.880000 -6.840000 0.607295 11.559694 133.995331
7.160000 -0.880000 -6.800000 -6.639866 8.120813 110.035431
7.160000 -0.840000 -7.200000 -17.876377 8.473869 391.371307
7.160000 -0.840000 -7.160000 -27.269213 -10.761276 859.415039
7.160000 -0.840000 -7.120000 -17.349812 -31.450840 1290.171265
7.160000 -0.840000 -7.080000 5.235951 -37.774246 1454.308838
7.160000 -0.840000 -7.040000 24.778616 -26.174068 1299.061646
7.160000 -0.840000 -7.000000 30.184599 -6.056797 947.794800
7.160000 -0.840000 -6.960000 21.864813 10.002106 578.112183
7.160000 -0.840000 -6.920000 7.981613 15.539431 305.180054
7.160000 -0.840000 -6.880000 -3.319958 11.800232 150.267593
7.160000 -0.840000 -6.840000 -8.029478 3.781216 78.770119
7.160000 -0.840000 -6.800000 -5.986215 -3.240384 46.334854
7.160000 -0.800000 -7.200000 -6.893774 -2.614063 54.357449
7.160000 -0.800000 -7.160000 -6.961305 -20.217848 457.221130
7.160000 -0.800000 -7.120000 10.176394 -32.458675 1157.124512
7.160000 -0.800000 -7.080000 33.380543 -26.383778 1810.364258
7.160000 -0.800000 -7.040000 45.418045 -3.655328 2076.160156
7.160000 -0.800000 -7.000000 37.448719 21.035156 1844.884399
7.160000 -0.800000 -6.960000 15.496566 32.259731 1280.833862
7.160000 -0.800000 -6.920000 -5.528416 25.446209 678.072876
7.160000 -0.800000 -6.880000 -13.746634 8.631094 263.465729
7.160000 -0.800000 -6.840000 -8.036984 -5.258776 92.247841
7.160000 -0.800000 -6.800000 3.200581 -8.156315 76.769196
7.200000 -1.200000 -7.200000 -7.620419 17.946255 380.138824
7.200000 -1.200000 -7.160000 -14.062290 8.100243 263.361938
7.200000 -1.200000 -7.120000 -5.781245 1.475343 35.599426
7.200000 -1.200000 -7.080000 3.998618 11.392385 145.775406
7.200000 -1.200000 -7.040000 -3.780328 30.339725 934.789856
7.200000 -1.200000 -7.000000 -30.805809 35.688404 2222.660156
7.200000 -1.200000 -6.960000 -56.066719 14.064045 3341.274414
7.200000 -1.200000 -6.920000 -55.967209 -22.252563 3627.504883
7.200000 -1.200000 -6.880000 -28.815372 -45.905712 2937.660156
7.200000 -1.200000 -6.840000 3.091534 -41.421783 1725.321777
7.200000 -1.200000 -6.800000 16.277908 -19.605768 649.356445
7.200000 -1.160000 -7.200000 -16.199219 12.795106 426.129395
7.200000 -1.160000 -7.160000 -16.610678 0.911762 276.745911
7.200000 -1.160000 -7.120000 -6.205489 -0.283108 38.588245
7.200000 -1.160000 -7.080000 -3.176679 13.252803 185.728073
7.200000 -1.160000 -7.040000 -19.259989 25.392187 1015.710327
7.200000 -1.160000 -7.000000 -44.259216 17.050369 2249.593262
7.200000 -1.160000 -6.960000 -54.941452 -11.747177 3156.559326
7.200000 -1.160000 -6.920000 -39.314556 -39.917831 3139.067383
7.200000 -1.160000 -6.880000 -9.530953 -46.305672 2235.054443
7.200000 -1.160000 -6.840000 10.858700 -30.706629 1060.808350
7.200000 -1.160000 -6.800000 11.025871 -12.074635 267.366638
7.200000 -1.120000 -7.200000 -17.532242 1.597240 309.930695
7.200000 -1.120000 -7.160000 -12.191702 -6.378765 189.326233
7.200000 -1.120000 -7.120000 -4.903457 -1.810352 27.321264
7.200000 -1.120000 -7.080000 -9.789240 9.214135 180.729492
7.200000 -1.120000 -7.040000 -27.142448 10.410262 845.086060
7.200000 -1.120000 -7.000000 -41.578457 -6.256898 1767.916870
7.200000 -1.120000 -6.960000 -37.957066 -30.677589 2381.853271
7.200000 -1.120000 -6.920000 -17.440571 -44.409302 2276.359619
7.200000 -1.120000 -6.880000 3.948478 -39.269241 1557.663818
7.200000 -1.120000 -6.840000 12.187979 -24.275215 737.832886
7.200000 -1.120000 -6.800000 8.376740 -14.109051 269.235077
7.200000 -1.080000 -7.200000 -8.078842 -6.534601 107.968704
7.200000 -1.080000 -7.160000 -2.573551 -6.579765 49.916473
7.200000 -1.080000 -7.120000 -2.796690 -0.229306 7.874056
7.200000 -1.080000 -7.080000 -12.174423 2.894451 156.594437
7.200000 -1.080000 -7.040000 -23.265053 -4.985377 566.116699
7.200000 -1.080000 -7.000000 -25.218159 -21.041559 1078.702759
7.200000 -1.080000 -6.960000 -14.828211 -34.430222 1405.316040
7.200000 -1.080000 -6.920000 0.739456 -36.985958 1368.507812
7.200000 -1.080000 -6.880000 11.788202 -30.189384 1050.360596
7.200000 -1.080000 -6.840000 15.094020 -21.582020 693.613037
7.200000 -1.080000 -6.800000 14.459047 -16.030079 466.027496
7.200000 -1.040000 -7.200000 5.335181 -2.584476 35.143673
7.200000 -1.040000 -7.160000 3.501020 3.220870 22.631147
7.200000 -1.040000 -7.120000 -4.530899 4.703233 42.649445
7.200000 -1.040000 -7.080000 -12.196132 -1.922985 152.443512
7.200000 -1.040000 -7.040000 -12.997881 -13.083134 340.113281
7.200000 -1.040000 -7.000000 -6.484309 -21.929783 522.961609
7.200000 -1.040000 -6.960000 2.674792 -24.937437 629.030334
7.200000 -1.040000 -6.920000 10.329069 -23.630424 665.086670
7.200000 -1.040000 -6.880000 16.072842 -20.628628 683.876526
7.200000 -1.040000 -6.840000 20.791708 -16.032097 689.323242
7.200000 -1.040000 -6.800000 22.983559 -8.960449 608.533630
7.200000 -1.000000 -7.200000 10.235008 12.329633 256.775238
7.200000 -1.000000 -7.160000 -2.434997 16.184963 267.882233
7.200000 -1.000000 -7.120000 -13.388839 7.363030 233.475220
7.200000 -1.000000 -7.080000 -13.308890 -6.584449 220.481522
7.200000 -1.000000 -7.040000 -4.077075 -14.863764 237.554016
7.200000 -1.000000 -7.000000 5.282957 -14.564981 240.048325
7.200000 -1.000000 -6.960000 9.558292 -11.422007 221.823181
7.200000 -1.000000 -6.920000 11.852835 -10.705561 255.098724
7.200000 -1.000000 -6.880000 16.978138 -10.352039 395.421875
7.200000 -1.000000 -6.840000 23.153877 -4.981179 560.914185
7.200000 -1.000000 -6.800000 23.336035 4.795985 567.571960
7.200000 -0.960000 -7.200000 0.568344 26.274529 690.673828
7.200000 -0.960000 -7.160000 -19.085392 20.017107 764.936768
7.200000 -0.960000 -7.120000 -25.209354 0.308773 635.606873
7.200000 -0.960000 -7.080000 -13.998440 -15.419896 433.729492
7.200000 -0.960000 -7.040000 2.338408 -16.440186 275.747833
7.200000 -0.960000 -7.000000 10.577112 -7.849914 173.496445
7.200000 -0.960000 -6.960000 9.927679 -1.469466 100.718147
7.200000 -0.960000 -6.920000 9.239595 -1.204823 86.821724
7.200000 -0.960000 -6.880000 13.462976 -0.535079 181.538055
7.200000 -0.960000 -6.840000 17.165001 6.234878 333.510956
7.200000 -0.960000 -6.800000 13.017763 14.481816 379.185181
7.200000 -0.920000 -7.200000 -16.416496 27.413940 1021.025452
7.200000 -0.920000 -7.160000 -34.347954 8.519820 1252.369263
7.200000 -0.920000 -7.120000 -29.459593 -17.084545 1159.749268
7.200000 -0.920000 -7.080000 -7.570897 -28.158905 850.242432
7.200000 -0.920000 -7.040000 11.872221 -19.496403 521.059326
7.200000 -0.920000 -7.000000 16.477741 -3.630810 284.698730
7.200000 -0.920000 -6.960000 10.601492 5.412210 141.683655
7.200000 -0.920000 -6.920000 5.772079 6.099257 70.517838
7.200000 -0.920000 -6.880000 5.941551 6.346916 75.585373
7.200000 -0.920000 -6.840000 5.533847 10.271908 136.135559
7.200000 -0.920000 -6.800000 0.461311 12.881684 166.150604
7.200000 -0.880000 -7.200000 -26.667351 15.908596 964.231018
7.200000 -0.880000 -7.160000 -35.608971 -11.070282 1390.549927
7.200000 -0.880000 -7.120000 -18.622276 -34.923767 1566.458740
7.200000 -0.880000 -7.080000 9.955345 -36.425087 1425.895874
7.200000 -0.880000 -7.040000 27.915630 -17.339973 1079.957031
7.200000 -0.880000 -7.000000 25.964645 4.775492 696.968079
7.200000 -0.880000 -6.960000 12.501421 15.305887 390.555725
7.200000 -0.880000 -6.920000 0.974248 13.860258 193.055908
7.200000 -0.880000 -6.880000 -3.429986 8.878510 90.592743
7.200000 -0.880000 -6.840000 -4.107570 5.826833 50.824112
7.200000 -0.880000 -6.800000 -4.252361 3.829525 32.747837
7.200000 -0.840000 -7.200000 -23.337446 4.013777 560.746826
7.200000 -0.840000 -7.160000 -22.106909 -23.602043 1045.771851
7.200000 -0.840000 -7.120000 2.917548 -39.934616 1603.285645
7.200000 -0.840000 -7.080000 32.318596 -30.231720 1958.448608
7.200000 -0.840000 -7.040000 43.964825 -2.145922 1937.510742
7.200000 -0.840000 -7.000000 32.010262 23.320324 1568.494385
7.200000 -0.840000 -6.960000 8.823072 30.968681 1036.905762
7.200000 -0.840000 -6.920000 -8.708113 21.743237 548.599548
7.200000 -0.840000 -6.880000 -12.880140 7.321540 219.502960
7.200000 -0.840000 -6.840000 -7.282221 -1.834448 56.395939
7.200000 -0.840000 -6.800000 0.258002 -2.724211 7.487889
7.200000 -0.800000 -7.200000 -13.881455 3.640747 205.949844
7.200000 -0.800000 -7.160000 -6.543052 -20.136421 448.286987
7.200000 -0.800000 -7.120000 20.650478 -27.858688 1202.548828
7.200000 -0.800000 -7.080000 45.642658 -8.958831 2163.512939
7.200000 -0.800000 -7.040000 47.282310 24.130810 2817.912842
7.200000 -0.800000 -7.000000 23.680716 47.379120 2805.557373
7.200000 -0.800000 -6.960000 -7.520221 45.836086 2157.500488
7.200000 -0.800000 -6.920000 -25.259710 24.516224 1239.098145
7.200000 -0.800000 -6.880000 -21.768635 1.592852 476.410645
7.200000 -0.800000 -6.840000 -5.939640 -7.673266 94.158340
7.200000 -0.800000 -6.800000 6.742838 -1.592168 48.000870
