#kx 	ky 	kz 	real 	imag 	intensity
1.800000 3.800000 3.800000 -5.051128 -4.826870 48.812572
1.800000 3.800000 3.840000 -6.920537 -3.140428 57.756111
1.800000 3.800000 3.880000 -10.886995 -5.801837 152.187973
1.800000 3.800000 3.920000 -11.348783 -13.598932 313.725830
1.800000 3.800000 3.960000 -4.017935 -21.556332 480.819244
1.800000 3.800000 4.000000 9.219250 -22.458870 589.395386
1.800000 3.800000 4.040000 20.795084 -13.347823 610.599915
1.800000 3.800000 4.080000 23.536785 1.321151 555.725647
1.800000 3.800000 4.120000 16.706293 13.266173 455.091553
1.800000 3.800000 4.160000 6.083328 17.425097 340.640869
1.800000 3.800000 4.200000 -1.952791 15.430778 241.922302
1.800000 3.840000 3.800000 -5.124734 -10.200098 130.304901
1.800000 3.840000 3.840000 -6.269855 -8.828501 117.253517
1.800000 3.840000 3.880000 -8.591680 -12.049709 219.012451
1.800000 3.840000 3.920000 -6.036254 -18.836180 391.238037
1.800000 3.840000 3.960000 3.493598 -22.512550 519.020142
1.800000 3.840000 4.000000 14.647604 -17.318872 514.495605
1.800000 3.840000 4.040000 19.053051 -4.929862 387.322266
1.800000 3.840000 4.080000 13.534929 6.361541 223.663513
1.800000 3.840000 4.120000 3.413795 9.522192 102.326141
1.800000 3.840000 4.160000 -2.996847 5.542660 39.702171
1.800000 3.840000 4.200000 -2.961627 1.619156 11.392898
1.800000 3.880000 3.800000 0.735128 -17.057049 291.483307
1.800000 3.880000 3.840000 0.771697 -14.964166 224.521774
1.800000 3.880000 3.880000 0.317867 -16.988201 288.700012
1.800000 3.880000 3.920000 4.316003 -20.500706 438.906799
1.800000 3.880000 3.960000 12.106078 -19.606909 530.988037
1.800000 3.880000 4.000000 17.586273 -12.342461 461.613342
1.800000 3.880000 4.040000 16.000126 -3.620404 269.111359
1.800000 3.880000 4.080000 9.693132 -0.128856 93.973419
1.800000 3.880000 4.120000 5.792610 -2.668150 40.673355
1.800000 3.880000 4.160000 7.979431 -4.964493 88.317513
1.800000 3.880000 4.200000 11.680314 -0.957026 137.345627
1.800000 3.920000 3.800000 13.291708 -18.154453 506.253662
1.800000 3.920000 3.840000 13.270926 -13.853800 368.045227
1.800000 3.920000 3.880000 12.667017 -13.397423 339.944275
1.800000 3.920000 3.920000 14.901638 -13.900345 415.278412
1.800000 3.920000 3.960000 18.478724 -11.788913 480.441711
1.800000 3.920000 4.000000 19.851980 -7.568448 451.382507
1.800000 3.920000 4.040000 18.740498 -4.769485 373.954224
1.800000 3.920000 4.080000 18.812872 -4.479784 373.992615
1.800000 3.920000 4.120000 22.419537 -2.738319 510.134003
1.800000 3.920000 4.160000 25.786648 5.012669 690.078064
1.800000 3.920000 4.200000 21.521839 16.907936 749.067871
1.800000 3.960000 3.800000 25.385878 -8.007166 708.557495
1.800000 3.960000 3.840000 22.522179 -1.816781 510.549225
1.800000 3.960000 3.880000 19.090687 -0.322454 364.558289
1.800000 3.960000 3.920000 17.985313 -1.090048 324.659698
1.800000 3.960000 3.960000 19.008162 -1.769966 364.442993
1.800000 3.960000 4.000000 21.504747 -1.743429 465.493713
1.800000 3.960000 4.040000 25.860180 -0.153793 668.772583
1.800000 3.960000 4.080000 31.350746 5.653550 1014.831909
1.800000 3.960000 4.120000 33.533146 17.580151 1433.533691
1.800000 3.960000 4.160000 26.255478 32.195145 1725.877441
1.800000 3.960000 4.200000 8.102568 40.310097 1690.555542
1.800000 4.000000 3.800000 27.071651 10.133432 835.560791
1.800000 4.000000 3.840000 19.551111 15.032358 608.217712
1.800000 4.000000 3.880000 13.038267 13.842701 361.616791
1.800000 4.000000 3.920000 10.827303 9.399994 205.590378
1.800000 4.000000 3.960000 13.851478 5.318167 220.146332
1.800000 4.000000 4.000000 21.113144 5.346034 474.344910
1.800000 4.000000 4.040000 28.988867 12.695985 1001.542419
1.800000 4.000000 4.080000 31.103659 27.524054 1725.011108
1.800000 4.000000 4.120000 21.444614 44.181427 2411.870117
1.800000 4.000000 4.160000 0.042017 52.464645 2752.540771
1.800000 4.000000 4.200000 -24.131031 44.338497 2548.208984
1.800000 4.040000 3.800000 14.863051 25.366928 864.391296
1.800000 4.040000 3.840000 4.323251 24.874996 637.455933
1.800000 4.040000 3.880000 -1.837194 18.273668 337.302216
1.800000 4.040000 3.920000 -0.579150 10.219423 104.772034
1.800000 4.040000 3.960000 7.543893 6.647847 101.104187
1.800000 4.040000 4.000000 17.593386 12.356178 462.202362
1.800000 4.040000 4.040000 21.326405 27.455923 1208.643188
1.800000 4.040000 4.080000 11.760871 45.003986 2163.676758
1.800000 4.040000 4.120000 -10.735100 53.458622 2973.066650
1.800000 4.040000 4.160000 -36.148411 44.314911 3270.519043
1.800000 4.040000 4.200000 -50.154137 19.572712 2898.528564
1.800000 4.080000 3.800000 -4.339046 28.126894 809.949524
1.800000 4.080000 3.840000 -13.219018 20.709763 603.636719
1.800000 4.080000 3.880000 -14.268091 9.914875 301.883179
1.800000 4.080000 3.920000 -6.737166 2.469582 51.488247
1.800000 4.080000 3.960000 4.723998 4.599535 43.471878
1.800000 4.080000 4.000000 11.104856 17.535770 430.821075
1.800000 4.080000 4.040000 4.213896 34.536243 1210.509033
1.800000 4.080000 4.080000 -16.425371 43.428383 2155.817139
1.800000 4.080000 4.120000 -40.888126 34.838928 2885.589844
1.800000 4.080000 4.160000 -54.368286 10.284286 3061.677246
1.800000 4.080000 4.200000 -47.911770 -17.317577 2595.436035
1.800000 4.120000 3.800000 -19.068363 18.297401 698.397339
1.800000 4.120000 3.840000 -21.917973 6.553437 523.345093
1.800000 4.120000 3.880000 -15.715903 -3.693511 260.631622
1.800000 4.120000 3.920000 -3.753720 -5.433396 43.612206
1.800000 4.120000 3.960000 5.347278 4.095933 45.370049
1.800000 4.120000 4.000000 2.589803 19.506126 387.196045
1.800000 4.120000 4.040000 -13.960829 29.010473 1036.512329
1.800000 4.120000 4.080000 -35.573647 22.545607 1773.788818
1.800000 4.120000 4.120000 -47.761513 0.497863 2281.409912
1.800000 4.120000 4.160000 -41.124741 -25.010880 2316.788330
1.800000 4.120000 4.200000 -19.228863 -38.616013 1860.945557
1.800000 4.160000 3.800000 -23.139999 4.355819 554.432739
1.800000 4.160000 3.840000 -19.064175 -6.987311 412.265259
1.800000 4.160000 3.880000 -7.844234 -12.073522 207.301941
1.800000 4.160000 3.920000 3.296738 -6.393709 51.747993
1.800000 4.160000 3.960000 5.002702 6.857709 72.055199
1.800000 4.160000 4.000000 -6.464113 17.085314 333.692719
1.800000 4.160000 4.040000 -24.332970 13.779799 781.976257
1.800000 4.160000 4.080000 -35.054691 -4.183064 1246.329468
1.800000 4.160000 4.120000 -28.908674 -26.117462 1517.833252
1.800000 4.160000 4.160000 -8.555731 -37.273834 1462.539307
1.800000 4.160000 4.200000 12.536114 -30.743092 1102.291870
1.800000 4.200000 3.800000 -19.708485 -5.247944 415.965302
1.800000 4.200000 3.840000 -11.217911 -12.995593 294.726959
1.800000 4.200000 3.880000 0.509076 -11.771124 138.818512
1.800000 4.200000 3.920000 6.388734 -1.580621 43.314285
1.800000 4.200000 3.960000 0.459593 9.137445 83.704140
1.800000 4.200000 4.000000 -13.381007 9.591262 271.043671
1.800000 4.200000 4.040000 -23.057856 -3.462172 543.651367
1.800000 4.200000 4.080000 -18.320122 -21.411243 794.068237
1.800000 4.200000 4.120000 -0.375657 -30.262907 915.984680
1.800000 4.200000 4.160000 18.312008 -22.705002 850.846680
1.800000 4.200000 4.200000 24.477371 -4.707366 621.301025
1.840000 3.800000 3.800000 -6.190271 0.641511 38.730995
1.840000 3.800000 3.840000 -8.720769 -2.883039 84.363724
1.840000 3.800000 3.880000 -8.301578 -8.548151 141.987076
1.840000 3.800000 3.920000 -3.689144 -13.807484 204.256393
1.840000 3.800000 3.960000 4.321568 -15.731619 266.159760
1.840000 3.800000 4.000000 13.067778 -12.453955 325.867798
1.840000 3.800000 4.040000 19.089252 -4.180044 381.872345
1.840000 3.800000 4.080000 19.652538 6.635187 430.247955
1.840000 3.800000 4.120000 14.126463 16.239420 463.275696
1.840000 3.800000 4.160000 4.354933 21.264914 471.161987
1.840000 3.800000 4.200000 -6.213480 20.216534 447.315552
1.840000 3.840000 3.800000 -4.492127 -7.751137 80.259338
1.840000 3.840000 3.840000 1.093686 -10.416331 109.696106
1.840000 3.840000 3.880000 7.773641 -7.960234 123.794815
1.840000 3.840000 3.920000 10.880921 -1.174149 119.773071
1.840000 3.840000 3.960000 8.372704 5.501177 100.365112
1.840000 3.840000 4.000000 2.753357 7.917006 70.259949
1.840000 3.840000 4.040000 -1.322772 5.901356 36.575726
1.840000 3.840000 4.080000 -1.411726 3.111721 11.675778
1.840000 3.840000 4.120000 0.630890 3.314682 11.385137
1.840000 3.840000 4.160000 0.672881 6.693036 45.249504
1.840000 3.840000 4.200000 -3.552080 9.656446 105.864212
1.840000 3.880000 3.800000 5.959219 -12.985008 204.122742
1.840000 3.880000 3.840000 17.315487 -6.451024 341.441803
1.840000 3.880000 3.880000 20.432308 9.094283 500.185211
1.840000 3.880000 3.920000 9.512480 23.439098 639.878662
1.840000 3.880000 3.960000 -9.864576 24.765837 710.656555
1.840000 3.880000 4.000000 -23.882618 10.544510 681.566162
1.840000 3.880000 4.040000 -21.943029 -9.093979 564.197021
1.840000 3.880000 4.080000 -6.074100 -19.378214 412.409851
1.840000 3.880000 4.120000 10.649277 -13.351448 291.668274
1.840000 3.880000 4.160000 15.284107 2.581806 240.269653
1.840000 3.880000 4.200000 5.636149 14.735465 248.900101
1.840000 3.920000 3.800000 19.332737 -6.771523 419.608276
1.840000 3.920000 3.840000 26.296431 12.394043 845.114563
1.840000 3.920000 3.880000 14.092554 34.525932 1390.640137
1.840000 3.920000 3.920000 -14.716080 40.921555 1891.136597
1.840000 3.920000 3.960000 -41.181515 21.624899 2163.553467
1.840000 3.920000 4.000000 -44.265041 -13.014237 2128.764404
1.840000 3.920000 4.040000 -19.558908 -38.510937 1865.643188
1.840000 3.920000 4.080000 15.372536 -36.195927 1546.459961
1.840000 3.920000 4.120000 34.997272 -9.070271 1307.078857
1.840000 3.920000 4.160000 26.858162 21.029636 1163.606445
1.840000 3.920000 4.200000 0.752348 32.190430 1036.789795
1.840000 3.960000 3.800000 23.728125 10.262166 668.335999
1.840000 3.960000 3.840000 16.120787 34.813805 1471.880737
1.840000 3.960000 3.880000 -13.273936 48.131176 2492.807617
1.840000 3.960000 3.920000 -48.105553 32.663467 3381.046387
1.840000 3.960000 3.960000 -61.065468 -8.100543 3794.610352
1.840000 3.960000 4.000000 -37.386654 -47.461227 3650.330078
1.840000 3.960000 4.040000 9.351509 -55.677441 3187.427979
1.840000 3.960000 4.080000 45.915005 -25.604618 2763.784180
1.840000 3.960000 4.120000 46.466034 20.130537 2564.330811
1.840000 3.960000 4.160000 13.760262 47.875206 2481.380127
1.840000 3.960000 4.200000 -24.664635 40.662659 2261.795898
1.840000 4.000000 3.800000 12.328282 26.596367 859.353271
1.840000 4.000000 3.840000 -10.164022 42.720390 1928.339111
1.840000 4.000000 3.880000 -44.450851 35.452461 3232.755127
1.840000 4.000000 3.920000 -65.402832 -0.564461 4277.849121
1.840000 4.000000 3.960000 -50.851337 -45.284607 4636.553711
1.840000 4.000000 4.000000 -4.185819 -65.415833 4296.751953
1.840000 4.000000 4.040000 43.474571 -42.429848 3690.330322
1.840000 4.000000 4.080000 57.041271 9.100557 3336.526611
1.840000 4.000000 4.120000 27.091284 51.646347 3401.282959
1.840000 4.000000 4.160000 -22.058329 55.585579 3576.326416
1.840000 4.000000 4.200000 -53.503006 22.919376 3387.869385
1.840000 4.040000 3.800000 -8.808806 29.184307 929.318848
1.840000 4.040000 3.840000 -34.798737 27.825123 1985.189453
1.840000 4.040000 3.880000 -56.399895 2.730789 3188.405518
1.840000 4.040000 3.920000 -52.009682 -36.505096 4037.629150
1.840000 4.040000 3.960000 -15.717718 -62.584824 4163.906738
1.840000 4.040000 4.000000 31.564877 -51.706360 3669.889160
1.840000 4.040000 4.040000 55.266068 -6.670275 3098.830811
1.840000 4.040000 4.080000 35.867973 41.370747 2998.050293
1.840000 4.040000 4.120000 -12.911953 57.177364 3435.969482
1.840000 4.040000 4.160000 -54.574371 30.822060 3928.361328
1.840000 4.040000 4.200000 -60.323776 -14.756273 3856.705566
1.840000 4.080000 3.800000 -25.099669 15.501033 870.275391
1.840000 4.080000 3.840000 -40.438793 0.242844 1635.354980
1.840000 4.080000 3.880000 -40.897232 -27.090515 2406.479492
1.840000 4.080000 3.920000 -17.946140 -50.040905 2826.156250
1.840000 4.080000 3.960000 18.715809 -48.452885 2697.963623
1.840000 4.080000 4.000000 43.765656 -17.298325 2214.664551
1.840000 4.080000 4.040000 35.839981 24.284245 1874.228760
1.840000 4.080000 4.080000 -2.380337 45.595909 2084.652832
1.840000 4.080000 4.120000 -43.582409 29.745644 2784.229736
1.840000 4.080000 4.160000 -57.545654 -11.229030 3437.593506
1.840000 4.080000 4.200000 -36.209602 -46.290974 3453.989502
1.840000 4.120000 3.800000 -26.365244 -4.010223 711.208008
1.840000 4.120000 3.840000 -25.680769 -20.323833 1072.560059
1.840000 4.120000 3.880000 -11.979431 -34.585358 1339.653809
1.840000 4.120000 3.920000 10.889845 -35.263496 1362.102905
1.840000 4.120000 3.960000 28.847895 -17.103548 1124.732422
1.840000 4.120000 4.000000 26.763893 10.678898 830.344849
1.840000 4.120000 4.040000 2.416553 28.135887 797.467896
1.840000 4.120000 4.080000 -28.331177 20.096527 1206.526001
1.840000 4.120000 4.120000 -42.491707 -9.734743 1900.310425
1.840000 4.120000 4.160000 -28.920055 -40.106083 2444.867676
1.840000 4.120000 4.200000 1.912909 -49.342285 2438.320312
1.840000 4.160000 3.800000 -15.538042 -15.884974 493.763123
1.840000 4.160000 3.840000 -5.375148 -22.499441 535.117065
1.840000 4.160000 3.880000 7.597984 -20.677528 485.289551
1.840000 4.160000 3.920000 16.092274 -9.564169 350.434601
1.840000 4.160000 3.960000 13.307743 5.175955 203.886536
1.840000 4.160000 4.000000 -1.033939 13.139570 173.717331
1.840000 4.160000 4.040000 -18.035351 6.458093 366.980835
1.840000 4.160000 4.080000 -24.681591 -12.712905 770.798828
1.840000 4.160000 4.120000 -14.064093 -31.909546 1216.017822
1.840000 4.160000 4.160000 7.963664 -37.348152 1458.304443
1.840000 4.160000 4.200000 26.560614 -25.167471 1338.867798
1.840000 4.200000 3.800000 -4.466027 -15.969881 274.982483
1.840000 4.200000 3.840000 4.424174 -12.420059 173.831192
1.840000 4.200000 3.880000 7.402878 -3.661230 68.207214
1.840000 4.200000 3.920000 2.081848 3.930201 19.780567
1.840000 4.200000 3.960000 -8.034951 3.881817 79.628944
1.840000 4.200000 4.000000 -15.172026 -5.505136 260.496887
1.840000 4.200000 4.040000 -12.496946 -19.037123 518.585693
1.840000 4.200000 4.080000 0.470200 -27.572191 760.446777
1.840000 4.200000 4.120000 16.698727 -24.531315 880.632874
1.840000 4.200000 4.160000 26.325012 -11.132268 816.933655
1.840000 4.200000 4.200000 23.929100 4.164743 589.946899
1.880000 3.800000 3.800000 -11.707312 1.915627 140.730774
1.880000 3.800000 3.840000 -9.772425 -6.024288 131.792328
1.880000 3.800000 3.880000 -3.217960 -10.124039 112.851433
1.880000 3.800000 3.920000 3.305096 -9.260431 96.679245
1.880000 3.800000 3.960000 7.246712 -6.272167 91.854912
1.880000 3.800000 4.000000 9.965603 -3.576828 112.106941
1.880000 3.800000 4.040000 13.462789 -0.014809 181.246887
1.880000 3.800000 4.080000 16.254324 7.153015 315.368652
1.880000 3.800000 4.120000 13.788393 17.357910 491.416840
1.880000 3.800000 4.160000 3.588316 24.973343 636.543884
1.880000 3.800000 4.200000 -10.426384 23.602467 665.785889
1.880000 3.840000 3.800000 -5.164625 -7.471988 82.503952
1.880000 3.840000 3.840000 9.845983 -4.782019 119.811081
1.880000 3.840000 3.880000 16.424290 12.024847 414.354248
1.880000 3.840000 3.920000 4.879505 29.058573 868.210205
1.880000 3.840000 3.960000 -17.363953 29.866480 1193.513428
1.880000 3.840000 4.000000 -31.613909 12.104839 1145.966309
1.880000 3.840000 4.040000 -25.779402 -9.236221 749.885376
1.880000 3.840000 4.080000 -6.257221 -15.957864 293.806213
1.880000 3.840000 4.120000 8.420532 -4.060871 87.396042
1.880000 3.840000 4.160000 5.640949 13.110233 203.698532
1.880000 3.840000 4.200000 -9.798896 18.626858 442.978210
1.880000 3.880000 3.800000 8.374788 -7.032200 119.588913
1.880000 3.880000 3.840000 22.893051 17.492086 830.064880
1.880000 3.880000 3.880000 7.489254 50.861465 2642.977539
1.880000 3.880000 3.920000 -35.734825 61.077694 5007.462402
1.880000 3.880000 3.960000 -75.918137 31.060226 6728.301270
1.880000 3.880000 4.000000 -79.603943 -21.882469 6815.629883
1.880000 3.880000 4.040000 -42.093536 -59.012737 5254.369141
1.880000 3.880000 4.080000 7.205963 -54.441269 3015.777832
1.880000 3.880000 4.120000 31.291006 -17.610321 1289.250488
1.880000 3.880000 4.160000 18.089396 17.371309 628.988647
1.880000 3.880000 4.200000 -12.091099 23.966871 720.605591
1.880000 3.920000 3.800000 16.508009 6.571734 315.702057
1.880000 3.920000 3.840000 10.354834 47.323360 2346.723145
1.880000 3.920000 3.880000 -37.691357 72.741035 6711.896484
1.880000 3.920000 3.920000 -99.116913 47.271900 12058.794922
1.880000 3.920000 3.960000 -123.403587 -24.461849 15826.827148
1.880000 3.920000 4.000000 -83.792068 -94.779045 16004.177734
1.880000 3.920000 4.040000 -4.912659 -112.279037 12630.715820
1.880000 3.920000 4.080000 56.587551 -67.254051 7725.258301
1.880000 3.920000 4.120000 61.092880 0.569061 3732.663818
1.880000 3.920000 4.160000 18.115395 38.956161 1845.750000
1.880000 3.920000 4.200000 -27.642586 28.292747 1564.592041
1.880000 3.960000 3.800000 8.624096 23.288973 616.751343
1.880000 3.960000 3.840000 -26.540319 58.136124 4084.197266
1.880000 3.960000 3.880000 -91.969788 49.470238 10905.746094
1.880000 3.960000 3.920000 -136.153061 -18.644554 18885.275391
1.880000 3.960000 3.960000 -111.943268 -108.251495 24249.681641
1.880000 3.960000 4.000000 -23.758272 -153.828308 24227.603516
1.880000 3.960000 4.040000 69.814201 -119.218277 19087.021484
1.880000 3.960000 4.080000 104.369598 -31.203907 11866.696289
1.880000 3.960000 4.120000 64.470474 43.616463 6058.837891
1.880000 3.960000 4.160000 -6.656511 56.807026 3271.347168
1.880000 3.960000 4.200000 -49.665665 15.927470 2720.362549
1.880000 4.000000 3.800000 -12.180893 27.255119 891.215698
1.880000 4.000000 3.840000 -62.688736 34.757351 5137.951172
1.880000 4.000000 3.880000 -113.144653 -11.827137 12941.593750
1.880000 4.000000 3.920000 -111.027550 -96.664734 21671.187500
1.880000 4.000000 3.960000 -37.579178 -160.539078 27184.990234
1.880000 4.000000 4.000000 66.235344 -149.304688 26679.011719
1.880000 4.000000 4.040000 128.811371 -64.557556 20760.046875
1.880000 4.000000 4.080000 108.539902 33.724880 12918.277344
1.880000 4.000000 4.120000 29.252932 77.647339 6884.843262
1.880000 4.000000 4.160000 -43.029007 48.087807 4163.932617
1.880000 4.000000 4.200000 -58.827858 -14.841826 3680.996582
1.880000 4.040000 3.800000 -29.823549 11.973518 1032.809204
1.880000 4.040000 3.840000 -69.663055 -9.910931 4951.167969
1.880000 4.040000 3.880000 -81.891281 -70.423981 11665.718750
1.880000 4.040000 3.920000 -36.382965 -132.156708 18789.115234
1.880000 4.040000 3.960000 51.322285 -142.330658 22891.992188
1.880000 4.040000 4.000000 123.915176 -80.929657 21904.580078
1.880000 4.040000 4.040000 128.235046 15.355776 16680.027344
1.880000 4.040000 4.080000 62.338478 80.177994 10314.596680
1.880000 4.040000 4.120000 -21.668968 73.078415 5809.999023
1.880000 4.040000 4.160000 -62.846920 12.013435 4094.058105
1.880000 4.040000 4.200000 -42.144791 -46.748566 3961.611816
1.880000 4.080000 3.800000 -29.439745 -12.288231 1017.699219
1.880000 4.080000 3.840000 -41.765163 -44.324905 3709.026123
1.880000 4.080000 3.880000 -20.737995 -86.477058 7908.346191
1.880000 4.080000 3.920000 35.516747 -103.741287 12023.694336
1.880000 4.080000 3.960000 94.995079 -70.663551 14017.402344
1.880000 4.080000 4.000000 113.496460 0.642159 12881.858398
1.880000 4.080000 4.040000 73.131874 64.094765 9456.410156
1.880000 4.080000 4.080000 1.257671 76.143883 5799.472656
1.880000 4.080000 4.120000 -50.505760 32.865860 3630.996582
1.880000 4.080000 4.160000 -49.419868 -27.286404 3186.871338
1.880000 4.080000 4.200000 -7.149851 -57.910973 3404.801025
1.880000 4.120000 3.800000 -11.468792 -27.303068 876.990723
1.880000 4.120000 3.840000 -1.597050 -46.116035 2129.239258
1.880000 4.120000 3.880000 25.652483 -55.789055 3770.468506
1.880000 4.120000 3.920000 58.575947 -41.120094 5122.003906
1.880000 4.120000 3.960000 73.914978 -2.259254 5468.527832
1.880000 4.120000 4.000000 55.463684 39.352772 4624.860840
1.880000 4.120000 4.040000 11.108459 55.031761 3151.892578
1.880000 4.120000 4.080000 -29.748711 32.878853 1966.004639
1.880000 4.120000 4.120000 -39.067127 -10.362854 1633.629272
1.880000 4.120000 4.160000 -13.533467 -42.267899 1969.729980
1.880000 4.120000 4.200000 23.336143 -41.709648 2284.270264
1.880000 4.160000 3.800000 8.836786 -23.791451 644.121948
1.880000 4.160000 3.840000 20.898029 -21.405527 894.924194
1.880000 4.160000 3.880000 30.245762 -11.179617 1039.789917
1.880000 4.160000 3.920000 31.496426 4.215462 1009.794983
1.880000 4.160000 3.960000 21.660439 18.036179 794.478333
1.880000 4.160000 4.000000 3.769379 21.825256 490.550049
1.880000 4.160000 4.040000 -12.484058 11.319370 283.979858
1.880000 4.160000 4.080000 -16.180330 -8.470753 333.556763
1.880000 4.160000 4.120000 -3.777655 -24.879343 633.252380
1.880000 4.160000 4.160000 16.696827 -26.522774 982.241577
1.880000 4.160000 4.200000 30.957228 -12.639686 1118.111572
1.880000 4.200000 3.800000 16.297165 -9.515262 356.137817
1.880000 4.200000 3.840000 15.484584 3.138956 249.625381
1.880000 4.200000 3.880000 4.879792 9.994133 123.695068
1.880000 4.200000 3.920000 -6.980133 5.643066 80.566452
1.880000 4.200000 3.960000 -11.079575 -6.412653 163.879089
1.880000 4.200000 4.000000 -4.889320 -17.533598 331.332520
1.880000 4.200000 4.040000 6.947350 -21.066736 492.073029
1.880000 4.200000 4.080000 17.444111 -16.378136 572.540283
1.880000 4.200000 4.120000 22.345728 -7.392315 553.977844
1.880000 4.200000 4.160000 21.474413 1.366522 463.017792
1.880000 4.200000 4.200000 16.890182 7.229486 337.543732
1.920000 3.800000 3.800000 -15.825821 -1.714274 253.395340
1.920000 3.800000 3.840000 -7.321667 -8.955208 133.802551
1.920000 3.800000 3.880000 2.056355 -7.178923 55.765526
1.920000 3.800000 3.920000 5.156799 -0.994556 27.581722
1.920000 3.800000 3.960000 3.112492 1.807407 12.954326
1.920000 3.800000 4.000000 3.271074 -0.369766 10.836655
1.920000 3.800000 4.040000 9.653591 -0.850723 93.915558
1.920000 3.800000 4.080000 16.878834 7.286289 337.985046
1.920000 3.800000 4.120000 15.041080 21.819929 702.343384
1.920000 3.800000 4.160000 0.899966 31.597338 999.201660
1.920000 3.800000 4.200000 -16.837973 27.137901 1019.983032
1.920000 3.840000 3.800000 -4.993982 -7.414780 79.918816
1.920000 3.840000 3.840000 11.133755 8.671061 199.147797
1.920000 3.840000 3.880000 3.114059 35.629688 1279.172119
1.920000 3.840000 3.920000 -29.225803 45.345383 2910.351074
1.920000 3.840000 3.960000 -59.820507 22.256134 4073.828613
1.920000 3.840000 4.000000 -60.189117 -18.657074 3970.816162
1.920000 3.840000 4.040000 -27.820076 -44.134285 2721.791748
1.920000 3.840000 4.080000 10.210579 -34.034279 1262.588135
1.920000 3.840000 4.120000 22.817490 -0.334473 520.749695
1.920000 3.840000 4.160000 3.966232 25.370165 659.376282
1.920000 3.840000 4.200000 -23.711838 22.693060 1077.226196
1.920000 3.880000 3.800000 5.831947 -0.008526 34.011681
1.920000 3.880000 3.840000 4.068596 42.008560 1781.272583
1.920000 3.880000 3.880000 -44.134201 70.331032 6894.281738
1.920000 3.880000 3.920000 -108.354111 44.469696 13718.166992
1.920000 3.880000 3.960000 -133.074280 -31.029144 18671.572266
1.920000 3.880000 4.000000 -89.709221 -103.900818 18843.125000
1.920000 3.880000 4.040000 -6.575882 -119.260727 14266.363281
1.920000 3.880000 4.080000 54.791283 -69.577545 7843.119141
1.920000 3.880000 4.120000 54.796486 -0.286972 3002.737061
1.920000 3.880000 4.160000 8.537947 33.813187 1216.228027
1.920000 3.880000 4.200000 -34.133156 17.342098 1465.820679
1.920000 3.920000 3.800000 3.681099 14.716707 230.131958
1.920000 3.920000 3.840000 -35.599163 59.890739 4854.201172
1.920000 3.920000 3.880000 -116.170464 51.463028 16144.019531
1.920000 3.920000 3.920000 -171.625275 -32.803856 30531.328125
1.920000 3.920000 3.960000 -141.183456 -144.659058 40859.007812
1.920000 3.920000 4.000000 -31.059547 -200.996750 41364.390625
1.920000 3.920000 4.040000 84.240829 -157.860275 32016.384766
1.920000 3.920000 4.080000 125.734413 -51.095711 18419.914062
1.920000 3.920000 4.120000 78.173653 36.632847 7453.085449
1.920000 3.920000 4.160000 -2.427567 49.860970 2492.009277
1.920000 3.920000 4.200000 -45.906204 3.501987 2119.643555
1.920000 3.960000 3.800000 -13.167318 20.909260 610.575439
1.920000 3.960000 3.840000 -82.363365 36.550575 8119.668945
1.920000 3.960000 3.880000 -155.566925 -26.848106 24921.888672
1.920000 3.960000 3.920000 -154.309586 -147.799881 45656.250000
1.920000 3.960000 3.960000 -50.238983 -240.203720 60221.785156
1.920000 3.960000 4.000000 97.696915 -226.168228 60696.753906
1.920000 3.960000 4.040000 187.918350 -108.932770 47179.652344
1.920000 3.960000 4.080000 163.844360 26.584318 27551.701172
1.920000 3.960000 4.120000 60.950661 88.031998 11464.616211
1.920000 3.960000 4.160000 -30.676729 53.414246 3794.143311
1.920000 3.960000 4.200000 -48.943962 -20.335871 2809.059082
1.920000 4.000000 3.800000 -30.673985 7.855392 1002.600525
1.920000 4.000000 3.840000 -97.062439 -20.383522 9836.605469
1.920000 4.000000 3.880000 -121.720177 -116.575302 28405.601562
1.920000 4.000000 3.920000 -51.124535 -219.147705 50639.433594
1.920000 4.000000 3.960000 90.992386 -239.806824 65786.929688
1.920000 4.000000 4.000000 211.638672 -144.704544 65730.328125
1.920000 4.000000 4.040000 225.494049 7.870453 50909.511719
1.920000 4.000000 4.080000 129.792068 113.899170 29819.000000
1.920000 4.000000 4.120000 5.111166 112.233353 12622.449219
1.920000 4.000000 4.160000 -58.014229 31.745029 4373.397461
1.920000 4.000000 4.200000 -35.036339 -44.628925 3219.286133
1.920000 4.040000 3.800000 -30.858345 -17.664051 1264.256226
1.920000 4.040000 3.840000 -62.791176 -71.934189 9117.258789
1.920000 4.040000 3.880000 -31.445072 -153.821808 24649.941406
1.920000 4.040000 3.920000 71.842079 -193.499649 42603.398438
1.920000 4.040000 3.960000 187.517883 -138.312469 54293.296875
1.920000 4.040000 4.000000 231.199188 -7.836208 53514.472656
1.920000 4.040000 4.040000 167.353516 114.185059 41045.425781
1.920000 4.040000 4.080000 43.099941 148.622864 23946.361328
1.920000 4.040000 4.120000 -51.971409 87.184326 10302.134766
1.920000 4.040000 4.160000 -62.348930 -5.843081 3921.530762
1.920000 4.040000 4.200000 -7.536573 -55.269302 3111.495850
1.920000 4.080000 3.800000 -9.462574 -35.670555 1361.928833
1.920000 4.080000 3.840000 -2.576551 -80.882835 6548.671875
1.920000 4.080000 3.880000 52.562721 -115.111008 16013.383789
1.920000 4.080000 3.920000 132.572968 -93.940048 26400.324219
1.920000 4.080000 3.960000 180.421600 -10.037033 32652.695312
1.920000 4.080000 4.000000 152.522919 90.531143 31459.128906
1.920000 4.080000 4.040000 60.536415 141.490845 23684.316406
1.920000 4.080000 4.080000 -34.157230 111.805130 13667.103516
1.920000 4.080000 4.120000 -70.896896 31.818316 6038.775391
1.920000 4.080000 4.160000 -38.993996 -34.743835 2727.666016
1.920000 4.080000 4.200000 19.249485 -45.864090 2474.057373
1.920000 4.120000 3.800000 18.585575 -31.192419 1318.390625
1.920000 4.120000 3.840000 40.056335 -44.969872 3626.799316
1.920000 4.120000 3.880000 76.302567 -37.435516 7223.499512
1.920000 4.120000 3.920000 103.734451 1.786095 10764.026367
1.920000 4.120000 3.960000 95.724487 57.727287 12495.617188
1.920000 4.120000 4.000000 47.294025 96.102715 11472.456055
1.920000 4.120000 4.040000 -15.490303 89.722092 8290.002930
1.920000 4.120000 4.080000 -53.466640 42.563927 4670.369629
1.920000 4.120000 4.120000 -45.660648 -11.739399 2222.708252
1.920000 4.120000 4.160000 -5.780565 -37.162254 1414.448120
1.920000 4.120000 4.200000 31.229277 -23.930677 1547.945068
1.920000 4.160000 3.800000 32.461735 -8.631073 1128.259766
1.920000 4.160000 3.840000 39.685219 2.303493 1580.222656
1.920000 4.160000 3.880000 39.775810 17.308754 1881.708008
1.920000 4.160000 3.920000 30.861521 31.603630 1951.222900
1.920000 4.160000 3.960000 13.933548 39.419403 1748.033081
1.920000 4.160000 4.000000 -5.913322 35.718128 1310.752075
1.920000 4.160000 4.040000 -19.960327 19.855606 792.659790
1.920000 4.160000 4.080000 -20.325605 -1.578114 415.620697
1.920000 4.160000 4.120000 -6.288494 -17.052608 330.336609
1.920000 4.160000 4.160000 13.383753 -17.749004 494.151978
1.920000 4.160000 4.200000 25.889740 -4.734491 692.694031
1.920000 4.200000 3.800000 24.873125 12.462396 773.983643
1.920000 4.200000 3.840000 9.520521 23.760490 655.201233
1.920000 4.200000 3.880000 -9.535416 17.914438 411.851257
1.920000 4.200000 3.920000 -16.400986 -0.742363 269.543457
1.920000 4.200000 3.960000 -6.337570 -16.777988 321.665680
1.920000 4.200000 4.000000 10.671616 -18.531563 457.302185
1.920000 4.200000 4.040000 20.659458 -8.142521 493.113831
1.920000 4.200000 4.080000 18.896460 2.714687 364.445709
1.920000 4.200000 4.120000 12.279449 5.554510 181.637466
1.920000 4.200000 4.160000 9.924604 2.485723 104.676590
1.920000 4.200000 4.200000 13.220396 1.477108 176.960724
1.960000 3.800000 3.800000 -15.922222 -5.991095 289.410370
1.960000 3.800000 3.840000 -4.146721 -8.024151 81.582291
1.960000 3.800000 3.880000 2.465775 -0.952656 6.987597
1.960000 3.800000 3.920000 -0.128052 5.376419 28.922279
1.960000 3.800000 3.960000 -4.714542 3.443039 34.081429
1.960000 3.800000 4.000000 -1.379116 -2.839554 9.965027
1.960000 3.800000 4.040000 10.161057 -1.964687 107.107063
1.960000 3.800000 4.080000 18.455338 11.848729 480.991882
1.960000 3.800000 4.120000 11.802876 30.371269 1061.721924
1.960000 3.800000 4.160000 -8.457970 38.014084 1516.607788
1.960000 3.800000 4.200000 -27.450748 27.347519 1501.430420
1.960000 3.840000 3.800000 -6.094748 -5.829870 71.133331
1.960000 3.840000 3.840000 -1.540958 20.227879 411.541626
1.960000 3.840000 3.880000 -29.036224 40.738823 2502.753906
1.960000 3.840000 3.920000 -69.357925 26.184166 5496.132324
1.960000 3.840000 3.960000 -84.105263 -21.624931 7541.333008
1.960000 3.840000 4.000000 -53.392593 -66.619568 7288.936035
1.960000 3.840000 4.040000 2.071449 -71.014175 5047.304199
1.960000 3.840000 4.080000 38.522598 -31.678030 2487.488281
1.960000 3.840000 4.120000 29.845097 16.653957 1168.084106
1.960000 3.840000 4.160000 -9.201593 34.728130 1290.712402
1.960000 3.840000 4.200000 -39.837673 14.944512 1810.378662
1.960000 3.880000 3.800000 -3.348631 3.388885 22.697874
1.960000 3.880000 3.840000 -33.211899 43.489273 2994.347168
1.960000 3.880000 3.880000 -101.459320 38.185631 11752.135742
1.960000 3.880000 3.920000 -148.975830 -33.942986 23345.925781
1.960000 3.880000 3.960000 -121.116364 -130.166672 31612.537109
1.960000 3.880000 4.000000 -24.008789 -176.332062 31669.417969
1.960000 3.880000 4.040000 74.933540 -134.562500 23722.101562
1.960000 3.880000 4.080000 106.067154 -39.357201 12799.230469
1.960000 3.880000 4.120000 59.135277 34.427784 4682.253418
1.960000 3.880000 4.160000 -12.433599 39.787022 1737.601440
1.960000 3.880000 4.200000 -46.068260 -5.129317 2148.594482
1.960000 3.920000 3.800000 -13.375349 9.683123 272.662842
1.960000 3.920000 3.840000 -82.243347 28.504002 7576.446289
1.960000 3.920000 3.880000 -157.674561 -35.232685 26102.609375
1.960000 3.920000 3.920000 -156.063446 -159.790909 49888.933594
1.960000 3.920000 3.960000 -47.405193 -254.325409 66928.664062
1.960000 3.920000 4.000000 105.552834 -237.542892 67568.023438
1.960000 3.920000 4.040000 196.459335 -114.842484 51785.066406
1.960000 3.920000 4.080000 168.703354 23.492741 29012.730469
1.960000 3.920000 4.120000 62.741734 82.791794 10791.005859
1.960000 3.920000 4.160000 -27.038479 44.756508 2734.224365
1.960000 3.920000 4.200000 -40.204792 -27.926003 2396.286865
1.960000 3.960000 3.800000 -27.318192 0.910686 747.112915
1.960000 3.960000 3.840000 -106.436966 -28.767380 12156.390625
1.960000 3.960000 3.880000 -137.326599 -142.117371 39055.945312
1.960000 3.960000 3.920000 -53.613247 -264.510559 72840.218750
1.960000 3.960000 3.960000 115.979675 -288.799683 96856.546875
1.960000 3.960000 4.000000 259.120178 -175.121033 97810.640625
1.960000 3.960000 4.040000 274.883667 5.201508 75588.085938
1.960000 3.960000 4.080000 162.894714 128.650177 43085.554688
1.960000 3.960000 4.120000 20.236134 126.311485 16364.092773
1.960000 3.960000 4.160000 -49.032570 36.285461 3720.827637
1.960000 3.960000 4.200000 -21.985437 -44.206337 2437.559570
1.960000 4.000000 3.800000 -28.254921 -21.141335 1245.296631
1.960000 4.000000 3.840000 -76.222809 -92.099258 14292.189453
1.960000 4.000000 3.880000 -36.809467 -205.270538 43490.929688
1.960000 4.000000 3.920000 103.898239 -261.895660 79384.179688
1.960000 4.000000 3.960000 263.033997 -187.898224 104492.625000
1.960000 4.000000 4.000000 324.093445 -10.741822 105151.953125
1.960000 4.000000 4.040000 239.851196 154.645798 81443.921875
1.960000 4.000000 4.080000 75.894783 202.712891 46852.535156
1.960000 4.000000 4.120000 -48.248829 125.689064 18125.691406
1.960000 4.000000 4.160000 -63.027119 10.593256 4084.634766
1.960000 4.000000 4.200000 1.310795 -47.016243 2212.245361
1.960000 4.040000 3.800000 -7.983856 -39.314049 1609.336426
1.960000 4.040000 3.840000 -5.472099 -113.529709 12918.939453
1.960000 4.040000 3.880000 79.789185 -174.928696 36966.363281
1.960000 4.040000 3.920000 210.532532 -146.426376 65764.625000
1.960000 4.040000 3.960000 291.875366 -13.940502 85385.562500
1.960000 4.040000 4.000000 251.988083 147.717667 85318.500000
1.960000 4.040000 4.040000 109.851547 232.216080 65991.671875
1.960000 4.040000 4.080000 -37.297905 191.853210 38198.789062
1.960000 4.040000 4.120000 -96.962463 75.460701 15096.037109
1.960000 4.040000 4.160000 -56.279057 -20.398617 3583.435791
1.960000 4.040000 4.200000 19.513885 -37.136101 1759.881714
1.960000 4.080000 3.800000 22.653070 -35.924858 1803.757080
1.960000 4.080000 3.840000 57.090981 -76.327972 9085.339844
1.960000 4.080000 3.880000 133.853088 -74.769104 23507.066406
1.960000 4.080000 3.920000 200.244080 -1.353546 40099.523438
1.960000 4.080000 3.960000 194.386063 114.456009 50886.117188
1.960000 4.080000 4.000000 102.488403 199.227570 50195.500000
1.960000 4.080000 4.040000 -22.391678 195.300354 38643.613281
1.960000 4.080000 4.080000 -101.584579 110.462204 22521.324219
1.960000 4.080000 4.120000 -95.401154 10.424232 9210.044922
1.960000 4.080000 4.160000 -31.502628 -38.540718 2477.802490
1.960000 4.080000 4.200000 26.817886 -22.303608 1216.649902
1.960000 4.120000 3.800000 41.714287 -10.135132 1842.802612
1.960000 4.120000 3.840000 69.884247 -10.675285 4997.770020
1.960000 4.120000 3.880000 99.976868 19.176014 10363.093750
1.960000 4.120000 3.920000 101.993744 74.924820 16016.452148
1.960000 4.120000 3.960000 59.199593 125.629105 19287.263672
1.960000 4.120000 4.000000 -12.693321 135.392731 18492.312500
1.960000 4.120000 4.040000 -73.185150 93.484581 14095.433594
1.960000 4.120000 4.080000 -87.698502 25.477993 8340.155273
1.960000 4.120000 4.120000 -54.724957 -26.220827 3682.352539
1.960000 4.120000 4.160000 -5.098413 -35.659645 1297.604004
1.960000 4.120000 4.200000 25.203453 -10.957697 755.285156
1.960000 4.160000 3.800000 35.950432 19.886669 1687.913208
1.960000 4.160000 3.840000 34.068077 33.869194 2307.756348
1.960000 4.160000 3.880000 23.580656 46.441837 2712.891602
1.960000 4.160000 3.920000 6.644615 52.796646 2831.636719
1.960000 4.160000 3.960000 -12.819275 50.027679 2667.102539
1.960000 4.160000 4.000000 -29.632126 37.071449 2252.355225
1.960000 4.160000 4.040000 -37.590179 15.947144 1667.333008
1.960000 4.160000 4.080000 -31.984642 -6.653099 1067.281006
1.960000 4.160000 4.120000 -13.961792 -20.995594 635.746582
1.960000 4.160000 4.160000 7.758854 -20.197922 468.155884
1.960000 4.160000 4.200000 21.384567 -6.132214 494.903748
1.960000 4.200000 3.800000 13.107750 33.232128 1276.187500
1.960000 4.200000 3.840000 -11.196365 32.434349 1177.345581
1.960000 4.200000 3.880000 -26.281303 11.094653 813.798218
1.960000 4.200000 3.920000 -18.479591 -13.828110 532.711914
1.960000 4.200000 3.960000 4.588692 -21.798264 496.220398
1.960000 4.200000 4.000000 21.801880 -9.019249 556.668823
1.960000 4.200000 4.040000 19.925123 8.761398 473.772644
1.960000 4.200000 4.080000 6.009945 13.425491 216.363251
1.960000 4.200000 4.120000 -1.732510 3.020523 12.125150
1.960000 4.200000 4.160000 6.035287 -7.760492 96.649933
1.960000 4.200000 4.200000 20.500275 -4.614842 441.558014
2.000000 3.800000 3.800000 -14.688216 -7.461498 271.417664
2.000000 3.800000 3.840000 -4.965698 -4.851463 48.194855
2.000000 3.800000 3.880000 -3.392223 2.458519 17.551495
2.000000 3.800000 3.920000 -8.351969 4.346359 88.646217
2.000000 3.800000 3.960000 -9.743374 -1.637131 97.613533
2.000000 3.800000 4.000000 -0.969521 -6.501694 43.211994
2.000000 3.800000 4.040000 11.935074 0.670397 142.895416
2.000000 3.800000 4.080000 14.907303 19.561317 604.872803
2.000000 3.800000 4.120000 0.411247 36.497181 1332.213257
2.000000 3.800000 4.160000 -23.267221 36.832367 1897.986816
2.000000 3.800000 4.200000 -38.608505 19.650631 1876.764038
2.000000 3.840000 3.800000 -11.181990 -5.543915 155.771881
2.000000 3.840000 3.840000 -22.412033 16.792984 784.303528
2.000000 3.840000 3.880000 -57.240189 16.309860 3542.450684
2.000000 3.840000 3.920000 -82.382904 -21.573250 7252.348145
2.000000 3.840000 3.960000 -65.369011 -73.208511 9632.593750
2.000000 3.840000 4.000000 -9.471634 -95.175201 9148.031250
2.000000 3.840000 4.040000 44.889328 -65.550705 6311.946777
2.000000 3.840000 4.080000 56.152279 -6.606674 3196.726562
2.000000 3.840000 4.120000 20.067171 34.952785 1624.388672
2.000000 3.840000 4.160000 -27.803434 31.087833 1739.484375
2.000000 3.840000 4.200000 -47.312042 -3.990433 2254.353027
2.000000 3.880000 3.800000 -14.978024 -3.241629 234.849335
2.000000 3.880000 3.840000 -62.585255 12.015011 4061.274658
2.000000 3.880000 3.880000 -117.074852 -33.710724 14842.933594
2.000000 3.880000 3.920000 -114.582504 -125.265259 28820.535156
2.000000 3.880000 3.960000 -31.863998 -193.648193 38514.933594
2.000000 3.880000 4.000000 82.715683 -177.036087 38183.660156
2.000000 3.880000 4.040000 147.454788 -80.960098 28297.451172
2.000000 3.880000 4.080000 120.341187 23.569702 15037.532227
2.000000 3.880000 4.120000 35.396412 63.800259 5323.378906
2.000000 3.880000 4.160000 -32.587086 28.380314 1867.360352
2.000000 3.880000 4.200000 -38.023335 -30.656019 2385.565430
2.000000 3.920000 3.800000 -22.239895 -9.761742 589.904541
2.000000 3.920000 3.840000 -90.640167 -33.953098 9368.452148
2.000000 3.920000 3.880000 -117.339523 -133.510864 31593.714844
2.000000 3.920000 3.920000 -41.546566 -241.341003 59971.597656
2.000000 3.920000 3.960000 110.588165 -260.424591 80050.710938
2.000000 3.920000 4.000000 236.888428 -155.681442 80352.843750
2.000000 3.920000 4.040000 246.960388 6.576843 61032.687500
2.000000 3.920000 4.080000 143.209320 114.202896 33551.210938
2.000000 3.920000 4.120000 15.818058 107.352776 11774.829102
2.000000 3.920000 4.160000 -41.924133 24.385347 2352.278076
2.000000 3.920000 4.200000 -13.399216 -45.128548 2216.124756
2.000000 3.960000 3.800000 -21.029034 -25.982658 1117.318726
2.000000 3.960000 3.840000 -70.892212 -96.621117 14361.345703
2.000000 3.960000 3.880000 -30.666874 -212.601181 46139.718750
2.000000 3.960000 3.920000 114.955521 -270.155060 86198.531250
2.000000 3.960000 3.960000 278.913147 -191.935852 114631.921875
2.000000 3.960000 4.000000 339.820312 -7.969608 115541.359375
2.000000 3.960000 4.040000 250.630478 161.143951 88783.007812
2.000000 3.960000 4.080000 82.155479 207.497208 49804.613281
2.000000 3.960000 4.120000 -41.699017 127.016548 17872.011719
2.000000 3.960000 4.160000 -52.954540 12.288437 2955.188965
2.000000 3.960000 4.200000 12.215292 -40.256805 1769.823730
2.000000 4.000000 3.800000 -3.265896 -40.071674 1616.405151
2.000000 4.000000 3.840000 -3.693821 -128.010391 16400.304688
2.000000 4.000000 3.880000 96.671097 -202.867279 50500.433594
2.000000 4.000000 3.920000 253.073486 -169.772339 92868.835938
2.000000 4.000000 3.960000 350.176392 -11.706652 122760.554688
2.000000 4.000000 4.000000 302.170715 180.188934 123775.195312
2.000000 4.000000 4.040000 134.077377 278.879852 95750.710938
2.000000 4.000000 4.080000 -36.965115 230.624786 54554.210938
2.000000 4.000000 4.120000 -103.837624 96.837051 20159.666016
2.000000 4.000000 4.160000 -56.692989 -8.914783 3293.568359
2.000000 4.000000 4.200000 24.842993 -23.353409 1162.556030
2.000000 4.040000 3.800000 24.570244 -36.645855 1946.615601
2.000000 4.040000 3.840000 68.667435 -98.962875 14508.867188
2.000000 4.040000 3.880000 178.267609 -102.617035 42309.593750
2.000000 4.040000 3.920000 275.985809 -1.347649 76169.976562
2.000000 4.040000 3.960000 270.797852 162.397903 99704.554688
2.000000 4.040000 4.000000 143.311707 282.387939 100281.187500
2.000000 4.040000 4.040000 -29.396519 277.681213 77971.015625
2.000000 4.040000 4.080000 -136.995926 162.470108 45164.417969
2.000000 4.040000 4.120000 -128.340973 30.123596 17378.837891
2.000000 4.040000 4.160000 -46.360985 -31.188168 3122.042480
2.000000 4.040000 4.200000 22.706417 -9.131437 598.964478
2.000000 4.080000 3.800000 44.158356 -11.916801 2091.970459
2.000000 4.080000 3.840000 96.325760 -27.556839 10038.031250
2.000000 4.080000 3.880000 161.899506 18.087318 26538.599609
2.000000 4.080000 3.920000 177.215729 120.676674 45968.273438
2.000000 4.080000 3.960000 105.485565 218.962891 59071.949219
2.000000 4.080000 4.000000 -23.300133 241.872528 59045.214844
2.000000 4.080000 4.040000 -131.413239 170.066040 46191.898438
2.000000 4.080000 4.080000 -156.685272 53.709564 27434.992188
2.000000 4.080000 4.120000 -101.715088 -30.716240 11289.446289
2.000000 4.080000 4.160000 -24.603630 -43.435577 2491.988037
2.000000 4.080000 4.200000 16.231539 -6.144444 301.217041
2.000000 4.120000 3.800000 40.775772 20.447824 2080.777100
2.000000 4.120000 3.840000 65.096840 35.326065 5485.529297
2.000000 4.120000 3.880000 73.742584 78.200737 11553.324219
2.000000 4.120000 3.920000 43.278633 127.534119 18137.992188
2.000000 4.120000 3.960000 -22.795143 147.374527 22238.871094
2.000000 4.120000 4.000000 -91.270782 116.399323 21879.158203
2.000000 4.120000 4.040000 -122.814659 47.594055 17348.634766
2.000000 4.120000 4.080000 -102.390778 -20.137741 10889.399414
2.000000 4.120000 4.120000 -49.828114 -51.724743 5158.290039
2.000000 4.120000 4.160000 -1.907104 -40.960423 1681.393311
2.000000 4.120000 4.200000 16.798164 -10.063925 383.460907
2.000000 4.160000 3.800000 17.041168 39.937836 1885.432129
2.000000 4.160000 3.840000 7.172573 50.417671 2593.387451
2.000000 4.160000 3.880000 -9.524563 54.454098 3055.966064
2.000000 4.160000 3.920000 -27.517502 49.290272 3186.743896
2.000000 4.160000 3.960000 -41.975296 35.969772 3055.750000
2.000000 4.160000 4.000000 -49.777786 16.732407 2757.801514
2.000000 4.160000 4.040000 -48.074169 -5.510025 2341.486084
2.000000 4.160000 4.080000 -34.696953 -25.349388 1846.469971
2.000000 4.160000 4.120000 -11.689407 -34.950794 1358.200195
2.000000 4.160000 4.160000 12.314590 -28.814631 981.932068
2.000000 4.160000 4.200000 25.753635 -9.748756 758.288025
2.000000 4.200000 3.800000 -8.977322 37.037968 1452.403320
2.000000 4.200000 3.840000 -30.416683 21.965178 1407.643677
2.000000 4.200000 3.880000 -31.527596 -6.807047 1040.325195
2.000000 4.200000 3.920000 -9.195518 -25.205566 719.878113
2.000000 4.200000 3.960000 16.747330 -18.265579 614.104431
2.000000 4.200000 4.000000 23.506233 4.106880 569.409485
2.000000 4.200000 4.040000 8.827808 17.537495 385.493927
2.000000 4.200000 4.080000 -7.224358 8.931824 131.968811
2.000000 4.200000 4.120000 -4.198219 -10.022755 118.080658
2.000000 4.200000 4.160000 16.734171 -15.946280 534.316284
2.000000 4.200000 4.200000 34.197746 0.856754 1170.219849
2.040000 3.800000 3.800000 -15.954119 -7.601753 312.320557
2.040000 3.800000 3.840000 -10.098970 -5.001524 127.004448
2.040000 3.800000 3.880000 -10.262815 -1.658798 108.076988
2.040000 3.800000 3.920000 -12.049812 -3.459686 157.167419
2.040000 3.800000 3.960000 -8.080864 -8.102318 130.947906
2.040000 3.800000 4.000000 2.313690 -6.753186 50.958687
2.040000 3.800000 4.040000 10.089088 5.859596 136.124573
2.040000 3.800000 4.080000 4.687679 23.628029 580.258118
2.040000 3.800000 4.120000 -14.391117 32.846191 1285.976562
2.040000 3.800000 4.160000 -35.098030 24.888966 1851.332275
2.040000 3.800000 4.200000 -43.047108 5.135653 1879.428345
2.040000 3.840000 3.800000 -17.875622 -11.652456 455.317566
2.040000 3.840000 3.840000 -35.183483 -4.475414 1257.906738
2.040000 3.840000 3.880000 -57.576954 -24.005585 3891.373779
2.040000 3.840000 3.920000 -54.412697 -64.924225 7175.896484
2.040000 3.840000 3.960000 -13.530136 -94.353104 9085.572266
2.040000 3.840000 4.000000 41.438934 -81.694862 8391.235352
2.040000 3.840000 4.040000 69.245911 -30.117386 5702.053223
2.040000 3.840000 4.080000 48.767883 23.134270 2913.500977
2.040000 3.840000 4.120000 -0.986839 39.669243 1574.622681
2.040000 3.840000 4.160000 -38.870045 14.127939 1710.479004
2.040000 3.840000 4.200000 -39.621277 -23.774494 2135.072266
2.040000 3.880000 3.800000 -18.879976 -20.472279 775.567688
2.040000 3.880000 3.840000 -58.193260 -34.939075 4607.194336
2.040000 3.880000 3.880000 -72.359238 -96.600906 14567.594727
2.040000 3.880000 3.920000 -21.629440 -163.072891 27060.599609
2.040000 3.880000 3.960000 77.200607 -171.453964 35356.394531
2.040000 3.880000 4.000000 157.006531 -99.282578 34508.082031
2.040000 3.880000 4.040000 158.542603 8.598335 25209.687500
2.040000 3.880000 4.080000 84.907608 77.058403 13147.298828
2.040000 3.880000 4.120000 -1.810417 66.932281 4483.208008
2.040000 3.880000 4.160000 -38.255280 6.149584 1501.283813
2.040000 3.880000 4.200000 -14.493374 -42.759705 2038.450195
2.040000 3.920000 3.800000 -12.247300 -33.101524 1245.707275
2.040000 3.920000 3.840000 -47.407669 -85.068604 9484.154297
2.040000 3.920000 3.880000 -14.395531 -171.744690 29703.468750
2.040000 3.920000 3.920000 99.125397 -212.801956 55110.515625
2.040000 3.920000 3.960000 225.086395 -148.307785 72659.085938
2.040000 3.920000 4.000000 268.710938 -2.899124 72213.976562
2.040000 3.920000 4.040000 194.625839 127.830612 54219.882812
2.040000 3.920000 4.080000 60.753204 159.751251 29211.414062
2.040000 3.920000 4.120000 -34.330364 92.265198 9691.441406
2.040000 3.920000 4.160000 -38.641010 1.041216 1494.211792
2.040000 3.920000 4.200000 15.904388 -37.524906 1661.068115
2.040000 3.960000 3.800000 5.826790 -41.083206 1721.781372
2.040000 3.960000 3.840000 6.230240 -116.995224 13726.698242
2.040000 3.960000 3.880000 96.507263 -181.741699 42343.699219
2.040000 3.960000 3.920000 236.443314 -149.317596 78201.187500
2.040000 3.960000 3.960000 321.421600 -4.928535 103336.132812
2.040000 3.960000 4.000000 274.647247 167.666977 103543.328125
2.040000 3.960000 4.040000 121.107758 253.467819 78913.023438
2.040000 3.960000 4.080000 -31.442112 206.304779 43550.265625
2.040000 3.960000 4.120000 -87.351730 85.129150 14877.296875
2.040000 3.960000 4.160000 -41.720833 -6.393993 1781.511108
2.040000 3.960000 4.200000 30.131939 -14.196352 1109.470093
2.040000 4.000000 3.800000 29.490677 -34.214409 2040.325684
2.040000 4.000000 3.840000 73.741554 -98.403412 15121.048828
2.040000 4.000000 3.880000 187.434464 -102.192062 45574.898438
2.040000 4.000000 3.920000 288.857422 3.993347 83454.554688
2.040000 4.000000 3.960000 281.987122 174.868149 110095.601562
2.040000 4.000000 4.000000 147.850800 298.161346 110760.046875
2.040000 4.000000 4.040000 -30.684286 290.515869 85340.992188
2.040000 4.000000 4.080000 -138.466354 170.257965 48160.707031
2.040000 4.000000 4.120000 -125.969002 36.935966 17232.455078
2.040000 4.000000 4.160000 -42.469955 -20.122051 2208.593994
2.040000 4.000000 4.200000 21.923115 5.977299 516.351074
2.040000 4.040000 3.800000 44.928726 -10.578375 2130.492432
2.040000 4.040000 3.840000 108.868881 -34.356899 13032.830078
2.040000 4.040000 3.880000 193.089371 19.516769 37664.406250
2.040000 4.040000 3.920000 215.041473 147.063385 67870.476562
2.040000 4.040000 3.960000 127.187637 269.856567 88999.265625
2.040000 4.040000 4.000000 -31.351871 297.831116 89686.312500
2.040000 4.040000 4.040000 -161.883209 208.963333 69871.851562
2.040000 4.040000 4.080000 -189.090332 69.037148 40521.281250
2.040000 4.040000 4.120000 -121.427124 -27.415821 15496.173828
2.040000 4.040000 4.160000 -33.726204 -36.966743 2503.997070
2.040000 4.040000 4.200000 5.803085 7.057806 83.488426
2.040000 4.080000 3.800000 40.858643 19.085796 2033.696289
2.040000 4.080000 3.840000 87.767426 33.546890 8828.514648
2.040000 4.080000 3.880000 113.763504 101.917572 23329.326172
2.040000 4.080000 3.920000 72.369362 188.028809 40592.156250
2.040000 4.080000 3.960000 -32.870087 226.643768 52447.839844
2.040000 4.080000 4.000000 -143.336517 179.656708 52821.890625
2.040000 4.080000 4.040000 -191.500839 71.700386 41813.515625
2.040000 4.080000 4.080000 -156.382431 -29.529499 25327.457031
2.040000 4.080000 4.120000 -77.006607 -69.659058 10782.402344
2.040000 4.080000 4.160000 -13.896412 -47.849819 2482.715576
2.040000 4.080000 4.200000 2.147232 -6.496402 46.813843
2.040000 4.120000 3.800000 18.732845 38.385567 1824.371338
2.040000 4.120000 3.840000 29.845657 61.973835 4731.519531
2.040000 4.120000 3.880000 14.031704 99.170212 10031.619141
2.040000 4.120000 3.920000 -34.988380 120.886093 15837.633789
2.040000 4.120000 3.960000 -95.669220 102.162384 19589.751953
2.040000 4.120000 4.000000 -132.796204 44.397713 19605.988281
2.040000 4.120000 4.040000 -124.475571 -23.623329 16052.229492
2.040000 4.120000 4.080000 -78.449402 -67.195770 10669.580078
2.040000 4.120000 4.120000 -24.282356 -70.697479 5587.766602
2.040000 4.120000 4.160000 10.150104 -45.259155 2151.415771
2.040000 4.120000 4.200000 16.842951 -15.241233 515.980164
2.040000 4.160000 3.800000 -7.628649 38.331963 1527.535645
2.040000 4.160000 3.840000 -20.556356 41.971825 2184.197754
2.040000 4.160000 3.880000 -36.251808 36.306393 2632.347656
2.040000 4.160000 3.920000 -47.569683 22.194313 2755.462402
2.040000 4.160000 3.960000 -51.347431 4.328384 2655.293457
2.040000 4.160000 4.000000 -47.998528 -13.809418 2494.558594
2.040000 4.160000 4.040000 -37.555328 -30.604851 2347.059570
2.040000 4.160000 4.080000 -18.919960 -42.735203 2184.262451
2.040000 4.160000 4.120000 5.822742 -43.855434 1957.203369
2.040000 4.160000 4.160000 27.929970 -29.653095 1659.389160
2.040000 4.160000 4.200000 35.985649 -4.749525 1317.524902
2.040000 4.200000 3.800000 -23.440735 24.323723 1141.111572
2.040000 4.200000 3.840000 -33.606167 2.426235 1135.260986
2.040000 4.200000 3.880000 -20.772655 -21.478832 892.843445
2.040000 4.200000 3.920000 6.434895 -25.597588 696.644409
2.040000 4.200000 3.960000 23.898586 -7.001183 620.158997
2.040000 4.200000 4.000000 17.338558 14.128296 500.234375
2.040000 4.200000 4.040000 -1.950890 15.624557 247.932770
2.040000 4.200000 4.080000 -8.940186 -2.543013 86.393829
2.040000 4.200000 4.120000 7.837423 -17.715042 375.247925
2.040000 4.200000 4.160000 33.065033 -8.864723 1171.879761
2.040000 4.200000 4.200000 40.264107 20.210714 2029.671143
2.080000 3.800000 3.800000 -19.425636 -10.675653 491.324921
2.080000 3.800000 3.840000 -14.128750 -11.429207 330.248352
2.080000 3.800000 3.880000 -10.963743 -10.896549 238.938446
2.080000 3.800000 3.920000 -7.795094 -11.144955 184.973495
2.080000 3.800000 3.960000 -2.245476 -10.000526 105.052689
2.080000 3.800000 4.000000 3.620865 -3.476185 25.194523
2.080000 3.800000 4.040000 3.633144 8.391113 83.610519
2.080000 3.800000 4.080000 -6.401567 18.984459 401.389740
2.080000 3.800000 4.120000 -22.963888 19.750031 917.403870
2.080000 3.800000 4.160000 -36.079060 8.216854 1369.215210
2.080000 3.800000 4.200000 -37.426407 -8.713634 1476.663330
2.080000 3.840000 3.800000 -18.816158 -24.571903 957.826294
2.080000 3.840000 3.840000 -27.182745 -30.471769 1667.430420
2.080000 3.840000 3.880000 -27.609138 -51.477440 3412.191406
2.080000 3.840000 3.920000 -5.168983 -73.088104 5368.589355
2.080000 3.840000 3.960000 34.126801 -71.619675 6294.016602
2.080000 3.840000 4.000000 63.865623 -38.326088 5547.707031
2.080000 3.840000 4.040000 59.869427 8.230682 3652.092285
2.080000 3.840000 4.080000 23.559616 36.009045 1851.706787
2.080000 3.840000 4.120000 -17.728176 27.519329 1071.601685
2.080000 3.840000 4.160000 -34.770462 -5.105801 1235.054199
2.080000 3.840000 4.200000 -21.638050 -32.647202 1534.044922
2.080000 3.880000 3.800000 -7.133547 -38.668335 1546.127563
2.080000 3.880000 3.840000 -19.192820 -64.115746 4479.192871
2.080000 3.880000 3.880000 2.672897 -105.864349 11214.405273
2.080000 3.880000 3.920000 65.116180 -122.416809 19225.992188
2.080000 3.880000 3.960000 131.807114 -82.284645 24143.878906
2.080000 3.880000 4.000000 151.524750 0.437309 22959.941406
2.080000 3.880000 4.040000 105.526276 72.515991 16394.363281
2.080000 3.880000 4.080000 27.163986 86.987190 8304.653320
2.080000 3.880000 4.120000 -26.999239 44.142319 2677.503174
2.080000 3.880000 4.160000 -26.926649 -11.704152 862.031616
2.080000 3.880000 4.200000 8.530437 -35.292038 1318.296265
2.080000 3.920000 3.800000 14.850181 -43.240120 2090.235840
2.080000 3.920000 3.840000 19.768038 -87.416420 8032.405762
2.080000 3.920000 3.880000 80.118996 -123.518463 21675.863281
2.080000 3.920000 3.920000 170.154999 -96.682854 38300.296875
2.080000 3.920000 3.960000 221.947113 1.876595 49264.042969
2.080000 3.920000 4.000000 185.988907 116.252739 48106.574219
2.080000 3.920000 4.040000 80.413422 170.309113 35471.511719
2.080000 3.920000 4.080000 -21.717731 134.576721 18582.554688
2.080000 3.920000 4.120000 -56.427948 50.492058 5733.561523
2.080000 3.920000 4.160000 -22.026974 -10.915367 604.332825
2.080000 3.920000 4.200000 28.546890 -13.560998 998.825562
2.080000 3.960000 3.800000 37.740295 -31.264145 2401.776855
2.080000 3.960000 3.840000 72.239632 -74.325119 10742.787109
2.080000 3.960000 3.880000 157.297852 -72.202141 29955.761719
2.080000 3.960000 3.920000 231.205505 12.370186 53609.007812
2.080000 3.960000 3.960000 221.264008 144.050674 69708.359375
2.080000 3.960000 4.000000 114.499298 236.398804 68994.484375
2.080000 3.960000 4.040000 -23.580158 226.508194 51861.984375
2.080000 3.960000 4.080000 -103.947502 131.079605 27986.945312
2.080000 3.960000 4.120000 -90.495987 29.015621 9031.429688
2.080000 3.960000 4.160000 -24.529009 -11.189093 726.868103
2.080000 3.960000 4.200000 22.733063 12.604180 675.657471
2.080000 4.000000 3.800000 48.521595 -5.471072 2384.277832
2.080000 4.000000 3.840000 103.254959 -23.602852 11218.681641
2.080000 4.000000 3.880000 175.671967 26.034494 31538.435547
2.080000 4.000000 3.920000 192.287262 140.091995 56600.156250
2.080000 4.000000 3.960000 111.258728 248.088470 73926.398438
2.080000 4.000000 4.000000 -30.863857 269.902100 73799.718750
2.080000 4.000000 4.040000 -144.867889 188.097229 56367.273438
2.080000 4.000000 4.080000 -165.096741 64.204163 31379.107422
2.080000 4.000000 4.120000 -102.966003 -17.077423 10893.636719
2.080000 4.000000 4.160000 -28.038467 -20.533037 1207.761230
2.080000 4.000000 4.200000 0.416031 19.322166 373.519226
2.080000 4.040000 3.800000 40.176788 21.711342 2085.556641
2.080000 4.040000 3.840000 89.504166 35.604717 9278.691406
2.080000 4.040000 3.880000 118.075470 107.922371 25589.054688
2.080000 4.040000 3.920000 74.344315 200.084137 45560.738281
2.080000 4.040000 3.960000 -37.898258 240.850693 59445.332031
2.080000 4.040000 4.000000 -154.151703 189.652130 59730.679688
2.080000 4.040000 4.040000 -201.867126 75.502289 46450.929688
2.080000 4.040000 4.080000 -161.820206 -27.263504 26929.078125
2.080000 4.040000 4.120000 -79.979477 -62.918800 10355.492188
2.080000 4.040000 4.160000 -21.253845 -36.492847 1783.453857
2.080000 4.040000 4.200000 -12.964537 2.764534 175.721848
2.080000 4.080000 3.800000 17.629877 36.599297 1650.321045
2.080000 4.080000 3.840000 40.503536 66.442200 6055.102539
2.080000 4.080000 3.880000 25.890255 122.058136 15568.494141
2.080000 4.080000 3.920000 -40.196571 159.079285 26921.982422
2.080000 4.080000 3.960000 -126.311676 137.132462 34759.953125
2.080000 4.080000 4.000000 -178.227112 57.963646 35124.687500
2.080000 4.080000 4.040000 -164.176300 -33.314671 28063.724609
2.080000 4.080000 4.080000 -100.264938 -85.519257 17366.601562
2.080000 4.080000 4.120000 -33.360168 -81.786057 7801.859863
2.080000 4.080000 4.160000 -0.118768 -46.519745 2164.100830
2.080000 4.080000 4.200000 -1.482864 -16.736736 282.317230
2.080000 4.120000 3.800000 -5.938673 34.354897 1215.526733
2.080000 4.120000 3.840000 -9.350780 54.900261 3101.475586
2.080000 4.120000 3.880000 -37.144810 71.906891 6550.337891
2.080000 4.120000 3.920000 -79.371902 63.353226 10313.530273
2.080000 4.120000 3.960000 -110.595604 23.581421 12787.470703
2.080000 4.120000 4.000000 -109.725464 -30.433258 12965.861328
2.080000 4.120000 4.040000 -76.185654 -71.758476 10953.533203
2.080000 4.120000 4.080000 -28.899132 -83.179184 7753.936523
2.080000 4.120000 4.120000 9.168329 -67.037285 4578.055664
2.080000 4.120000 4.160000 26.207594 -39.139183 2218.713623
2.080000 4.120000 4.200000 24.962490 -15.099561 851.122681
2.080000 4.160000 3.800000 -19.576283 21.676981 853.122314
2.080000 4.160000 3.840000 -30.631039 19.334358 1312.078003
2.080000 4.160000 3.880000 -39.690315 7.940002 1638.364746
2.080000 4.160000 3.920000 -40.794632 -7.734665 1724.027100
2.080000 4.160000 3.960000 -34.552067 -21.508774 1656.472656
2.080000 4.160000 4.000000 -24.581352 -31.628620 1604.612549
2.080000 4.160000 4.040000 -11.610275 -39.221832 1673.150635
2.080000 4.160000 4.080000 6.260986 -42.456017 1841.713257
2.080000 4.160000 4.120000 27.193592 -35.431038 1994.849854
2.080000 4.160000 4.160000 42.026730 -15.127922 1995.099976
2.080000 4.160000 4.200000 40.361897 11.242798 1755.483154
2.080000 4.200000 3.800000 -22.450521 9.653349 597.213074
2.080000 4.200000 3.840000 -21.977085 -9.250095 568.556519
2.080000 4.200000 3.880000 -3.881179 -21.347733 470.789215
2.080000 4.200000 3.920000 17.058540 -13.447655 471.833221
2.080000 4.200000 3.960000 21.527740 6.897800 511.023254
2.080000 4.200000 4.000000 7.487793 18.373268 393.644043
2.080000 4.200000 4.040000 -6.355064 9.367538 128.137619
2.080000 4.200000 4.080000 -0.720947 -8.007122 64.633774
2.080000 4.200000 4.120000 21.955372 -10.069736 583.437927
2.080000 4.200000 4.160000 38.284103 12.257957 1615.930054
2.080000 4.200000 4.200000 28.216816 41.807156 2544.026855
2.120000 3.800000 3.800000 -20.586403 -18.077639 750.601013
2.120000 3.800000 3.840000 -11.568508 -20.396648 549.853638
2.120000 3.800000 3.880000 -4.072628 -17.597672 326.264343
2.120000 3.800000 3.920000 0.100853 -12.420205 154.271667
2.120000 3.800000 3.960000 1.537811 -6.838364 49.128082
2.120000 3.800000 4.000000 0.846462 -1.041611 1.801451
2.120000 3.800000 4.040000 -2.879191 4.735832 30.717846
2.120000 3.800000 4.080000 -10.555946 8.197042 178.619507
2.120000 3.800000 4.120000 -20.309208 5.908760 447.377380
2.120000 3.800000 4.160000 -27.110214 -3.093243 744.531921
2.120000 3.800000 4.200000 -26.347853 -14.969956 918.308960
2.120000 3.840000 3.800000 -8.937156 -36.969479 1446.615112
2.120000 3.840000 3.840000 -2.337652 -42.333385 1797.580078
2.120000 3.840000 3.880000 10.057655 -47.745171 2380.757812
2.120000 3.840000 3.920000 29.270874 -45.148720 2895.190918
2.120000 3.840000 3.960000 46.511833 -27.811291 2936.818359
2.120000 3.840000 4.000000 48.594921 0.022141 2361.466797
2.120000 3.840000 4.040000 30.300564 23.078602 1450.746094
2.120000 3.840000 4.080000 1.473499 26.622248 710.915283
2.120000 3.840000 4.120000 -19.456682 9.458906 468.033386
2.120000 3.840000 4.160000 -20.474382 -14.484236 628.993408
2.120000 3.840000 4.200000 -5.545749 -28.088299 819.707825
2.120000 3.880000 3.800000 16.651524 -43.931232 2207.226318
2.120000 3.880000 3.840000 27.039223 -55.014542 3757.719482
2.120000 3.880000 3.880000 54.518410 -60.519653 6634.885742
2.120000 3.880000 3.920000 89.418701 -41.489475 9717.081055
2.120000 3.880000 3.960000 105.986252 4.261135 11251.243164
2.120000 3.880000 4.000000 85.315109 53.709747 10163.405273
2.120000 3.880000 4.040000 35.722019 75.325836 6950.043945
2.120000 3.880000 4.080000 -11.178299 56.646553 3333.786377
2.120000 3.880000 4.120000 -26.776682 15.786049 966.190063
2.120000 3.880000 4.160000 -9.327192 -14.924376 309.733521
2.120000 3.880000 4.200000 17.430590 -17.416702 607.166992
2.120000 3.920000 3.800000 43.024387 -30.081226 2755.978027
2.120000 3.920000 3.840000 63.771633 -41.511356 5790.014160
2.120000 3.920000 3.880000 104.386307 -31.007877 11857.989258
2.120000 3.920000 3.920000 135.892685 17.884380 18786.673828
2.120000 3.920000 3.960000 123.833466 86.818092 22872.109375
2.120000 3.920000 4.000000 63.296341 132.396072 21535.148438
2.120000 3.920000 4.040000 -11.098095 123.398193 15350.282227
2.120000 3.920000 4.080000 -52.897316 69.749954 7663.182129
2.120000 3.920000 4.120000 -43.600044 13.924417 2094.853271
2.120000 3.920000 4.160000 -6.051188 -7.178116 88.142227
2.120000 3.920000 4.200000 20.519777 7.400861 475.833984
2.120000 3.960000 3.800000 53.543404 -0.398449 2867.054688
2.120000 3.960000 3.840000 83.440109 -1.931367 6965.981934
2.120000 3.960000 3.880000 120.269203 33.622070 15595.125000
2.120000 3.960000 3.920000 122.691017 103.535919 25772.773438
2.120000 3.960000 3.960000 67.757553 166.187744 32209.453125
2.120000 3.960000 4.000000 -21.137474 174.853531 31020.550781
2.120000 3.960000 4.040000 -89.779823 121.015137 22705.080078
2.120000 3.960000 4.080000 -99.424171 43.827484 11806.014648
2.120000 3.960000 4.120000 -59.191650 -4.591948 3524.737305
2.120000 3.960000 4.160000 -13.493773 -4.093792 198.841064
2.120000 3.960000 4.200000 1.291826 21.703720 472.720276
2.120000 4.000000 3.800000 41.265488 28.342901 2506.160645
2.120000 4.000000 3.840000 69.913406 42.441299 6689.148438
2.120000 4.000000 3.880000 83.476280 94.002831 15804.822266
2.120000 4.000000 3.920000 47.363064 156.533600 26746.027344
2.120000 4.000000 3.960000 -34.530922 180.971100 33942.921875
2.120000 4.000000 4.000000 -116.067001 140.523682 33218.453125
2.120000 4.000000 4.040000 -146.798706 57.892899 24901.447266
2.120000 4.000000 4.080000 -115.694878 -13.254969 13560.999023
2.120000 4.000000 4.120000 -58.100220 -34.975441 4598.916992
2.120000 4.000000 4.160000 -20.483366 -14.357546 625.707397
2.120000 4.000000 4.200000 -19.316973 11.041563 495.061554
2.120000 4.040000 3.800000 14.962042 40.270832 1845.602539
2.120000 4.040000 3.840000 30.488869 64.813568 5130.370117
2.120000 4.040000 3.880000 15.635080 110.199615 12388.411133
2.120000 4.040000 3.920000 -41.747704 139.257080 21135.406250
2.120000 4.040000 3.960000 -114.512566 117.984200 27033.398438
2.120000 4.040000 4.000000 -156.222992 49.264442 26832.609375
2.120000 4.040000 4.040000 -141.363617 -26.731731 20698.257812
2.120000 4.040000 4.080000 -86.804863 -66.768684 11993.141602
2.120000 4.040000 4.120000 -34.314407 -60.002834 4777.818359
2.120000 4.040000 4.160000 -12.864006 -31.375614 1149.911743
2.120000 4.040000 4.200000 -17.892080 -12.930115 487.314392
2.120000 4.080000 3.800000 -8.266594 32.798023 1144.046875
2.120000 4.080000 3.840000 -9.324757 54.828232 3093.086182
2.120000 4.080000 3.880000 -38.302937 76.110916 7259.986328
2.120000 4.080000 3.920000 -86.008865 69.170303 12182.055664
2.120000 4.080000 3.960000 -122.002350 25.502975 15534.974609
2.120000 4.080000 4.000000 -120.332291 -34.257210 15653.416992
2.120000 4.080000 4.040000 -81.859741 -76.912361 12616.528320
2.120000 4.080000 4.080000 -32.160683 -83.874207 8069.191895
2.120000 4.080000 4.120000 1.455407 -63.285473 4007.169189
2.120000 4.080000 4.160000 10.744463 -37.873962 1549.880493
2.120000 4.080000 4.200000 6.821161 -23.278545 588.418945
2.120000 4.120000 3.800000 -17.416468 17.206165 599.385498
2.120000 4.120000 3.840000 -27.346687 26.016130 1424.680420
2.120000 4.120000 3.880000 -48.492512 23.307236 2894.750977
2.120000 4.120000 3.920000 -66.753723 2.033844 4460.196289
2.120000 4.120000 3.960000 -67.605034 -30.295166 5488.237305
2.120000 4.120000 4.000000 -47.892189 -57.755310 5629.337891
2.120000 4.120000 4.040000 -17.067535 -68.355637 4963.793945
2.120000 4.120000 4.080000 11.439428 -61.078102 3861.395264
2.120000 4.120000 4.120000 29.238249 -43.097351 2712.256836
2.120000 4.120000 4.160000 35.078857 -22.658360 1743.927490
2.120000 4.120000 4.200000 31.382133 -5.117192 1011.023987
2.120000 4.160000 3.800000 -15.609446 6.950932 291.970245
2.120000 4.160000 3.840000 -22.110199 1.686378 491.704773
2.120000 4.160000 3.880000 -23.248337 -9.151760 624.239868
2.120000 4.160000 3.920000 -17.053894 -18.815830 644.870728
2.120000 4.160000 3.960000 -7.924515 -23.295887 605.496277
2.120000 4.160000 4.000000 0.187637 -24.681782 609.225586
2.120000 4.160000 4.040000 8.863300 -25.944921 751.697083
2.120000 4.160000 4.080000 21.566296 -24.452881 1063.048462
2.120000 4.160000 4.120000 35.684719 -13.733517 1462.008667
2.120000 4.160000 4.160000 41.302979 7.279004 1758.919922
2.120000 4.160000 4.200000 30.473930 28.638840 1748.843628
2.120000 4.200000 3.800000 -14.365714 5.138283 232.775681
2.120000 4.200000 3.840000 -9.833861 -6.394253 137.591293
2.120000 4.200000 3.880000 4.394512 -8.703468 95.062096
2.120000 4.200000 3.920000 14.323391 2.590075 211.868011
2.120000 4.200000 3.960000 9.691120 16.004595 350.064880
2.120000 4.200000 4.000000 -3.001400 16.759331 289.883545
2.120000 4.200000 4.040000 -6.704208 4.678101 66.831039
2.120000 4.200000 4.080000 6.366005 -3.734402 54.471775
2.120000 4.200000 4.120000 23.742935 6.850368 610.654541
2.120000 4.200000 4.160000 24.436964 31.943993 1617.583862
2.120000 4.200000 4.200000 1.946051 49.368889 2441.074219
2.160000 3.800000 3.800000 -15.923147 -25.974751 928.234314
2.160000 3.800000 3.840000 -3.203697 -25.078655 639.202637
2.160000 3.800000 3.880000 4.315830 -16.990059 307.288513
2.160000 3.800000 3.920000 4.281014 -8.356102 88.151527
2.160000 3.800000 3.960000 0.338532 -4.035940 16.403418
2.160000 3.800000 4.000000 -2.629253 -3.399380 18.468754
2.160000 3.800000 4.040000 -3.676643 -2.709568 20.859467
2.160000 3.800000 4.080000 -5.823610 -0.567095 34.236034
2.160000 3.800000 4.120000 -11.155183 -0.011835 124.438240
2.160000 3.800000 4.160000 -16.945232 -4.791748 310.101746
2.160000 3.800000 4.200000 -17.584841 -14.077520 507.403198
2.160000 3.840000 3.800000 7.852866 -39.527737 1624.109497
2.160000 3.840000 3.840000 21.151657 -32.746925 1519.753662
2.160000 3.840000 3.880000 28.282808 -21.361523 1256.231934
2.160000 3.840000 3.920000 29.302559 -9.531004 949.479980
2.160000 3.840000 3.960000 25.752644 0.725489 663.724976
2.160000 3.840000 4.000000 18.424381 8.465069 411.115204
2.160000 3.840000 4.040000 7.948658 11.858643 203.808578
2.160000 3.840000 4.080000 -3.007454 8.664870 84.124756
2.160000 3.840000 4.120000 -9.565032 -0.827268 92.174210
2.160000 3.840000 4.160000 -7.946887 -12.020594 207.647690
2.160000 3.840000 4.200000 0.728245 -18.419170 339.796173
2.160000 3.880000 3.800000 37.797523 -30.581673 2363.891602
2.160000 3.880000 3.840000 48.199196 -18.320988 2658.821289
2.160000 3.880000 3.880000 53.294800 -2.569229 2846.936523
2.160000 3.880000 3.920000 51.411308 15.291529 2876.953369
2.160000 3.880000 3.960000 40.370003 31.606655 2628.717773
2.160000 3.880000 4.000000 21.185678 39.949306 2044.780151
2.160000 3.880000 4.040000 0.672224 35.350822 1250.132568
2.160000 3.880000 4.080000 -11.492551 19.730717 521.379883
2.160000 3.880000 4.120000 -10.010649 2.341295 105.694756
2.160000 3.880000 4.160000 1.291519 -6.671666 46.179150
2.160000 3.880000 4.200000 12.423751 -4.232015 172.259521
2.160000 3.920000 3.800000 53.379768 -0.624465 2849.789551
2.160000 3.920000 3.840000 58.231075 14.710210 3607.248535
2.160000 3.920000 3.880000 57.820320 34.288849 4518.914551
2.160000 3.920000 3.920000 46.650185 55.656460 5273.881348
2.160000 3.920000 3.960000 22.552914 69.733353 5371.374023
2.160000 3.920000 4.000000 -7.075115 66.877563 4522.665527
2.160000 3.920000 4.040000 -28.027342 46.622959 2959.232422
2.160000 3.920000 4.080000 -30.253834 20.622517 1340.582642
2.160000 3.920000 4.120000 -16.794245 4.189425 299.597961
2.160000 3.920000 4.160000 -1.230327 3.769286 15.721223
2.160000 3.920000 4.200000 4.477458 12.403479 173.893921
2.160000 3.960000 3.800000 42.621162 32.037788 2842.983398
2.160000 3.960000 3.840000 41.201046 46.903561 3897.470215
2.160000 3.960000 3.880000 32.371101 66.324928 5446.884277
2.160000 3.960000 3.920000 9.600689 82.801346 6948.236328
2.160000 3.960000 3.960000 -23.480116 83.488152 7521.587402
2.160000 3.960000 4.000000 -51.773262 62.762001 6619.539551
2.160000 3.960000 4.040000 -60.135971 30.193592 4527.987793
2.160000 3.960000 4.080000 -46.985573 4.317704 2226.286621
2.160000 3.960000 4.120000 -26.021158 -2.867748 685.324646
2.160000 3.960000 4.160000 -13.664119 4.502312 206.978958
2.160000 3.960000 4.200000 -14.573836 12.032984 357.189392
2.160000 4.000000 3.800000 13.128968 46.381989 2323.658691
2.160000 4.000000 3.840000 6.954383 57.596725 3365.746338
2.160000 4.000000 3.880000 -9.281530 70.868805 5108.534668
2.160000 4.000000 3.920000 -37.721466 74.203644 6929.089844
2.160000 4.000000 3.960000 -67.146652 57.472725 7811.787109
2.160000 4.000000 4.000000 -80.634300 24.560907 7105.128418
2.160000 4.000000 4.040000 -70.821762 -7.467292 5071.482422
2.160000 4.000000 4.080000 -47.149120 -22.523392 2730.342773
2.160000 4.000000 4.120000 -27.187681 -19.094322 1103.763184
2.160000 4.000000 4.160000 -20.726288 -9.598341 521.707153
2.160000 4.000000 4.200000 -22.705040 -6.712969 560.582825
2.160000 4.040000 3.800000 -13.957661 36.297241 1512.306030
2.160000 4.040000 3.840000 -22.016037 42.361969 2279.242188
2.160000 4.040000 3.880000 -40.037273 45.623039 3684.444824
2.160000 4.040000 3.920000 -63.116837 35.035110 5211.194336
2.160000 4.040000 3.960000 -77.268143 8.692536 6045.925781
2.160000 4.040000 4.000000 -72.044464 -21.932436 5671.436523
2.160000 4.040000 4.040000 -50.699986 -41.230854 4270.471680
2.160000 4.040000 4.080000 -27.224691 -42.908100 2582.289062
2.160000 4.040000 4.120000 -13.472388 -34.031811 1339.669434
2.160000 4.040000 4.160000 -9.758491 -26.236025 783.557129
2.160000 4.040000 4.200000 -7.926715 -24.035818 640.553406
2.160000 4.080000 3.800000 -22.467710 15.022118 730.462036
2.160000 4.080000 3.840000 -29.718287 16.295351 1148.715088
2.160000 4.080000 3.880000 -42.573044 10.942863 1932.210327
2.160000 4.080000 3.920000 -52.419014 -5.444124 2777.391357
2.160000 4.080000 3.960000 -50.181671 -27.433895 3270.818848
2.160000 4.080000 4.000000 -35.095264 -44.136009 3179.665039
2.160000 4.080000 4.040000 -15.139841 -48.767029 2607.437988
2.160000 4.080000 4.080000 0.681822 -43.365311 1881.015015
2.160000 4.080000 4.120000 9.507066 -34.673916 1292.664673
2.160000 4.080000 4.160000 14.216859 -26.797310 920.214905
2.160000 4.080000 4.200000 17.463943 -18.885380 661.646851
2.160000 4.120000 3.800000 -14.754770 1.705482 220.611923
2.160000 4.120000 3.840000 -19.548773 -0.600243 382.514801
2.160000 4.120000 3.880000 -23.485685 -8.817659 629.328491
2.160000 4.120000 3.920000 -21.231674 -20.123297 855.731079
2.160000 4.120000 3.960000 -12.444183 -28.752071 981.539307
2.160000 4.120000 4.000000 -1.115189 -31.682552 1005.027771
2.160000 4.120000 4.040000 9.294905 -30.097668 992.264893
2.160000 4.120000 4.080000 18.467358 -25.776817 1005.487671
2.160000 4.120000 4.120000 26.659126 -18.043736 1036.285400
2.160000 4.120000 4.160000 31.213915 -5.743056 1007.291138
2.160000 4.120000 4.200000 27.861509 8.383939 846.554077
2.160000 4.160000 3.800000 -7.100596 3.052098 59.733772
2.160000 4.160000 3.840000 -8.435407 -1.748505 74.213348
2.160000 4.160000 3.880000 -4.713270 -6.770178 68.050224
2.160000 4.160000 3.920000 1.312576 -7.473413 57.574753
2.160000 4.160000 3.960000 4.724527 -4.986450 47.185841
2.160000 4.160000 4.000000 5.422077 -4.238968 47.367767
2.160000 4.160000 4.040000 8.657999 -6.395679 115.865662
2.160000 4.160000 4.080000 17.518841 -5.573031 337.968475
2.160000 4.160000 4.120000 26.496181 4.729753 724.418152
2.160000 4.160000 4.160000 25.268524 22.129047 1128.192993
2.160000 4.160000 4.200000 10.111088 34.668724 1304.154541
2.160000 4.200000 3.800000 -11.816381 8.192446 206.743011
2.160000 4.200000 3.840000 -8.450605 2.106074 75.848282
2.160000 4.200000 3.880000 -1.287954 3.206898 11.943020
2.160000 4.200000 3.920000 0.322313 10.495156 110.252197
2.160000 4.200000 3.960000 -6.047306 14.464949 245.804657
2.160000 4.200000 4.000000 -11.776528 9.085340 221.230026
2.160000 4.200000 4.040000 -7.173972 0.771772 52.061512
2.160000 4.200000 4.080000 5.436019 2.417351 35.393890
2.160000 4.200000 4.120000 11.721472 17.910557 458.180969
2.160000 4.200000 4.160000 0.431118 34.977955 1223.643188
2.160000 4.200000 4.200000 -22.585110 36.273708 1825.869019
2.200000 3.800000 3.800000 -7.313114 -29.217781 907.160339
2.200000 3.800000 3.840000 4.519790 -23.098040 553.947937
2.200000 3.800000 3.880000 7.433920 -12.530604 212.279221
2.200000 3.800000 3.920000 2.891461 -6.096533 45.528263
2.200000 3.800000 3.960000 -1.697057 -6.561232 45.929760
2.200000 3.800000 4.000000 -1.127322 -9.058336 83.324310
2.200000 3.800000 4.040000 2.293589 -7.377833 59.692974
2.200000 3.800000 4.080000 1.979651 -1.461281 6.054362
2.200000 3.800000 4.120000 -4.771502 2.204483 27.626972
2.200000 3.800000 4.160000 -12.778412 -2.119590 167.780472
2.200000 3.800000 4.200000 -13.785849 -12.418760 344.275208
2.200000 3.840000 3.800000 20.871244 -30.411133 1360.445801
2.200000 3.840000 3.840000 27.554602 -12.935140 926.573975
2.200000 3.840000 3.880000 20.227242 1.460985 411.275787
2.200000 3.840000 3.920000 7.900633 4.239007 80.389191
2.200000 3.840000 3.960000 1.494970 -1.780305 5.404422
2.200000 3.840000 4.000000 3.595580 -6.921891 60.840767
2.200000 3.840000 4.040000 7.586542 -5.348336 86.160316
2.200000 3.840000 4.080000 6.227650 -0.455043 38.990692
2.200000 3.840000 4.120000 -0.017470 0.127190 0.016483
2.200000 3.840000 4.160000 -3.837479 -6.104113 51.986435
2.200000 3.840000 4.200000 0.340029 -13.325029 177.672028
2.200000 3.880000 3.800000 42.560921 -7.826048 1872.679077
2.200000 3.880000 3.840000 35.422951 14.341854 1460.474121
2.200000 3.880000 3.880000 16.511116 23.032509 803.113403
2.200000 3.880000 3.920000 0.952180 15.872646 252.847549
2.200000 3.880000 3.960000 -1.733853 3.201845 13.258054
2.200000 3.880000 4.000000 5.165413 -2.881586 34.985035
2.200000 3.880000 4.040000 11.071430 0.432820 122.763901
2.200000 3.880000 4.080000 9.578852 6.155521 129.644836
2.200000 3.880000 4.120000 3.854879 6.583528 58.202938
2.200000 3.880000 4.160000 1.435016 1.581297 4.559771
2.200000 3.880000 4.200000 5.252153 -2.390047 33.297440
2.200000 3.920000 3.800000 40.048454 25.245865 2241.232422
2.200000 3.920000 3.840000 18.573730 40.030907 1947.457031
2.200000 3.920000 3.880000 -4.813787 34.997288 1247.982666
2.200000 3.920000 3.920000 -14.827844 17.222008 516.462524
2.200000 3.920000 3.960000 -8.615494 2.170499 78.937798
2.200000 3.920000 4.000000 3.692459 -0.089558 13.642271
2.200000 3.920000 4.040000 9.718269 7.800832 155.297729
2.200000 3.920000 4.080000 5.741089 15.483870 272.710327
2.200000 3.920000 4.120000 -2.155955 15.688171 250.766876
2.200000 3.920000 4.160000 -6.001006 9.945048 134.916061
2.200000 3.920000 4.200000 -3.731862 4.894872 37.886562
2.200000 3.960000 3.800000 13.653416 45.542736 2260.556641
2.200000 3.960000 3.840000 -12.735895 44.303421 2124.996094
2.200000 3.960000 3.880000 -29.178646 25.760962 1515.020508
2.200000 3.960000 3.920000 -26.881802 4.128927 739.679321
2.200000 3.960000 3.960000 -11.726156 -5.728929 170.323380
2.200000 3.960000 4.000000 1.863549 -0.075954 3.478583
2.200000 3.960000 4.040000 3.471123 12.320648 163.847061
2.200000 3.960000 4.080000 -5.744882 19.270565 404.358337
2.200000 3.960000 4.120000 -16.232231 15.542349 505.049927
2.200000 3.960000 4.160000 -19.457939 5.569499 409.630707
2.200000 3.960000 4.200000 -14.470066 -2.303255 214.687805
2.200000 4.000000 3.800000 -17.177322 39.602280 1863.401001
2.200000 4.000000 3.840000 -35.719711 24.058334 1854.701294
2.200000 4.000000 3.880000 -37.855400 0.985600 1434.002808
2.200000 4.000000 3.920000 -23.990200 -14.619702 789.265442
2.200000 4.000000 3.960000 -6.044176 -13.990421 232.263947
2.200000 4.000000 4.000000 2.273621 -1.149306 6.490254
2.200000 4.000000 4.040000 -3.739988 11.167324 138.696640
2.200000 4.000000 4.080000 -17.011925 12.341559 441.719666
2.200000 4.000000 4.120000 -25.621248 1.956618 660.276733
2.200000 4.000000 4.160000 -22.808571 -11.193598 645.527527
2.200000 4.000000 4.200000 -11.503485 -17.274977 430.755005
2.200000 4.040000 3.800000 -30.676168 15.714917 1187.985840
2.200000 4.040000 3.840000 -34.961700 -3.632350 1235.514526
2.200000 4.040000 3.880000 -24.878769 -20.223022 1027.923828
2.200000 4.040000 3.920000 -7.316770 -24.034256 631.180542
2.200000 4.040000 3.960000 5.248817 -14.165473 228.210709
2.200000 4.040000 4.000000 4.401552 -0.021942 19.374142
2.200000 4.040000 4.040000 -7.376335 6.107829 91.715897
2.200000 4.040000 4.080000 -18.864925 -0.911712 356.716614
2.200000 4.040000 4.120000 -19.596123 -15.043074 610.302124
2.200000 4.040000 4.160000 -8.491436 -24.577045 676.135681
2.200000 4.040000 4.200000 5.820960 -22.131664 523.694153
2.200000 4.080000 3.800000 -22.156569 -4.281294 509.243011
2.200000 4.080000 3.840000 -16.179857 -17.070518 553.190369
2.200000 4.080000 3.880000 -2.907691 -22.369190 508.835358
2.200000 4.080000 3.920000 9.515823 -16.567257 365.024902
2.200000 4.080000 3.960000 12.490290 -4.246278 174.038208
2.200000 4.080000 4.000000 4.468362 4.334611 38.755112
2.200000 4.080000 4.040000 -6.760280 1.662001 48.463638
2.200000 4.080000 4.080000 -10.269817 -10.033775 206.145798
2.200000 4.080000 4.120000 -1.730956 -20.226177 412.094452
2.200000 4.080000 4.160000 12.424387 -19.371597 529.624146
2.200000 4.080000 4.200000 20.719631 -7.525962 485.943237
2.200000 4.120000 3.800000 -7.034116 -6.023914 85.766327
2.200000 4.120000 3.840000 0.013052 -10.057925 101.162025
2.200000 4.120000 3.880000 8.549957 -7.818090 134.224304
2.200000 4.120000 3.920000 12.483284 0.331462 155.942245
2.200000 4.120000 3.960000 8.140200 8.157002 132.799530
2.200000 4.120000 4.000000 -0.800331 8.338316 70.168045
2.200000 4.120000 4.040000 -5.342739 0.026070 28.545534
2.200000 4.120000 4.080000 0.388984 -8.942808 80.125122
2.200000 4.120000 4.120000 12.510083 -8.853528 234.887146
2.200000 4.120000 4.160000 20.159782 2.152806 411.051422
2.200000 4.120000 4.200000 15.810133 15.533546 491.251373
2.200000 4.160000 3.800000 -4.157677 4.148511 34.496422
2.200000 4.160000 3.840000 -1.241749 3.216710 11.889164
2.200000 4.160000 3.880000 1.667923 5.979503 38.536427
2.200000 4.160000 3.920000 0.301951 10.706314 114.716331
2.200000 4.160000 3.960000 -5.469370 11.773344 168.525635
2.200000 4.160000 4.000000 -9.639421 6.183024 131.148239
2.200000 4.160000 4.040000 -5.927025 -1.341276 36.928650
2.200000 4.160000 4.080000 4.227343 -1.868255 21.360802
2.200000 4.160000 4.120000 11.211889 8.048004 190.476837
2.200000 4.160000 4.160000 6.453683 21.091806 486.514313
2.200000 4.160000 4.200000 -7.921886 25.324657 704.094543
2.200000 4.200000 3.800000 -16.164810 7.183229 312.899872
2.200000 4.200000 3.840000 -14.554493 3.622495 224.955734
2.200000 4.200000 3.880000 -12.605623 3.928678 174.336243
2.200000 4.200000 3.920000 -14.172808 4.979468 225.663589
2.200000 4.200000 3.960000 -16.999743 1.945049 292.774445
2.200000 4.200000 4.000000 -14.909077 -4.200378 239.923737
2.200000 4.200000 4.040000 -6.357378 -5.994795 76.353821
2.200000 4.200000 4.080000 1.204427 2.022197 5.539925
2.200000 4.200000 4.120000 -1.972230 15.000840 228.914902
2.200000 4.200000 4.160000 -16.435032 20.528854 691.544128
2.200000 4.200000 4.200000 -30.586128 11.258912 1062.274292
