#kx 	ky 	kz 	real 	imag 	intensity
1.800000 3.800000 3.983333 -89.130386 -51.952984 10643.337891
1.800000 3.800000 3.991667 18.469963 -31.458807 1330.796143
1.800000 3.800000 4.000000 -63.343948 14.268917 4216.057617
1.800000 3.800000 4.008334 -50.752022 -106.342361 13884.465820
1.800000 3.800000 4.016667 73.902779 -38.925224 6976.793945
1.800000 3.900000 3.983333 -14.823277 -90.096832 8337.168945
1.800000 3.900000 3.991667 47.555367 3.914215 2276.833984
1.800000 3.900000 4.000000 -55.626198 -45.848877 5196.393555
1.800000 3.900000 4.008334 64.695488 -83.244568 11115.164062
1.800000 3.900000 4.016667 56.393406 -3.125751 3189.986572
1.800000 4.000000 3.983333 47.950588 -51.467083 4948.119629
1.800000 4.000000 3.991667 66.352203 -11.596859 4537.102051
1.800000 4.000000 4.000000 60.707008 19.377741 4060.837646
1.800000 4.000000 4.008334 51.154922 -2.173912 2621.552002
1.800000 4.000000 4.016667 108.191666 102.456039 22202.675781
1.800000 4.100000 3.983333 13.029083 3.515308 182.114395
1.800000 4.100000 3.991667 105.878700 94.984299 20232.316406
1.800000 4.100000 4.000000 -132.763046 116.812462 31271.179688
1.800000 4.100000 4.008334 13.053589 -34.920856 1389.862305
1.800000 4.100000 4.016667 -129.015350 125.504845 32396.425781
1.800000 4.200000 3.983333 19.733772 -35.563751 1654.202148
1.800000 4.200000 3.991667 -33.945538 131.514877 18448.460938
1.800000 4.200000 4.000000 -125.754272 -149.588501 38190.855469
1.800000 4.200000 4.008334 105.740196 -19.678455 11568.230469
1.800000 4.200000 4.016667 -36.779408 -88.953568 9265.461914
1.900000 3.800000 3.983333 -58.476589 -27.548201 4178.415039
1.900000 3.800000 3.991667 -33.995541 -127.294769 17359.654297
1.900000 3.800000 4.000000 44.175457 -13.355423 2129.838379
1.900000 3.800000 4.008334 -25.238350 -106.945351 12074.282227
1.900000 3.800000 4.016667 141.503281 11.315900 20151.226562
1.900000 3.900000 3.983333 438.845123 -679.353455 654106.187500
1.900000 3.900000 3.991667 -200.686920 873.987488 804129.375000
1.900000 3.900000 4.000000 -1035.435669 -627.208496 1465517.500000
1.900000 3.900000 4.008334 36.924377 -745.314209 556856.687500
1.900000 3.900000 4.016667 255.468842 -729.223633 597031.437500
1.900000 4.000000 3.983333 1129.025269 471.948120 1497433.000000
1.900000 4.000000 3.991667 -1380.309082 -137.216461 1924081.500000
1.900000 4.000000 4.000000 694.873535 -1685.515869 3323813.000000
1.900000 4.000000 4.008334 1077.978394 -235.998444 1217732.625000
1.900000 4.000000 4.016667 1311.284180 223.867340 1769582.875000
1.900000 4.100000 3.983333 -98.048531 779.783569 617675.937500
1.900000 4.100000 3.991667 -109.870392 -754.286316 581019.375000
1.900000 4.100000 4.000000 1017.473389 197.243027 1074157.000000
1.900000 4.100000 4.008334 311.952820 621.942444 484126.968750
1.900000 4.100000 4.016667 -50.073975 872.422607 763628.562500
1.900000 4.200000 3.983333 -13.787983 161.368835 26230.009766
1.900000 4.200000 3.991667 -216.474243 -62.356689 50749.453125
1.900000 4.200000 4.000000 96.008522 -136.919220 27964.509766
1.900000 4.200000 4.008334 -6.614755 75.912422 5806.450684
1.900000 4.200000 4.016667 -18.336256 -63.040829 4310.364258
2.000000 3.800000 3.983333 -78.293449 -133.730362 24013.675781
2.000000 3.800000 3.991667 177.288651 -120.946533 46059.328125
2.000000 3.800000 4.000000 7.724266 61.494061 3841.183838
2.000000 3.800000 4.008334 75.609688 -141.361771 25699.974609
2.000000 3.800000 4.016667 137.311768 109.155121 30769.363281
2.000000 3.900000 3.983333 1155.406494 422.031830 1513075.000000
2.000000 3.900000 3.991667 -1339.304077 -106.659485 1805111.625000
2.000000 3.900000 4.000000 675.093506 -1773.884033 3602415.750000
2.000000 3.900000 4.008334 1222.485718 -221.115417 1543363.375000
2.000000 3.900000 4.016667 1273.594238 243.643265 1681404.250000
2.000000 4.000000 3.983333 -433.376282 1817.159912 3489885.250000
2.000000 4.000000 3.991667 -72.529724 -2168.078857 4705826.500000
2.000000 4.000000 4.000000 2829.241455 651.978271 8429683.000000
2.000000 4.000000 4.008334 672.317993 1624.382324 3090629.500000
2.000000 4.000000 4.016667 78.714539 2111.102783 4462951.000000
2.000000 4.100000 3.983333 -1216.137329 -2.259918 1478995.125000
2.000000 4.100000 3.991667 1256.386108 -292.440369 1664027.375000
2.000000 4.100000 4.000000 -139.938721 1751.202637 3086293.500000
2.000000 4.100000 4.008334 -901.375916 578.950439 1147662.250000
2.000000 4.100000 4.016667 -1380.553223 253.119446 1969996.750000
2.000000 4.200000 3.983333 -196.554123 -29.468405 39501.910156
2.000000 4.200000 3.991667 50.607140 -186.870972 37481.843750
2.000000 4.200000 4.000000 80.283104 -10.103706 6547.461914
2.000000 4.200000 4.008334 7.939056 -42.487705 1868.233643
2.000000 4.200000 4.016667 79.067245 -89.164978 14202.022461
2.100000 3.800000 3.983333 111.375084 -86.909279 19957.632812
2.100000 3.800000 3.991667 72.310425 94.273666 14116.322266
2.100000 3.800000 4.000000 -28.149448 21.331245 1247.413452
2.100000 3.800000 4.008334 85.451538 -26.309135 7994.135742
2.100000 3.800000 4.016667 57.229019 158.154434 28287.984375
2.100000 3.900000 3.983333 -149.712891 820.860291 696225.562500
2.100000 3.900000 3.991667 -65.022217 -877.089172 773513.312500
2.100000 3.900000 4.000000 1204.215576 258.831787 1517129.000000
2.100000 3.900000 4.008334 301.591919 764.752747 675804.437500
2.100000 3.900000 4.016667 -59.407623 900.245789 813971.750000
2.100000 4.000000 3.983333 -1226.090698 -141.668427 1523368.375000
2.100000 4.000000 3.991667 1363.103271 -256.928314 1924062.625000
2.100000 4.000000 4.000000 -139.259308 1857.359619 3469178.000000
2.100000 4.000000 4.008334 -989.861816 577.731567 1313600.250000
2.100000 4.000000 4.016667 -1306.547241 243.655243 1766433.625000
2.100000 4.100000 3.983333 -43.362045 -806.101501 651679.875000
2.100000 4.100000 3.991667 297.175903 768.601501 679061.750000
2.100000 4.100000 4.000000 -1115.124268 41.934196 1245260.625000
2.100000 4.100000 4.008334 -404.122101 -552.040039 468062.875000
2.100000 4.100000 4.016667 -254.885178 -806.347839 715163.250000
2.100000 4.200000 3.983333 60.735710 -68.486237 8379.191406
2.100000 4.200000 3.991667 86.051872 23.992685 7980.573730
2.100000 4.200000 4.000000 80.999374 36.378246 7884.275391
2.100000 4.200000 4.008334 58.511578 62.232094 7296.438477
2.100000 4.200000 4.016667 72.166618 99.367477 15081.916016
2.200000 3.800000 3.983333 0.599664 54.867630 3010.816406
2.200000 3.800000 3.991667 -14.563681 -77.940109 6286.761230
2.200000 3.800000 4.000000 11.696293 -14.110727 335.915894
2.200000 3.800000 4.008334 90.265053 -39.171158 9682.159180
2.200000 3.800000 4.016667 -25.161133 144.975586 21651.001953
2.200000 3.900000 3.983333 -88.703613 -50.371895 10405.659180
2.200000 3.900000 3.991667 107.358742 -18.020531 11850.638672
2.200000 3.900000 4.000000 -3.628955 58.816818 3472.587646
2.200000 3.900000 4.008334 5.140410 49.839268 2510.376465
2.200000 3.900000 4.016667 -83.162247 -10.294216 7021.930176
2.200000 4.000000 3.983333 106.846420 -103.197998 22065.984375
2.200000 4.000000 3.991667 24.614534 37.058205 1979.185791
2.200000 4.000000 4.000000 -8.845787 -27.619604 841.090454
2.200000 4.000000 4.008334 31.352066 -37.851303 2415.673340
2.200000 4.000000 4.016667 54.695618 22.975653 3519.491211
2.200000 4.100000 3.983333 110.483727 106.537323 23556.855469
2.200000 4.100000 3.991667 36.442291 0.370937 1328.178223
2.200000 4.100000 4.000000 85.047974 52.311035 9969.601562
2.200000 4.100000 4.008334 66.913239 75.667412 10202.938477
2.200000 4.100000 4.016667 -26.647177 123.393051 15935.916992
2.200000 4.200000 3.983333 -55.134060 118.788635 17150.503906
2.200000 4.200000 3.991667 -7.500751 15.331825 291.326141
2.200000 4.200000 4.000000 -31.982273 98.376450 10700.791992
2.200000 4.200000 4.008334 -60.772171 48.435371 6039.242188
2.200000 4.200000 4.016667 -117.196945 33.629665 14866.078125
