#kx 	ky 	kz 	real 	imag 	intensity
7.800000 -4.200000 -4.200000 -22.130844 9.233391 575.029785
7.800000 -4.200000 -4.160000 -11.227754 0.487777 126.300377
7.800000 -4.200000 -4.120000 -3.558057 12.596596 171.334000
7.800000 -4.200000 -4.080000 -19.520708 28.421368 1188.832153
7.800000 -4.200000 -4.040000 -50.574020 20.106163 2961.989258
7.800000 -4.200000 -4.000000 -64.851021 -17.006136 4494.863281
7.800000 -4.200000 -3.960000 -41.747711 -54.277958 4688.967773
7.800000 -4.200000 -3.920000 2.446363 -57.487236 3310.766846
7.800000 -4.200000 -3.880000 28.048527 -23.774178 1351.931396
7.800000 -4.200000 -3.840000 12.207082 12.950404 316.725830
7.800000 -4.200000 -3.800000 -26.849684 15.664793 966.291260
7.800000 -4.160000 -4.200000 -22.409578 -10.659932 615.823364
7.800000 -4.160000 -4.160000 -6.126106 -11.405134 167.606262
7.800000 -4.160000 -4.120000 -4.190589 3.461958 29.546192
7.800000 -4.160000 -4.080000 -23.390800 9.433891 636.127808
7.800000 -4.160000 -4.040000 -42.632751 -10.642940 1930.823730
7.800000 -4.160000 -4.000000 -35.428364 -44.051823 3195.731934
7.800000 -4.160000 -3.960000 -1.117508 -59.174557 3502.876953
7.800000 -4.160000 -3.920000 31.007135 -39.615479 2530.828613
7.800000 -4.160000 -3.880000 31.259283 -3.916786 992.483948
7.800000 -4.160000 -3.840000 1.477807 12.114670 148.949142
7.800000 -4.160000 -3.800000 -25.879385 -7.445783 725.182251
7.800000 -4.120000 -4.200000 -7.504418 -23.922359 628.595581
7.800000 -4.120000 -4.160000 7.452527 -15.252216 288.170258
7.800000 -4.120000 -4.120000 4.261802 -1.101675 19.376642
7.800000 -4.120000 -4.080000 -10.922918 -1.778536 122.473335
7.800000 -4.120000 -4.040000 -16.489449 -19.969730 670.692017
7.800000 -4.120000 -4.000000 -0.623634 -36.377678 1323.724365
7.800000 -4.120000 -3.960000 23.633617 -31.240448 1534.513428
7.800000 -4.120000 -3.920000 31.699680 -7.766394 1065.186646
7.800000 -4.120000 -3.880000 15.050111 9.663506 319.889160
7.800000 -4.120000 -3.840000 -7.950966 1.671898 66.013100
7.800000 -4.120000 -3.800000 -10.998527 -24.306053 711.751831
7.800000 -4.080000 -4.200000 11.596630 -21.086718 579.131470
7.800000 -4.080000 -4.160000 19.647190 -6.250363 425.079132
7.800000 -4.080000 -4.120000 12.629415 5.797869 193.117386
7.800000 -4.080000 -4.080000 1.681133 4.474797 22.850014
7.800000 -4.080000 -4.040000 0.341911 -4.742106 22.604473
7.800000 -4.080000 -4.000000 8.665655 -7.921930 137.850555
7.800000 -4.080000 -3.960000 13.832592 -0.227098 191.392181
7.800000 -4.080000 -3.920000 6.616915 7.621876 101.876556
7.800000 -4.080000 -3.880000 -5.869030 2.159082 39.107151
7.800000 -4.080000 -3.840000 -6.964149 -15.429799 286.578064
7.800000 -4.080000 -3.800000 10.153386 -28.212353 899.028076
7.800000 -4.040000 -4.200000 21.025942 -5.325590 470.452148
7.800000 -4.040000 -4.160000 20.027031 10.062641 502.338715
7.800000 -4.040000 -4.120000 9.392901 18.843790 443.315002
7.800000 -4.040000 -4.080000 -1.633087 17.893980 322.861481
7.800000 -4.040000 -4.040000 -7.350200 12.721804 215.869720
7.800000 -4.040000 -4.000000 -10.194920 8.611801 178.099503
7.800000 -4.040000 -3.960000 -14.284806 3.741034 218.051025
7.800000 -4.040000 -3.920000 -16.996901 -6.753836 334.508911
7.800000 -4.040000 -3.880000 -10.390578 -21.003641 549.117065
7.800000 -4.040000 -3.840000 8.033958 -28.235302 861.776794
7.800000 -4.040000 -3.800000 28.391167 -19.013454 1167.569824
7.800000 -4.000000 -4.200000 15.326345 11.077984 357.618591
7.800000 -4.000000 -4.160000 6.700736 21.557467 509.624207
7.800000 -4.000000 -4.120000 -6.735853 24.210432 631.516724
7.800000 -4.000000 -4.080000 -18.819630 19.054071 717.236084
7.800000 -4.000000 -4.040000 -26.833206 9.191044 804.496216
7.800000 -4.000000 -4.000000 -30.445406 -3.835402 941.633057
7.800000 -4.000000 -3.960000 -27.534668 -19.575764 1141.368408
7.800000 -4.000000 -3.920000 -14.450916 -33.952236 1361.583374
7.800000 -4.000000 -3.880000 7.845865 -38.216938 1522.091919
7.800000 -4.000000 -3.840000 29.471964 -25.932388 1541.085449
7.800000 -4.000000 -3.800000 36.994991 -1.678648 1371.447266
7.800000 -3.960000 -4.200000 0.362393 17.447481 304.545929
7.800000 -3.960000 -4.160000 -11.852441 19.306376 513.216492
7.800000 -3.960000 -4.120000 -23.931097 12.879177 738.570557
7.800000 -3.960000 -4.080000 -31.092686 0.481609 966.987061
7.800000 -3.960000 -4.040000 -31.774469 -14.486620 1219.479004
7.800000 -3.960000 -4.000000 -25.339251 -29.710915 1524.816162
7.800000 -3.960000 -3.960000 -10.509422 -41.840454 1861.071655
7.800000 -3.960000 -3.920000 11.566984 -44.600868 2123.032471
7.800000 -3.960000 -3.880000 33.290787 -32.496502 2164.299072
7.800000 -3.960000 -3.840000 42.839310 -8.035524 1899.776123
7.800000 -3.960000 -3.800000 33.516426 16.262363 1387.815308
7.800000 -3.920000 -4.200000 -13.510927 12.170169 330.658142
7.800000 -3.920000 -4.160000 -23.851561 4.375517 588.042114
7.800000 -3.920000 -4.120000 -27.581121 -10.110605 862.942627
7.800000 -3.920000 -4.080000 -22.235636 -24.682266 1103.637817
7.800000 -3.920000 -4.040000 -10.691094 -34.474201 1302.770020
7.800000 -3.920000 -4.000000 3.623201 -38.577133 1501.322754
7.800000 -3.920000 -3.960000 19.367538 -36.761662 1726.521362
7.800000 -3.920000 -3.920000 34.509590 -26.963497 1917.942017
7.800000 -3.920000 -3.880000 43.168846 -8.373354 1933.662354
7.800000 -3.920000 -3.840000 38.541409 13.413888 1665.372559
7.800000 -3.920000 -3.800000 20.464827 27.238218 1160.729614
7.800000 -3.880000 -4.200000 -20.170559 0.982503 407.816742
7.800000 -3.880000 -4.160000 -23.226213 -14.260401 742.815979
7.800000 -3.880000 -4.120000 -13.452568 -29.907722 1075.443481
7.800000 -3.880000 -4.080000 4.764667 -35.483471 1281.778687
7.800000 -3.880000 -4.040000 20.991283 -29.170876 1291.573975
7.800000 -3.880000 -4.000000 29.147615 -17.625439 1160.239624
7.800000 -3.880000 -3.960000 31.289536 -7.263721 1031.796631
7.800000 -3.880000 -3.920000 31.640392 1.806912 1004.379395
7.800000 -3.880000 -3.880000 29.573513 12.448404 1029.555420
7.800000 -3.880000 -3.840000 20.781919 23.115673 966.222534
7.800000 -3.880000 -3.800000 4.933681 26.759979 740.437683
7.800000 -3.840000 -4.200000 -20.107065 -10.094034 506.183594
7.800000 -3.840000 -4.160000 -12.517778 -27.650930 921.268738
7.800000 -3.840000 -4.120000 9.347189 -34.984467 1311.282837
7.800000 -3.840000 -4.080000 30.915808 -23.473846 1506.808594
7.800000 -3.840000 -4.040000 37.207550 -1.171778 1385.774780
7.800000 -3.840000 -4.000000 27.278145 15.683323 990.063782
7.800000 -3.840000 -3.960000 13.354901 18.837366 533.199768
7.800000 -3.840000 -3.920000 6.715309 14.166879 245.795837
7.800000 -3.840000 -3.880000 6.731562 12.302796 196.672714
7.800000 -3.840000 -3.840000 4.559990 15.631360 265.132935
7.800000 -3.840000 -3.800000 -4.265160 16.587502 293.336792
7.800000 -3.800000 -4.200000 -16.258465 -19.064846 627.806030
7.800000 -3.800000 -4.160000 1.631181 -32.619728 1066.707397
7.800000 -3.800000 -4.120000 27.644054 -25.806486 1430.168457
7.800000 -3.800000 -4.080000 39.870331 0.600779 1590.004272
7.800000 -3.800000 -4.040000 27.377386 26.724991 1463.746338
7.800000 -3.800000 -4.000000 1.351225 32.900284 1084.254517
7.800000 -3.800000 -3.960000 -16.484592 18.406736 610.549744
7.800000 -3.800000 -3.920000 -15.275280 0.196364 233.372742
7.800000 -3.800000 -3.880000 -3.560526 -5.780318 46.089424
7.800000 -3.800000 -3.840000 2.675369 0.136644 7.176272
7.800000 -3.800000 -3.800000 -2.198683 4.874037 28.590441
7.840000 -4.200000 -4.200000 -19.211292 4.075925 385.686920
7.840000 -4.200000 -4.160000 -15.442321 6.303633 278.201050
7.840000 -4.200000 -4.120000 -24.210539 13.847814 777.912170
7.840000 -4.200000 -4.080000 -45.208328 7.348200 2097.789062
7.840000 -4.200000 -4.040000 -56.980568 -21.929623 3727.693604
7.840000 -4.200000 -4.000000 -38.951141 -56.041267 4657.814941
7.840000 -4.200000 -3.960000 2.421679 -64.468605 4162.065918
7.840000 -4.200000 -3.920000 34.438099 -36.266083 2501.211426
7.840000 -4.200000 -3.880000 28.973942 4.576213 860.431030
7.840000 -4.200000 -3.840000 -7.732725 19.961603 458.260651
7.840000 -4.200000 -3.800000 -39.019051 -4.752769 1545.075195
7.840000 -4.160000 -4.200000 -12.749006 -14.199022 364.149384
7.840000 -4.160000 -4.160000 -6.550219 -8.603295 116.922058
7.840000 -4.160000 -4.120000 -13.632416 -3.205360 196.117096
7.840000 -4.160000 -4.080000 -25.291996 -12.927069 806.794189
7.840000 -4.160000 -4.040000 -22.030018 -35.161674 1721.665039
7.840000 -4.160000 -4.000000 2.942413 -48.480789 2359.044678
7.840000 -4.160000 -3.960000 31.673061 -34.968349 2225.968262
7.840000 -4.160000 -3.920000 37.232975 -2.457607 1392.334229
7.840000 -4.160000 -3.880000 12.537324 19.594301 541.121155
7.840000 -4.160000 -3.840000 -19.311678 9.034616 454.565186
7.840000 -4.160000 -3.800000 -26.401844 -25.159004 1330.032837
7.840000 -4.120000 -4.200000 6.218997 -20.107676 442.994537
7.840000 -4.120000 -4.160000 12.781395 -8.849362 241.675262
7.840000 -4.120000 -4.120000 7.630063 -0.223291 58.267719
7.840000 -4.120000 -4.080000 0.554672 -2.669563 7.434230
7.840000 -4.120000 -4.040000 3.166428 -10.156788 113.186600
7.840000 -4.120000 -4.000000 13.868195 -9.118225 275.468872
7.840000 -4.120000 -3.960000 18.275246 4.192966 351.565582
7.840000 -4.120000 -3.920000 6.134320 16.627113 314.090790
7.840000 -4.120000 -3.880000 -14.219607 11.307907 330.066010
7.840000 -4.120000 -3.840000 -21.816959 -12.379962 629.243164
7.840000 -4.120000 -3.800000 -4.818649 -34.880276 1239.853027
7.840000 -4.080000 -4.200000 22.276417 -8.503370 568.546021
7.840000 -4.080000 -4.160000 24.812248 9.080315 698.099731
7.840000 -4.080000 -4.120000 15.194611 23.396935 778.292725
7.840000 -4.080000 -4.080000 0.531368 27.707970 768.013916
7.840000 -4.080000 -4.040000 -11.379295 23.923624 701.828125
7.840000 -4.080000 -4.000000 -19.137394 17.354752 667.427246
7.840000 -4.080000 -3.960000 -25.406996 9.034309 727.134155
7.840000 -4.080000 -3.920000 -29.214338 -4.138849 870.607605
7.840000 -4.080000 -3.880000 -24.086390 -21.562901 1045.112793
7.840000 -4.080000 -3.840000 -5.901849 -34.183914 1203.371826
7.840000 -4.080000 -3.800000 18.524639 -31.005505 1304.503540
7.840000 -4.040000 -4.200000 22.754032 10.817632 634.767151
7.840000 -4.040000 -4.160000 16.410156 31.438349 1257.662964
7.840000 -4.040000 -4.120000 -4.328096 45.453278 2084.732910
7.840000 -4.040000 -4.080000 -31.707651 43.763210 2920.593750
7.840000 -4.040000 -4.040000 -53.983204 25.377556 3558.206543
7.840000 -4.040000 -4.000000 -62.155098 -3.120518 3872.993652
7.840000 -4.040000 -3.960000 -53.188614 -31.776619 3838.782227
7.840000 -4.040000 -3.920000 -29.904280 -50.976315 3492.850586
7.840000 -4.040000 -3.880000 -0.048996 -53.933868 2908.864502
7.840000 -4.040000 -3.840000 25.264553 -39.472103 2196.344482
7.840000 -4.040000 -3.800000 35.800949 -14.334098 1487.174316
7.840000 -4.000000 -4.200000 8.591608 22.596678 584.425537
7.840000 -4.000000 -4.160000 -8.085270 39.216545 1603.308960
7.840000 -4.000000 -4.120000 -38.193199 41.917629 3215.808105
7.840000 -4.000000 -4.080000 -68.204018 22.006432 5136.071289
7.840000 -4.000000 -4.040000 -81.148407 -16.347069 6852.290527
7.840000 -4.000000 -4.000000 -67.424896 -57.442787 7845.790527
7.840000 -4.000000 -3.960000 -30.960327 -82.797653 7813.993164
7.840000 -4.000000 -3.920000 12.724404 -81.392464 6786.643555
7.840000 -4.000000 -3.880000 44.907795 -55.519428 5099.117188
7.840000 -4.000000 -3.840000 53.629631 -19.223743 3245.689453
7.840000 -4.000000 -3.800000 39.830769 9.757891 1681.706543
7.840000 -3.960000 -4.200000 -8.115030 19.621227 450.846252
7.840000 -3.960000 -4.160000 -30.623196 25.340984 1579.945557
7.840000 -3.960000 -4.120000 -58.532955 10.732817 3541.300293
7.840000 -3.960000 -4.080000 -73.452721 -25.202927 6030.489746
7.840000 -3.960000 -4.040000 -61.072308 -68.197479 8380.722656
7.840000 -3.960000 -4.000000 -21.868158 -96.735794 9836.030273
7.840000 -3.960000 -3.960000 28.006298 -95.446075 9894.305664
7.840000 -3.960000 -3.920000 66.019051 -64.669312 8540.634766
7.840000 -3.960000 -3.880000 76.430595 -20.144896 6247.452637
7.840000 -3.960000 -3.840000 58.960125 16.625648 3752.708496
7.840000 -3.960000 -3.800000 27.744495 31.044687 1733.529541
7.840000 -3.920000 -4.200000 -16.106171 7.145527 310.467285
7.840000 -3.920000 -4.160000 -35.746040 0.128146 1277.795898
7.840000 -3.920000 -4.120000 -48.432205 -25.945534 3018.849121
7.840000 -3.920000 -4.080000 -39.179005 -60.894146 5243.091309
7.840000 -3.920000 -4.040000 -5.668161 -85.503540 7342.983398
7.840000 -3.920000 -4.000000 39.181538 -84.332443 8647.154297
7.840000 -3.920000 -3.960000 74.997658 -55.625656 8718.862305
7.840000 -3.920000 -3.920000 86.002258 -12.194328 7545.090332
7.840000 -3.920000 -3.880000 69.562775 26.308062 5531.093750
7.840000 -3.920000 -3.840000 36.738285 44.377720 3319.083496
7.840000 -3.920000 -3.800000 5.175106 38.589363 1515.920654
7.840000 -3.880000 -4.200000 -13.844010 -4.567107 212.515091
7.840000 -3.880000 -4.160000 -23.028107 -19.383324 906.006958
7.840000 -3.880000 -4.120000 -16.566877 -42.748569 2101.901611
7.840000 -3.880000 -4.080000 8.472778 -58.791759 3528.259033
7.840000 -3.880000 -4.040000 41.564045 -55.044106 4757.423340
7.840000 -3.880000 -4.000000 66.739059 -30.941387 5411.471680
7.840000 -3.880000 -3.960000 72.882820 3.173010 5321.973145
7.840000 -3.880000 -3.920000 58.817337 33.250839 4565.097656
7.840000 -3.880000 -3.880000 31.963524 48.644989 3388.001953
7.840000 -3.880000 -3.840000 3.862497 45.772301 2110.022461
7.840000 -3.880000 -3.800000 -14.692141 28.622593 1035.111816
7.840000 -3.840000 -4.200000 -7.455009 -10.284998 161.358353
7.840000 -3.840000 -4.160000 -4.362583 -24.387478 613.781189
7.840000 -3.840000 -4.120000 13.207084 -33.271137 1281.395752
7.840000 -3.840000 -4.080000 35.297314 -26.211340 1932.934814
7.840000 -3.840000 -4.040000 47.894012 -5.271493 2321.625000
7.840000 -3.840000 -4.000000 44.781776 18.111532 2333.435059
7.840000 -3.840000 -3.960000 30.172688 33.607151 2039.831543
7.840000 -3.840000 -3.920000 12.223284 38.232891 1611.162598
7.840000 -3.840000 -3.880000 -3.603470 34.182838 1181.451416
7.840000 -3.840000 -3.840000 -14.983358 23.920931 796.711975
7.840000 -3.840000 -3.800000 -19.652504 9.318662 473.058380
7.840000 -3.800000 -4.200000 -2.202410 -12.068452 150.498138
7.840000 -3.800000 -4.160000 8.909387 -18.812859 433.300812
7.840000 -3.800000 -4.120000 24.690397 -11.836612 749.721069
7.840000 -3.800000 -4.080000 30.244770 7.152117 965.898865
7.840000 -3.800000 -4.040000 19.682003 24.352407 980.421021
7.840000 -3.800000 -4.000000 1.482711 28.047768 788.875671
7.840000 -3.800000 -3.960000 -11.143053 19.279856 495.880463
7.840000 -3.800000 -3.920000 -13.179575 8.315139 242.842743
7.840000 -3.800000 -3.880000 -10.076649 2.594169 108.268562
7.840000 -3.800000 -3.840000 -8.656170 0.325405 75.035164
7.840000 -3.800000 -3.800000 -8.603714 -4.155651 91.293335
7.880000 -4.200000 -4.200000 -17.884245 0.819934 320.518524
7.880000 -4.200000 -4.160000 -24.931028 1.878742 625.085815
7.880000 -4.200000 -4.120000 -37.779797 -5.576921 1458.415039
7.880000 -4.200000 -4.080000 -44.205582 -27.703419 2721.612793
7.880000 -4.200000 -4.040000 -29.433636 -54.067463 3789.629395
7.880000 -4.200000 -4.000000 4.829002 -62.379791 3914.557617
7.880000 -4.200000 -3.960000 35.410267 -40.421658 2887.797363
7.880000 -4.200000 -3.920000 36.708405 -2.685291 1354.717773
7.880000 -4.200000 -3.880000 6.894067 18.971043 407.428619
7.880000 -4.200000 -3.840000 -26.740524 4.773517 737.842102
7.880000 -4.200000 -3.800000 -31.828487 -32.404907 2063.130615
7.880000 -4.160000 -4.200000 -4.748757 -13.100375 194.170532
7.880000 -4.160000 -4.160000 -6.275406 -10.885059 157.865234
7.880000 -4.160000 -4.120000 -10.637462 -15.018167 338.700928
7.880000 -4.160000 -4.080000 -8.047241 -26.104052 746.179626
7.880000 -4.160000 -4.040000 7.207642 -33.071289 1145.660278
7.880000 -4.160000 -4.000000 26.147224 -23.428806 1232.586304
7.880000 -4.160000 -3.960000 30.490463 0.701218 930.160034
7.880000 -4.160000 -3.920000 11.592019 19.831976 527.682190
7.880000 -4.160000 -3.880000 -16.928545 14.232698 489.145325
7.880000 -4.160000 -3.840000 -28.868938 -14.925377 1056.182495
7.880000 -4.160000 -3.800000 -10.323265 -43.392712 1989.497192
7.880000 -4.120000 -4.200000 14.973457 -9.491882 314.300262
7.880000 -4.120000 -4.160000 16.103539 0.785557 259.941040
7.880000 -4.120000 -4.120000 11.061228 8.558313 195.595490
7.880000 -4.120000 -4.080000 4.678707 11.262712 148.738968
7.880000 -4.120000 -4.040000 0.220268 12.076475 145.889771
7.880000 -4.120000 -4.000000 -5.032827 14.099350 224.121017
7.880000 -4.120000 -3.960000 -15.238487 13.866898 424.502319
7.880000 -4.120000 -3.920000 -27.376461 3.851536 764.304993
7.880000 -4.120000 -3.880000 -30.176937 -17.139067 1204.395142
7.880000 -4.120000 -3.840000 -14.660235 -37.742004 1639.381348
7.880000 -4.120000 -3.800000 13.999068 -41.530174 1920.729248
7.880000 -4.080000 -4.200000 23.423182 9.401459 637.032898
7.880000 -4.080000 -4.160000 18.054457 29.488817 1195.553711
7.880000 -4.080000 -4.120000 -1.712234 44.483246 1981.690918
7.880000 -4.080000 -4.080000 -29.213072 44.396725 2824.472656
7.880000 -4.080000 -4.040000 -52.485130 27.330421 3501.640869
7.880000 -4.080000 -4.000000 -62.185959 -0.150757 3867.116211
7.880000 -4.080000 -3.960000 -55.698380 -28.229345 3899.205566
7.880000 -4.080000 -3.920000 -35.936024 -48.594925 3652.864746
7.880000 -4.080000 -3.880000 -8.812920 -55.806648 3192.049561
7.880000 -4.080000 -3.840000 17.641682 -47.597122 2576.715088
7.880000 -4.080000 -3.800000 34.320229 -26.615520 1886.263916
7.880000 -4.040000 -4.200000 13.084545 27.402317 922.092285
7.880000 -4.040000 -4.160000 -6.907850 49.775276 2525.296631
7.880000 -4.040000 -4.120000 -45.485291 55.250732 5121.555176
7.880000 -4.040000 -4.080000 -84.944244 30.948425 8173.329590
7.880000 -4.040000 -4.040000 -101.937302 -17.544064 10699.007812
7.880000 -4.040000 -4.000000 -84.471390 -68.225204 11790.093750
7.880000 -4.040000 -3.960000 -40.313732 -97.375824 11107.248047
7.880000 -4.040000 -3.920000 9.178038 -94.486282 9011.893555
7.880000 -4.040000 -3.880000 43.351383 -66.477890 6298.652344
7.880000 -4.040000 -3.840000 53.284203 -30.320801 3758.557129
7.880000 -4.040000 -3.800000 43.217716 -1.778362 1870.933594
7.880000 -4.000000 -4.200000 -6.690544 30.004604 945.039673
7.880000 -4.000000 -4.160000 -40.386871 42.253387 3416.448242
7.880000 -4.000000 -4.120000 -85.052917 23.664219 7793.993652
7.880000 -4.000000 -4.080000 -111.086617 -29.529411 13212.222656
7.880000 -4.000000 -4.040000 -94.452660 -94.496346 17850.863281
7.880000 -4.000000 -4.000000 -36.955029 -136.070038 19880.728516
7.880000 -4.000000 -3.960000 33.397324 -131.909027 18515.373047
7.880000 -4.000000 -3.920000 82.125954 -87.668701 14430.473633
7.880000 -4.000000 -3.880000 91.357811 -30.696663 9288.535156
7.880000 -4.000000 -3.840000 68.294083 10.614004 4776.738770
7.880000 -4.000000 -3.800000 35.091286 24.344864 1824.070801
7.880000 -3.960000 -4.200000 -19.655106 17.369110 688.009155
7.880000 -3.960000 -4.160000 -56.359524 11.804441 3315.740723
7.880000 -3.960000 -4.120000 -86.547150 -29.411493 8355.445312
7.880000 -3.960000 -4.080000 -79.323746 -92.491577 14846.948242
7.880000 -3.960000 -4.040000 -25.373749 -141.203537 20582.265625
7.880000 -3.960000 -4.000000 52.089092 -143.262772 23237.496094
7.880000 -3.960000 -3.960000 112.609543 -95.084816 21722.031250
7.880000 -3.960000 -3.920000 127.309204 -24.148869 16790.800781
7.880000 -3.960000 -3.880000 97.463669 31.984013 10522.144531
7.880000 -3.960000 -3.840000 49.244385 51.571095 5084.587402
7.880000 -3.960000 -3.800000 11.851137 39.187534 1676.112305
7.880000 -3.920000 -4.200000 -18.120258 2.181431 333.102386
7.880000 -3.920000 -4.160000 -45.087067 -18.147501 2362.175293
7.880000 -3.920000 -4.120000 -49.028179 -64.822914 6605.772461
7.880000 -3.920000 -4.080000 -11.742385 -110.155846 12272.194336
7.880000 -3.920000 -4.040000 55.140694 -119.924507 17422.382812
7.880000 -3.920000 -4.000000 115.941505 -80.719704 19958.103516
7.880000 -3.920000 -3.960000 136.756912 -11.317792 18830.544922
7.880000 -3.920000 -3.920000 109.605392 51.154087 14630.082031
7.880000 -3.920000 -3.880000 55.713448 77.835190 9162.304688
7.880000 -3.920000 -3.840000 7.481830 65.707001 4373.387695
7.880000 -3.920000 -3.800000 -14.372585 34.202808 1376.403320
7.880000 -3.880000 -4.200000 -8.203398 -3.995724 83.261543
7.880000 -3.880000 -4.160000 -19.754847 -28.284876 1190.288086
7.880000 -3.880000 -4.120000 -3.099770 -61.456547 3786.515869
7.880000 -3.880000 -4.080000 41.468422 -75.188103 7372.880859
7.880000 -3.880000 -4.040000 89.729530 -51.479164 10701.493164
7.880000 -3.880000 -4.000000 111.419342 1.832878 12417.628906
7.880000 -3.880000 -3.960000 92.964622 56.467125 11830.957031
7.880000 -3.880000 -3.920000 46.358917 84.472046 9284.675781
7.880000 -3.880000 -3.880000 -1.411207 76.747749 5892.208496
7.880000 -3.880000 -3.840000 -27.841698 45.776333 2870.632812
7.880000 -3.880000 -3.800000 -27.659700 13.361097 943.577942
7.880000 -3.840000 -4.200000 -1.049876 -0.879268 1.875352
7.880000 -3.840000 -4.160000 -1.004768 -19.293362 373.243347
7.880000 -3.840000 -4.120000 19.946314 -32.265938 1438.946167
7.880000 -3.840000 -4.080000 49.279327 -22.937683 2954.589355
7.880000 -3.840000 -4.040000 65.483665 8.395042 4358.586914
7.880000 -3.840000 -4.000000 55.594196 44.532719 5073.877930
7.880000 -3.840000 -3.960000 24.496515 65.080200 4835.511719
7.880000 -3.840000 -3.920000 -10.305691 60.885612 3813.265137
7.880000 -3.840000 -3.880000 -31.905155 38.052944 2465.965576
7.880000 -3.840000 -3.840000 -33.830055 11.022736 1265.973389
7.880000 -3.840000 -3.800000 -20.803446 -7.545172 489.712982
7.880000 -3.800000 -4.200000 -1.011907 3.422369 12.736568
7.880000 -3.800000 -4.160000 2.731552 -6.385468 48.235573
7.880000 -3.800000 -4.120000 15.292967 -6.360746 274.333923
7.880000 -3.800000 -4.080000 23.637699 6.471428 600.620239
7.880000 -3.800000 -4.040000 18.702923 22.975706 877.682373
7.880000 -3.800000 -4.000000 2.890625 31.208706 982.339050
7.880000 -3.800000 -3.960000 -13.651245 26.529776 890.185486
7.880000 -3.800000 -3.920000 -22.252930 13.392236 674.544861
7.880000 -3.800000 -3.880000 -21.018755 -0.432972 441.975525
7.880000 -3.800000 -3.840000 -13.084667 -9.757265 266.412720
7.880000 -3.800000 -3.800000 -2.377572 -13.004044 174.757996
7.920000 -4.200000 -4.200000 -17.046234 -4.145829 307.761993
7.920000 -4.200000 -4.160000 -26.652626 -12.845389 875.366516
7.920000 -4.200000 -4.120000 -28.982340 -30.542437 1772.816406
7.920000 -4.200000 -4.080000 -15.917442 -49.334049 2687.213379
7.920000 -4.200000 -4.040000 10.715290 -54.510742 3086.238281
7.920000 -4.200000 -4.000000 35.078560 -37.218002 2615.685059
7.920000 -4.200000 -3.960000 38.048267 -6.419720 1488.883423
7.920000 -4.200000 -3.920000 15.499828 14.578070 452.764771
7.920000 -4.200000 -3.880000 -14.275343 7.677208 262.724945
7.920000 -4.200000 -3.840000 -24.456165 -21.857290 1075.845215
7.920000 -4.200000 -3.800000 -4.044466 -47.770191 2298.348877
7.920000 -4.160000 -4.200000 0.676935 -9.961433 99.688400
7.920000 -4.160000 -4.160000 -0.484154 -13.316425 177.561584
7.920000 -4.160000 -4.120000 2.781403 -18.035883 333.029266
7.920000 -4.160000 -4.080000 11.435875 -18.944736 489.682281
7.920000 -4.160000 -4.040000 20.200676 -10.770294 524.066528
7.920000 -4.160000 -4.000000 19.371418 4.523117 395.710419
7.920000 -4.160000 -3.960000 4.189670 15.358601 253.439941
7.920000 -4.160000 -3.920000 -16.968880 9.043653 369.730530
7.920000 -4.160000 -3.880000 -26.301416 -14.794747 910.649048
7.920000 -4.160000 -3.840000 -11.896057 -39.908703 1734.220703
7.920000 -4.160000 -3.800000 19.223221 -45.345684 2425.763184
7.920000 -4.120000 -4.200000 15.798000 3.468318 261.606049
7.920000 -4.120000 -4.160000 13.521141 13.165241 356.144836
7.920000 -4.120000 -4.120000 4.470058 21.896576 499.441467
7.920000 -4.120000 -4.080000 -9.764931 24.686766 704.790283
7.920000 -4.120000 -4.040000 -24.792389 19.135582 980.833008
7.920000 -4.120000 -4.000000 -36.076923 5.633263 1333.278076
7.920000 -4.120000 -3.960000 -39.584480 -13.714352 1755.014404
7.920000 -4.120000 -3.920000 -31.654568 -34.554012 2195.991455
7.920000 -4.120000 -3.880000 -11.229605 -49.153988 2542.218506
7.920000 -4.120000 -3.840000 16.230225 -48.830845 2647.871582
7.920000 -4.120000 -3.800000 38.472698 -30.640804 2419.007324
7.920000 -4.080000 -4.200000 12.627871 25.001837 784.554993
7.920000 -4.080000 -4.160000 -4.264400 43.219307 1886.093506
7.920000 -4.080000 -4.120000 -36.723030 47.923325 3645.226074
7.920000 -4.080000 -4.080000 -70.445557 27.892063 5740.543945
7.920000 -4.080000 -4.040000 -85.951958 -12.717258 7549.467773
7.920000 -4.080000 -4.000000 -73.019279 -56.034515 8471.681641
7.920000 -4.080000 -3.960000 -37.482048 -82.764297 8254.833008
7.920000 -4.080000 -3.920000 4.169315 -84.075089 7086.003906
7.920000 -4.080000 -3.880000 35.993980 -64.238335 5422.129883
7.920000 -4.080000 -3.840000 50.157692 -34.742817 3722.857422
7.920000 -4.080000 -3.800000 47.304119 -6.948611 2285.962891
7.920000 -4.040000 -4.200000 -7.360725 35.342850 1303.297363
7.920000 -4.040000 -4.160000 -43.455555 46.787308 4077.437500
7.920000 -4.040000 -4.120000 -89.905457 26.068493 8762.557617
7.920000 -4.040000 -4.080000 -115.970825 -29.923618 14344.655273
7.920000 -4.040000 -4.040000 -97.594292 -96.635666 18863.097656
7.920000 -4.040000 -4.000000 -38.337326 -137.898682 20485.796875
7.920000 -4.040000 -3.960000 31.942322 -132.634003 18612.091797
7.920000 -4.040000 -3.920000 79.197746 -88.946381 14183.742188
7.920000 -4.040000 -3.880000 88.322357 -34.879261 9017.401367
7.920000 -4.040000 -3.840000 68.677124 3.732507 4730.479004
7.920000 -4.040000 -3.800000 40.997887 18.627737 2027.819214
7.920000 -4.000000 -4.200000 -27.120865 25.866688 1404.626831
7.920000 -4.000000 -4.160000 -72.368057 16.716784 5516.586426
7.920000 -4.000000 -4.120000 -108.078995 -34.847740 12895.434570
7.920000 -4.000000 -4.080000 -97.704521 -111.091721 21887.542969
7.920000 -4.000000 -4.040000 -31.832216 -167.786041 29165.445312
7.920000 -4.000000 -4.000000 59.390648 -167.494247 31581.570312
7.920000 -4.000000 -3.960000 127.152306 -109.349823 28125.093750
7.920000 -4.000000 -3.920000 140.229416 -28.961220 20503.041016
7.920000 -4.000000 -3.880000 105.112000 30.276747 11965.213867
7.920000 -4.000000 -3.840000 54.855652 48.183624 5330.804199
7.920000 -4.000000 -3.800000 20.092567 35.571041 1669.010254
7.920000 -3.960000 -4.200000 -30.993824 6.370337 1001.198303
7.920000 -3.960000 -4.160000 -68.137283 -24.150509 5225.936523
7.920000 -3.960000 -4.120000 -73.141937 -89.830399 13419.244141
7.920000 -3.960000 -4.080000 -21.279404 -152.723343 23777.232422
7.920000 -3.960000 -4.040000 70.588058 -165.540558 32386.349609
7.920000 -3.960000 -4.000000 151.975281 -111.016022 35421.042969
7.920000 -3.960000 -3.960000 176.701538 -17.840910 31541.732422
7.920000 -3.960000 -3.920000 137.587646 61.389946 22699.085938
7.920000 -3.960000 -3.880000 68.233734 90.143158 12781.630859
7.920000 -3.960000 -3.840000 12.952887 71.005981 5209.626953
7.920000 -3.960000 -3.800000 -6.435015 35.006325 1266.852173
7.920000 -3.920000 -4.200000 -19.362080 -5.655825 406.878479
7.920000 -3.920000 -4.160000 -37.515884 -45.351368 3464.187988
7.920000 -3.920000 -4.120000 -12.473011 -99.913902 10138.364258
7.920000 -3.920000 -4.080000 58.002068 -125.211670 19042.201172
7.920000 -3.920000 -4.040000 136.458160 -90.372742 26788.062500
7.920000 -3.920000 -4.000000 172.741226 -6.613426 29883.269531
7.920000 -3.920000 -3.960000 143.797287 79.059731 26928.101562
7.920000 -3.920000 -3.920000 71.041557 120.079147 19465.904297
7.920000 -3.920000 -3.880000 1.102350 104.321732 10884.238281
7.920000 -3.920000 -3.840000 -31.059122 57.581200 4280.263672
7.920000 -3.920000 -3.800000 -24.190310 17.383869 887.369995
7.920000 -3.880000 -4.200000 -6.475027 -2.382506 47.602314
7.920000 -3.880000 -4.160000 -7.950359 -37.106323 1440.087524
7.920000 -3.880000 -4.120000 28.859438 -66.745590 5287.840820
7.920000 -3.880000 -4.080000 87.305832 -57.137466 10886.998047
7.920000 -3.880000 -4.040000 126.862274 -1.323128 16095.787109
7.920000 -3.880000 -4.000000 116.051826 71.171089 18533.349609
7.920000 -3.880000 -3.960000 58.751328 116.738297 17079.548828
7.920000 -3.880000 -3.920000 -9.359657 111.663734 12556.393555
7.920000 -3.880000 -3.880000 -49.770668 68.049606 7107.868164
7.920000 -3.880000 -3.840000 -49.111938 19.936775 2809.457520
7.920000 -3.880000 -3.800000 -23.344326 -5.109322 571.062744
7.920000 -3.840000 -4.200000 -4.952614 8.279118 93.072166
7.920000 -3.840000 -4.160000 0.162479 -16.048656 257.585785
7.920000 -3.840000 -4.120000 30.147583 -25.828300 1575.977905
7.920000 -3.840000 -4.080000 62.203011 -3.614311 3882.277832
7.920000 -3.840000 -4.040000 67.635536 41.222538 6273.863281
7.920000 -3.840000 -4.000000 36.945869 79.091858 7620.519531
7.920000 -3.840000 -3.960000 -11.905548 84.520203 7285.406738
7.920000 -3.840000 -3.920000 -48.658520 56.093315 5514.111328
7.920000 -3.840000 -3.880000 -54.593384 15.269196 3213.585938
7.920000 -3.840000 -3.840000 -34.276119 -12.533400 1331.938354
7.920000 -3.840000 -3.800000 -7.513949 -16.534254 329.841003
7.920000 -3.800000 -4.200000 -13.861605 12.855998 357.420776
7.920000 -3.800000 -4.160000 -9.330153 -4.920910 111.267097
7.920000 -3.800000 -4.120000 8.727441 -8.764767 152.989349
7.920000 -3.800000 -4.080000 22.015568 6.311523 524.520508
7.920000 -3.800000 -4.040000 16.594257 27.802376 1048.341553
7.920000 -3.800000 -4.000000 -4.943378 37.541481 1433.799805
7.920000 -3.800000 -3.960000 -26.751923 27.553461 1474.858643
7.920000 -3.800000 -3.920000 -33.885517 5.568134 1179.232422
7.920000 -3.800000 -3.880000 -23.751558 -13.094398 735.599792
7.920000 -3.800000 -3.840000 -5.733911 -18.146570 362.175720
7.920000 -3.800000 -3.800000 8.141248 -10.317099 172.722443
7.960000 -4.200000 -4.200000 -12.829422 -10.481226 274.450165
7.960000 -4.200000 -4.160000 -14.023035 -25.765802 860.522095
7.960000 -4.200000 -4.120000 -2.693226 -39.547295 1571.241943
7.960000 -4.200000 -4.080000 17.430840 -41.849464 2055.211914
7.960000 -4.200000 -4.040000 34.702080 -28.051300 1991.109863
7.960000 -4.200000 -4.000000 36.414459 -5.002838 1351.041260
7.960000 -4.200000 -3.960000 19.701382 11.300907 515.854919
7.960000 -4.200000 -3.920000 -3.322966 7.656921 69.670547
7.960000 -4.200000 -3.880000 -13.386827 -13.869261 371.563538
7.960000 -4.200000 -3.840000 -0.269085 -35.355213 1250.063477
7.960000 -4.200000 -3.800000 26.908703 -37.160095 2104.950928
7.960000 -4.160000 -4.200000 4.205669 -6.050472 54.295868
7.960000 -4.160000 -4.160000 7.887243 -9.320168 149.074127
7.960000 -4.160000 -4.120000 13.322426 -7.343687 231.416779
7.960000 -4.160000 -4.080000 15.411983 -0.045185 237.531281
7.960000 -4.160000 -4.040000 9.911787 8.401100 168.822006
7.960000 -4.160000 -4.000000 -2.980949 10.695358 123.276749
7.960000 -4.160000 -3.960000 -16.339836 1.013504 268.017426
7.960000 -4.160000 -3.920000 -19.261597 -18.846857 726.213135
7.960000 -4.160000 -3.880000 -5.044851 -37.578583 1437.600464
7.960000 -4.160000 -3.840000 21.169649 -40.920849 2122.669922
7.960000 -4.160000 -3.800000 43.440598 -23.291153 2429.563477
7.960000 -4.120000 -4.200000 9.175186 13.414937 264.144592
7.960000 -4.120000 -4.160000 2.372417 22.829042 526.793518
7.960000 -4.120000 -4.120000 -13.992210 27.425983 947.966553
7.960000 -4.120000 -4.080000 -33.935402 19.252785 1522.281128
7.960000 -4.120000 -4.040000 -46.726341 -2.256577 2188.443115
7.960000 -4.120000 -4.000000 -44.320339 -29.503445 2834.745605
7.960000 -4.120000 -3.960000 -25.999786 -51.566242 3335.066406
7.960000 -4.120000 -3.920000 2.038754 -59.856682 3586.978760
7.960000 -4.120000 -3.880000 30.005390 -51.254955 3527.394043
7.960000 -4.120000 -3.840000 48.080933 -28.821772 3142.470703
7.960000 -4.120000 -3.800000 49.831535 -1.072188 2484.331543
7.960000 -4.080000 -4.200000 -6.088018 30.107830 943.545410
7.960000 -4.080000 -4.160000 -33.424934 37.953671 2557.707275
7.960000 -4.080000 -4.120000 -68.504913 21.612389 5160.018555
7.960000 -4.080000 -4.080000 -88.196060 -21.316353 8232.931641
7.960000 -4.080000 -4.040000 -74.447281 -72.524727 10802.233398
7.960000 -4.080000 -4.000000 -29.648392 -105.166534 11939.027344
7.960000 -4.080000 -3.960000 24.620094 -103.319763 11281.123047
7.960000 -4.080000 -3.920000 63.526192 -71.879929 9202.300781
7.960000 -4.080000 -3.880000 75.050858 -30.001198 6532.703125
7.960000 -4.080000 -3.840000 63.698700 3.837445 4072.250488
7.960000 -4.080000 -3.800000 42.191437 21.764553 2253.812988
7.960000 -4.040000 -4.200000 -30.070660 27.455067 1658.025269
7.960000 -4.040000 -4.160000 -71.468414 15.734072 5355.295410
7.960000 -4.040000 -4.120000 -101.676712 -33.721104 11475.265625
7.960000 -4.040000 -4.080000 -88.983192 -103.059311 18539.230469
7.960000 -4.040000 -4.040000 -27.250191 -152.283157 23932.732422
7.960000 -4.040000 -4.000000 54.868637 -149.563705 25379.871094
7.960000 -4.040000 -3.960000 114.226578 -96.397125 22340.117188
7.960000 -4.040000 -3.920000 125.097778 -25.306797 16289.887695
7.960000 -4.040000 -3.880000 94.931808 26.598454 9719.525391
7.960000 -4.040000 -3.840000 52.474411 43.642334 4658.216797
7.960000 -4.040000 -3.800000 22.407307 35.980286 1796.668335
7.960000 -4.000000 -4.200000 -42.368423 6.857056 1842.102417
7.960000 -4.000000 -4.160000 -78.679497 -30.285627 7107.682617
7.960000 -4.000000 -4.120000 -78.572929 -100.432877 16260.467773
7.960000 -4.000000 -4.080000 -20.058758 -163.022018 26978.531250
7.960000 -4.000000 -4.040000 75.949387 -171.147537 35059.789062
7.960000 -4.000000 -4.000000 156.610703 -111.082184 36866.164062
7.960000 -4.000000 -3.960000 177.196625 -15.600986 31642.035156
7.960000 -4.000000 -3.920000 134.749786 61.545303 21945.330078
7.960000 -4.000000 -3.880000 66.150040 86.766869 11904.316406
7.960000 -4.000000 -3.840000 14.936065 67.062393 4720.450684
7.960000 -4.000000 -3.800000 -1.382052 35.171947 1238.975952
7.960000 -3.960000 -4.200000 -33.730705 -13.514431 1320.400391
7.960000 -3.960000 -4.160000 -48.819305 -64.678116 6566.583008
7.960000 -3.960000 -4.120000 -12.529537 -127.547386 16425.326172
7.960000 -3.960000 -4.080000 73.501434 -151.733063 28425.382812
7.960000 -3.960000 -4.040000 163.349838 -105.146942 37739.050781
7.960000 -3.960000 -4.000000 199.985352 -5.356507 40022.832031
7.960000 -3.960000 -3.960000 161.169403 90.951614 34247.773438
7.960000 -3.960000 -3.920000 76.522034 132.132141 23314.523438
7.960000 -3.960000 -3.880000 1.161331 109.771393 12051.107422
7.960000 -3.960000 -3.840000 -28.623596 58.262486 4213.827637
7.960000 -3.960000 -3.800000 -17.929300 20.258949 731.884827
7.960000 -3.920000 -4.200000 -14.856348 -16.777868 502.207947
7.960000 -3.920000 -4.160000 -7.900949 -63.777775 4130.029297
7.960000 -3.920000 -4.120000 47.198219 -98.572075 11944.125977
7.960000 -3.920000 -4.080000 125.903671 -79.189743 22122.750000
7.960000 -3.920000 -4.040000 174.697479 -0.388657 30519.359375
7.960000 -3.920000 -4.000000 154.745056 95.785416 33120.878906
7.960000 -3.920000 -3.960000 75.663269 151.566574 28697.355469
7.960000 -3.920000 -3.920000 -12.048376 139.365479 19567.900391
7.960000 -3.920000 -3.880000 -58.549828 80.739990 9947.028320
7.960000 -3.920000 -3.840000 -51.927128 23.447006 3246.188477
7.960000 -3.920000 -3.800000 -19.559113 0.515211 382.824341
7.960000 -3.880000 -4.200000 -5.110579 -3.638283 39.355114
7.960000 -3.880000 -4.160000 11.932835 -36.695824 1488.976074
7.960000 -3.880000 -4.120000 61.937397 -44.288490 5797.711426
7.960000 -3.880000 -4.080000 110.170349 -3.115063 12147.209961
7.960000 -3.880000 -4.040000 114.086166 70.107796 17930.755859
7.960000 -3.880000 -4.000000 61.525841 128.537476 20307.312500
7.960000 -3.880000 -3.960000 -16.653339 133.522797 18105.671875
7.960000 -3.880000 -3.920000 -71.722298 86.197540 12574.103516
7.960000 -3.880000 -3.880000 -76.547394 24.016617 6436.301270
7.960000 -3.880000 -3.840000 -43.615665 -12.638933 2062.068848
7.960000 -3.880000 -3.800000 -8.178006 -11.722670 204.300781
7.960000 -3.840000 -4.200000 -13.152872 9.391292 261.194397
7.960000 -3.840000 -4.160000 2.625408 -13.285391 183.394379
7.960000 -3.840000 -4.120000 36.688446 -9.810093 1442.280029
7.960000 -3.840000 -4.080000 57.263023 26.687756 3991.290283
7.960000 -3.840000 -4.040000 39.817135 71.950897 6762.335938
7.960000 -3.840000 -4.000000 -9.237408 90.703224 8312.405273
7.960000 -3.840000 -3.960000 -57.012299 67.612907 7821.907227
7.960000 -3.840000 -3.920000 -72.387207 20.019466 5640.686523
7.960000 -3.840000 -3.880000 -51.240875 -18.479237 2967.109375
7.960000 -3.840000 -3.840000 -16.319500 -26.679857 978.140869
7.960000 -3.840000 -3.800000 5.310487 -10.080853 129.824875
7.960000 -3.800000 -4.200000 -29.306236 7.287960 911.969849
7.960000 -3.800000 -4.160000 -15.852047 -13.266768 427.294525
7.960000 -3.800000 -4.120000 8.206841 -11.805149 206.713776
7.960000 -3.800000 -4.080000 19.119816 10.295444 471.563538
7.960000 -3.800000 -4.040000 5.520653 32.301197 1073.844971
7.960000 -3.800000 -4.000000 -21.365337 33.830269 1600.964722
7.960000 -3.800000 -3.960000 -38.979816 13.286514 1695.957642
7.960000 -3.800000 -3.920000 -34.198967 -12.167202 1317.610107
7.960000 -3.800000 -3.880000 -13.565559 -23.395033 731.351990
7.960000 -3.800000 -3.840000 5.099609 -15.591272 269.093781
7.960000 -3.800000 -3.800000 9.405837 0.529968 88.750641
8.000000 -4.200000 -4.200000 -4.074906 -13.718420 204.799911
8.000000 -4.200000 -4.160000 5.370537 -24.570978 632.575623
8.000000 -4.200000 -4.120000 20.224112 -25.300131 1049.111328
8.000000 -4.200000 -4.080000 31.395634 -14.808296 1204.971436
8.000000 -4.200000 -4.040000 31.426365 0.794319 988.247314
8.000000 -4.200000 -4.000000 19.742071 11.204403 515.288025
8.000000 -4.200000 -3.960000 4.331038 8.661602 93.781235
8.000000 -4.200000 -3.920000 -2.817699 -5.521913 38.430946
8.000000 -4.200000 -3.880000 5.234173 -20.320320 440.311981
8.000000 -4.200000 -3.840000 23.680264 -22.582050 1070.703857
8.000000 -4.200000 -3.800000 38.255402 -7.908381 1526.018188
8.000000 -4.160000 -4.200000 6.050219 -1.422579 38.628876
8.000000 -4.160000 -4.160000 11.011976 1.197384 122.697350
8.000000 -4.160000 -4.120000 10.223898 7.685509 163.595139
8.000000 -4.160000 -4.080000 2.567482 11.604153 141.248322
8.000000 -4.160000 -4.040000 -7.846291 7.862000 123.375313
8.000000 -4.160000 -4.000000 -14.212215 -4.209454 219.706558
8.000000 -4.160000 -3.960000 -10.633366 -20.073338 516.007324
8.000000 -4.160000 -3.920000 4.353088 -31.457155 1008.502014
8.000000 -4.160000 -3.880000 25.475834 -30.288235 1566.395264
8.000000 -4.160000 -3.840000 41.971012 -14.193018 1963.007690
8.000000 -4.160000 -3.800000 43.501743 10.008831 1992.578369
8.000000 -4.120000 -4.200000 -1.001410 16.592594 276.316986
8.000000 -4.120000 -4.160000 -13.664143 22.781656 705.712646
8.000000 -4.120000 -4.120000 -33.143349 16.132435 1358.737061
8.000000 -4.120000 -4.080000 -46.030800 -6.591484 2162.282227
8.000000 -4.120000 -4.040000 -40.746449 -36.295486 2977.635254
8.000000 -4.120000 -4.000000 -16.548664 -57.930122 3629.757324
8.000000 -4.120000 -3.960000 16.354111 -60.844341 3969.490967
8.000000 -4.120000 -3.920000 44.122604 -44.536774 3930.328369
8.000000 -4.120000 -3.880000 57.035957 -16.988047 3541.694092
8.000000 -4.120000 -3.840000 52.746246 10.828630 2899.425781
8.000000 -4.120000 -3.800000 35.306511 29.661194 2126.336182
8.000000 -4.080000 -4.200000 -23.180355 21.603354 1004.033752
8.000000 -4.080000 -4.160000 -52.137741 12.845272 2883.344971
8.000000 -4.080000 -4.120000 -72.489258 -22.734369 5771.543945
8.000000 -4.080000 -4.080000 -62.124363 -71.578316 8982.891602
8.000000 -4.080000 -4.040000 -17.666298 -105.542770 11451.374023
8.000000 -4.080000 -4.000000 40.597370 -103.145065 12287.050781
8.000000 -4.080000 -3.960000 83.330330 -65.663193 11255.598633
8.000000 -4.080000 -3.920000 93.014923 -14.647785 8866.333984
8.000000 -4.080000 -3.880000 73.447098 25.259388 6032.512695
8.000000 -4.080000 -3.840000 42.174820 42.296005 3567.667480
8.000000 -4.080000 -3.800000 15.505835 40.291889 1863.867188
8.000000 -4.040000 -4.200000 -42.231182 5.378107 1812.396851
8.000000 -4.040000 -4.160000 -70.141823 -28.715092 5744.432129
8.000000 -4.040000 -4.120000 -65.509071 -87.246834 11903.448242
8.000000 -4.040000 -4.080000 -13.622387 -135.692261 18597.958984
8.000000 -4.040000 -4.040000 65.532341 -137.763123 23273.166016
8.000000 -4.040000 -4.000000 128.983627 -85.622200 23967.937500
8.000000 -4.040000 -3.960000 142.965271 -7.477425 20494.980469
8.000000 -4.040000 -3.920000 107.372482 54.366570 14484.573242
8.000000 -4.040000 -3.880000 51.889839 74.966248 8312.494141
8.000000 -4.040000 -3.840000 9.732454 60.568489 3763.262451
8.000000 -4.040000 -3.800000 -6.225869 35.932384 1329.897705
8.000000 -4.000000 -4.200000 -40.941170 -20.164194 2082.773926
8.000000 -4.000000 -4.160000 -48.452469 -71.516495 7462.250977
8.000000 -4.000000 -4.120000 -7.374623 -127.287315 16256.445312
8.000000 -4.000000 -4.080000 75.280090 -142.433395 25954.363281
8.000000 -4.000000 -4.040000 155.069519 -92.601082 32621.515625
8.000000 -4.000000 -4.000000 182.316559 1.402279 33241.292969
8.000000 -4.000000 -3.960000 141.629745 86.993210 27626.802734
8.000000 -4.000000 -3.920000 63.277214 120.258041 18466.001953
8.000000 -4.000000 -3.880000 -3.192850 97.566154 9529.348633
8.000000 -4.000000 -3.840000 -28.086494 51.751587 3467.078125
8.000000 -4.000000 -3.800000 -18.874889 19.844416 750.062256
8.000000 -3.960000 -4.200000 -20.618046 -33.541401 1550.129395
8.000000 -3.960000 -4.160000 -2.641155 -82.283455 6777.542480
8.000000 -3.960000 -4.120000 61.602230 -110.425766 15988.684570
8.000000 -3.960000 -4.080000 142.001328 -80.112373 26582.369141
8.000000 -3.960000 -4.040000 184.577011 7.061870 34118.542969
8.000000 -3.960000 -4.000000 155.288696 104.429474 35020.093750
8.000000 -3.960000 -3.960000 70.051239 154.961075 28920.111328
8.000000 -3.960000 -3.920000 -17.468573 136.150574 18842.128906
8.000000 -3.960000 -3.880000 -59.403564 74.835541 9129.141602
8.000000 -3.960000 -3.840000 -48.982563 20.256430 2809.614502
8.000000 -3.960000 -3.800000 -17.666237 2.265755 317.229553
8.000000 -3.920000 -4.200000 -0.562147 -24.646677 607.774658
8.000000 -3.920000 -4.160000 31.078739 -56.236389 4128.419434
8.000000 -3.920000 -4.120000 92.383614 -52.260216 11265.862305
8.000000 -3.920000 -4.080000 141.762238 6.066864 20133.337891
8.000000 -3.920000 -4.040000 135.083389 93.218361 26937.183594
8.000000 -3.920000 -4.000000 65.929214 154.843994 28323.324219
8.000000 -3.920000 -3.960000 -25.194492 151.679688 23641.490234
8.000000 -3.920000 -3.920000 -83.017960 91.881638 15334.216797
8.000000 -3.920000 -3.880000 -81.924316 22.081615 7199.191406
8.000000 -3.920000 -3.840000 -42.404709 -13.421644 1978.299805
8.000000 -3.920000 -3.800000 -7.057945 -6.921793 97.725807
8.000000 -3.880000 -4.200000 0.627464 -4.897637 24.380564
8.000000 -3.880000 -4.160000 30.123644 -20.614923 1332.408936
8.000000 -3.880000 -4.120000 71.666901 -0.430008 5136.329590
8.000000 -3.880000 -4.080000 86.484039 56.040588 10620.037109
8.000000 -3.880000 -4.040000 50.251549 113.440674 15394.003906
8.000000 -3.880000 -4.000000 -21.166443 128.652679 16999.529297
8.000000 -3.880000 -3.960000 -82.136421 88.746506 14622.333984
8.000000 -3.880000 -3.920000 -95.413071 22.688049 9618.402344
8.000000 -3.880000 -3.880000 -62.373577 -24.278698 4479.918457
8.000000 -3.880000 -3.840000 -17.884138 -28.854843 1152.444336
8.000000 -3.880000 -3.800000 3.082962 -5.055421 35.061935
8.000000 -3.840000 -4.200000 -16.676600 3.982227 293.967102
8.000000 -3.840000 -4.160000 5.446352 -7.113060 80.258377
8.000000 -3.840000 -4.120000 30.251270 10.839075 1032.624878
8.000000 -3.840000 -4.080000 28.728424 48.435455 3171.315674
8.000000 -3.840000 -4.040000 -6.941765 74.016220 5526.588867
8.000000 -3.840000 -4.000000 -53.416245 62.624592 6775.134766
8.000000 -3.840000 -3.960000 -76.281036 19.830265 6212.035645
8.000000 -3.840000 -3.920000 -60.841797 -23.117435 4236.140137
8.000000 -3.840000 -3.880000 -23.901453 -37.616646 1986.291504
8.000000 -3.840000 -3.840000 3.691704 -21.740171 486.263733
8.000000 -3.840000 -3.800000 5.158419 2.082081 30.944344
8.000000 -3.800000 -4.200000 -33.707600 -8.633018 1210.731323
8.000000 -3.800000 -4.160000 -12.207024 -21.747927 621.983765
8.000000 -3.800000 -4.120000 9.059341 -10.511019 192.553192
8.000000 -3.800000 -4.080000 9.584763 12.941383 259.347076
8.000000 -3.800000 -4.040000 -10.729080 25.075737 743.905762
8.000000 -3.800000 -4.000000 -32.183712 13.996986 1231.706909
8.000000 -3.800000 -3.960000 -35.121170 -9.889240 1331.293701
8.000000 -3.800000 -3.920000 -18.377802 -25.396982 982.750305
8.000000 -3.800000 -3.880000 1.558094 -21.340302 457.836121
8.000000 -3.800000 -3.840000 8.024130 -5.492929 94.558929
8.000000 -3.800000 -3.800000 -0.577522 5.560678 31.254667
8.040000 -4.200000 -4.200000 5.173185 -10.163397 130.056473
8.040000 -4.200000 -4.160000 16.638885 -9.442064 366.005096
8.040000 -4.200000 -4.120000 22.904043 -1.368982 526.469299
8.040000 -4.200000 -4.080000 21.270821 7.643723 510.874298
8.040000 -4.200000 -4.040000 14.204489 12.034172 346.588806
8.040000 -4.200000 -4.000000 6.811670 9.793158 142.304794
8.040000 -4.200000 -3.960000 3.982704 2.849087 23.979229
8.040000 -4.200000 -3.920000 8.041586 -3.873218 79.668922
8.040000 -4.200000 -3.880000 16.979799 -4.707512 310.474243
8.040000 -4.200000 -3.840000 24.477680 3.065742 608.555603
8.040000 -4.200000 -3.800000 23.414848 16.021244 804.935425
8.040000 -4.160000 -4.200000 5.556231 3.511811 43.204525
8.040000 -4.160000 -4.160000 4.808674 10.839275 140.613235
8.040000 -4.160000 -4.120000 -3.535946 13.090008 183.851212
8.040000 -4.160000 -4.080000 -11.713939 6.086174 174.257874
8.040000 -4.160000 -4.040000 -12.284027 -6.560089 193.932098
8.040000 -4.160000 -4.000000 -3.459187 -17.438311 316.060638
8.040000 -4.160000 -3.960000 11.092674 -20.715313 552.171631
8.040000 -4.160000 -3.920000 25.452938 -14.475685 857.397522
8.040000 -4.160000 -3.880000 33.936932 -0.342203 1151.832397
8.040000 -4.160000 -3.840000 32.310410 17.019064 1333.611084
8.040000 -4.160000 -3.800000 19.698780 30.367418 1310.222046
8.040000 -4.120000 -4.200000 -9.405834 12.963634 256.525513
8.040000 -4.120000 -4.160000 -25.444633 11.530912 780.391357
8.040000 -4.120000 -4.120000 -37.947060 -6.935680 1488.083008
8.040000 -4.120000 -4.080000 -32.678108 -33.992310 2223.335938
8.040000 -4.120000 -4.040000 -7.798458 -52.675182 2835.490723
8.040000 -4.120000 -4.000000 24.778008 -50.931908 3208.009033
8.040000 -4.120000 -3.960000 48.979576 -29.713509 3281.891357
8.040000 -4.120000 -3.920000 55.424660 -0.176315 3071.923828
8.040000 -4.120000 -3.880000 44.956715 25.163082 2654.286865
8.040000 -4.120000 -3.840000 24.780598 38.870781 2125.015625
8.040000 -4.120000 -3.800000 3.161495 39.417942 1563.769165
8.040000 -4.080000 -4.200000 -29.407681 4.714764 887.040649
8.040000 -4.080000 -4.160000 -48.105453 -17.912945 2635.008301
8.040000 -4.080000 -4.120000 -43.516880 -56.675972 5105.884766
8.040000 -4.080000 -4.080000 -7.371487 -86.782646 7585.566406
8.040000 -4.080000 -4.040000 44.877644 -84.992935 9237.801758
8.040000 -4.080000 -4.000000 84.757614 -48.432449 9529.554688
8.040000 -4.080000 -3.960000 91.974457 3.478985 8471.404297
8.040000 -4.080000 -3.920000 67.661972 44.405777 6550.015625
8.040000 -4.080000 -3.880000 30.025074 59.405563 4430.525879
8.040000 -4.080000 -3.840000 -1.207205 51.372833 2640.625244
8.040000 -4.080000 -3.800000 -17.087978 33.457184 1411.382202
8.040000 -4.040000 -4.200000 -35.839352 -19.033978 1646.751465
8.040000 -4.040000 -4.160000 -38.201912 -59.392395 4986.842773
8.040000 -4.040000 -4.120000 -2.902647 -98.961380 9801.780273
8.040000 -4.040000 -4.080000 60.385063 -104.621719 14592.060547
8.040000 -4.040000 -4.040000 116.791626 -62.293690 17520.787109
8.040000 -4.040000 -4.000000 131.808746 9.119665 17456.712891
8.040000 -4.040000 -3.960000 97.755547 70.892754 14581.929688
8.040000 -4.040000 -3.920000 38.316208 93.370941 10186.264648
8.040000 -4.040000 -3.880000 -11.597729 75.686325 5862.927246
8.040000 -4.040000 -3.840000 -31.876286 41.043938 2700.702393
8.040000 -4.040000 -3.800000 -27.346590 14.758285 965.642944
8.040000 -4.000000 -4.200000 -20.232853 -39.868080 1998.832275
8.040000 -4.000000 -4.160000 2.485878 -79.920563 6393.476074
8.040000 -4.000000 -4.120000 60.802647 -96.227837 12956.758789
8.040000 -4.000000 -4.080000 125.350731 -62.344231 19599.609375
8.040000 -4.000000 -4.040000 152.996140 14.163485 23608.421875
8.040000 -4.000000 -4.000000 121.194458 92.583130 23259.732422
8.040000 -4.000000 -3.960000 47.487381 128.820312 18849.724609
8.040000 -4.000000 -3.920000 -23.853033 108.802719 12406.998047
8.040000 -4.000000 -3.880000 -56.414566 56.594227 6385.509766
8.040000 -4.000000 -3.840000 -47.055794 11.480843 2346.057617
8.040000 -4.000000 -3.800000 -21.635895 -3.988236 484.017975
8.040000 -3.960000 -4.200000 5.530616 -39.874352 1620.551636
8.040000 -3.960000 -4.160000 44.183723 -62.202534 5821.356445
8.040000 -3.960000 -4.120000 101.716843 -46.522015 12510.614258
8.040000 -3.960000 -4.080000 139.015091 15.882677 19577.455078
8.040000 -3.960000 -4.040000 121.619720 96.028107 24012.753906
8.040000 -3.960000 -4.000000 51.103218 145.432526 23762.158203
8.040000 -3.960000 -3.960000 -32.344051 134.149170 19042.136719
8.040000 -3.960000 -3.920000 -80.630669 74.907272 12112.404297
8.040000 -3.960000 -3.880000 -75.093086 11.394161 5768.798828
8.040000 -3.960000 -3.840000 -37.538239 -18.469320 1750.235107
8.040000 -3.960000 -3.800000 -6.832063 -10.897721 165.437408
8.040000 -3.920000 -4.200000 19.081192 -19.780933 755.377197
8.040000 -3.920000 -4.160000 55.690632 -21.895432 3580.856445
8.040000 -3.920000 -4.120000 92.232864 12.965437 8675.003906
8.040000 -3.920000 -4.080000 93.489532 75.904861 14501.840820
8.040000 -3.920000 -4.040000 44.119808 128.644073 18495.853516
8.040000 -3.920000 -4.000000 -32.654316 132.759613 18691.419922
8.040000 -3.920000 -3.960000 -90.232773 83.110794 15049.357422
8.040000 -3.920000 -3.920000 -96.093140 13.716930 9422.045898
8.040000 -3.920000 -3.880000 -57.646431 -30.507324 4253.808105
8.040000 -3.920000 -3.840000 -12.967813 -30.514372 1099.291016
8.040000 -3.920000 -3.800000 4.040466 -5.021535 41.541187
8.040000 -3.880000 -4.200000 9.058457 0.416843 82.229408
8.040000 -3.880000 -4.160000 33.314011 6.666142 1154.260864
8.040000 -3.880000 -4.120000 47.506409 39.639767 3828.169922
8.040000 -3.880000 -4.080000 27.802467 81.462135 7409.056641
8.040000 -3.880000 -4.040000 -23.906960 98.432289 10260.458984
8.040000 -3.880000 -4.000000 -76.313583 71.135223 10883.983398
8.040000 -3.880000 -3.960000 -93.673058 14.383007 8981.512695
8.040000 -3.880000 -3.920000 -66.968735 -33.741463 5623.297852
8.040000 -3.880000 -3.880000 -21.373434 -44.483086 2435.568604
8.040000 -3.880000 -3.840000 7.170286 -21.978233 534.455750
8.040000 -3.880000 -3.800000 3.567505 3.953745 28.359188
8.040000 -3.840000 -4.200000 -13.099847 0.244228 171.665634
8.040000 -3.840000 -4.160000 3.400099 2.801659 19.409962
8.040000 -3.840000 -4.120000 9.211456 23.528770 638.453979
8.040000 -3.840000 -4.080000 -9.335846 43.926056 2016.656494
8.040000 -3.840000 -4.040000 -42.394783 40.973652 3476.157715
8.040000 -3.840000 -4.000000 -63.556759 10.656193 4153.016113
8.040000 -3.840000 -3.960000 -54.480190 -26.199585 3654.509277
8.040000 -3.840000 -3.920000 -22.660118 -42.612431 2329.300293
8.040000 -3.840000 -3.880000 5.734661 -30.338341 953.301270
8.040000 -3.840000 -3.840000 10.645582 -6.235489 152.209747
8.040000 -3.840000 -3.800000 -4.310636 5.429298 48.058861
8.040000 -3.800000 -4.200000 -23.553038 -21.080952 999.152100
8.040000 -3.800000 -4.160000 -4.074524 -22.082706 504.247681
8.040000 -3.800000 -4.120000 5.493004 -7.476079 86.064850
8.040000 -3.800000 -4.080000 -2.702007 6.072868 44.180573
8.040000 -3.800000 -4.040000 -18.081114 4.020630 343.092133
8.040000 -3.800000 -4.000000 -23.315361 -11.307652 671.469055
8.040000 -3.800000 -3.960000 -12.481379 -24.026630 733.063782
8.040000 -3.800000 -3.920000 3.535851 -21.883526 491.390930
8.040000 -3.800000 -3.880000 9.407873 -8.655233 163.421143
8.040000 -3.800000 -3.840000 1.528376 0.955601 3.249105
8.040000 -3.800000 -3.800000 -9.242952 -2.590590 92.143326
8.080000 -4.200000 -4.200000 8.995795 -1.428076 82.963730
8.080000 -4.200000 -4.160000 12.094078 6.830349 192.920395
8.080000 -4.200000 -4.120000 8.039537 11.687416 201.229858
8.080000 -4.200000 -4.080000 3.811951 10.438494 123.493118
8.080000 -4.200000 -4.040000 3.914686 7.247239 67.847244
8.080000 -4.200000 -4.000000 6.713913 6.850967 92.012375
8.080000 -4.200000 -3.960000 8.139669 9.464224 155.825745
8.080000 -4.200000 -3.920000 6.903566 12.141132 195.066315
8.080000 -4.200000 -3.880000 4.822811 13.397968 202.765060
8.080000 -4.200000 -3.840000 2.892976 14.524995 219.344788
8.080000 -4.200000 -3.800000 -0.662773 16.163988 261.713776
8.080000 -4.160000 -4.200000 2.430938 7.296245 59.144650
8.080000 -4.160000 -4.160000 -6.229953 12.003883 182.905533
8.080000 -4.160000 -4.120000 -14.467819 4.672764 231.152512
8.080000 -4.160000 -4.080000 -12.027573 -8.021356 209.004654
8.080000 -4.160000 -4.040000 0.559902 -14.592667 213.259415
8.080000 -4.160000 -4.000000 14.105614 -9.888592 296.752594
8.080000 -4.160000 -3.960000 20.419802 1.902817 420.588989
8.080000 -4.160000 -3.920000 18.457392 13.455475 521.725098
8.080000 -4.160000 -3.880000 11.847152 21.100103 585.569336
8.080000 -4.160000 -3.840000 3.193870 24.964279 633.416016
8.080000 -4.160000 -3.800000 -7.087844 24.666458 658.671692
8.080000 -4.120000 -4.200000 -12.521002 6.194812 195.151184
8.080000 -4.120000 -4.160000 -25.756241 -3.958588 679.054382
8.080000 -4.120000 -4.120000 -24.060234 -25.577755 1233.116455
8.080000 -4.120000 -4.080000 -2.968536 -40.869026 1679.089600
8.080000 -4.120000 -4.040000 25.351358 -36.109764 1946.606445
8.080000 -4.120000 -4.000000 43.247578 -12.950068 2038.057251
8.080000 -4.120000 -3.960000 41.916897 14.831299 1976.993652
8.080000 -4.120000 -3.920000 25.703680 33.680855 1795.079102
8.080000 -4.120000 -3.880000 5.141111 38.957291 1544.101562
8.080000 -4.120000 -3.840000 -11.922241 33.738667 1280.437500
8.080000 -4.120000 -3.800000 -22.705425 22.681133 1029.970093
8.080000 -4.080000 -4.200000 -22.662598 -9.960368 612.802246
8.080000 -4.080000 -4.160000 -25.190956 -35.306362 1881.123535
8.080000 -4.080000 -4.120000 -1.932808 -58.936703 3477.270752
8.080000 -4.080000 -4.080000 37.603622 -58.611126 4849.296875
8.080000 -4.080000 -4.040000 69.017715 -28.392380 5569.572266
8.080000 -4.080000 -4.000000 72.437019 16.258957 5511.475098
8.080000 -4.080000 -3.960000 47.098652 51.101318 4829.627930
8.080000 -4.080000 -3.920000 9.487621 61.031967 3814.916016
8.080000 -4.080000 -3.880000 -20.855520 48.087570 2747.366943
8.080000 -4.080000 -3.840000 -34.210979 25.473190 1819.274536
8.080000 -4.080000 -3.800000 -32.945957 5.877016 1119.975342
8.080000 -4.040000 -4.200000 -15.018422 -31.181807 1197.858032
8.080000 -4.040000 -4.160000 3.145346 -58.245335 3402.412354
8.080000 -4.040000 -4.120000 44.732155 -65.045830 6231.925781
8.080000 -4.040000 -4.080000 85.883926 -36.385490 8699.953125
8.080000 -4.040000 -4.040000 98.008560 17.780825 9921.835938
8.080000 -4.040000 -4.000000 70.228561 68.130135 9573.765625
8.080000 -4.040000 -3.960000 17.821938 87.490662 7972.237305
8.080000 -4.040000 -3.920000 -29.897289 69.969940 5789.640625
8.080000 -4.040000 -3.880000 -51.134598 32.514175 3671.918701
8.080000 -4.040000 -3.840000 -44.793270 -0.369598 2006.573608
8.080000 -4.040000 -3.800000 -26.458759 -14.613268 913.613525
8.080000 -4.000000 -4.200000 8.560765 -39.179195 1608.296143
8.080000 -4.000000 -4.160000 42.193581 -51.184586 4400.160156
8.080000 -4.000000 -4.120000 84.001633 -31.504539 8048.810547
8.080000 -4.000000 -4.080000 104.369431 19.847927 11286.918945
8.080000 -4.000000 -4.040000 82.760376 77.555054 12864.066406
8.080000 -4.000000 -4.000000 25.795868 107.658524 12255.784180
8.080000 -4.000000 -3.960000 -35.609913 92.838242 9887.005859
8.080000 -4.000000 -3.920000 -68.674347 45.334579 6771.390137
8.080000 -4.000000 -3.880000 -62.313370 -3.373739 3894.338135
8.080000 -4.000000 -3.840000 -32.680370 -27.071861 1800.892334
8.080000 -4.000000 -3.800000 -7.213391 -22.922255 577.462769
8.080000 -3.960000 -4.200000 30.086105 -25.013081 1530.827881
8.080000 -3.960000 -4.160000 62.644424 -16.268810 4188.998047
8.080000 -3.960000 -4.120000 85.602036 21.455437 7788.044434
8.080000 -3.960000 -4.080000 75.062492 73.847244 11087.792969
8.080000 -3.960000 -4.040000 26.537151 109.706100 12739.649414
8.080000 -3.960000 -4.000000 -36.956696 103.585556 12095.765625
8.080000 -3.960000 -3.960000 -79.506302 56.951759 9564.754883
8.080000 -3.960000 -3.920000 -79.167450 -1.273821 6269.107910
8.080000 -3.960000 -3.880000 -44.494785 -36.710842 3327.471680
8.080000 -3.960000 -3.840000 -6.163486 -35.856316 1323.663940
8.080000 -3.960000 -3.800000 9.042209 -14.231621 284.300568
8.080000 -3.920000 -4.200000 31.233852 0.172080 975.583130
8.080000 -3.920000 -4.160000 49.301819 20.057209 2832.960938
8.080000 -3.920000 -4.120000 48.645939 56.366699 5543.632324
8.080000 -3.920000 -4.080000 17.424551 88.808411 8190.548828
8.080000 -3.920000 -4.040000 -34.294724 91.952003 9631.298828
8.080000 -3.920000 -4.000000 -77.402611 56.841480 9222.118164
8.080000 -3.920000 -3.960000 -84.983147 1.744740 7225.179199
8.080000 -3.920000 -3.920000 -54.568672 -39.987656 4576.752441
8.080000 -3.920000 -3.880000 -10.893785 -46.201187 2253.224365
8.080000 -3.920000 -3.840000 14.685423 -23.397768 763.117188
8.080000 -3.920000 -3.800000 10.277191 0.637012 106.026443
8.080000 -3.880000 -4.200000 11.751337 13.886692 330.934143
8.080000 -3.880000 -4.160000 15.926016 30.155602 1162.998291
8.080000 -3.880000 -4.120000 3.332052 51.171906 2629.666504
8.080000 -3.880000 -4.080000 -27.559402 59.169651 4260.568359
8.080000 -3.880000 -4.040000 -60.606293 40.425655 5307.356445
8.080000 -3.880000 -4.000000 -72.419701 0.407116 5244.778809
8.080000 -3.880000 -3.960000 -52.579067 -37.012611 4134.491699
8.080000 -3.880000 -3.920000 -14.598724 -48.294113 2545.444092
8.080000 -3.880000 -3.880000 14.339424 -30.570391 1140.167847
8.080000 -3.880000 -3.840000 16.734774 -4.092297 296.799530
8.080000 -3.880000 -3.800000 -0.451400 6.336308 40.352566
8.080000 -3.840000 -4.200000 -8.640232 3.689463 88.265747
8.080000 -3.840000 -4.160000 -7.045208 10.590303 161.789490
8.080000 -3.840000 -4.120000 -16.186106 18.131268 590.732910
8.080000 -3.840000 -4.080000 -32.921333 14.058350 1281.451416
8.080000 -3.840000 -4.040000 -43.045410 -5.571484 1883.948730
8.080000 -3.840000 -4.000000 -34.317669 -29.470600 2046.218750
8.080000 -3.840000 -3.960000 -9.820995 -39.766472 1677.824219
8.080000 -3.840000 -3.920000 12.918655 -28.865814 1000.126892
8.080000 -3.840000 -3.880000 17.649799 -7.577105 368.927917
8.080000 -3.840000 -3.840000 4.830666 4.602753 44.520660
8.080000 -3.840000 -3.800000 -8.924119 -1.971534 83.526848
8.080000 -3.800000 -4.200000 -8.399910 -19.717060 459.320923
8.080000 -3.800000 -4.160000 -0.939091 -15.152661 230.485046
8.080000 -3.800000 -4.120000 -1.996223 -9.262884 89.785934
8.080000 -3.800000 -4.080000 -7.012911 -10.582550 161.171280
8.080000 -3.800000 -4.040000 -6.246550 -18.281837 373.244965
8.080000 -3.800000 -4.000000 3.564192 -22.697546 527.882080
8.080000 -3.800000 -3.960000 14.523228 -16.366196 478.776489
8.080000 -3.800000 -3.920000 15.726306 -3.336434 258.448486
8.080000 -3.800000 -3.880000 5.629366 4.099890 48.498856
8.080000 -3.800000 -3.840000 -5.150167 -1.643457 29.225178
8.080000 -3.800000 -3.800000 -4.368628 -14.760071 236.944611
8.120000 -4.200000 -4.200000 5.240359 6.407680 68.519730
8.120000 -4.200000 -4.160000 -1.630460 11.287258 130.060593
8.120000 -4.200000 -4.120000 -6.462360 6.246207 80.777206
8.120000 -4.200000 -4.080000 -1.727221 0.237300 3.039602
8.120000 -4.200000 -4.040000 7.271603 3.410214 64.505768
8.120000 -4.200000 -4.000000 8.964281 14.936584 303.459900
8.120000 -4.200000 -3.960000 -0.962526 23.783625 566.587280
8.120000 -4.200000 -3.920000 -14.615287 21.024244 655.625488
8.120000 -4.200000 -3.880000 -20.695372 9.378284 516.250610
8.120000 -4.200000 -3.840000 -16.540781 -0.563752 273.915253
8.120000 -4.200000 -3.800000 -9.734787 -2.420763 100.626175
8.120000 -4.160000 -4.200000 -2.271411 8.378536 75.359177
8.120000 -4.160000 -4.160000 -13.275496 4.506548 196.547760
8.120000 -4.160000 -4.120000 -12.548433 -8.114083 223.301529
8.120000 -4.160000 -4.080000 1.175686 -13.643278 187.521271
8.120000 -4.160000 -4.040000 14.632412 -3.958126 229.774246
8.120000 -4.160000 -4.000000 14.778236 13.260042 394.224976
8.120000 -4.160000 -3.960000 2.003106 23.595879 560.777954
8.120000 -4.160000 -3.920000 -11.970810 20.908958 580.484863
8.120000 -4.160000 -3.880000 -17.535490 11.660769 443.466919
8.120000 -4.160000 -3.840000 -16.054262 5.354387 286.408783
8.120000 -4.160000 -3.800000 -15.043682 3.596584 239.247803
8.120000 -4.120000 -4.200000 -10.886443 0.920381 119.361740
8.120000 -4.120000 -4.160000 -16.032120 -13.612203 442.320923
8.120000 -4.120000 -4.120000 -2.671963 -27.020954 737.271362
8.120000 -4.120000 -4.080000 19.511944 -22.903009 905.263794
8.120000 -4.120000 -4.040000 31.611824 -1.117565 1000.556396
8.120000 -4.120000 -4.000000 23.680912 22.946190 1087.313232
8.120000 -4.120000 -3.960000 2.546532 33.638889 1138.059692
8.120000 -4.120000 -3.920000 -16.975304 28.161898 1081.253418
8.120000 -4.120000 -3.880000 -26.121716 15.317170 916.959717
8.120000 -4.120000 -3.840000 -26.828560 4.163351 737.105103
8.120000 -4.120000 -3.800000 -24.760056 -3.577784 625.860901
8.120000 -4.080000 -4.200000 -9.770115 -14.311446 300.272644
8.120000 -4.080000 -4.160000 -0.715940 -31.155233 971.161133
8.120000 -4.080000 -4.120000 23.755592 -33.553497 1690.165283
8.120000 -4.080000 -4.080000 44.875561 -13.038483 2183.817871
8.120000 -4.080000 -4.040000 44.734325 19.589638 2384.913818
8.120000 -4.080000 -4.000000 21.441883 43.787479 2377.097656
8.120000 -4.080000 -3.960000 -10.720390 46.208740 2250.174316
8.120000 -4.080000 -3.920000 -34.216103 29.293440 2028.847290
8.120000 -4.080000 -3.880000 -40.960732 5.914314 1712.760620
8.120000 -4.080000 -3.840000 -34.471725 -12.164298 1336.270020
8.120000 -4.080000 -3.800000 -23.037113 -20.873299 966.403198
8.120000 -4.040000 -4.200000 5.989065 -24.971394 659.439392
8.120000 -4.040000 -4.160000 27.113567 -31.158060 1705.970215
8.120000 -4.040000 -4.120000 50.905025 -15.542980 2832.905762
8.120000 -4.040000 -4.080000 57.503094 17.839390 3624.849609
8.120000 -4.040000 -4.040000 37.432457 50.026928 3903.882324
8.120000 -4.040000 -4.000000 -0.605260 61.308266 3759.069824
8.120000 -4.040000 -3.960000 -36.336609 45.440880 3385.222656
8.120000 -4.040000 -3.920000 -52.420265 12.886665 2913.950439
8.120000 -4.040000 -3.880000 -45.194008 -17.984833 2365.952637
8.120000 -4.040000 -3.840000 -24.614857 -33.546436 1731.254639
8.120000 -4.040000 -3.800000 -5.450596 -32.244427 1069.411987
8.120000 -4.000000 -4.200000 27.186169 -18.621187 1085.836426
8.120000 -4.000000 -4.160000 47.920269 -7.725640 2356.037842
8.120000 -4.000000 -4.120000 56.958576 20.673592 3671.676758
8.120000 -4.000000 -4.080000 42.183559 52.853333 4572.927734
8.120000 -4.000000 -4.040000 6.086323 69.229828 4829.812500
8.120000 -4.000000 -4.000000 -34.325714 57.834633 4523.099609
8.120000 -4.000000 -3.960000 -58.124660 23.083908 3911.342773
8.120000 -4.000000 -3.920000 -54.206123 -16.618736 3214.486084
8.120000 -4.000000 -3.880000 -28.518364 -40.997139 2494.062500
8.120000 -4.000000 -3.840000 0.537694 -41.393520 1713.712646
8.120000 -4.000000 -3.800000 15.487773 -25.879871 909.638855
8.120000 -3.960000 -4.200000 36.464989 3.517692 1342.069580
8.120000 -3.960000 -4.160000 43.963551 25.275318 2571.635498
8.120000 -3.960000 -4.120000 33.216927 51.671295 3773.287109
8.120000 -3.960000 -4.080000 3.621202 67.348839 4548.979492
8.120000 -3.960000 -4.040000 -33.134319 59.938099 4690.458984
8.120000 -3.960000 -4.000000 -58.529686 29.041389 4269.126465
8.120000 -3.960000 -3.960000 -58.445915 -11.450109 3547.030029
8.120000 -3.960000 -3.920000 -33.317650 -40.828743 2777.052002
8.120000 -3.960000 -3.880000 0.827367 -45.238003 2047.161499
8.120000 -3.960000 -3.840000 23.037579 -27.931974 1310.925293
8.120000 -3.960000 -3.800000 23.060772 -7.072643 581.821472
8.120000 -3.920000 -4.200000 24.765079 24.800163 1228.357178
8.120000 -3.920000 -4.160000 16.482800 43.823696 2192.198975
8.120000 -3.920000 -4.120000 -5.817787 55.184235 3079.146484
8.120000 -3.920000 -4.080000 -34.246746 49.317921 3605.096924
8.120000 -3.920000 -4.040000 -55.011086 24.514963 3627.202881
8.120000 -3.920000 -4.000000 -55.756462 -9.936092 3207.508789
8.120000 -3.920000 -3.960000 -34.187920 -37.301266 2560.198242
8.120000 -3.920000 -3.920000 -1.664230 -43.525703 1897.256470
8.120000 -3.920000 -3.880000 22.935211 -27.816179 1299.763672
8.120000 -3.920000 -3.840000 26.758217 -4.600721 737.168823
8.120000 -3.920000 -3.800000 13.603621 7.033063 234.522461
8.120000 -3.880000 -4.200000 1.897580 27.617035 766.301453
8.120000 -3.880000 -4.160000 -13.264126 34.795212 1386.643799
8.120000 -3.880000 -4.120000 -32.791954 29.693775 1957.032471
8.120000 -3.880000 -4.080000 -46.600777 10.839629 2289.129883
8.120000 -3.880000 -4.040000 -45.386921 -15.061230 2286.813232
8.120000 -3.880000 -4.000000 -27.082508 -35.436066 1989.177002
8.120000 -3.880000 -3.960000 -0.034770 -39.144341 1532.280640
8.120000 -3.880000 -3.920000 20.938755 -24.813511 1054.141846
8.120000 -3.880000 -3.880000 24.710859 -3.345465 621.818726
8.120000 -3.880000 -3.840000 13.008333 9.321733 256.111450
8.120000 -3.880000 -3.800000 -0.018448 5.000442 25.004755
8.120000 -3.840000 -4.200000 -11.063039 10.993834 243.255219
8.120000 -3.840000 -4.160000 -22.173897 8.682729 567.071472
8.120000 -3.840000 -4.120000 -30.507912 -3.401009 942.299500
8.120000 -3.840000 -4.080000 -28.125355 -21.058193 1234.483154
8.120000 -3.840000 -4.040000 -12.753956 -34.232185 1334.505859
8.120000 -3.840000 -4.000000 8.703856 -33.711807 1212.243042
8.120000 -3.840000 -3.960000 23.757490 -18.868317 920.431702
8.120000 -3.840000 -3.920000 23.598284 0.401270 557.039978
8.120000 -3.840000 -3.880000 10.784405 10.566043 227.944641
8.120000 -3.840000 -3.840000 -1.946087 5.525264 34.315792
8.120000 -3.840000 -3.800000 -2.028288 -7.687591 63.213001
8.120000 -3.800000 -4.200000 -1.889413 -6.880596 50.912483
8.120000 -3.800000 -4.160000 -6.472608 -9.415636 130.548859
8.120000 -3.800000 -4.120000 -6.590854 -18.338144 379.726898
8.120000 -3.800000 -4.080000 3.198228 -26.747580 725.661621
8.120000 -3.800000 -4.040000 19.362034 -24.970840 998.431213
8.120000 -3.800000 -4.000000 30.458883 -10.367341 1035.225342
8.120000 -3.800000 -3.960000 26.985588 8.159723 794.803101
8.120000 -3.800000 -3.920000 11.160187 16.723667 404.230804
8.120000 -3.800000 -3.880000 -3.561488 9.066969 94.894119
8.120000 -3.800000 -3.840000 -4.035344 -6.797647 62.491997
8.120000 -3.800000 -3.800000 10.297832 -15.150611 335.586365
8.160000 -4.200000 -4.200000 -2.447102 8.081644 71.301285
8.160000 -4.200000 -4.160000 -10.778601 2.847708 124.287674
8.160000 -4.200000 -4.120000 -6.282108 -6.714604 84.550797
8.160000 -4.200000 -4.080000 7.157425 -4.655582 72.903183
8.160000 -4.200000 -4.040000 12.452042 12.061376 300.530121
8.160000 -4.200000 -4.000000 -1.332926 28.361105 806.128967
8.160000 -4.200000 -3.960000 -25.506395 26.443729 1349.847046
8.160000 -4.200000 -3.920000 -39.506359 5.045120 1586.205688
8.160000 -4.200000 -3.880000 -31.768803 -18.597561 1355.126099
8.160000 -4.200000 -3.840000 -11.070401 -26.267141 812.516479
8.160000 -4.200000 -3.800000 3.577746 -16.626780 289.250061
8.160000 -4.160000 -4.200000 -6.651771 6.329263 84.305626
8.160000 -4.160000 -4.160000 -11.710685 -4.633399 158.608521
8.160000 -4.160000 -4.120000 -0.970575 -12.462681 156.260437
8.160000 -4.160000 -4.080000 12.947855 -3.471930 179.701233
8.160000 -4.160000 -4.040000 11.769547 16.614143 414.552002
8.160000 -4.160000 -4.000000 -7.777853 28.283783 860.467346
8.160000 -4.160000 -3.960000 -29.785885 19.147284 1253.817383
8.160000 -4.160000 -3.920000 -35.798717 -3.040376 1290.792114
8.160000 -4.160000 -3.880000 -23.574196 -19.161465 922.904480
8.160000 -4.160000 -3.840000 -7.683858 -18.841812 414.055542
8.160000 -4.160000 -3.800000 -2.464218 -9.524681 96.791924
8.160000 -4.120000 -4.200000 -8.142167 -0.982870 67.260918
8.160000 -4.120000 -4.160000 -5.018396 -13.125953 197.474930
8.160000 -4.120000 -4.120000 9.867867 -13.537943 280.650696
8.160000 -4.120000 -4.080000 18.796726 2.843596 361.402954
8.160000 -4.120000 -4.040000 8.846337 22.436886 581.671509
8.160000 -4.120000 -4.000000 -14.424223 27.203203 948.072510
8.160000 -4.120000 -3.960000 -32.977325 12.856462 1252.792603
8.160000 -4.120000 -3.920000 -34.538193 -8.103956 1258.560791
8.160000 -4.120000 -3.880000 -23.092018 -20.352400 947.461426
8.160000 -4.120000 -3.840000 -11.773872 -20.367916 553.476074
8.160000 -4.120000 -3.800000 -7.971311 -16.454609 334.295959
8.160000 -4.080000 -4.200000 -0.748156 -9.006734 81.680992
8.160000 -4.080000 -4.160000 9.486805 -14.356249 296.101349
8.160000 -4.080000 -4.120000 21.357483 -4.751892 478.722565
8.160000 -4.080000 -4.080000 19.818045 14.637345 607.006775
8.160000 -4.080000 -4.040000 1.450107 27.946070 783.085571
8.160000 -4.080000 -4.000000 -22.385624 23.686268 1062.155518
8.160000 -4.080000 -3.960000 -36.406742 4.524534 1345.922363
8.160000 -4.080000 -3.920000 -34.382862 -16.785337 1463.928711
8.160000 -4.080000 -3.880000 -21.909962 -29.353655 1341.683472
8.160000 -4.080000 -3.840000 -8.670609 -31.453262 1064.487183
8.160000 -4.080000 -3.800000 0.040464 -27.903290 778.595215
8.160000 -4.040000 -4.200000 13.889419 -7.899321 255.315216
8.160000 -4.040000 -4.160000 23.185417 -1.947813 541.357544
8.160000 -4.040000 -4.120000 24.168793 13.320591 761.568726
8.160000 -4.040000 -4.080000 11.078028 27.359253 871.251465
8.160000 -4.040000 -4.040000 -10.961013 28.967705 959.271729
8.160000 -4.040000 -4.000000 -30.105764 14.995520 1131.222656
8.160000 -4.040000 -3.960000 -36.454704 -8.082932 1394.279175
8.160000 -4.040000 -3.920000 -27.916922 -29.363737 1641.583496
8.160000 -4.040000 -3.880000 -10.062330 -40.295757 1724.998535
8.160000 -4.040000 -3.840000 8.033488 -38.528481 1548.980835
8.160000 -4.040000 -3.800000 18.638855 -28.092834 1136.614258
8.160000 -4.000000 -4.200000 24.594219 6.797421 651.080566
8.160000 -4.000000 -4.160000 23.641293 20.150692 964.961060
8.160000 -4.000000 -4.120000 11.492303 31.284023 1110.763184
8.160000 -4.000000 -4.080000 -7.411483 32.303131 1098.422363
8.160000 -4.000000 -4.040000 -24.725315 20.878370 1047.247559
8.160000 -4.000000 -4.000000 -32.955215 0.447176 1086.246216
8.160000 -4.000000 -3.960000 -28.192961 -21.909756 1274.880371
8.160000 -4.000000 -3.920000 -11.381865 -37.774063 1556.426758
8.160000 -4.000000 -3.880000 10.921948 -40.461117 1756.390869
8.160000 -4.000000 -3.840000 28.255424 -29.376244 1661.332764
8.160000 -4.000000 -3.800000 32.225353 -12.462028 1193.775513
8.160000 -3.960000 -4.200000 20.171925 26.953041 1133.373047
8.160000 -3.960000 -4.160000 6.049902 37.619778 1451.848999
8.160000 -3.960000 -4.120000 -13.148518 35.873398 1459.784180
8.160000 -3.960000 -4.080000 -27.668049 22.264898 1261.246582
8.160000 -3.960000 -4.040000 -32.155373 2.857534 1042.133545
8.160000 -3.960000 -4.000000 -26.083662 -16.126471 940.420471
8.160000 -3.960000 -3.960000 -11.059988 -29.784252 1009.425049
8.160000 -3.960000 -3.920000 9.375542 -33.505783 1210.538208
8.160000 -3.960000 -3.880000 27.960342 -24.685452 1391.152344
8.160000 -3.960000 -3.840000 35.700596 -7.336645 1328.359009
8.160000 -3.960000 -3.800000 29.341255 7.248969 913.456787
8.160000 -3.920000 -4.200000 1.498284 37.331226 1395.865356
8.160000 -3.920000 -4.160000 -19.874624 36.811272 1750.070435
8.160000 -3.920000 -4.120000 -35.547535 20.764521 1694.792480
8.160000 -3.920000 -4.080000 -37.059479 -1.360560 1375.255981
8.160000 -3.920000 -4.040000 -25.859850 -18.987238 1029.247070
8.160000 -3.920000 -4.000000 -8.506695 -27.191603 811.747070
8.160000 -3.920000 -3.960000 9.247746 -25.904289 756.553040
8.160000 -3.920000 -3.920000 23.243696 -16.480639 811.880859
8.160000 -3.920000 -3.880000 29.283224 -1.837852 860.884888
8.160000 -3.920000 -3.840000 25.034744 11.443957 757.702576
8.160000 -3.920000 -3.800000 14.721424 15.458466 455.684479
8.160000 -3.880000 -4.200000 -17.161552 30.012600 1195.275024
8.160000 -3.880000 -4.160000 -36.219810 17.687216 1624.712280
8.160000 -3.880000 -4.120000 -40.674591 -6.175768 1692.562500
8.160000 -3.880000 -4.080000 -27.367521 -26.760006 1465.079102
8.160000 -3.880000 -4.040000 -4.968678 -33.366074 1137.982666
8.160000 -3.880000 -4.000000 14.595060 -25.571533 866.919128
8.160000 -3.880000 -3.960000 24.234688 -10.264593 692.681946
8.160000 -3.880000 -3.920000 23.451176 4.620473 571.306396
8.160000 -3.880000 -3.880000 15.891127 13.594334 437.333801
8.160000 -3.880000 -3.840000 7.257795 14.382062 259.519287
8.160000 -3.880000 -3.800000 3.886740 8.878735 93.938667
8.160000 -3.840000 -4.200000 -20.945200 13.343516 616.750854
8.160000 -3.840000 -4.160000 -32.343620 -4.484423 1066.219727
8.160000 -3.840000 -4.120000 -25.421913 -27.344181 1393.977905
8.160000 -3.840000 -4.080000 -2.547524 -38.779686 1510.353882
8.160000 -3.840000 -4.040000 21.972408 -30.766186 1429.344849
8.160000 -3.840000 -4.000000 33.519638 -9.266981 1209.443115
8.160000 -3.840000 -3.960000 27.751320 11.512354 902.670044
8.160000 -3.840000 -3.920000 12.217098 20.100187 553.275024
8.160000 -3.840000 -3.880000 -0.555416 15.065625 227.281555
8.160000 -3.840000 -3.840000 -2.154342 4.437158 24.329559
8.160000 -3.840000 -3.800000 6.680131 -0.885355 45.408001
8.160000 -3.800000 -4.200000 -9.382401 4.965338 112.684036
8.160000 -3.800000 -4.160000 -15.165073 -12.074008 375.761108
8.160000 -3.800000 -4.120000 -2.322267 -29.429768 871.504150
8.160000 -3.800000 -4.080000 22.539698 -30.440392 1434.655396
8.160000 -3.800000 -4.040000 41.121777 -10.913705 1810.109497
8.160000 -3.800000 -4.000000 39.069153 16.254848 1790.618774
8.160000 -3.800000 -3.960000 18.593262 31.735153 1352.829346
8.160000 -3.800000 -3.920000 -3.425898 26.235760 700.051819
8.160000 -3.800000 -3.880000 -10.090417 8.049862 166.616791
8.160000 -3.800000 -3.840000 1.260922 -4.795180 24.583677
8.160000 -3.800000 -3.800000 17.677809 -0.407507 312.670990
8.200000 -4.200000 -4.200000 -8.062361 3.424916 76.731712
8.200000 -4.200000 -4.160000 -7.942562 -8.121105 129.036636
8.200000 -4.200000 -4.120000 5.938232 -10.770621 151.268890
8.200000 -4.200000 -4.080000 16.133522 5.126535 286.571899
8.200000 -4.200000 -4.040000 4.866280 26.764141 739.999939
8.200000 -4.200000 -4.000000 -24.441133 30.294050 1515.098511
8.200000 -4.200000 -3.960000 -47.505913 6.252563 2295.906250
8.200000 -4.200000 -3.920000 -42.674793 -28.489441 2632.786133
8.200000 -4.200000 -3.880000 -13.106193 -46.074455 2294.627686
8.200000 -4.200000 -3.840000 16.085438 -34.739708 1465.588623
8.200000 -4.200000 -3.800000 22.813267 -9.290992 606.767639
8.200000 -4.160000 -4.200000 -9.117757 1.916040 86.804703
8.200000 -4.160000 -4.160000 -4.732298 -8.543905 95.392960
8.200000 -4.160000 -4.120000 8.266094 -5.168998 95.046852
8.200000 -4.160000 -4.080000 10.173367 12.948197 271.153198
8.200000 -4.160000 -4.040000 -8.878868 26.929956 804.056824
8.200000 -4.160000 -4.000000 -35.605743 17.982199 1591.128418
8.200000 -4.160000 -3.960000 -45.684299 -11.235143 2213.283691
8.200000 -4.160000 -3.920000 -28.844395 -37.596462 2245.493164
8.200000 -4.160000 -3.880000 0.247357 -40.417503 1633.635742
8.200000 -4.160000 -3.840000 17.091732 -21.764578 765.824097
8.200000 -4.160000 -3.800000 11.962873 -2.623072 149.990829
8.200000 -4.120000 -4.200000 -7.158487 -1.618264 53.862720
8.200000 -4.120000 -4.160000 -0.228347 -7.228914 52.309345
8.200000 -4.120000 -4.120000 7.233824 0.794085 52.958782
8.200000 -4.120000 -4.080000 0.484717 14.990040 224.936249
8.200000 -4.120000 -4.040000 -20.007530 17.713806 714.080200
8.200000 -4.120000 -4.000000 -37.356564 0.649318 1395.934448
8.200000 -4.120000 -3.960000 -35.322186 -25.143410 1879.847778
8.200000 -4.120000 -3.920000 -15.132063 -39.882698 1819.609009
8.200000 -4.120000 -3.880000 6.123687 -34.670834 1239.566162
8.200000 -4.120000 -3.840000 13.173141 -19.030846 535.704773
8.200000 -4.120000 -3.800000 6.798581 -9.139375 129.748871
8.200000 -4.080000 -4.200000 -0.137747 -2.151129 4.646331
8.200000 -4.080000 -4.160000 4.264214 -1.513081 20.472935
8.200000 -4.080000 -4.120000 3.218463 6.123789 47.859291
8.200000 -4.080000 -4.080000 -8.124080 11.009146 187.201965
8.200000 -4.080000 -4.040000 -22.802643 3.747797 534.006470
8.200000 -4.080000 -4.000000 -28.524807 -14.278445 1017.538574
8.200000 -4.080000 -3.960000 -19.783506 -31.720976 1397.607422
8.200000 -4.080000 -3.920000 -2.776978 -38.009171 1452.408569
8.200000 -4.080000 -3.880000 11.251658 -32.381081 1175.134277
8.200000 -4.080000 -3.840000 16.331490 -22.487671 772.412903
8.200000 -4.080000 -3.800000 14.985739 -15.657679 469.735291
8.200000 -4.040000 -4.200000 7.129479 5.548836 81.619049
8.200000 -4.040000 -4.160000 3.843398 8.969751 95.228142
8.200000 -4.040000 -4.120000 -4.182840 9.745979 112.480263
8.200000 -4.040000 -4.080000 -13.158024 3.794888 187.534775
8.200000 -4.040000 -4.040000 -17.315029 -8.043430 364.507019
8.200000 -4.040000 -4.000000 -13.753581 -20.863485 624.446045
8.200000 -4.040000 -3.960000 -3.938469 -29.720488 898.818909
8.200000 -4.040000 -3.920000 8.455242 -32.321148 1116.147705
8.200000 -4.040000 -3.880000 19.905445 -28.727257 1221.482056
8.200000 -4.040000 -3.840000 27.459721 -20.275127 1165.117065
8.200000 -4.040000 -3.800000 28.704208 -9.870886 921.365967
8.200000 -4.000000 -4.200000 6.124570 19.489895 417.366333
8.200000 -4.000000 -4.160000 -5.761465 18.898548 390.349609
8.200000 -4.000000 -4.120000 -14.797311 8.939089 298.867706
8.200000 -4.000000 -4.080000 -15.077621 -4.489931 247.494110
8.200000 -4.000000 -4.040000 -8.324265 -14.270197 272.931885
8.200000 -4.000000 -4.000000 0.005595 -18.862082 355.778137
8.200000 -4.000000 -3.960000 7.764720 -21.194681 509.505402
8.200000 -4.000000 -3.920000 17.054718 -22.192411 783.366516
8.200000 -4.000000 -3.880000 28.305180 -18.275009 1135.159180
8.200000 -4.000000 -3.840000 36.120300 -6.896164 1352.233276
8.200000 -4.000000 -3.800000 33.859673 7.014306 1195.677856
8.200000 -3.960000 -4.200000 -6.344348 30.060440 943.880798
8.200000 -3.960000 -4.160000 -22.298321 20.028427 898.353027
8.200000 -3.960000 -4.120000 -25.304630 0.612842 640.699890
8.200000 -3.960000 -4.080000 -14.276462 -14.005688 399.976624
8.200000 -3.960000 -4.040000 0.285705 -16.799307 282.298340
8.200000 -3.960000 -4.000000 9.266672 -12.868850 251.478516
8.200000 -3.960000 -3.960000 13.832818 -10.208461 295.559509
8.200000 -3.960000 -3.920000 20.371767 -8.949095 495.095184
8.200000 -3.960000 -3.880000 29.249926 -2.666135 862.666443
8.200000 -3.960000 -3.840000 32.666595 10.566917 1178.766235
8.200000 -3.960000 -3.800000 24.982792 22.390991 1125.496338
8.200000 -3.920000 -4.200000 -23.197742 28.662172 1359.655396
8.200000 -3.920000 -4.160000 -36.480133 8.796896 1408.185425
8.200000 -3.920000 -4.120000 -29.422039 -14.754468 1083.350708
8.200000 -3.920000 -4.080000 -8.669915 -24.723961 686.441650
8.200000 -3.920000 -4.040000 9.418243 -18.384272 426.684753
8.200000 -3.920000 -4.000000 16.091557 -6.632247 302.924896
8.200000 -3.920000 -3.960000 16.053217 0.573173 258.034302
8.200000 -3.920000 -3.920000 17.475687 4.146615 322.594055
8.200000 -3.920000 -3.880000 20.514349 10.567617 532.513062
8.200000 -3.920000 -3.840000 18.692791 20.289742 761.094055
8.200000 -3.920000 -3.800000 10.102717 25.829163 769.210510
8.200000 -3.880000 -4.200000 -32.813583 16.850754 1360.679077
8.200000 -3.880000 -4.160000 -39.148903 -8.846611 1610.899170
8.200000 -3.880000 -4.120000 -22.438061 -30.841785 1454.682251
8.200000 -3.880000 -4.080000 4.241075 -32.955238 1104.034424
8.200000 -3.880000 -4.040000 22.037125 -17.268131 783.823242
8.200000 -3.880000 -4.000000 23.677015 1.495340 562.837097
8.200000 -3.880000 -3.960000 16.226351 11.990507 407.066711
8.200000 -3.880000 -3.920000 9.761247 14.600546 308.457886
8.200000 -3.880000 -3.880000 7.023196 15.679182 295.162018
8.200000 -3.880000 -3.840000 4.722119 17.935799 343.991272
8.200000 -3.880000 -3.800000 1.373648 19.167496 369.279785
8.200000 -3.840000 -4.200000 -30.459692 5.668015 959.919250
8.200000 -3.840000 -4.160000 -29.855618 -21.410906 1349.784790
8.200000 -3.840000 -4.120000 -6.477972 -38.747635 1543.343262
8.200000 -3.840000 -4.080000 22.439295 -32.241051 1543.007324
8.200000 -3.840000 -4.040000 36.648232 -7.821810 1404.273560
8.200000 -3.840000 -4.000000 29.962721 16.192730 1159.969116
8.200000 -3.840000 -3.960000 12.425491 26.007441 830.779785
8.200000 -3.840000 -3.920000 -1.448338 21.796265 477.174835
8.200000 -3.840000 -3.880000 -4.884439 13.385240 203.022385
8.200000 -3.840000 -3.840000 -1.158233 9.735198 96.115585
8.200000 -3.840000 -3.800000 2.539766 12.970612 174.687180
8.200000 -3.800000 -4.200000 -23.530968 4.811625 576.858154
8.200000 -3.800000 -4.160000 -18.085476 -21.974689 809.971436
8.200000 -3.800000 -4.120000 9.363047 -34.178753 1255.853760
8.200000 -3.800000 -4.080000 37.750023 -19.329128 1798.679443
8.200000 -3.800000 -4.040000 45.033188 12.345299 2180.394531
8.200000 -3.800000 -4.000000 27.093594 37.590038 2147.073730
8.200000 -3.800000 -3.960000 -0.229578 40.491211 1639.590942
8.200000 -3.800000 -3.920000 -16.341642 24.681330 876.217285
8.200000 -3.800000 -3.880000 -13.325045 7.615337 235.550171
8.200000 -3.800000 -3.840000 -0.381978 4.091160 16.883495
8.200000 -3.800000 -3.800000 6.602043 14.454836 252.529251
