#kx 	ky 	kz 	real 	imag 	intensity
7.800000 -4.200000 1.800000 -31.988907 23.315445 1566.900146
7.800000 -4.200000 1.840000 -32.945232 11.712787 1222.577637
7.800000 -4.200000 1.880000 -33.928902 5.967706 1186.783936
7.800000 -4.200000 1.920000 -39.133423 -2.463014 1537.491211
7.800000 -4.200000 1.960000 -39.824730 -19.717983 1974.807983
7.800000 -4.200000 2.000000 -25.209389 -37.707890 2057.398193
7.800000 -4.200000 2.040000 1.508152 -40.013542 1603.358154
7.800000 -4.200000 2.080000 21.807981 -20.287571 887.173584
7.800000 -4.200000 2.120000 18.910023 7.773653 418.018646
7.800000 -4.200000 2.160000 -4.517422 21.526260 483.786987
7.800000 -4.200000 2.200000 -27.758041 10.993041 891.355835
7.800000 -4.160000 1.800000 -39.916138 0.486713 1593.535034
7.800000 -4.160000 1.840000 -33.242222 -6.927686 1153.038086
7.800000 -4.160000 1.880000 -31.528194 -10.258587 1099.265625
7.800000 -4.160000 1.920000 -32.239590 -18.429314 1379.030762
7.800000 -4.160000 1.960000 -25.766851 -30.949551 1621.805298
7.800000 -4.160000 2.000000 -9.243113 -37.069607 1459.590942
7.800000 -4.160000 2.040000 7.217032 -28.634098 871.997131
7.800000 -4.160000 2.080000 10.209648 -11.487450 236.198425
7.800000 -4.160000 2.120000 -1.808025 -1.290770 4.935042
7.800000 -4.160000 2.160000 -15.508369 -7.441134 295.880005
7.800000 -4.160000 2.200000 -16.073183 -22.838787 779.957397
7.800000 -4.120000 1.800000 -29.338938 -21.604483 1327.526855
7.800000 -4.120000 1.840000 -19.713781 -20.667051 815.760193
7.800000 -4.120000 1.880000 -17.426083 -19.082088 667.794434
7.800000 -4.120000 1.920000 -16.583076 -22.152098 765.713867
7.800000 -4.120000 1.960000 -11.552120 -26.378330 829.267761
7.800000 -4.120000 2.000000 -4.448374 -25.971384 694.300842
7.800000 -4.120000 2.040000 -1.672243 -21.791018 477.644836
7.800000 -4.120000 2.080000 -4.288445 -21.003563 459.540405
7.800000 -4.120000 2.120000 -4.915014 -27.546062 782.942932
7.800000 -4.120000 2.160000 3.985029 -35.262222 1259.304810
7.800000 -4.120000 2.200000 19.762209 -33.226837 1494.567627
7.800000 -4.080000 1.800000 -7.954515 -28.653801 884.314575
7.800000 -4.080000 1.840000 -1.947742 -19.702896 391.997803
7.800000 -4.080000 1.880000 -3.652382 -13.528883 196.370560
7.800000 -4.080000 1.920000 -7.660814 -12.459232 213.920547
7.800000 -4.080000 1.960000 -11.229909 -14.993252 350.908447
7.800000 -4.080000 2.000000 -13.918591 -20.996353 634.573975
7.800000 -4.080000 2.040000 -12.889288 -31.653238 1168.061279
7.800000 -4.080000 2.080000 -2.570688 -43.980152 1940.862183
7.800000 -4.080000 2.120000 18.450035 -48.501537 2692.802979
7.800000 -4.080000 2.160000 41.220428 -36.268303 3014.513672
7.800000 -4.080000 2.200000 50.540371 -9.561175 2645.745117
7.800000 -4.040000 1.800000 8.256707 -19.043293 430.820221
7.800000 -4.040000 1.840000 6.170839 -7.187387 89.737793
7.800000 -4.040000 1.880000 -2.585330 -1.270118 8.297131
7.800000 -4.040000 1.920000 -13.644670 -3.173069 196.245392
7.800000 -4.040000 1.960000 -22.763975 -13.969204 713.337219
7.800000 -4.040000 2.000000 -23.351881 -32.941402 1630.446289
7.800000 -4.040000 2.040000 -8.297146 -52.912273 2868.551270
7.800000 -4.040000 2.080000 22.017105 -60.002090 4085.003906
7.800000 -4.040000 2.120000 54.002914 -43.080082 4772.208008
7.800000 -4.040000 2.160000 67.266563 -6.146383 4562.568359
7.800000 -4.040000 2.200000 50.969536 30.168617 3508.039062
7.800000 -4.000000 1.800000 9.611614 -4.547709 113.064774
7.800000 -4.000000 1.840000 0.074113 3.375574 11.399994
7.800000 -4.000000 1.880000 -13.289335 2.780785 184.339188
7.800000 -4.000000 1.920000 -25.487514 -8.171612 716.388672
7.800000 -4.000000 1.960000 -29.055883 -29.252743 1699.967285
7.800000 -4.000000 2.000000 -15.391580 -53.444664 3093.232666
7.800000 -4.000000 2.040000 17.066433 -65.518639 4583.955078
7.800000 -4.000000 2.080000 55.156601 -51.016750 5644.959473
7.800000 -4.000000 2.120000 75.472244 -10.749006 5811.600586
7.800000 -4.000000 2.160000 61.861042 34.162266 4993.849121
7.800000 -4.000000 2.200000 21.244808 55.781509 3562.918701
7.800000 -3.960000 1.800000 0.338546 1.556141 2.536188
7.800000 -3.960000 1.840000 -11.233531 1.387095 128.116241
7.800000 -3.960000 1.880000 -21.992605 -7.710475 543.126099
7.800000 -3.960000 1.920000 -26.142710 -25.549236 1336.204834
7.800000 -3.960000 1.960000 -16.352661 -47.590179 2532.234619
7.800000 -3.960000 2.000000 11.009250 -61.819378 3942.839111
7.800000 -3.960000 2.040000 47.593082 -53.582283 5136.162598
7.800000 -3.960000 2.080000 72.692802 -18.669674 5632.800293
7.800000 -3.960000 2.120000 66.856102 27.408998 5220.991211
7.800000 -3.960000 2.160000 29.814701 56.814533 4116.807617
7.800000 -3.960000 2.200000 -15.287890 50.900711 2824.601807
7.800000 -3.920000 1.800000 -7.611502 -3.744530 71.956467
7.800000 -3.920000 1.840000 -14.672858 -10.870813 333.467346
7.800000 -3.920000 1.880000 -16.485922 -23.612907 829.354980
7.800000 -3.920000 1.920000 -9.198229 -38.795189 1589.674072
7.800000 -3.920000 1.960000 9.897973 -49.668472 2564.927002
7.800000 -3.920000 2.000000 37.431252 -46.118973 3528.058350
7.800000 -3.920000 2.040000 60.328957 -21.890408 4118.772949
7.800000 -3.920000 2.080000 61.767521 15.870297 4067.092773
7.800000 -3.920000 2.120000 35.433701 46.461243 3414.194092
7.800000 -3.920000 2.160000 -5.080492 49.802704 2506.120605
7.800000 -3.920000 2.200000 -33.960194 24.141722 1736.117554
7.800000 -3.880000 1.800000 -6.818416 -12.926420 213.583145
7.800000 -3.880000 1.840000 -5.972551 -21.724308 507.616943
7.800000 -3.880000 1.880000 1.151192 -29.991951 900.842407
7.800000 -3.880000 1.920000 13.715168 -34.148483 1354.224731
7.800000 -3.880000 1.960000 29.599613 -30.621613 1813.820312
7.800000 -3.880000 2.000000 43.476067 -16.267128 2154.787842
7.800000 -3.880000 2.040000 46.486641 7.288948 2214.136475
7.800000 -3.880000 2.080000 32.098831 29.999496 1930.304688
7.800000 -3.880000 2.120000 4.420078 37.729755 1443.071533
7.800000 -3.880000 2.160000 -20.966740 23.936613 1012.565552
7.800000 -3.880000 2.200000 -28.142344 -2.340256 797.468323
7.800000 -3.840000 1.800000 0.197229 -17.576769 308.981720
7.800000 -3.840000 1.840000 7.477173 -22.533775 563.679138
7.800000 -3.840000 1.880000 17.318304 -21.588726 765.996704
7.800000 -3.840000 1.920000 25.055698 -15.038636 853.948608
7.800000 -3.840000 1.960000 28.479252 -5.450610 840.776978
7.800000 -3.840000 2.000000 26.972513 5.153654 754.076660
7.800000 -3.840000 2.040000 19.654377 14.582489 598.943481
7.800000 -3.840000 2.080000 6.861797 18.738203 398.204498
7.800000 -3.840000 2.120000 -6.831287 13.626466 232.347061
7.800000 -3.840000 2.160000 -13.756256 0.449480 189.436615
7.800000 -3.840000 2.200000 -9.734359 -12.867167 260.321716
7.800000 -3.800000 1.800000 6.460823 -16.548065 315.580688
7.800000 -3.800000 1.840000 15.790416 -15.461327 488.389862
7.800000 -3.800000 1.880000 21.569578 -7.266822 518.053406
7.800000 -3.800000 1.920000 19.556465 2.161360 387.126801
7.800000 -3.800000 1.960000 12.308275 6.621271 195.334869
7.800000 -3.800000 2.000000 5.541094 5.058346 56.290581
7.800000 -3.800000 2.040000 2.467150 0.832337 6.779613
7.800000 -3.800000 2.080000 2.316519 -2.804273 13.230204
7.800000 -3.800000 2.120000 3.157469 -5.170078 36.699318
7.800000 -3.800000 2.160000 4.239917 -6.769320 63.800583
7.800000 -3.800000 2.200000 5.266666 -7.633163 86.002953
7.840000 -4.200000 1.800000 -50.969009 18.075663 2924.569336
7.840000 -4.200000 1.840000 -54.193420 0.336897 2937.040283
7.840000 -4.200000 1.880000 -51.860638 -17.189795 2985.014648
7.840000 -4.200000 1.920000 -42.614693 -34.789646 3026.331543
7.840000 -4.200000 1.960000 -23.243887 -47.705956 2816.136475
7.840000 -4.200000 2.000000 2.772322 -46.556881 2175.229004
7.840000 -4.200000 2.040000 22.195000 -27.453194 1246.295898
7.840000 -4.200000 2.080000 21.563942 -0.549566 465.305634
7.840000 -4.200000 2.120000 1.201172 15.111534 229.801270
7.840000 -4.200000 2.160000 -22.083426 8.089082 553.110901
7.840000 -4.200000 2.200000 -28.938438 -13.970195 1032.599609
7.840000 -4.160000 1.800000 -48.450054 -16.437654 2617.604248
7.840000 -4.160000 1.840000 -39.068394 -27.985506 2309.527832
7.840000 -4.160000 1.880000 -27.931627 -35.750614 2058.282227
7.840000 -4.160000 1.920000 -14.340839 -39.935165 1800.477051
7.840000 -4.160000 1.960000 1.026760 -37.228085 1386.984497
7.840000 -4.160000 2.000000 12.184883 -25.454491 796.402466
7.840000 -4.160000 2.040000 11.764509 -9.820446 234.844833
7.840000 -4.160000 2.080000 -0.170933 -1.519798 2.339005
7.840000 -4.160000 2.120000 -12.966297 -7.710522 227.577011
7.840000 -4.160000 2.160000 -13.718334 -22.978128 716.187073
7.840000 -4.160000 2.200000 0.054132 -32.758060 1073.093506
7.840000 -4.120000 1.800000 -21.157602 -37.505363 1854.296509
7.840000 -4.120000 1.840000 -6.715837 -34.052361 1204.665649
7.840000 -4.120000 1.880000 1.985424 -25.693127 664.078674
7.840000 -4.120000 1.920000 4.246044 -16.203785 280.591553
7.840000 -4.120000 1.960000 0.501713 -8.829355 78.209229
7.840000 -4.120000 2.000000 -7.420570 -7.174171 106.533600
7.840000 -4.120000 2.040000 -14.550886 -13.897976 404.882019
7.840000 -4.120000 2.080000 -13.700027 -26.890894 910.810913
7.840000 -4.120000 2.120000 -0.974379 -37.654888 1418.840088
7.840000 -4.120000 2.160000 18.677790 -36.263351 1663.890503
7.840000 -4.120000 2.200000 32.885963 -20.259018 1491.914307
7.840000 -4.080000 1.800000 10.111233 -31.021183 1064.550781
7.840000 -4.080000 1.840000 16.645100 -12.328197 429.043823
7.840000 -4.080000 1.880000 8.990986 5.878709 115.397049
7.840000 -4.080000 1.920000 -10.132788 13.656517 289.173828
7.840000 -4.080000 1.960000 -30.989882 4.358685 979.370850
7.840000 -4.080000 2.000000 -40.182724 -20.089657 2018.245605
7.840000 -4.080000 2.040000 -28.371008 -47.465855 3057.921387
7.840000 -4.080000 2.080000 1.867859 -60.787983 3698.667969
7.840000 -4.080000 2.120000 35.028126 -49.533455 3680.532715
7.840000 -4.080000 2.160000 51.777534 -18.536804 3024.526123
7.840000 -4.080000 2.200000 42.783085 13.819029 2021.357910
7.840000 -4.040000 1.800000 22.537432 -6.238225 546.851257
7.840000 -4.040000 1.840000 11.831110 17.356768 441.232544
7.840000 -4.040000 1.880000 -15.910613 28.679459 1075.658936
7.840000 -4.040000 1.920000 -48.372173 15.661484 2585.149170
7.840000 -4.040000 1.960000 -65.029068 -21.315651 4683.136719
7.840000 -4.040000 2.000000 -49.904789 -64.707451 6677.541992
7.840000 -4.040000 2.040000 -5.398293 -88.019073 7776.499023
7.840000 -4.040000 2.080000 45.285141 -73.997025 7526.303711
7.840000 -4.040000 2.120000 72.354942 -29.068798 6080.232910
7.840000 -4.040000 2.160000 60.978771 19.370476 4093.625977
7.840000 -4.040000 2.200000 22.539036 42.590225 2321.935303
7.840000 -4.000000 1.800000 11.520870 13.966022 327.780212
7.840000 -4.000000 1.840000 -14.568410 28.181267 1006.422363
7.840000 -4.000000 1.880000 -50.534393 18.568918 2898.529541
7.840000 -4.000000 1.920000 -74.436951 -20.028765 5942.011230
7.840000 -4.000000 1.960000 -64.064377 -72.348206 9338.506836
7.840000 -4.000000 2.000000 -15.506302 -107.533546 11803.909180
7.840000 -4.000000 2.040000 48.291130 -99.637421 12259.648438
7.840000 -4.000000 2.080000 90.038528 -49.079277 10515.711914
7.840000 -4.000000 2.120000 84.937683 14.281403 7418.368652
7.840000 -4.000000 2.160000 40.102654 51.981026 4310.250000
7.840000 -4.000000 2.200000 -10.957936 45.733662 2211.644287
7.840000 -3.960000 1.800000 -7.550131 14.625450 270.908264
7.840000 -3.960000 1.840000 -36.927902 11.723194 1501.103149
7.840000 -3.960000 1.880000 -62.247387 -17.912720 4195.602539
7.840000 -3.960000 1.920000 -60.232208 -66.625107 8066.823730
7.840000 -3.960000 1.960000 -19.533909 -107.514687 11940.981445
7.840000 -3.960000 2.000000 45.014759 -110.456146 14226.888672
7.840000 -3.960000 2.040000 97.331810 -66.144867 13848.625000
7.840000 -3.960000 2.080000 104.769012 2.417436 10982.389648
7.840000 -3.960000 2.120000 63.915462 54.002693 7001.477051
7.840000 -3.960000 2.160000 4.558744 59.809563 3597.966064
7.840000 -3.960000 2.200000 -33.451000 25.041391 1746.040649
7.840000 -3.920000 1.800000 -16.026369 0.325265 256.950317
7.840000 -3.920000 1.840000 -35.567009 -15.464321 1504.157349
7.840000 -3.920000 1.880000 -39.688366 -49.826332 4057.829590
7.840000 -3.920000 1.920000 -13.916962 -85.681717 7535.038086
7.840000 -3.920000 1.960000 37.507294 -96.840157 10784.812500
7.840000 -3.920000 2.000000 88.582275 -67.444489 12395.578125
7.840000 -3.920000 2.040000 107.196098 -8.021067 11555.341797
7.840000 -3.920000 2.080000 79.777008 47.829918 8652.072266
7.840000 -3.920000 2.120000 24.138554 67.080223 5082.426270
7.840000 -3.920000 2.160000 -22.795019 42.791901 2350.759766
7.840000 -3.920000 2.200000 -33.667221 -1.018918 1134.520020
7.840000 -3.880000 1.800000 -8.950918 -12.975193 248.474579
7.840000 -3.880000 1.840000 -14.109053 -29.753960 1084.363525
7.840000 -3.880000 1.880000 -2.561571 -52.258930 2737.557617
7.840000 -3.880000 1.920000 28.205614 -64.083771 4902.286133
7.840000 -3.880000 1.960000 65.429756 -50.341934 6815.363281
7.840000 -3.880000 2.000000 86.507614 -10.985682 7604.252441
7.840000 -3.880000 2.040000 74.988457 34.844471 6837.405762
7.840000 -3.880000 2.080000 35.188644 60.254749 4868.875488
7.840000 -3.880000 2.120000 -8.419365 50.840221 2655.613770
7.840000 -3.880000 2.160000 -29.100752 16.747633 1127.336914
7.840000 -3.880000 2.200000 -18.810635 -15.395787 590.870239
7.840000 -3.840000 1.800000 4.060772 -14.929494 239.379654
7.840000 -3.840000 1.840000 7.414931 -23.070276 587.218872
7.840000 -3.840000 1.880000 19.690245 -28.988487 1228.038086
7.840000 -3.840000 1.920000 37.501694 -24.713411 2017.129761
7.840000 -3.840000 1.960000 51.107346 -6.844696 2658.810547
7.840000 -3.840000 2.000000 49.864513 18.758654 2838.356934
7.840000 -3.840000 2.040000 30.752859 38.491581 2427.340088
7.840000 -3.840000 2.080000 3.046379 40.022102 1611.049072
7.840000 -3.840000 2.120000 -16.833452 22.607170 794.449219
7.840000 -3.840000 2.160000 -17.871140 -1.033197 320.445129
7.840000 -3.840000 2.200000 -3.625720 -14.735939 230.293747
7.840000 -3.800000 1.800000 11.853912 -8.478043 212.392456
7.840000 -3.800000 1.840000 14.220325 -7.229043 254.476715
7.840000 -3.800000 1.880000 16.745493 -4.798999 303.441925
7.840000 -3.800000 1.920000 18.735382 -0.887180 351.801636
7.840000 -3.800000 1.960000 18.970932 4.660271 381.614380
7.840000 -3.800000 2.000000 15.669771 10.640647 358.765106
7.840000 -3.800000 2.040000 8.450729 13.886960 264.262482
7.840000 -3.800000 2.080000 0.261242 11.457085 131.333038
7.840000 -3.800000 2.120000 -4.046835 4.083261 33.049896
7.840000 -3.800000 2.160000 -2.150544 -3.480169 16.736418
7.840000 -3.800000 2.200000 3.130859 -6.756457 55.451996
7.880000 -4.200000 1.800000 -64.060936 -7.243725 4156.275391
7.880000 -4.200000 1.840000 -60.062210 -32.180626 4643.061523
7.880000 -4.200000 1.880000 -43.219597 -53.071293 4684.495605
7.880000 -4.200000 1.920000 -16.842880 -62.636467 4207.009766
7.880000 -4.200000 1.960000 10.945412 -55.651070 3216.843506
7.880000 -4.200000 2.000000 28.335573 -33.410721 1919.180908
7.880000 -4.200000 2.040000 26.291840 -6.784733 737.293396
7.880000 -4.200000 2.080000 6.967346 8.291166 117.287354
7.880000 -4.200000 2.120000 -14.807919 2.451006 225.281876
7.880000 -4.200000 2.160000 -21.639025 -18.046700 793.930786
7.880000 -4.200000 2.200000 -8.181461 -34.985085 1290.892456
7.880000 -4.160000 1.800000 -39.763741 -41.522305 3305.256836
7.880000 -4.160000 1.840000 -22.109749 -51.580261 3149.364502
7.880000 -4.160000 1.880000 -1.169479 -51.283508 2631.365967
7.880000 -4.160000 1.920000 16.055229 -39.704071 1834.183594
7.880000 -4.160000 1.960000 22.529858 -21.009281 948.984375
7.880000 -4.160000 2.000000 15.317527 -4.250153 252.690430
7.880000 -4.160000 2.040000 -0.663656 0.810886 1.097976
7.880000 -4.160000 2.080000 -13.611755 -9.131201 268.658691
7.880000 -4.160000 2.120000 -12.407198 -26.536758 858.138062
7.880000 -4.160000 2.160000 4.014522 -37.002151 1385.275513
7.880000 -4.160000 2.200000 24.192661 -30.464983 1513.400024
7.880000 -4.120000 1.800000 1.392275 -44.493301 1981.592285
7.880000 -4.120000 1.840000 16.917358 -31.463083 1276.122559
7.880000 -4.120000 1.880000 20.667400 -11.174238 552.005066
7.880000 -4.120000 1.920000 9.390076 6.012054 124.318321
7.880000 -4.120000 1.960000 -11.101652 9.399723 211.601471
7.880000 -4.120000 2.000000 -27.942741 -4.518646 801.214966
7.880000 -4.120000 2.040000 -28.888956 -28.278336 1634.236084
7.880000 -4.120000 2.080000 -10.895920 -46.998062 2327.539062
7.880000 -4.120000 2.120000 16.724289 -47.847439 2569.079346
7.880000 -4.120000 2.160000 37.747742 -29.111893 2272.394287
7.880000 -4.120000 2.200000 39.990211 -1.941005 1602.984497
7.880000 -4.080000 1.800000 27.258930 -16.065458 1001.148193
7.880000 -4.080000 1.840000 22.302322 12.416143 651.554199
7.880000 -4.080000 1.880000 -4.710022 32.100307 1052.614014
7.880000 -4.080000 1.920000 -42.214226 26.015141 2458.828369
7.880000 -4.080000 1.960000 -66.802856 -8.580627 4536.248535
7.880000 -4.080000 2.000000 -59.231651 -54.214104 6447.557617
7.880000 -4.080000 2.040000 -20.055664 -83.168396 7319.211426
7.880000 -4.080000 2.080000 28.752163 -77.081680 6768.272461
7.880000 -4.080000 2.120000 58.862019 -40.540573 5108.275391
7.880000 -4.080000 2.160000 55.652935 2.631953 3104.176514
7.880000 -4.080000 2.200000 27.331810 27.269686 1490.663574
7.880000 -4.040000 1.800000 20.435167 17.557655 725.867310
7.880000 -4.040000 1.840000 -11.302645 41.154869 1821.473022
7.880000 -4.040000 1.880000 -60.107964 34.524513 4804.909180
7.880000 -4.040000 1.920000 -96.150093 -11.649212 9380.544922
7.880000 -4.040000 1.960000 -89.226959 -77.759956 14008.060547
7.880000 -4.040000 2.000000 -34.516556 -124.303947 16642.863281
7.880000 -4.040000 2.040000 39.130905 -120.297829 16002.794922
7.880000 -4.040000 2.080000 88.316940 -67.981186 12421.323242
7.880000 -4.040000 2.120000 87.196793 -1.834736 7606.646973
7.880000 -4.040000 2.160000 45.590107 37.984337 3521.267578
7.880000 -4.040000 2.200000 -1.736256 35.195267 1241.721313
7.880000 -4.000000 1.800000 -7.182278 28.905066 887.087891
7.880000 -4.000000 1.840000 -53.764481 29.301422 3749.192871
7.880000 -4.000000 1.880000 -97.130356 -12.837570 9599.108398
7.880000 -4.000000 1.920000 -99.553886 -86.190605 17339.796875
7.880000 -4.000000 1.960000 -44.003571 -148.808868 24080.394531
7.880000 -4.000000 2.000000 45.580509 -156.845657 26678.142578
7.880000 -4.000000 2.040000 117.108994 -100.339920 23782.617188
7.880000 -4.000000 2.080000 128.873978 -14.003435 16804.597656
7.880000 -4.000000 2.120000 81.469574 48.573730 8996.699219
7.880000 -4.000000 2.160000 15.222742 55.922745 3359.085205
7.880000 -4.000000 2.200000 -24.071915 19.602777 963.725952
7.880000 -3.960000 1.800000 -28.174866 13.663208 980.506348
7.880000 -3.960000 1.840000 -68.197762 -11.526688 4783.799316
7.880000 -3.960000 1.880000 -81.877396 -73.300560 12076.879883
7.880000 -3.960000 1.920000 -41.174381 -139.758453 21227.755859
7.880000 -3.960000 1.960000 45.016365 -163.120865 28634.888672
7.880000 -3.960000 2.000000 129.545715 -118.086891 30726.605469
7.880000 -3.960000 2.040000 160.113052 -26.608120 26344.181641
7.880000 -3.960000 2.080000 120.528366 55.670906 17626.335938
7.880000 -3.960000 2.120000 43.648735 81.991188 8627.766602
7.880000 -3.960000 2.160000 -16.134075 49.508682 2711.417969
7.880000 -3.960000 2.200000 -26.393856 -3.405285 708.231567
7.880000 -3.920000 1.800000 -26.199444 -9.067883 768.637329
7.880000 -3.920000 1.840000 -45.249947 -45.586731 4125.708008
7.880000 -3.920000 1.880000 -26.915176 -99.229965 10571.012695
7.880000 -3.920000 1.920000 36.338783 -131.258270 18549.242188
7.880000 -3.920000 1.960000 114.764778 -107.957870 24825.855469
7.880000 -3.920000 2.000000 159.030106 -32.004940 26314.890625
7.880000 -3.920000 2.040000 138.689316 54.012646 22152.091797
7.880000 -3.920000 2.080000 68.293571 98.608124 14387.574219
7.880000 -3.920000 2.120000 -3.406805 81.535431 6659.632812
7.880000 -3.920000 2.160000 -32.717445 27.770664 1841.641113
7.880000 -3.920000 2.200000 -13.985618 -16.552946 469.597534
7.880000 -3.880000 1.800000 -8.422804 -18.247660 403.920715
7.880000 -3.880000 1.840000 -8.602410 -48.012650 2379.216064
7.880000 -3.880000 1.880000 22.901325 -76.422333 6364.843750
7.880000 -3.880000 1.920000 77.024284 -73.736328 11369.786133
7.880000 -3.880000 1.960000 120.644058 -27.858467 15331.083008
7.880000 -3.880000 2.000000 120.948898 40.627800 16279.253906
7.880000 -3.880000 2.040000 73.516052 90.866211 13661.277344
7.880000 -3.880000 2.080000 8.372532 93.351212 8784.547852
7.880000 -3.880000 2.120000 -33.211384 53.525024 3967.924316
7.880000 -3.880000 2.160000 -31.457842 5.919390 1024.635010
7.880000 -3.880000 2.200000 -1.335976 -15.809053 251.710999
7.880000 -3.840000 1.800000 6.313291 -10.328138 146.528076
7.880000 -3.840000 1.840000 11.533583 -25.617527 789.281250
7.880000 -3.840000 1.880000 34.648277 -33.228584 2304.642090
7.880000 -3.840000 1.920000 63.143669 -17.926231 4308.472656
7.880000 -3.840000 1.960000 74.826546 19.029808 5961.145508
7.880000 -3.840000 2.000000 56.101044 57.333244 6434.427734
7.880000 -3.840000 2.040000 15.266525 72.314636 5462.473633
7.880000 -3.840000 2.080000 -22.358070 55.199787 3546.899902
7.880000 -3.840000 2.120000 -34.576820 20.681202 1623.268677
7.880000 -3.840000 2.160000 -20.001387 -5.762211 433.258545
7.880000 -3.840000 2.200000 2.855330 -9.405901 96.623878
7.880000 -3.800000 1.800000 7.986740 2.080278 68.115578
7.880000 -3.800000 1.840000 7.346919 -4.333175 72.753624
7.880000 -3.800000 1.880000 15.303395 -7.786703 294.826660
7.880000 -3.800000 1.920000 25.595861 -1.195408 656.577148
7.880000 -3.800000 1.960000 27.967094 14.142719 982.174927
7.880000 -3.800000 2.000000 17.223747 28.320873 1098.729248
7.880000 -3.800000 2.040000 -1.263912 30.793741 949.851990
7.880000 -3.800000 2.080000 -15.511578 19.737267 630.168701
7.880000 -3.800000 2.120000 -17.202507 3.741936 309.928314
7.880000 -3.800000 2.160000 -8.567453 -6.121503 110.874054
7.880000 -3.800000 2.200000 0.904255 -6.132559 38.425953
7.920000 -4.200000 1.800000 -52.463615 -40.940887 4428.586914
7.920000 -4.200000 1.840000 -34.672985 -63.570564 5243.432617
7.920000 -4.200000 1.880000 -5.072906 -72.368652 5262.956055
7.920000 -4.200000 1.920000 24.512333 -61.832226 4424.078613
7.920000 -4.200000 1.960000 40.826500 -36.152481 2973.804932
7.920000 -4.200000 2.000000 36.673790 -8.307804 1413.986572
7.920000 -4.200000 2.040000 16.415955 6.540668 312.263885
7.920000 -4.200000 2.080000 -5.121477 0.866882 26.981014
7.920000 -4.200000 2.120000 -11.884323 -18.811455 495.107971
7.920000 -4.200000 2.160000 1.377739 -35.409164 1255.707153
7.920000 -4.200000 2.200000 24.093906 -33.996162 1736.255371
7.920000 -4.160000 1.800000 -10.334775 -55.278446 3162.514160
7.920000 -4.160000 1.840000 12.608345 -54.541405 3133.735352
7.920000 -4.160000 1.880000 31.436050 -39.004478 2509.574707
7.920000 -4.160000 1.920000 35.832710 -15.112860 1512.381714
7.920000 -4.160000 1.960000 23.296072 4.280640 561.030823
7.920000 -4.160000 2.000000 1.992292 7.892609 66.262497
7.920000 -4.160000 2.040000 -13.508965 -6.030029 218.853378
7.920000 -4.160000 2.080000 -11.617237 -27.379543 884.599609
7.920000 -4.160000 2.120000 7.728912 -40.135113 1670.563354
7.920000 -4.160000 2.160000 31.950628 -33.454086 2140.018555
7.920000 -4.160000 2.200000 44.204056 -10.131968 2056.655273
7.920000 -4.120000 1.800000 25.782724 -30.985916 1624.875977
7.920000 -4.120000 1.840000 32.203579 -7.965204 1100.515015
7.920000 -4.120000 1.880000 19.366196 15.629459 619.329529
7.920000 -4.120000 1.920000 -8.788607 23.281860 619.284668
7.920000 -4.120000 1.960000 -35.328781 6.670967 1292.624634
7.920000 -4.120000 2.000000 -41.641933 -26.151596 2417.956543
7.920000 -4.120000 2.040000 -21.337704 -55.003113 3480.640137
7.920000 -4.120000 2.080000 14.486694 -61.418945 3982.151123
7.920000 -4.120000 2.120000 44.778168 -41.418121 3720.545166
7.920000 -4.120000 2.160000 52.962894 -7.661802 2863.771240
7.920000 -4.120000 2.200000 37.444725 20.032810 1803.420898
7.920000 -4.080000 1.800000 27.294451 10.123018 847.462585
7.920000 -4.080000 1.840000 2.804035 35.944679 1299.882690
7.920000 -4.080000 1.880000 -41.136353 37.073616 3066.652344
7.920000 -4.080000 1.920000 -78.473526 1.491135 6160.317871
7.920000 -4.080000 1.960000 -80.190338 -56.268715 9596.658203
7.920000 -4.080000 2.000000 -38.507671 -101.879501 11862.273438
7.920000 -4.080000 2.040000 24.278488 -106.195465 11866.921875
7.920000 -4.080000 2.080000 71.306847 -67.527496 9644.628906
7.920000 -4.080000 2.120000 78.296661 -12.201977 6279.255371
7.920000 -4.080000 2.160000 49.577717 26.493277 3159.843750
7.920000 -4.080000 2.200000 10.866022 32.372910 1166.075684
7.920000 -4.040000 1.800000 -3.091611 32.815117 1086.390015
7.920000 -4.040000 1.840000 -52.175949 36.332993 4042.416016
7.920000 -4.040000 1.880000 -100.278458 -5.090366 10081.681641
7.920000 -4.040000 1.920000 -106.970207 -80.972893 17999.234375
7.920000 -4.040000 1.960000 -53.384525 -147.870499 24715.591797
7.920000 -4.040000 2.000000 36.482826 -160.287445 27023.060547
7.920000 -4.040000 2.040000 110.047638 -107.744759 23719.414062
7.920000 -4.040000 2.080000 125.895454 -24.521917 16450.990234
7.920000 -4.040000 2.120000 84.658630 37.484131 8572.143555
7.920000 -4.040000 2.160000 24.545488 48.717525 2975.878174
7.920000 -4.040000 2.200000 -12.501345 20.135216 561.710510
7.920000 -4.000000 1.800000 -35.449203 21.125734 1702.942627
7.920000 -4.000000 1.840000 -85.211456 -9.010124 7342.174316
7.920000 -4.000000 1.880000 -103.371269 -83.882217 17721.845703
7.920000 -4.000000 1.920000 -55.907879 -164.541870 30199.718750
7.920000 -4.000000 1.960000 45.549377 -193.605896 39557.988281
7.920000 -4.000000 2.000000 144.247055 -142.503998 41114.601562
7.920000 -4.000000 2.040000 180.075256 -38.971569 33945.882812
7.920000 -4.000000 2.080000 137.289093 52.560875 21610.941406
7.920000 -4.000000 2.120000 55.361229 81.735268 9745.519531
7.920000 -4.000000 2.160000 -6.196079 49.149345 2454.049561
7.920000 -4.000000 2.200000 -15.989318 -1.894131 259.246002
7.920000 -3.960000 1.800000 -42.219044 -8.976480 1863.024780
7.920000 -3.960000 1.840000 -69.291862 -61.754730 8615.008789
7.920000 -3.960000 1.880000 -43.316422 -137.747742 20850.751953
7.920000 -3.960000 1.920000 44.800949 -182.125488 35176.820312
7.920000 -3.960000 1.960000 151.677460 -149.587936 45382.601562
7.920000 -3.960000 2.000000 209.722946 -47.372169 46227.835938
7.920000 -3.960000 2.040000 181.513977 64.443497 37100.289062
7.920000 -3.960000 2.080000 91.381332 119.247192 22570.441406
7.920000 -3.960000 2.120000 4.561743 96.372536 9308.475586
7.920000 -3.960000 2.160000 -27.068029 32.849056 1811.738770
7.920000 -3.960000 2.200000 -3.232486 -13.886230 203.276352
7.920000 -3.920000 1.800000 -22.905439 -28.197441 1319.754883
7.920000 -3.920000 1.840000 -21.621569 -80.355148 6924.441895
7.920000 -3.920000 1.880000 32.871090 -127.802979 17414.109375
7.920000 -3.920000 1.920000 122.620697 -121.505844 29799.503906
7.920000 -3.920000 1.960000 191.249115 -45.229172 38621.902344
7.920000 -3.920000 2.000000 187.968567 62.976200 39298.183594
7.920000 -3.920000 2.040000 111.969513 137.064117 31323.744141
7.920000 -3.920000 2.080000 15.222027 136.057220 18743.277344
7.920000 -3.920000 2.120000 -40.415146 76.026688 7413.441406
7.920000 -3.920000 2.160000 -32.761635 12.300926 1224.637451
7.920000 -3.920000 2.200000 8.903334 -9.909378 177.465118
7.920000 -3.880000 1.800000 -0.146537 -22.904125 524.620422
7.920000 -3.880000 1.840000 16.455601 -58.009727 3635.915283
7.920000 -3.880000 1.880000 69.859627 -71.624985 10010.505859
7.920000 -3.880000 1.920000 129.090729 -34.521790 17856.169922
7.920000 -3.880000 1.960000 147.564209 43.980659 23709.494141
7.920000 -3.880000 2.000000 103.573410 117.494232 24532.345703
7.920000 -3.880000 2.040000 22.110107 139.021423 19815.814453
7.920000 -3.880000 2.080000 -44.171234 100.213348 11993.812500
7.920000 -3.880000 2.120000 -58.433624 37.053600 4787.458008
7.920000 -3.880000 2.160000 -27.747997 -2.926624 778.516479
7.920000 -3.880000 2.200000 8.880541 -0.550909 79.167503
7.920000 -3.840000 1.800000 5.811256 -4.831159 57.110794
7.920000 -3.840000 1.840000 20.497095 -23.656208 979.747070
7.920000 -3.840000 1.880000 54.425743 -20.855598 3397.117676
7.920000 -3.840000 1.920000 80.237427 14.935543 6661.114746
7.920000 -3.840000 1.960000 70.748367 65.902847 9348.516602
7.920000 -3.840000 2.000000 24.724705 97.384789 10095.107422
7.920000 -3.840000 2.040000 -29.603996 87.323265 8501.749023
7.920000 -3.840000 2.080000 -57.860920 45.492584 5417.460938
7.920000 -3.840000 2.120000 -48.320404 4.195335 2352.462158
7.920000 -3.840000 2.160000 -19.286327 -10.418127 480.499817
7.920000 -3.840000 2.200000 0.527254 0.997166 1.272336
7.920000 -3.800000 1.800000 -3.996500 5.651606 47.912663
7.920000 -3.800000 1.840000 2.228705 -8.445013 76.285370
7.920000 -3.800000 1.880000 20.094236 -8.849491 482.091797
7.920000 -3.800000 1.920000 32.231712 9.257156 1124.578247
7.920000 -3.800000 1.960000 24.528030 33.479736 1722.516968
7.920000 -3.800000 2.000000 -0.532600 44.757862 2003.549927
7.920000 -3.800000 2.040000 -25.857090 34.382908 1850.773438
7.920000 -3.800000 2.080000 -35.122692 11.169773 1358.367310
7.920000 -3.800000 2.120000 -26.521431 -7.695444 762.606140
7.920000 -3.800000 2.160000 -11.985229 -12.370790 296.682159
7.920000 -3.800000 2.200000 -4.092760 -7.142305 67.763206
7.960000 -4.200000 1.800000 -15.913036 -57.413208 3549.500977
7.960000 -4.200000 1.840000 10.206396 -65.313042 4369.963867
7.960000 -4.200000 1.880000 37.227924 -54.791256 4388.000000
7.960000 -4.200000 1.920000 51.731716 -29.703459 3558.465820
7.960000 -4.200000 1.960000 46.819336 -2.711132 2199.400635
7.960000 -4.200000 2.000000 26.812622 11.978256 862.395325
7.960000 -4.200000 2.040000 5.358589 7.453453 84.268440
7.960000 -4.200000 2.080000 -2.770424 -10.748251 123.200150
7.960000 -4.200000 2.120000 8.161699 -27.390150 816.833679
7.960000 -4.200000 2.160000 29.902390 -27.831902 1668.767578
7.960000 -4.200000 2.200000 45.344376 -9.239700 2141.484375
7.960000 -4.160000 1.800000 23.166607 -42.057888 2305.557617
7.960000 -4.160000 1.840000 40.079063 -27.688465 2372.982422
7.960000 -4.160000 1.880000 43.214611 -4.049015 1883.897095
7.960000 -4.160000 1.920000 28.952808 15.420567 1076.058960
7.960000 -4.160000 1.960000 5.491886 18.546558 374.135651
7.960000 -4.160000 2.000000 -12.007053 3.245922 154.705338
7.960000 -4.160000 2.040000 -11.393776 -20.320721 542.749817
7.960000 -4.160000 2.080000 8.043362 -35.836998 1348.986084
7.960000 -4.160000 2.120000 34.403507 -31.456711 2173.125977
7.960000 -4.160000 2.160000 50.513123 -8.070938 2616.715576
7.960000 -4.160000 2.200000 45.406548 20.688957 2489.787598
7.960000 -4.120000 1.800000 32.998917 -1.657471 1091.675659
7.960000 -4.120000 1.840000 23.013700 21.571329 994.952637
7.960000 -4.120000 1.880000 -5.202639 32.061405 1055.001221
7.960000 -4.120000 1.920000 -35.899456 17.033821 1578.922119
7.960000 -4.120000 1.960000 -47.370209 -18.720215 2594.383301
7.960000 -4.120000 2.000000 -28.814888 -54.253811 3773.773926
7.960000 -4.120000 2.040000 10.683842 -67.115967 4618.697754
7.960000 -4.120000 2.080000 48.306938 -49.284203 4762.493164
7.960000 -4.120000 2.120000 63.439018 -12.022346 4169.045898
7.960000 -4.120000 2.160000 50.776379 23.078491 3110.857422
7.960000 -4.120000 2.200000 21.617048 38.893982 1980.038574
7.960000 -4.080000 1.800000 5.904202 28.427189 842.964661
7.960000 -4.080000 1.840000 -31.826723 35.685997 2286.430664
7.960000 -4.080000 1.880000 -72.373497 7.745964 5297.922852
7.960000 -4.080000 1.920000 -83.292221 -49.893387 9426.944336
7.960000 -4.080000 1.960000 -47.230381 -104.793968 13212.484375
7.960000 -4.080000 2.000000 20.358795 -120.676208 14977.227539
7.960000 -4.080000 2.040000 80.520111 -86.122673 13900.603516
7.960000 -4.080000 2.080000 99.903610 -23.572285 10536.383789
7.960000 -4.080000 2.120000 74.608551 28.876278 6400.275391
7.960000 -4.080000 2.160000 29.249615 46.219902 2991.819336
7.960000 -4.080000 2.200000 -5.401136 31.363604 1012.847961
7.960000 -4.040000 1.800000 -32.568031 22.908588 1585.479980
7.960000 -4.040000 1.840000 -78.101837 -3.364550 6111.217285
7.960000 -4.040000 1.880000 -96.065086 -70.471008 14194.664062
7.960000 -4.040000 1.920000 -55.257343 -143.857040 23748.222656
7.960000 -4.040000 1.960000 34.581841 -172.091141 30811.265625
7.960000 -4.040000 2.000000 123.411560 -129.241974 31933.902344
7.960000 -4.040000 2.040000 158.110809 -39.007256 26520.593750
7.960000 -4.040000 2.080000 124.150627 42.827469 17247.570312
7.960000 -4.040000 2.120000 54.583324 72.438606 8226.691406
7.960000 -4.040000 2.160000 -0.323833 49.196281 2420.379150
7.960000 -4.040000 2.200000 -13.646860 8.291717 254.989349
7.960000 -4.000000 1.800000 -48.333481 -10.170172 2439.557861
7.960000 -4.000000 1.840000 -74.915749 -65.723770 9931.983398
7.960000 -4.000000 1.880000 -46.698807 -143.911194 22891.210938
7.960000 -4.000000 1.920000 44.517342 -188.453705 37496.593750
7.960000 -4.000000 1.960000 153.375427 -154.163635 47290.445312
7.960000 -4.000000 2.000000 211.447052 -50.180134 47227.902344
7.960000 -4.000000 2.040000 182.717484 61.887733 37215.769531
7.960000 -4.000000 2.080000 93.497696 116.256317 22257.351562
7.960000 -4.000000 2.120000 8.899246 94.650833 9037.976562
7.960000 -4.000000 2.160000 -21.851027 35.071785 1707.497559
7.960000 -4.000000 2.200000 -0.968725 -7.275501 53.871346
7.960000 -3.960000 1.800000 -30.950897 -38.989460 2478.135986
7.960000 -3.960000 1.840000 -25.269749 -101.230865 10886.249023
7.960000 -3.960000 1.880000 42.263577 -154.594299 25685.605469
7.960000 -3.960000 1.920000 147.903488 -142.913559 42299.726562
7.960000 -3.960000 1.960000 224.878967 -50.746227 53145.730469
7.960000 -3.960000 2.000000 216.667847 74.329575 52469.843750
7.960000 -3.960000 2.040000 126.957520 155.978226 40447.417969
7.960000 -3.960000 2.080000 18.364923 151.160843 23186.869141
7.960000 -3.960000 2.120000 -40.281036 83.172379 8540.206055
7.960000 -3.960000 2.160000 -29.138783 16.088078 1107.894897
7.960000 -3.960000 2.200000 14.642179 -2.989452 223.330246
7.960000 -3.920000 1.800000 -1.119982 -39.844681 1588.853027
7.960000 -3.920000 1.840000 28.463146 -86.330933 8263.180664
7.960000 -3.920000 1.880000 104.968582 -98.593018 20738.986328
7.960000 -3.920000 1.920000 182.940109 -40.919968 35141.527344
7.960000 -3.920000 1.960000 200.423920 68.107788 44808.417969
7.960000 -3.920000 2.000000 134.204346 162.906754 44549.414062
7.960000 -3.920000 2.040000 24.316063 183.734177 34349.515625
7.960000 -3.920000 2.080000 -57.835594 127.065529 19490.605469
7.960000 -3.920000 2.120000 -69.182022 46.092033 6910.627930
7.960000 -3.920000 2.160000 -26.913820 1.732115 727.353943
7.960000 -3.920000 2.200000 14.932598 11.628500 358.204498
7.960000 -3.880000 1.800000 12.604548 -18.467915 499.938477
7.960000 -3.880000 1.840000 46.571724 -43.074577 4024.344727
7.960000 -3.880000 1.880000 104.116913 -26.345581 11534.420898
7.960000 -3.880000 1.920000 137.924988 41.945625 20782.738281
7.960000 -3.880000 1.960000 109.207893 124.811432 27504.257812
7.960000 -3.880000 2.000000 26.280907 165.569397 28103.910156
7.960000 -3.880000 2.040000 -58.543999 136.971375 22188.558594
7.960000 -3.880000 2.080000 -92.989944 65.182106 12895.836914
7.960000 -3.880000 2.120000 -68.461365 5.372475 4715.821777
7.960000 -3.880000 2.160000 -22.461325 -7.061005 554.368896
7.960000 -3.880000 2.200000 0.006225 16.987591 288.578278
7.960000 -3.840000 1.800000 2.349266 -0.288649 5.602369
7.960000 -3.840000 1.840000 27.839890 -12.777269 938.318054
7.960000 -3.840000 1.880000 60.645271 8.563038 3751.174561
7.960000 -3.840000 1.920000 65.457245 58.360508 7690.599609
7.960000 -3.840000 1.960000 26.402351 101.469833 10993.210938
7.960000 -3.840000 2.000000 -35.295441 103.428284 11943.178711
7.960000 -3.840000 2.040000 -78.610222 62.031631 10027.490234
7.960000 -3.840000 2.080000 -78.842316 9.032074 6297.688965
7.960000 -3.840000 2.120000 -47.569973 -19.405390 2639.471436
7.960000 -3.840000 2.160000 -18.174030 -13.960745 525.197754
7.960000 -3.840000 2.200000 -13.279897 4.520710 196.792465
7.960000 -3.800000 1.800000 -14.611128 -2.199802 218.324188
7.960000 -3.800000 1.840000 3.848023 -14.133450 214.561676
7.960000 -3.800000 1.880000 24.883680 -2.006884 623.225159
7.960000 -3.800000 1.920000 25.976357 25.964085 1348.904785
7.960000 -3.800000 1.960000 1.865768 45.965019 2116.264160
7.960000 -3.800000 2.000000 -30.469061 40.690514 2584.081543
7.960000 -3.800000 2.040000 -48.041134 14.580627 2520.545166
7.960000 -3.800000 2.080000 -42.474518 -12.204170 1953.026489
7.960000 -3.800000 2.120000 -24.860291 -23.555946 1172.916748
7.960000 -3.800000 2.160000 -11.972507 -20.374723 558.470337
7.960000 -3.800000 2.200000 -9.866874 -15.167263 327.401062
8.000000 -4.200000 1.800000 22.081610 -40.687473 2143.067871
8.000000 -4.200000 1.840000 41.505543 -31.264029 2700.149414
8.000000 -4.200000 1.880000 50.717197 -11.041138 2694.140869
8.000000 -4.200000 1.920000 45.052822 9.834423 2126.472656
8.000000 -4.200000 1.960000 28.329151 21.028332 1244.731567
8.000000 -4.200000 2.000000 10.446056 17.767403 424.800690
8.000000 -4.200000 2.040000 2.048981 3.574587 16.975992
8.000000 -4.200000 2.080000 8.386032 -11.090300 193.320282
8.000000 -4.200000 2.120000 25.245007 -14.543518 848.824280
8.000000 -4.200000 2.160000 40.308346 -1.759322 1627.857910
8.000000 -4.200000 2.200000 40.900848 20.781494 2104.750000
8.000000 -4.160000 1.800000 36.117699 -7.484802 1360.510376
8.000000 -4.160000 1.840000 37.080990 11.733736 1512.680298
8.000000 -4.160000 1.880000 23.080078 27.001129 1261.750977
8.000000 -4.160000 1.920000 1.781826 27.694592 770.165344
8.000000 -4.160000 1.960000 -13.557438 12.647686 343.768066
8.000000 -4.160000 2.000000 -13.044533 -9.122513 253.380066
8.000000 -4.160000 2.040000 3.741806 -24.160275 597.719971
8.000000 -4.160000 2.080000 27.517250 -22.521038 1264.396240
8.000000 -4.160000 2.120000 44.429237 -3.545805 1986.529907
8.000000 -4.160000 2.160000 43.810379 23.299648 2462.222900
8.000000 -4.160000 2.200000 24.759142 43.362373 2493.310547
8.000000 -4.120000 1.800000 15.590227 23.374781 789.435547
8.000000 -4.120000 1.840000 -6.849998 33.728245 1184.516968
8.000000 -4.120000 1.880000 -34.932732 22.051102 1706.546875
8.000000 -4.120000 1.920000 -47.804253 -10.637169 2398.395996
8.000000 -4.120000 1.960000 -32.515072 -46.105091 3182.909180
8.000000 -4.120000 2.000000 4.984123 -61.930939 3860.282715
8.000000 -4.120000 2.040000 43.775703 -47.849960 4205.930664
8.000000 -4.120000 2.080000 62.801353 -12.277805 4094.754395
8.000000 -4.120000 2.120000 54.310101 24.808924 3565.069580
8.000000 -4.120000 2.160000 26.596399 45.571709 2784.148926
8.000000 -4.120000 2.200000 -3.770313 44.110039 1959.910767
8.000000 -4.080000 1.800000 -22.209801 23.408379 1041.227417
8.000000 -4.080000 1.840000 -55.323776 7.254173 3113.343262
8.000000 -4.080000 1.880000 -70.505875 -38.687256 6467.781738
8.000000 -4.080000 1.920000 -44.989719 -90.868591 10281.175781
8.000000 -4.080000 1.960000 15.766838 -113.521332 13135.685547
8.000000 -4.080000 2.000000 78.481056 -87.570221 13827.820312
8.000000 -4.080000 2.040000 106.674438 -26.940781 12105.241211
8.000000 -4.080000 2.080000 88.060760 32.215019 8792.504883
8.000000 -4.080000 2.120000 41.344444 59.340919 5230.708008
8.000000 -4.080000 2.160000 -1.552617 49.908974 2493.316406
8.000000 -4.080000 2.200000 -20.323105 22.839739 934.682251
8.000000 -4.040000 1.800000 -43.557384 -7.910034 1959.814331
8.000000 -4.040000 1.840000 -64.059814 -52.167862 6825.145508
8.000000 -4.040000 1.880000 -41.182434 -114.063568 14706.491211
8.000000 -4.040000 1.920000 31.262905 -149.125854 23215.888672
8.000000 -4.040000 1.960000 117.449516 -122.086060 28699.394531
8.000000 -4.040000 2.000000 163.963257 -40.203758 28500.291016
8.000000 -4.040000 2.040000 142.688766 48.796532 22741.185547
8.000000 -4.040000 2.080000 73.329086 94.016830 14216.318359
8.000000 -4.040000 2.120000 5.295063 80.480408 6505.133789
8.000000 -4.040000 2.160000 -23.409828 35.686295 1821.531738
8.000000 -4.040000 2.200000 -12.737288 0.633711 162.640091
8.000000 -4.000000 1.800000 -30.277575 -42.350426 2710.290039
8.000000 -4.000000 1.840000 -21.710924 -97.591110 9995.388672
8.000000 -4.000000 1.880000 41.179932 -142.684677 22054.705078
8.000000 -4.000000 1.920000 135.736603 -128.663895 34978.824219
8.000000 -4.000000 1.960000 202.346893 -43.804413 42863.093750
8.000000 -4.000000 2.000000 192.242554 68.162735 41603.359375
8.000000 -4.000000 2.040000 110.638710 139.777908 31778.787109
8.000000 -4.000000 2.080000 13.781590 134.513855 18283.908203
8.000000 -4.000000 2.120000 -38.344173 74.282692 6988.194336
8.000000 -4.000000 2.160000 -29.684942 15.439568 1119.576050
8.000000 -4.000000 2.200000 6.576076 -1.947115 47.036026
8.000000 -3.960000 1.800000 3.331455 -50.298664 2541.054199
8.000000 -3.960000 1.840000 38.483440 -93.859940 10290.664062
8.000000 -3.960000 1.880000 117.536026 -99.803741 23775.503906
8.000000 -3.960000 1.920000 193.078217 -35.420437 38533.804688
8.000000 -3.960000 1.960000 204.213257 76.834496 47606.593750
8.000000 -3.960000 2.000000 131.614258 169.597961 46085.781250
8.000000 -3.960000 2.040000 19.228224 185.122406 34640.027344
8.000000 -3.960000 2.080000 -60.813667 124.200775 19124.134766
8.000000 -3.960000 2.120000 -68.492111 43.012634 6541.255859
8.000000 -3.960000 2.160000 -25.063074 1.620892 630.784973
8.000000 -3.960000 2.200000 13.998168 13.863891 388.156158
8.000000 -3.920000 1.800000 25.687084 -28.961552 1498.597778
8.000000 -3.920000 1.840000 70.251915 -49.687222 7404.151367
8.000000 -3.920000 1.880000 135.103333 -20.337881 18666.539062
8.000000 -3.920000 1.920000 165.514801 64.881554 31604.765625
8.000000 -3.920000 1.960000 121.614052 158.890076 40036.035156
8.000000 -3.920000 2.000000 19.879845 197.299423 39322.269531
8.000000 -3.920000 2.040000 -75.745796 154.874161 29723.431641
8.000000 -3.920000 2.080000 -107.729462 68.442131 16289.961914
8.000000 -3.920000 2.120000 -73.043869 3.317097 5346.409668
8.000000 -3.920000 2.160000 -20.159615 -4.195133 424.009216
8.000000 -3.920000 2.200000 -0.260778 26.726208 714.358154
8.000000 -3.880000 1.800000 19.443834 -3.059330 387.422180
8.000000 -3.880000 1.840000 57.391891 -6.503643 3336.126465
8.000000 -3.880000 1.880000 94.007362 35.378952 10089.053711
8.000000 -3.880000 1.920000 84.947929 106.517960 18562.226562
8.000000 -3.880000 1.960000 18.360596 156.149841 24719.884766
8.000000 -3.880000 2.000000 -68.128159 143.313950 25180.333984
8.000000 -3.880000 2.040000 -117.927856 75.669449 19632.845703
8.000000 -3.880000 2.080000 -105.283020 3.425053 11096.246094
8.000000 -3.880000 2.120000 -55.919674 -26.215555 3814.265381
8.000000 -3.880000 2.160000 -19.307823 -9.313611 459.535370
8.000000 -3.880000 2.200000 -21.816957 17.929993 797.464294
8.000000 -3.840000 1.800000 -2.912100 1.777451 11.639656
8.000000 -3.840000 1.840000 25.027018 3.380676 637.780579
8.000000 -3.840000 1.880000 41.145462 37.734230 3116.821289
8.000000 -3.840000 1.920000 18.394905 80.513458 6820.789551
8.000000 -3.840000 1.960000 -36.380844 93.416153 10050.142578
8.000000 -3.840000 2.000000 -85.890373 60.764881 11069.527344
8.000000 -3.840000 2.040000 -96.333122 5.103794 9306.119141
8.000000 -3.840000 2.080000 -67.867508 -34.197762 5775.485352
8.000000 -3.840000 2.120000 -31.530081 -37.347252 2388.963379
8.000000 -3.840000 2.160000 -17.320761 -19.003721 661.150146
8.000000 -3.840000 2.200000 -27.033762 -8.825729 808.717773
8.000000 -3.800000 1.800000 -14.527259 -15.365681 447.145386
8.000000 -3.800000 1.840000 9.616409 -14.309262 297.230316
8.000000 -3.800000 1.880000 20.443851 9.158958 501.837585
8.000000 -3.800000 1.920000 4.306389 33.152225 1117.615112
8.000000 -3.800000 1.960000 -27.321568 34.582741 1942.434082
8.000000 -3.800000 2.000000 -49.463097 10.985321 2567.275146
8.000000 -3.800000 2.040000 -47.616447 -18.979637 2627.552734
8.000000 -3.800000 2.080000 -29.263577 -35.252670 2099.107666
8.000000 -3.800000 2.120000 -12.711670 -34.641060 1361.589600
8.000000 -3.800000 2.160000 -7.438332 -29.467194 923.644287
8.000000 -3.800000 2.200000 -7.258295 -30.946550 1010.371826
8.040000 -4.200000 1.800000 33.309933 -2.008199 1113.584473
8.040000 -4.200000 1.840000 34.647224 12.985933 1369.064697
8.040000 -4.200000 1.880000 25.884342 24.272427 1259.149902
8.040000 -4.200000 1.920000 13.362853 26.763008 894.824463
8.040000 -4.200000 1.960000 3.712605 21.522156 476.986633
8.040000 -4.200000 2.000000 0.265137 12.681274 160.885025
8.040000 -4.200000 2.040000 3.498951 4.520488 32.677467
8.040000 -4.200000 2.080000 12.039584 1.096615 146.154144
8.040000 -4.200000 2.120000 21.824957 5.856108 510.622742
8.040000 -4.200000 2.160000 25.917175 18.764603 1023.810303
8.040000 -4.200000 2.200000 18.365940 33.479279 1458.169800
8.040000 -4.160000 1.800000 18.690170 23.515823 902.316406
8.040000 -4.160000 1.840000 5.214143 33.388191 1141.958618
8.040000 -4.160000 1.880000 -12.425987 29.474979 1023.179565
8.040000 -4.160000 1.920000 -21.949533 13.558796 665.622925
8.040000 -4.160000 1.960000 -17.473846 -4.269981 323.568024
8.040000 -4.160000 2.000000 -2.335880 -13.927042 199.418823
8.040000 -4.160000 2.040000 15.123707 -11.173470 353.572937
8.040000 -4.160000 2.080000 26.933596 2.198605 730.252441
8.040000 -4.160000 2.120000 27.999739 20.749695 1214.535156
8.040000 -4.160000 2.160000 16.840084 37.077271 1658.312500
8.040000 -4.160000 2.200000 -3.233748 43.472885 1900.348877
8.040000 -4.120000 1.800000 -13.373879 25.723995 840.584595
8.040000 -4.120000 1.840000 -34.807503 18.197954 1542.727783
8.040000 -4.120000 1.880000 -45.664383 -8.019838 2149.553711
8.040000 -4.120000 1.920000 -32.865177 -38.046360 2527.645508
8.040000 -4.120000 1.960000 -0.470325 -51.764854 2679.821289
8.040000 -4.120000 2.000000 33.358433 -39.622871 2682.756836
8.040000 -4.120000 2.040000 50.234673 -8.850784 2601.858643
8.040000 -4.120000 2.080000 43.654324 23.468424 2456.466797
8.040000 -4.120000 2.120000 20.544182 42.623291 2238.808350
8.040000 -4.120000 2.160000 -6.067686 43.725739 1948.756958
8.040000 -4.120000 2.200000 -25.459423 30.975979 1607.693604
8.040000 -4.080000 1.800000 -34.984188 -1.051322 1224.998657
8.040000 -4.080000 1.840000 -48.634487 -29.066578 3210.179199
8.040000 -4.080000 1.880000 -34.180790 -68.334633 5837.948242
8.040000 -4.080000 1.920000 11.369587 -90.114296 8249.853516
8.040000 -4.080000 1.960000 64.838173 -73.093842 9546.698242
8.040000 -4.080000 2.000000 93.673660 -22.602253 9285.617188
8.040000 -4.080000 2.040000 81.429733 32.553143 7690.508301
8.040000 -4.080000 2.080000 39.453880 62.469589 5459.058105
8.040000 -4.080000 2.120000 -4.306602 57.597557 3336.025391
8.040000 -4.080000 2.160000 -27.701839 31.666861 1770.181885
8.040000 -4.080000 2.200000 -28.139801 6.415518 833.007263
8.040000 -4.040000 1.800000 -25.618273 -35.474442 1914.731934
8.040000 -4.040000 1.840000 -17.907999 -73.283966 5691.235840
8.040000 -4.040000 1.880000 27.296211 -102.821930 11317.432617
8.040000 -4.040000 1.920000 93.054916 -90.516846 16852.517578
8.040000 -4.040000 1.960000 137.827850 -29.613148 19873.455078
8.040000 -4.040000 2.000000 128.858124 48.805542 18986.396484
8.040000 -4.040000 2.040000 70.651405 98.535744 14700.914062
8.040000 -4.040000 2.080000 1.810282 95.018997 9031.886719
8.040000 -4.040000 2.120000 -36.973824 52.930630 4168.715332
8.040000 -4.040000 2.160000 -34.236389 9.845817 1269.070435
8.040000 -4.040000 2.200000 -10.998096 -7.066694 170.896271
8.040000 -4.000000 1.800000 7.539860 -48.148521 2375.129395
8.040000 -4.000000 1.840000 37.369358 -78.230629 7516.500000
8.040000 -4.000000 1.880000 98.664154 -77.909592 15804.519531
8.040000 -4.000000 1.920000 154.209839 -23.848003 24349.400391
8.040000 -4.000000 1.960000 158.034027 64.735359 29165.419922
8.040000 -4.000000 2.000000 97.248474 135.276688 27757.046875
8.040000 -4.000000 2.040000 7.434287 144.165466 20838.951172
8.040000 -4.000000 2.080000 -55.319191 93.560776 11813.832031
8.040000 -4.000000 2.120000 -60.735725 27.910027 4467.797852
8.040000 -4.000000 2.160000 -26.076588 -6.184246 718.233276
8.040000 -4.000000 2.200000 5.308292 1.639773 30.866825
8.040000 -3.960000 1.800000 35.627312 -29.473436 2137.988770
8.040000 -3.960000 1.840000 75.382996 -40.496033 7322.524902
8.040000 -3.960000 1.880000 127.984306 -8.314233 16449.109375
8.040000 -3.960000 1.920000 147.045654 68.871857 26365.755859
8.040000 -3.960000 1.960000 101.119972 148.554733 32293.757812
8.040000 -3.960000 2.000000 7.971149 175.856354 30988.996094
8.040000 -3.960000 2.040000 -75.132820 131.957840 23057.812500
8.040000 -3.960000 2.080000 -99.137131 52.154312 12548.243164
8.040000 -3.960000 2.120000 -64.317566 -5.258896 4164.405273
8.040000 -3.960000 2.160000 -15.731045 -9.802398 343.552765
8.040000 -3.960000 2.200000 1.117556 19.008383 362.567535
8.040000 -3.920000 1.800000 35.576256 1.197844 1267.104736
8.040000 -3.920000 1.840000 70.781509 7.330404 5063.756836
8.040000 -3.920000 1.880000 98.247742 54.995304 12677.102539
8.040000 -3.920000 1.920000 77.995514 124.408905 21560.875000
8.040000 -3.920000 1.960000 4.022026 165.391083 27370.386719
8.040000 -3.920000 2.000000 -82.393005 141.634125 26848.832031
8.040000 -3.920000 2.040000 -125.490219 66.566559 20178.902344
8.040000 -3.920000 2.080000 -104.175362 -6.353895 10892.877930
8.040000 -3.920000 2.120000 -49.507790 -31.143900 3420.963867
8.040000 -3.920000 2.160000 -13.443531 -8.499154 252.964142
8.040000 -3.920000 2.200000 -20.451326 20.668102 845.427185
8.040000 -3.880000 1.800000 12.037543 14.799238 363.919922
8.040000 -3.880000 1.840000 36.866467 28.071997 2147.173340
8.040000 -3.880000 1.880000 40.988098 71.256912 6757.571289
8.040000 -3.880000 1.920000 0.998940 113.017334 12773.916016
8.040000 -3.880000 1.960000 -67.245094 112.858276 17258.892578
8.040000 -3.880000 2.000000 -118.064896 61.201653 17684.960938
8.040000 -3.880000 2.040000 -116.981079 -8.316601 13753.739258
8.040000 -3.880000 2.080000 -72.690460 -48.652752 7650.993164
8.040000 -3.880000 2.120000 -27.537781 -42.153656 2535.260010
8.040000 -3.880000 2.160000 -16.349005 -13.698429 454.936890
8.040000 -3.880000 2.200000 -35.451519 -2.421858 1262.675537
8.040000 -3.840000 1.800000 -8.310511 1.086603 70.245300
8.040000 -3.840000 1.840000 9.768917 14.402256 302.856720
8.040000 -3.840000 1.880000 3.731606 44.553528 1998.941772
8.040000 -3.840000 1.920000 -32.920082 60.809750 4781.557617
8.040000 -3.840000 1.960000 -75.469688 40.494083 7335.444336
8.040000 -3.840000 2.000000 -90.423569 -6.936871 8224.541992
8.040000 -3.840000 2.040000 -67.910629 -48.023720 6918.130859
8.040000 -3.840000 2.080000 -30.362896 -57.513123 4229.664551
8.040000 -3.840000 2.120000 -8.867061 -41.274673 1782.223389
8.040000 -3.840000 2.160000 -12.685040 -26.786718 878.438477
8.040000 -3.840000 2.200000 -23.416273 -33.057354 1641.110596
8.040000 -3.800000 1.800000 -4.149420 -22.243439 511.988251
8.040000 -3.800000 1.840000 11.648411 -8.065791 200.742462
8.040000 -3.800000 1.880000 5.358994 13.233091 203.833511
8.040000 -3.800000 1.920000 -18.758282 18.784515 704.731201
8.040000 -3.800000 1.960000 -39.005199 0.836876 1522.105957
8.040000 -3.800000 2.000000 -38.404480 -26.372803 2170.428711
8.040000 -3.800000 2.040000 -20.518524 -42.579163 2233.994873
8.040000 -3.800000 2.080000 -2.788315 -41.892700 1762.772949
8.040000 -3.800000 2.120000 3.547020 -35.687531 1286.181152
8.040000 -3.800000 2.160000 3.980293 -36.716324 1363.931152
8.040000 -3.800000 2.200000 11.156938 -43.912285 2052.766113
8.080000 -4.200000 1.800000 11.055738 28.040020 908.472107
8.080000 -4.200000 1.840000 -2.306026 32.042614 1032.046875
8.080000 -4.200000 1.880000 -13.272553 24.100622 757.000610
8.080000 -4.200000 1.920000 -13.851041 12.223009 341.253296
8.080000 -4.200000 1.960000 -6.848261 6.110965 84.242569
8.080000 -4.200000 2.000000 -0.702648 7.468414 56.270920
8.080000 -4.200000 2.040000 0.513309 10.632461 113.312706
8.080000 -4.200000 2.080000 0.053652 11.211393 125.698219
8.080000 -4.200000 2.120000 1.979556 11.442503 134.849518
8.080000 -4.200000 2.160000 4.249347 15.911510 271.233124
8.080000 -4.200000 2.200000 0.604391 23.559410 555.411072
8.080000 -4.160000 1.800000 -13.740664 28.270849 988.046753
8.080000 -4.160000 1.840000 -28.917290 21.541929 1300.264404
8.080000 -4.160000 1.880000 -33.450623 3.633410 1132.145752
8.080000 -4.160000 1.920000 -22.773540 -11.827559 658.525330
8.080000 -4.160000 1.960000 -5.382809 -14.388716 236.009766
8.080000 -4.160000 2.000000 6.800526 -5.283245 74.159828
8.080000 -4.160000 2.040000 9.206557 6.700127 129.652390
8.080000 -4.160000 2.080000 5.515147 15.234222 262.498383
8.080000 -4.160000 2.120000 0.167182 20.522301 421.192780
8.080000 -4.160000 2.160000 -6.993763 24.478767 648.122803
8.080000 -4.160000 2.200000 -17.747643 25.015499 940.754028
8.080000 -4.120000 1.800000 -31.051945 5.924444 999.322327
8.080000 -4.120000 1.840000 -39.477184 -11.803887 1697.779907
8.080000 -4.120000 1.880000 -29.244526 -34.377300 2037.041138
8.080000 -4.120000 1.920000 -2.688475 -43.606144 1908.723755
8.080000 -4.120000 1.960000 23.754059 -31.000149 1525.264526
8.080000 -4.120000 2.000000 34.035271 -4.494659 1178.601562
8.080000 -4.120000 2.040000 24.895962 19.750971 1009.909790
8.080000 -4.120000 2.080000 5.486015 30.771025 976.952332
8.080000 -4.120000 2.120000 -12.729772 28.593876 979.656860
8.080000 -4.120000 2.160000 -24.354195 19.490749 973.016113
8.080000 -4.120000 2.200000 -29.951475 8.437114 968.275757
8.080000 -4.080000 1.800000 -23.403839 -24.008293 1124.137817
8.080000 -4.080000 1.840000 -18.134323 -45.827854 2429.045898
8.080000 -4.080000 1.880000 9.221037 -60.988998 3804.685547
8.080000 -4.080000 1.920000 45.961220 -50.663216 4679.195312
8.080000 -4.080000 1.960000 67.639359 -14.304222 4779.693848
8.080000 -4.080000 2.000000 58.558941 28.179539 4223.236328
8.080000 -4.080000 2.040000 24.687939 52.291515 3343.896973
8.080000 -4.080000 2.080000 -12.224195 47.923462 2446.089111
8.080000 -4.080000 2.120000 -32.666584 24.765804 1680.450684
8.080000 -4.080000 2.160000 -32.805939 1.250167 1077.792480
8.080000 -4.080000 2.200000 -22.840439 -11.042221 643.616333
8.080000 -4.040000 1.800000 6.248057 -37.068707 1413.127197
8.080000 -4.040000 1.840000 24.861053 -52.492081 3373.490479
8.080000 -4.040000 1.880000 61.050484 -48.734295 6102.193359
8.080000 -4.040000 1.920000 91.344536 -13.142105 8516.539062
8.080000 -4.040000 1.960000 88.906364 40.712479 9561.847656
8.080000 -4.040000 2.000000 48.266758 80.730522 8847.096680
8.080000 -4.040000 2.040000 -7.537680 82.182419 6810.766602
8.080000 -4.040000 2.080000 -45.021950 48.222950 4352.428711
8.080000 -4.040000 2.120000 -47.247314 6.133675 2269.930908
8.080000 -4.040000 2.160000 -25.202927 -16.724056 914.881592
8.080000 -4.040000 2.200000 -4.419049 -14.575105 231.961670
8.080000 -4.000000 1.800000 34.891010 -21.557951 1682.127808
8.080000 -4.000000 1.840000 58.861992 -23.804401 4031.383789
8.080000 -4.000000 1.880000 88.779953 0.814427 7882.542969
8.080000 -4.000000 1.920000 95.298843 52.182335 11804.865234
8.080000 -4.000000 1.960000 59.517494 102.009064 13948.180664
8.080000 -4.000000 2.000000 -5.270922 114.951584 13241.648438
8.080000 -4.000000 2.040000 -60.496552 80.080963 10072.792969
8.080000 -4.000000 2.080000 -73.878273 22.298584 5955.226074
8.080000 -4.000000 2.120000 -46.530434 -18.568123 2509.856445
8.080000 -4.000000 2.160000 -9.867136 -21.828434 573.840881
8.080000 -4.000000 2.200000 4.343943 -1.163069 20.222567
8.080000 -3.960000 1.800000 39.427097 9.492858 1644.610352
8.080000 -3.960000 1.840000 59.177582 19.028755 3864.079590
8.080000 -3.960000 1.880000 71.122635 54.710960 8051.718750
8.080000 -3.960000 1.920000 48.959549 101.749016 12749.899414
8.080000 -3.960000 1.960000 -9.463284 124.825089 15670.856445
8.080000 -3.960000 2.000000 -72.921814 99.464432 15210.763672
8.080000 -3.960000 2.040000 -100.667244 37.710571 11555.980469
8.080000 -3.960000 2.080000 -78.466530 -19.207861 6525.937988
8.080000 -3.960000 2.120000 -31.634922 -36.456913 2329.874756
8.080000 -3.960000 2.160000 -1.332229 -15.593303 244.925919
8.080000 -3.960000 2.200000 -6.901311 10.020100 148.030487
8.080000 -3.920000 1.800000 18.135670 29.356834 1190.726318
8.080000 -3.920000 1.840000 29.436062 43.740192 2779.686279
8.080000 -3.920000 1.880000 22.806473 76.313812 6343.933105
8.080000 -3.920000 1.920000 -16.722580 102.225357 10729.667969
8.080000 -3.920000 1.960000 -73.598152 91.406662 13771.865234
8.080000 -3.920000 2.000000 -110.202820 39.845871 13732.354492
8.080000 -3.920000 2.040000 -100.318405 -21.652454 10532.611328
8.080000 -3.920000 2.080000 -54.838619 -53.080112 5824.772461
8.080000 -3.920000 2.120000 -12.614260 -41.417179 1874.502197
8.080000 -3.920000 2.160000 -4.276645 -11.360847 147.358551
8.080000 -3.920000 2.200000 -24.806293 0.238722 615.409180
8.080000 -3.880000 1.800000 -7.433252 22.285009 551.874878
8.080000 -3.880000 1.840000 -2.291340 36.045235 1304.509155
8.080000 -3.880000 1.880000 -18.822392 57.109901 3615.823242
8.080000 -3.880000 1.920000 -57.454254 59.300068 6817.489258
8.080000 -3.880000 1.960000 -92.694122 27.148851 9329.260742
8.080000 -3.880000 2.000000 -95.301163 -24.663260 9690.587891
8.080000 -3.880000 2.040000 -61.530533 -61.872826 7614.252930
8.080000 -3.880000 2.080000 -18.464203 -62.463711 4242.642090
8.080000 -3.880000 2.120000 1.526479 -37.424805 1402.946045
8.080000 -3.880000 2.160000 -8.413063 -18.762394 422.807068
8.080000 -3.880000 2.200000 -24.997644 -27.073111 1357.835449
8.080000 -3.840000 1.800000 -12.815335 -1.788305 167.430847
8.080000 -3.840000 1.840000 -10.334866 11.278934 234.023804
8.080000 -3.840000 1.880000 -27.690256 21.715258 1238.302734
8.080000 -3.840000 1.920000 -53.664272 10.214733 2984.194824
8.080000 -3.840000 1.960000 -64.003876 -22.793076 4616.020508
8.080000 -3.840000 2.000000 -46.155968 -55.035679 5159.299316
8.080000 -3.840000 2.040000 -13.029175 -63.907066 4253.872559
8.080000 -3.840000 2.080000 9.740999 -49.080879 2503.819580
8.080000 -3.840000 2.120000 9.847583 -31.872982 1112.861816
8.080000 -3.840000 2.160000 -0.185379 -32.074699 1028.820801
8.080000 -3.840000 2.200000 2.016653 -47.337059 2244.864014
8.080000 -3.800000 1.800000 6.062475 -17.140339 330.544830
8.080000 -3.800000 1.840000 5.191738 -2.566082 33.538921
8.080000 -3.800000 1.880000 -10.049699 2.047905 105.190361
8.080000 -3.800000 1.920000 -23.367594 -11.531029 679.009033
8.080000 -3.800000 1.960000 -19.712658 -32.751480 1461.248291
8.080000 -3.800000 2.000000 -1.248478 -43.708775 1912.015747
8.080000 -3.800000 2.040000 15.872555 -38.419044 1727.960938
8.080000 -3.800000 2.080000 20.065346 -28.162523 1195.745850
8.080000 -3.800000 2.120000 16.875298 -27.174583 1023.233643
8.080000 -3.800000 2.160000 21.302574 -35.457779 1711.053711
8.080000 -3.800000 2.200000 39.089645 -38.635483 3020.700928
8.120000 -4.200000 1.800000 -23.036049 26.854092 1251.801758
8.120000 -4.200000 1.840000 -35.449829 13.449604 1437.582275
8.120000 -4.200000 1.880000 -31.620396 -5.959860 1035.369385
8.120000 -4.200000 1.920000 -14.179871 -14.294167 405.391907
8.120000 -4.200000 1.960000 0.755285 -5.733091 33.438793
8.120000 -4.200000 2.000000 0.751818 8.628574 75.017525
8.120000 -4.200000 2.040000 -10.317238 13.306432 283.506531
8.120000 -4.200000 2.080000 -17.635262 5.020952 336.212402
8.120000 -4.200000 2.120000 -12.304586 -4.812058 174.558746
8.120000 -4.200000 2.160000 -0.761217 -3.727479 14.473551
8.120000 -4.200000 2.200000 3.168056 7.670802 68.877777
8.120000 -4.160000 1.800000 -34.088493 6.849698 1208.943726
8.120000 -4.160000 1.840000 -37.874153 -10.375734 1542.107300
8.120000 -4.160000 1.880000 -24.282913 -25.789614 1254.764038
8.120000 -4.160000 1.920000 -2.929547 -24.675217 617.448608
8.120000 -4.160000 1.960000 8.704913 -8.229492 143.500061
8.120000 -4.160000 2.000000 3.261463 8.256559 78.807922
8.120000 -4.160000 2.040000 -10.078602 11.760859 239.896011
8.120000 -4.160000 2.080000 -16.884068 4.167552 302.440247
8.120000 -4.160000 2.120000 -13.090358 -2.065662 175.624435
8.120000 -4.160000 2.160000 -7.722852 0.904469 60.460506
8.120000 -4.160000 2.200000 -10.836916 7.751289 177.521240
8.120000 -4.120000 1.800000 -25.528324 -17.046572 942.280884
8.120000 -4.120000 1.840000 -20.120697 -31.610460 1404.063599
8.120000 -4.120000 1.880000 -0.647629 -37.495964 1406.366699
8.120000 -4.120000 1.920000 18.973883 -25.089752 989.503906
8.120000 -4.120000 1.960000 23.010609 -1.580563 531.986267
8.120000 -4.120000 2.000000 9.207822 16.088764 343.632324
8.120000 -4.120000 2.040000 -10.081461 17.458420 406.432281
8.120000 -4.120000 2.080000 -20.913731 6.923499 485.318970
8.120000 -4.120000 2.120000 -20.413414 -3.259132 427.329407
8.120000 -4.120000 2.160000 -16.467503 -6.295392 310.810608
8.120000 -4.120000 2.200000 -16.726879 -6.001009 315.800598
8.120000 -4.080000 1.800000 -0.122799 -26.719353 713.938904
8.120000 -4.080000 1.840000 10.197812 -33.414429 1220.519409
8.120000 -4.080000 1.880000 28.546242 -27.766514 1585.867188
8.120000 -4.080000 1.920000 39.612045 -5.862345 1603.481201
8.120000 -4.080000 1.960000 31.012512 20.522678 1382.956299
8.120000 -4.080000 2.000000 5.621452 33.746979 1170.459229
8.120000 -4.080000 2.040000 -20.488504 25.839428 1087.454834
8.120000 -4.080000 2.080000 -32.033569 4.752237 1048.733276
8.120000 -4.080000 2.120000 -26.704117 -13.884312 905.883972
8.120000 -4.080000 2.160000 -14.587004 -20.565216 635.708740
8.120000 -4.080000 2.200000 -7.053160 -18.108028 377.647766
8.120000 -4.040000 1.800000 24.539749 -12.931751 769.429443
8.120000 -4.040000 1.840000 33.155907 -11.205048 1224.867188
8.120000 -4.040000 1.880000 43.456024 2.863983 1896.628418
8.120000 -4.040000 1.920000 40.807484 27.843407 2440.506104
8.120000 -4.040000 1.960000 17.656277 48.389591 2653.296631
8.120000 -4.040000 2.000000 -16.633739 47.730663 2554.897461
8.120000 -4.040000 2.040000 -41.551743 23.381018 2273.219238
8.120000 -4.040000 2.080000 -42.425781 -9.241151 1885.345825
8.120000 -4.040000 2.120000 -22.883551 -29.419420 1389.159180
8.120000 -4.040000 2.160000 -0.979045 -28.452753 810.517700
8.120000 -4.040000 2.200000 7.218202 -15.666316 297.535889
8.120000 -4.000000 1.800000 29.571384 15.103938 1102.595703
8.120000 -4.000000 1.840000 31.973660 21.050594 1465.442383
8.120000 -4.000000 1.880000 31.078854 36.670845 2310.645996
8.120000 -4.000000 1.920000 14.773796 55.524105 3301.191406
8.120000 -4.000000 1.960000 -17.564964 60.597923 3980.636475
8.120000 -4.000000 2.000000 -49.500263 40.139462 4061.452637
8.120000 -4.000000 2.040000 -59.526386 1.647391 3546.104492
8.120000 -4.000000 2.080000 -40.648407 -31.432337 2640.284668
8.120000 -4.000000 2.120000 -8.284302 -39.209980 1606.052124
8.120000 -4.000000 2.160000 12.613954 -23.003895 688.291016
8.120000 -4.000000 2.200000 9.822916 -3.679112 110.025543
8.120000 -3.960000 1.800000 11.243652 35.958473 1419.431519
8.120000 -3.960000 1.840000 7.742097 40.806923 1725.145020
8.120000 -3.960000 1.880000 -2.209356 51.191925 2625.494629
8.120000 -3.960000 1.920000 -25.770498 56.571800 3864.487305
8.120000 -3.960000 1.960000 -55.322845 42.365662 4855.466309
8.120000 -3.960000 2.000000 -70.817253 6.923125 5063.013184
8.120000 -3.960000 2.040000 -57.666500 -31.733959 4332.469727
8.120000 -3.960000 2.080000 -22.909004 -49.230251 2948.440186
8.120000 -3.960000 2.120000 8.307945 -37.138531 1448.292480
8.120000 -3.960000 2.160000 14.787717 -11.836690 358.783813
8.120000 -3.960000 2.200000 -1.072537 0.325275 1.256140
8.120000 -3.920000 1.800000 -14.848139 33.954067 1373.345947
8.120000 -3.920000 1.840000 -20.647068 35.519051 1687.904297
8.120000 -3.920000 1.880000 -34.282337 37.563759 2586.314697
8.120000 -3.920000 1.920000 -55.442371 28.236084 3871.132812
8.120000 -3.920000 1.960000 -70.265984 0.687930 4937.781738
8.120000 -3.920000 2.000000 -62.653973 -35.072380 5155.592285
8.120000 -3.920000 2.040000 -31.920414 -57.214561 4292.418945
8.120000 -3.920000 2.080000 2.629838 -51.751053 2685.087402
8.120000 -3.920000 2.120000 17.635513 -27.339632 1058.466797
8.120000 -3.920000 2.160000 7.672909 -8.627714 133.310974
8.120000 -3.920000 2.200000 -9.154369 -13.060889 254.389297
8.120000 -3.880000 1.800000 -26.871367 13.048587 892.335938
8.120000 -3.880000 1.840000 -32.453583 13.118450 1225.328735
8.120000 -3.880000 1.880000 -45.027138 7.867535 2089.341309
8.120000 -3.880000 1.920000 -56.299847 -10.991937 3290.495605
8.120000 -3.880000 1.960000 -52.067192 -39.365322 4260.621094
8.120000 -3.880000 2.000000 -27.552567 -60.376488 4404.464355
8.120000 -3.880000 2.040000 4.317621 -59.223343 3526.046143
8.120000 -3.880000 2.080000 22.770597 -38.830482 2026.306519
8.120000 -3.880000 2.120000 18.904926 -18.855927 712.942200
8.120000 -3.880000 2.160000 4.977642 -17.206827 320.851807
8.120000 -3.880000 2.200000 2.615728 -32.307877 1050.640991
8.120000 -3.840000 1.800000 -15.995783 -6.516430 298.328918
8.120000 -3.840000 1.840000 -22.721466 -5.665913 548.367554
8.120000 -3.840000 1.880000 -32.370323 -15.706332 1294.526611
8.120000 -3.840000 1.920000 -31.863371 -36.442097 2343.300781
8.120000 -3.840000 1.960000 -13.874609 -54.539234 3167.032959
8.120000 -3.840000 2.000000 13.099753 -55.363476 3236.718018
8.120000 -3.840000 2.040000 31.022934 -38.523460 2446.479492
8.120000 -3.840000 2.080000 30.019848 -19.751949 1291.330811
8.120000 -3.840000 2.120000 18.914148 -15.577810 600.413147
8.120000 -3.840000 2.160000 16.497854 -26.203222 958.788086
8.120000 -3.840000 2.200000 31.953142 -35.005341 2246.377197
8.120000 -3.800000 1.800000 5.792128 -6.415819 74.711487
8.120000 -3.800000 1.840000 -5.352127 -6.206894 67.170792
8.120000 -3.800000 1.880000 -11.878219 -19.864368 535.685181
8.120000 -3.800000 1.920000 -2.298107 -36.885662 1365.833374
8.120000 -3.800000 1.960000 19.464237 -41.064320 2065.134766
8.120000 -3.800000 2.000000 36.667236 -27.815010 2118.161133
8.120000 -3.800000 2.040000 37.105350 -9.916947 1475.152832
8.120000 -3.800000 2.080000 26.563745 -4.182543 723.126221
8.120000 -3.800000 2.120000 22.848755 -12.904237 688.584961
8.120000 -3.800000 2.160000 36.089622 -20.721918 1731.858643
8.120000 -3.800000 2.200000 56.795609 -11.047813 3347.795410
8.160000 -4.200000 1.800000 -39.056145 -0.048223 1525.384766
8.160000 -4.200000 1.840000 -36.892178 -21.508770 1823.659912
8.160000 -4.200000 1.880000 -15.871541 -34.259491 1425.618530
8.160000 -4.200000 1.920000 7.560349 -24.931095 678.718384
8.160000 -4.200000 1.960000 12.873948 -1.667046 168.517578
8.160000 -4.200000 2.000000 -3.036293 13.129311 181.597870
8.160000 -4.200000 2.040000 -22.026043 5.617722 516.705383
8.160000 -4.200000 2.080000 -23.181992 -15.159069 767.202087
8.160000 -4.200000 2.120000 -4.248719 -26.682583 730.011841
8.160000 -4.200000 2.160000 16.418518 -16.176121 531.234619
8.160000 -4.200000 2.200000 19.044041 6.801538 408.936401
8.160000 -4.160000 1.800000 -28.121311 -18.998074 1151.734985
8.160000 -4.160000 1.840000 -18.219458 -33.177181 1432.673950
8.160000 -4.160000 1.880000 3.092463 -33.325790 1120.171631
8.160000 -4.160000 1.920000 17.140221 -14.786640 512.431885
8.160000 -4.160000 1.960000 10.215107 7.404068 159.168625
8.160000 -4.160000 2.000000 -11.025646 13.249561 297.115753
8.160000 -4.160000 2.040000 -25.596258 -1.373142 657.053955
8.160000 -4.160000 2.080000 -19.637886 -20.267206 796.406250
8.160000 -4.160000 2.120000 -0.451446 -23.757126 564.604797
8.160000 -4.160000 2.160000 11.693283 -8.872074 215.446564
8.160000 -4.160000 2.200000 4.864033 8.456686 95.174362
8.160000 -4.120000 1.800000 -5.929302 -23.905472 606.628174
8.160000 -4.120000 1.840000 3.872413 -27.896191 793.193054
8.160000 -4.120000 1.880000 16.739738 -19.148506 646.884155
8.160000 -4.120000 1.920000 17.927614 -0.139725 321.418884
8.160000 -4.120000 1.960000 2.391962 13.709419 193.669662
8.160000 -4.120000 2.000000 -18.269894 9.661563 427.134796
8.160000 -4.120000 2.040000 -26.678375 -8.672708 786.951599
8.160000 -4.120000 2.080000 -17.014490 -24.515194 890.487671
8.160000 -4.120000 2.120000 -0.485139 -24.675060 609.093933
8.160000 -4.120000 2.160000 6.634068 -12.171651 192.159943
8.160000 -4.120000 2.200000 -0.633101 -1.867302 3.887633
8.160000 -4.080000 1.800000 12.936087 -10.035729 268.058197
8.160000 -4.080000 1.840000 15.236010 -7.816568 293.234741
8.160000 -4.080000 1.880000 16.434753 1.041722 271.186279
8.160000 -4.080000 1.920000 8.259612 12.174498 216.439590
8.160000 -4.080000 1.960000 -8.938543 14.727154 296.786621
8.160000 -4.080000 2.000000 -24.326862 2.861682 599.985413
8.160000 -4.080000 2.040000 -26.222439 -16.940266 974.588867
8.160000 -4.080000 2.080000 -13.482227 -30.857285 1133.942383
8.160000 -4.080000 2.120000 3.108613 -30.247303 924.562805
8.160000 -4.080000 2.160000 10.863573 -19.189966 486.272003
8.160000 -4.080000 2.200000 6.613921 -9.801082 139.805161
8.160000 -4.040000 1.800000 14.823675 13.848656 411.526611
8.160000 -4.040000 1.840000 7.973782 14.291075 267.816010
8.160000 -4.040000 1.880000 1.534332 15.442179 240.815048
8.160000 -4.040000 1.920000 -8.418871 15.402596 308.117371
8.160000 -4.040000 1.960000 -20.792057 8.392436 502.742615
8.160000 -4.040000 2.000000 -27.996250 -7.896128 846.138855
8.160000 -4.040000 2.040000 -22.428776 -27.138151 1239.529297
8.160000 -4.040000 2.080000 -4.898283 -37.890076 1459.651001
8.160000 -4.040000 2.120000 13.977013 -33.464394 1315.222534
8.160000 -4.040000 2.160000 22.020538 -18.723461 835.472107
8.160000 -4.040000 2.200000 16.180332 -6.561730 304.859467
8.160000 -4.000000 1.800000 -2.071036 31.055151 968.711609
8.160000 -4.000000 1.840000 -13.173553 23.894608 744.494751
8.160000 -4.000000 1.880000 -19.681238 15.344590 622.807617
8.160000 -4.000000 1.920000 -24.703400 6.488511 652.358704
8.160000 -4.000000 1.960000 -28.499044 -5.746817 845.221436
8.160000 -4.000000 2.000000 -25.972576 -22.349209 1174.061768
8.160000 -4.000000 2.040000 -12.229256 -37.100346 1525.990356
8.160000 -4.000000 2.080000 9.420259 -40.051899 1692.895996
8.160000 -4.000000 2.120000 26.876854 -27.585075 1483.301758
8.160000 -4.000000 2.160000 28.993431 -8.531013 913.397217
8.160000 -4.000000 2.200000 16.865692 1.872484 287.957764
8.160000 -3.960000 1.800000 -25.585041 29.640207 1533.136230
8.160000 -3.960000 1.840000 -34.136684 15.332079 1400.385864
8.160000 -3.960000 1.880000 -35.350452 0.744235 1250.208374
8.160000 -3.960000 1.920000 -32.654888 -12.065308 1211.913330
8.160000 -3.960000 1.960000 -26.826271 -24.777290 1333.562988
8.160000 -3.960000 2.000000 -14.711106 -36.675133 1561.481934
8.160000 -3.960000 2.040000 4.693004 -41.514179 1745.451416
8.160000 -3.960000 2.080000 24.415043 -33.088253 1690.926758
8.160000 -3.960000 2.120000 32.902237 -14.228248 1285.000244
8.160000 -3.960000 2.160000 25.242783 2.048120 641.392883
8.160000 -3.960000 2.200000 10.427290 3.213141 119.052658
8.160000 -3.920000 1.800000 -38.830273 11.940013 1650.354004
8.160000 -3.920000 1.840000 -42.002434 -4.366340 1783.269409
8.160000 -3.920000 1.880000 -37.573158 -20.161690 1818.235962
8.160000 -3.920000 1.920000 -27.599720 -33.046486 1853.814697
8.160000 -3.920000 1.960000 -12.910584 -41.926266 1924.494995
8.160000 -3.920000 2.000000 5.735557 -43.934364 1963.125000
8.160000 -3.920000 2.040000 23.808754 -35.652550 1837.960938
8.160000 -3.920000 2.080000 33.214989 -18.634766 1450.489990
8.160000 -3.920000 2.120000 29.110960 -2.088778 851.810974
8.160000 -3.920000 2.160000 16.776415 3.072124 290.886047
8.160000 -3.920000 2.200000 9.537130 -5.217991 118.184288
8.160000 -3.880000 1.800000 -33.621437 -7.322439 1184.019165
8.160000 -3.880000 1.840000 -34.247948 -21.481308 1634.368408
8.160000 -3.880000 1.880000 -26.680601 -36.737556 2061.502441
8.160000 -3.880000 1.920000 -10.525053 -47.708351 2386.863525
8.160000 -3.880000 1.960000 10.730331 -48.893394 2505.704102
8.160000 -3.880000 2.000000 29.558481 -37.999138 2317.638184
8.160000 -3.880000 2.040000 37.811417 -19.310555 1802.600830
8.160000 -3.880000 2.080000 32.918125 -2.848705 1091.718018
8.160000 -3.880000 2.120000 21.507942 2.317981 467.964630
8.160000 -3.880000 2.160000 15.493198 -3.998076 256.023804
8.160000 -3.880000 2.200000 22.266983 -11.699468 632.696106
8.160000 -3.840000 1.800000 -16.868061 -13.127247 456.856110
8.160000 -3.840000 1.840000 -19.456228 -26.265022 1068.396240
8.160000 -3.840000 1.880000 -9.794548 -42.391300 1892.955566
8.160000 -3.840000 1.920000 12.129187 -49.808540 2628.007812
8.160000 -3.840000 1.960000 35.757534 -40.448360 2914.670898
8.160000 -3.840000 2.000000 47.140137 -18.238586 2554.838379
8.160000 -3.840000 2.040000 40.934612 2.522001 1682.002930
8.160000 -3.840000 2.080000 25.988064 8.954309 755.559082
8.160000 -3.840000 2.120000 18.007160 1.269094 325.868408
8.160000 -3.840000 2.160000 25.259996 -7.199580 689.901367
8.160000 -3.840000 2.200000 40.803398 -2.366575 1670.518066
8.160000 -3.800000 1.800000 -4.443823 -2.405607 25.534508
8.160000 -3.800000 1.840000 -9.522131 -19.547724 472.784485
8.160000 -3.800000 1.880000 4.458329 -37.512280 1427.047852
8.160000 -3.800000 1.920000 31.298954 -38.687737 2476.365479
8.160000 -3.800000 1.960000 51.552799 -18.436859 2997.608887
8.160000 -3.800000 2.000000 50.290356 8.775259 2606.125000
8.160000 -3.800000 2.040000 31.986021 22.350998 1522.672607
8.160000 -3.800000 2.080000 16.555162 15.594993 517.277222
8.160000 -3.800000 2.120000 19.560497 2.329939 388.041687
8.160000 -3.800000 2.160000 36.518646 2.743197 1341.136719
8.160000 -3.800000 2.200000 47.618034 22.722849 2783.805176
8.200000 -4.200000 1.800000 -26.142437 -25.956984 1357.192017
8.200000 -4.200000 1.840000 -9.895147 -39.619484 1667.617432
8.200000 -4.200000 1.880000 14.709633 -34.469650 1404.530029
8.200000 -4.200000 1.920000 26.311607 -10.352924 799.483704
8.200000 -4.200000 1.960000 13.244067 12.704407 336.807251
8.200000 -4.200000 2.000000 -12.370914 13.244622 328.459534
8.200000 -4.200000 2.040000 -24.771580 -9.260888 699.395203
8.200000 -4.200000 2.080000 -9.897391 -32.242355 1137.527832
8.200000 -4.200000 2.120000 19.885115 -31.582670 1392.882812
8.200000 -4.200000 2.160000 37.343864 -5.360733 1423.301636
8.200000 -4.200000 2.200000 26.764549 24.368395 1310.159790
8.200000 -4.160000 1.800000 -5.851972 -27.160114 771.917358
8.200000 -4.160000 1.840000 8.522508 -29.603384 948.993469
8.200000 -4.160000 1.880000 22.328728 -15.980274 753.941284
8.200000 -4.160000 1.920000 19.146776 6.347010 406.883575
8.200000 -4.160000 1.960000 -2.419384 17.299812 305.136932
8.200000 -4.160000 2.000000 -24.002724 4.691845 598.144165
8.200000 -4.160000 2.040000 -24.406019 -21.126028 1041.962769
8.200000 -4.160000 2.080000 -1.535180 -35.538353 1265.331299
8.200000 -4.160000 2.120000 24.076206 -23.616409 1137.398438
8.200000 -4.160000 2.160000 28.816696 4.742068 852.889160
8.200000 -4.160000 2.200000 8.916981 24.474510 678.514160
8.200000 -4.120000 1.800000 8.056358 -12.583277 223.243759
8.200000 -4.120000 1.840000 12.517840 -9.447962 245.960327
8.200000 -4.120000 1.880000 12.708190 1.462769 163.637787
8.200000 -4.120000 1.920000 0.718703 11.373185 129.865875
8.200000 -4.120000 1.960000 -18.030365 7.320216 378.679626
8.200000 -4.120000 2.000000 -27.347424 -12.416435 902.049438
8.200000 -4.120000 2.040000 -16.315639 -33.263870 1372.685181
8.200000 -4.120000 2.080000 7.938246 -36.922909 1426.316895
8.200000 -4.120000 2.120000 25.294155 -19.460640 1018.510864
8.200000 -4.120000 2.160000 21.435841 4.041871 475.832001
8.200000 -4.120000 2.200000 1.420586 13.677469 189.091232
8.200000 -4.080000 1.800000 5.771740 7.664769 92.061661
8.200000 -4.080000 1.840000 -0.578134 6.337174 40.494019
8.200000 -4.080000 1.880000 -7.186232 4.947182 76.116539
8.200000 -4.080000 1.920000 -15.894651 -0.072292 252.645172
8.200000 -4.080000 1.960000 -22.049128 -12.664484 646.553223
8.200000 -4.080000 2.000000 -17.715303 -29.549538 1187.007080
8.200000 -4.080000 2.040000 -0.956311 -40.043362 1604.385376
8.200000 -4.080000 2.080000 19.249174 -35.175770 1607.865479
8.200000 -4.080000 2.120000 29.160046 -17.275927 1148.765869
8.200000 -4.080000 2.160000 22.424013 0.530507 503.117798
8.200000 -4.080000 2.200000 6.159191 5.415648 67.264870
8.200000 -4.040000 1.800000 -11.288630 19.468853 506.469421
8.200000 -4.040000 1.840000 -21.253376 6.678007 496.301758
8.200000 -4.040000 1.880000 -23.172590 -7.887583 599.182922
8.200000 -4.040000 1.920000 -19.168591 -20.588976 791.340820
8.200000 -4.040000 1.960000 -11.043633 -30.739777 1066.895630
8.200000 -4.040000 2.000000 1.269617 -37.402351 1400.547852
8.200000 -4.040000 2.040000 16.868839 -37.342216 1678.998901
8.200000 -4.040000 2.080000 30.742378 -27.784733 1717.085205
8.200000 -4.040000 2.120000 35.565601 -11.341189 1393.534546
8.200000 -4.040000 2.160000 28.108274 3.178380 800.177185
8.200000 -4.040000 2.200000 13.831466 6.773812 237.193985
8.200000 -4.000000 1.800000 -31.500244 14.981785 1216.719238
8.200000 -4.000000 1.840000 -35.536797 -7.966118 1326.322876
8.200000 -4.000000 1.880000 -25.393057 -27.895214 1422.950195
8.200000 -4.000000 1.920000 -8.154735 -37.489399 1471.954834
8.200000 -4.000000 1.960000 8.065573 -37.614220 1479.882935
8.200000 -4.000000 2.000000 20.537237 -33.020149 1512.108276
8.200000 -4.000000 2.040000 30.662645 -25.766842 1604.127930
8.200000 -4.000000 2.080000 38.099861 -14.463496 1660.792114
8.200000 -4.000000 2.120000 38.667759 0.298129 1495.284424
8.200000 -4.000000 2.160000 29.557064 12.183486 1022.057373
8.200000 -4.000000 2.200000 15.603009 13.351208 421.708649
8.200000 -3.960000 1.800000 -41.810165 -1.884374 1751.640869
8.200000 -3.960000 1.840000 -35.685989 -27.228970 2014.906738
8.200000 -3.960000 1.880000 -14.964001 -43.215328 2091.485840
8.200000 -3.960000 1.920000 8.780616 -43.654186 1982.787231
8.200000 -3.960000 1.960000 25.326485 -33.404270 1757.276123
8.200000 -3.960000 2.000000 33.217525 -21.037411 1545.976685
8.200000 -3.960000 2.040000 36.728283 -10.133676 1451.658203
8.200000 -3.960000 2.080000 37.827396 1.052034 1432.018677
8.200000 -3.960000 2.120000 33.813038 12.748380 1305.842773
8.200000 -3.960000 2.160000 23.302425 19.789524 934.628296
8.200000 -3.960000 2.200000 12.114983 16.816219 429.558044
8.200000 -3.920000 1.800000 -37.302586 -19.046688 1754.259277
8.200000 -3.920000 1.840000 -24.645966 -39.958084 2204.072021
8.200000 -3.920000 1.880000 -0.262117 -48.711960 2372.923584
8.200000 -3.920000 1.920000 23.373837 -41.365097 2257.407471
8.200000 -3.920000 1.960000 36.724072 -24.581665 1952.915771
8.200000 -3.920000 2.000000 39.285446 -7.755516 1603.494385
8.200000 -3.920000 2.040000 36.048725 4.744561 1322.021484
8.200000 -3.920000 2.080000 30.547302 13.579212 1117.532715
8.200000 -3.920000 2.120000 23.125031 19.241236 904.992188
8.200000 -3.920000 2.160000 14.975684 19.922222 621.166016
8.200000 -3.920000 2.200000 10.653168 15.440804 351.908386
8.200000 -3.880000 1.800000 -24.071560 -25.800074 1245.083740
8.200000 -3.880000 1.840000 -11.472418 -42.249863 1916.667236
8.200000 -3.880000 1.880000 11.970336 -47.268883 2377.636230
8.200000 -3.880000 1.920000 34.387695 -36.244694 2496.191406
8.200000 -3.880000 1.960000 45.243752 -15.128376 2275.864746
8.200000 -3.880000 2.000000 42.393150 5.340390 1825.698975
8.200000 -3.880000 2.040000 31.452623 17.594200 1298.823364
8.200000 -3.880000 2.080000 20.125820 20.651396 831.528809
8.200000 -3.880000 2.120000 13.388206 18.243427 512.066650
8.200000 -3.880000 2.160000 12.297306 15.279344 384.682068
8.200000 -3.880000 2.200000 14.919806 15.709410 469.386169
8.200000 -3.840000 1.800000 -13.532704 -20.524790 604.401123
8.200000 -3.840000 1.840000 -3.186848 -37.994984 1453.774780
8.200000 -3.840000 1.880000 21.123547 -43.463638 2335.291992
8.200000 -3.840000 1.920000 45.013203 -29.281902 2883.618164
8.200000 -3.840000 1.960000 53.449368 -2.410934 2862.647461
8.200000 -3.840000 2.000000 42.856365 21.181789 2285.336426
8.200000 -3.840000 2.040000 23.357513 29.479778 1414.630737
8.200000 -3.840000 2.080000 9.636723 23.411736 640.975830
8.200000 -3.840000 2.120000 8.832212 14.476845 287.587036
8.200000 -3.840000 2.160000 15.913609 14.000200 449.248535
8.200000 -3.840000 2.200000 19.625084 23.851429 954.034607
8.200000 -3.800000 1.800000 -13.317897 -10.779254 293.558685
8.200000 -3.800000 1.840000 -0.650565 -33.318626 1110.554077
8.200000 -3.800000 1.880000 29.260983 -37.975410 2298.336914
8.200000 -3.800000 1.920000 54.956684 -16.651026 3297.493652
8.200000 -3.800000 1.960000 57.014343 17.258099 3548.477295
8.200000 -3.800000 2.000000 35.479145 40.151928 2870.947266
8.200000 -3.800000 2.040000 9.484525 39.263580 1631.584961
8.200000 -3.800000 2.080000 -0.838086 23.362875 546.526306
8.200000 -3.800000 2.120000 7.333679 12.963796 221.842834
8.200000 -3.800000 2.160000 18.613926 20.061279 748.933167
8.200000 -3.800000 2.200000 15.903313 37.481823 1657.802490
