#kx 	ky 	kz 	real 	imag 	intensity
1.800000 5.800000 -6.200000 -5.978223 -43.974808 1969.522827
1.800000 5.800000 -6.160000 15.599384 -44.350998 2210.351807
1.800000 5.800000 -6.120000 30.397509 -30.715683 1867.461670
1.800000 5.800000 -6.080000 31.660898 -13.835442 1193.831909
1.800000 5.800000 -6.040000 23.570713 -4.204422 573.255676
1.800000 5.800000 -6.000000 15.567375 -4.202124 260.001007
1.800000 5.800000 -5.960000 13.869768 -8.549898 265.471222
1.800000 5.800000 -5.920000 17.896278 -10.592029 432.467865
1.800000 5.800000 -5.880000 23.040257 -7.603940 588.673279
1.800000 5.800000 -5.840000 25.445099 -1.195489 648.882263
1.800000 5.800000 -5.800000 24.229387 5.633903 618.804077
1.800000 5.840000 -6.200000 16.408136 -38.948700 1786.228149
1.800000 5.840000 -6.160000 33.412632 -32.747055 2188.773438
1.800000 5.840000 -6.120000 41.579777 -18.701868 2078.637695
1.800000 5.840000 -6.080000 40.079453 -5.902436 1641.201294
1.800000 5.840000 -6.040000 34.533897 0.744989 1193.145142
1.800000 5.840000 -6.000000 30.563347 2.610207 940.931335
1.800000 5.840000 -5.960000 29.661728 3.701126 893.516479
1.800000 5.840000 -5.920000 30.050835 6.469250 944.903870
1.800000 5.840000 -5.880000 29.647608 10.903084 997.857910
1.800000 5.840000 -5.840000 27.477304 15.989738 1010.673950
1.800000 5.840000 -5.800000 23.236515 20.707590 968.739868
1.800000 5.880000 -6.200000 27.248646 -20.672615 1169.845703
1.800000 5.880000 -6.160000 38.222633 -13.415054 1640.933350
1.800000 5.880000 -6.120000 42.919086 -2.272673 1847.213013
1.800000 5.880000 -6.080000 41.976700 7.930749 1824.940063
1.800000 5.880000 -6.040000 38.237396 15.246826 1694.564209
1.800000 5.880000 -6.000000 33.869713 20.053104 1549.284424
1.800000 5.880000 -5.960000 29.773258 23.285152 1428.645264
1.800000 5.880000 -5.920000 26.238516 25.829580 1355.626953
1.800000 5.880000 -5.880000 22.917654 28.631084 1344.957886
1.800000 5.880000 -5.840000 18.494057 31.997084 1365.843506
1.800000 5.880000 -5.800000 11.677576 34.479912 1325.229980
1.800000 5.920000 -6.200000 21.886818 -3.532028 491.508026
1.800000 5.920000 -6.160000 30.006893 1.406322 902.391357
1.800000 5.920000 -6.120000 34.526623 10.583536 1304.098877
1.800000 5.920000 -6.080000 33.821373 20.895733 1580.516846
1.800000 5.920000 -6.040000 28.623322 29.057285 1663.620361
1.800000 5.920000 -6.000000 21.653988 33.270649 1575.831299
1.800000 5.920000 -5.960000 15.884674 34.415863 1436.774536
1.800000 5.920000 -5.920000 12.120442 35.280762 1391.637329
1.800000 5.920000 -5.880000 8.161724 37.733521 1490.432373
1.800000 5.920000 -5.840000 1.158532 40.205265 1617.805542
1.800000 5.920000 -5.800000 -8.588764 38.674896 1569.514404
1.800000 5.960000 -6.200000 9.233719 1.582883 87.767082
1.800000 5.960000 -6.160000 17.839853 5.520781 348.739380
1.800000 5.960000 -6.120000 21.870724 15.312201 712.792053
1.800000 5.960000 -6.080000 18.651207 25.444841 995.307495
1.800000 5.960000 -6.040000 11.056282 30.751074 1067.869873
1.800000 5.960000 -6.000000 4.583411 30.938747 978.213745
1.800000 5.960000 -5.960000 1.798225 30.386707 926.585632
1.800000 5.960000 -5.920000 -0.281302 32.981300 1087.845215
1.800000 5.960000 -5.880000 -6.681684 37.185966 1427.441040
1.800000 5.960000 -5.840000 -18.130928 36.899845 1690.329102
1.800000 5.960000 -5.800000 -28.661032 27.922916 1601.144043
1.800000 6.000000 -6.200000 1.786738 -3.451523 15.105442
1.800000 6.000000 -6.160000 10.095935 2.641535 108.905609
1.800000 6.000000 -6.120000 10.574070 12.650608 271.848846
1.800000 6.000000 -6.080000 4.344151 18.590069 364.462311
1.800000 6.000000 -6.040000 -1.442495 17.954113 324.430939
1.800000 6.000000 -6.000000 -1.867844 16.012674 259.894562
1.800000 6.000000 -5.960000 -0.108091 19.301281 372.551147
1.800000 6.000000 -5.920000 -4.072278 27.204082 756.645569
1.800000 6.000000 -5.880000 -16.934729 31.187180 1259.425293
1.800000 6.000000 -5.840000 -31.805323 23.350605 1556.829346
1.800000 6.000000 -5.800000 -37.071785 5.717044 1407.001831
1.800000 6.040000 -6.200000 3.169108 -8.172865 76.838974
1.800000 6.040000 -6.160000 7.113504 -0.149084 50.624168
1.800000 6.040000 -6.120000 3.133307 5.549589 40.615555
1.800000 6.040000 -6.080000 -1.353456 3.902109 17.058300
1.800000 6.040000 -6.040000 1.091658 0.003597 1.191729
1.800000 6.040000 -6.000000 8.255592 3.253670 78.741173
1.800000 6.040000 -5.960000 9.411089 15.548845 330.335175
1.800000 6.040000 -5.920000 -2.888289 26.852991 729.425354
1.800000 6.040000 -5.880000 -22.868393 24.224022 1109.766602
1.800000 6.040000 -5.840000 -35.011215 5.668529 1257.917358
1.800000 6.040000 -5.800000 -28.587528 -15.967162 1072.197021
1.800000 6.080000 -6.200000 6.235297 -5.915684 73.874237
1.800000 6.080000 -6.160000 3.823972 -1.091163 15.813399
1.800000 6.080000 -6.120000 0.110929 -4.004136 16.045412
1.800000 6.080000 -6.080000 4.595980 -10.656960 134.693832
1.800000 6.080000 -6.040000 17.274050 -9.338056 385.592072
1.800000 6.080000 -6.000000 25.870504 5.828579 703.255371
1.800000 6.080000 -5.960000 17.674484 25.640491 969.822205
1.800000 6.080000 -5.920000 -5.700912 32.488804 1088.022705
1.800000 6.080000 -5.880000 -27.013123 17.651176 1041.272827
1.800000 6.080000 -5.840000 -28.597380 -8.542807 890.789673
1.800000 6.080000 -5.800000 -9.415022 -25.107861 719.047302
1.800000 6.120000 -6.200000 2.823460 -0.667275 8.417181
1.800000 6.120000 -6.160000 -1.786967 -4.634993 24.676409
1.800000 6.120000 -6.120000 2.606443 -14.495872 216.923874
1.800000 6.120000 -6.080000 18.949684 -17.308853 658.686890
1.800000 6.120000 -6.040000 35.493622 -2.737114 1267.289062
1.800000 6.120000 -6.000000 35.015251 23.623892 1784.156128
1.800000 6.120000 -5.960000 12.532333 42.067154 1926.704834
1.800000 6.120000 -5.920000 -16.991739 36.334225 1608.895142
1.800000 6.120000 -5.880000 -30.585630 10.074018 1036.966675
1.800000 6.120000 -5.840000 -18.347536 -15.152116 566.218689
1.800000 6.120000 -5.800000 7.309156 -19.351242 427.894348
1.800000 6.160000 -6.200000 -6.246506 -1.479511 41.207794
1.800000 6.160000 -6.160000 -4.894730 -14.118765 223.297897
1.800000 6.160000 -6.120000 11.654218 -22.561897 644.859985
1.800000 6.160000 -6.080000 34.132622 -12.666985 1325.488403
1.800000 6.160000 -6.040000 43.145000 15.443504 2099.992920
1.800000 6.160000 -6.000000 26.748016 43.725922 2627.412598
1.800000 6.160000 -5.960000 -6.286220 50.477707 2587.515381
1.800000 6.160000 -5.920000 -32.035202 30.298525 1944.254761
1.800000 6.160000 -5.880000 -32.161388 0.048436 1034.357178
1.800000 6.160000 -5.840000 -10.187699 -15.957067 358.417236
1.800000 6.160000 -5.800000 12.621241 -7.530012 215.996796
1.800000 6.200000 -6.200000 -11.954319 -11.348742 271.699677
1.800000 6.200000 -6.160000 0.693863 -25.493223 650.385864
1.800000 6.200000 -6.120000 25.074051 -23.400274 1176.280762
1.800000 6.200000 -6.080000 42.463593 0.579735 1803.492798
1.800000 6.200000 -6.040000 35.875648 33.305496 2396.318359
1.800000 6.200000 -6.000000 6.051889 51.783287 2718.134033
1.800000 6.200000 -5.960000 -27.187391 42.529488 2547.911621
1.800000 6.200000 -5.920000 -41.029587 13.766726 1872.949707
1.800000 6.200000 -5.880000 -28.965240 -11.600870 973.565369
1.800000 6.200000 -5.840000 -5.294398 -15.904310 280.977722
1.800000 6.200000 -5.800000 8.947329 -0.810946 80.712318
1.840000 5.800000 -6.200000 40.441269 -36.279282 2951.682617
1.840000 5.800000 -6.160000 54.852768 -16.809494 3291.385254
1.840000 5.800000 -6.120000 51.898327 5.824930 2727.366211
1.840000 5.800000 -6.080000 37.200333 17.835629 1701.974365
1.840000 5.800000 -6.040000 23.770367 16.750364 845.605042
1.840000 5.800000 -6.000000 19.187660 10.883924 486.626099
1.840000 5.800000 -5.960000 20.535517 8.916668 501.214417
1.840000 5.800000 -5.920000 20.622015 11.684350 561.791565
1.840000 5.800000 -5.880000 16.847370 14.032720 480.751099
1.840000 5.800000 -5.840000 12.834276 12.650439 324.752258
1.840000 5.800000 -5.800000 12.446924 10.029292 255.512619
1.840000 5.840000 -6.200000 47.700394 -7.488780 2331.409424
1.840000 5.840000 -6.160000 53.061813 8.325045 2884.862549
1.840000 5.840000 -6.120000 49.041245 23.607792 2962.371582
1.840000 5.840000 -6.080000 39.743889 33.730118 2717.297363
1.840000 5.840000 -6.040000 29.225483 38.975441 2373.213867
1.840000 5.840000 -6.000000 18.433840 40.741867 1999.706299
1.840000 5.840000 -5.960000 7.619175 38.375561 1530.735596
1.840000 5.840000 -5.920000 -0.494700 30.986929 960.434509
1.840000 5.840000 -5.880000 -2.096657 21.242691 455.647888
1.840000 5.840000 -5.840000 2.900229 15.087987 236.058685
1.840000 5.840000 -5.800000 8.993540 16.416285 350.378143
1.840000 5.880000 -6.200000 31.621740 15.636563 1244.436523
1.840000 5.880000 -6.160000 36.100990 24.408981 1899.079834
1.840000 5.880000 -6.120000 36.206913 37.830025 2742.051270
1.840000 5.880000 -6.080000 27.861568 52.777466 3561.728027
1.840000 5.880000 -6.040000 9.949816 62.336876 3984.884766
1.840000 5.880000 -6.000000 -12.109663 59.447296 3680.625000
1.840000 5.880000 -5.960000 -27.759356 43.361389 2650.791992
1.840000 5.880000 -5.920000 -28.747593 22.624134 1338.275513
1.840000 5.880000 -5.880000 -16.702110 9.755562 374.131470
1.840000 5.880000 -5.840000 -2.780618 11.112279 131.214584
1.840000 5.880000 -5.800000 1.641962 21.399605 460.639130
1.840000 5.920000 -6.200000 6.796075 17.313452 345.942261
1.840000 5.920000 -6.160000 16.676929 24.474804 877.135986
1.840000 5.920000 -6.120000 17.869038 42.727226 2144.918457
1.840000 5.920000 -6.080000 1.944746 60.784203 3698.501221
1.840000 5.920000 -6.040000 -26.349953 63.284943 4699.303711
1.840000 5.920000 -6.000000 -50.256653 44.322544 4490.219238
1.840000 5.920000 -5.960000 -54.009003 14.469331 3126.333984
1.840000 5.920000 -5.920000 -36.681969 -6.728768 1390.843140
1.840000 5.920000 -5.880000 -13.512208 -7.102689 233.027954
1.840000 5.920000 -5.840000 -2.545878 8.035398 71.049126
1.840000 5.920000 -5.800000 -9.001797 21.809526 556.687805
1.840000 5.960000 -6.200000 -6.147724 1.233111 39.315079
1.840000 5.960000 -6.160000 6.676218 14.808916 263.875885
1.840000 5.960000 -6.120000 0.824161 37.582535 1413.126099
1.840000 5.960000 -6.080000 -25.401506 48.844692 3031.040527
1.840000 5.960000 -6.040000 -54.433701 34.611580 4160.989258
1.840000 5.960000 -6.000000 -63.602261 1.875388 4048.764648
1.840000 5.960000 -5.960000 -45.579067 -26.033699 2755.204834
1.840000 5.960000 -5.920000 -15.492787 -29.811054 1128.725464
1.840000 5.960000 -5.880000 2.778307 -11.146517 131.963821
1.840000 5.960000 -5.840000 -1.869711 10.084703 105.197060
1.840000 5.960000 -5.800000 -19.244104 15.310644 604.751343
1.840000 6.000000 -6.200000 -0.016680 -14.044426 197.246170
1.840000 6.000000 -6.160000 6.639091 7.282010 97.105202
1.840000 6.000000 -6.120000 -10.407838 25.862980 777.216797
1.840000 6.000000 -6.080000 -38.729000 21.311863 1954.130859
1.840000 6.000000 -6.040000 -53.141796 -6.819370 2870.554443
1.840000 6.000000 -6.000000 -39.134071 -36.794312 2885.296875
1.840000 6.000000 -5.960000 -7.264791 -44.179142 2004.573853
1.840000 6.000000 -5.920000 16.293581 -24.608227 871.045593
1.840000 6.000000 -5.880000 14.212984 2.709608 209.350891
1.840000 6.000000 -5.840000 -6.703421 14.016909 241.409576
1.840000 6.000000 -5.800000 -24.086636 3.302477 591.072388
1.840000 6.040000 -6.200000 13.446408 -14.061680 378.536743
1.840000 6.040000 -6.160000 7.550647 6.772264 102.875839
1.840000 6.040000 -6.120000 -14.759783 11.531660 350.830383
1.840000 6.040000 -6.080000 -31.338707 -7.357947 1036.253906
1.840000 6.040000 -6.040000 -23.398922 -34.075130 1708.624023
1.840000 6.040000 -6.000000 5.163794 -43.415981 1911.612183
1.840000 6.040000 -5.960000 30.252396 -25.254122 1552.978149
1.840000 6.040000 -5.920000 30.395960 5.137613 950.309448
1.840000 6.040000 -5.880000 7.272884 21.745693 525.770020
1.840000 6.040000 -5.840000 -16.752903 12.788028 444.193420
1.840000 6.040000 -5.800000 -21.128534 -9.199586 531.047302
1.840000 6.080000 -6.200000 17.148060 -2.135264 298.615326
1.840000 6.080000 -6.160000 2.497955 7.236944 58.613136
1.840000 6.080000 -6.120000 -12.434803 -2.837617 162.676392
1.840000 6.080000 -6.080000 -9.193766 -23.292097 627.047119
1.840000 6.080000 -6.040000 13.711817 -32.204235 1225.126709
1.840000 6.080000 -6.000000 37.056072 -16.362223 1640.874756
1.840000 6.080000 -5.960000 38.519325 14.176680 1684.716675
1.840000 6.080000 -5.920000 14.787530 34.377640 1400.493164
1.840000 6.080000 -5.880000 -14.497734 27.987434 993.480835
1.840000 6.080000 -5.840000 -25.477724 2.910484 657.585327
1.840000 6.080000 -5.800000 -12.581863 -17.290018 457.248016
1.840000 6.120000 -6.200000 6.561408 5.876213 77.581955
1.840000 6.120000 -6.160000 -4.926491 0.283038 24.350422
1.840000 6.120000 -6.120000 -3.352491 -14.689768 227.028473
1.840000 6.120000 -6.080000 14.863684 -21.897972 700.450256
1.840000 6.120000 -6.040000 35.442776 -8.148716 1322.591919
1.840000 6.120000 -6.000000 37.822052 20.868694 1866.010010
1.840000 6.120000 -5.960000 15.203103 43.231354 2100.084229
1.840000 6.120000 -5.920000 -17.111202 40.338245 1919.967285
1.840000 6.120000 -5.880000 -34.669922 14.676208 1417.394653
1.840000 6.120000 -5.840000 -26.141575 -12.206887 832.390076
1.840000 6.120000 -5.800000 -2.927143 -19.854025 402.750488
1.840000 6.160000 -6.200000 -6.612232 -0.756773 44.294319
1.840000 6.160000 -6.160000 -4.760801 -13.719723 210.896011
1.840000 6.160000 -6.120000 11.270483 -20.101597 531.097961
1.840000 6.160000 -6.080000 30.285637 -8.329274 986.596619
1.840000 6.160000 -6.040000 34.331993 18.557581 1523.069580
1.840000 6.160000 -6.000000 14.780960 42.365395 2013.303467
1.840000 6.160000 -5.960000 -17.811819 44.160385 2267.400635
1.840000 6.160000 -5.920000 -40.944344 21.336750 2131.696289
1.840000 6.160000 -5.880000 -39.172760 -9.179049 1618.760132
1.840000 6.160000 -5.840000 -17.201057 -25.432779 942.702637
1.840000 6.160000 -5.800000 5.351814 -19.153152 395.485168
1.840000 6.200000 -6.200000 -7.884254 -16.652885 339.480072
1.840000 6.200000 -6.160000 7.450077 -24.607683 661.041748
1.840000 6.200000 -6.120000 26.646706 -15.752044 958.173828
1.840000 6.200000 -6.080000 33.795479 8.358997 1212.007202
1.840000 6.200000 -6.040000 19.436668 32.989357 1466.081787
1.840000 6.200000 -6.000000 -10.313814 40.338486 1733.568237
1.840000 6.200000 -5.960000 -36.825577 23.841002 1924.516357
1.840000 6.200000 -5.920000 -43.051720 -5.740318 1886.401855
1.840000 6.200000 -5.880000 -26.951418 -28.537243 1540.753174
1.840000 6.200000 -5.840000 -2.387219 -31.314884 986.320740
1.840000 6.200000 -5.800000 13.078850 -16.855106 455.150909
1.880000 5.800000 -6.200000 67.670235 11.191679 4704.514648
1.880000 5.800000 -6.160000 59.456619 39.601425 5103.362305
1.880000 5.800000 -6.120000 34.624920 53.701454 4082.731445
1.880000 5.800000 -6.080000 11.281446 47.548317 2388.113525
1.880000 5.800000 -6.040000 2.822704 32.552155 1067.610474
1.880000 5.800000 -6.000000 6.310665 24.016140 616.599487
1.880000 5.800000 -5.960000 8.797043 25.550741 730.228333
1.880000 5.800000 -5.920000 3.063298 27.965172 791.434631
1.880000 5.800000 -5.880000 -5.149584 22.205452 519.600281
1.880000 5.800000 -5.840000 -5.559336 10.622921 143.752670
1.880000 5.800000 -5.800000 3.537901 3.905784 27.771893
1.880000 5.840000 -6.200000 40.859734 42.955059 3514.654785
1.880000 5.840000 -6.160000 30.226948 55.608192 4005.939453
1.880000 5.840000 -6.120000 16.140574 61.802246 4080.035645
1.880000 5.840000 -6.080000 2.343458 63.198990 3999.604004
1.880000 5.840000 -6.040000 -11.763077 61.677032 3942.426270
1.880000 5.840000 -6.000000 -27.268944 54.890305 3756.540771
1.880000 5.840000 -5.960000 -40.026512 39.128357 3133.149902
1.880000 5.840000 -5.920000 -41.729752 16.711615 2020.650269
1.880000 5.840000 -5.880000 -28.536978 -1.810783 817.638000
1.880000 5.840000 -5.840000 -7.759512 -5.500356 90.463943
1.880000 5.840000 -5.800000 6.332232 6.158465 78.023865
1.880000 5.880000 -6.200000 0.443844 43.194756 1865.983887
1.880000 5.880000 -6.160000 1.070539 48.107540 2315.481445
1.880000 5.880000 -6.120000 -4.171832 61.095745 3750.094482
1.880000 5.880000 -6.080000 -24.241983 73.460449 5984.111328
1.880000 5.880000 -6.040000 -56.320930 69.732399 8034.654297
1.880000 5.880000 -6.000000 -83.272209 41.656273 8669.505859
1.880000 5.880000 -5.960000 -85.511841 -0.789864 7312.898926
1.880000 5.880000 -5.920000 -58.490135 -33.824013 4565.159668
1.880000 5.880000 -5.880000 -19.053728 -38.281639 1828.528442
1.880000 5.880000 -5.840000 7.089964 -15.923930 303.839142
1.880000 5.880000 -5.800000 6.438148 12.174837 189.676392
1.880000 5.920000 -6.200000 -22.893738 14.187124 725.397705
1.880000 5.920000 -6.160000 -11.358338 27.047836 860.597290
1.880000 5.920000 -6.120000 -21.920662 51.830513 3166.917480
1.880000 5.920000 -6.080000 -59.203182 61.656010 7306.480469
1.880000 5.920000 -6.040000 -100.635574 35.361004 11377.918945
1.880000 5.920000 -6.000000 -112.662643 -19.891396 13088.539062
1.880000 5.920000 -5.960000 -80.416069 -70.294106 11408.005859
1.880000 5.920000 -5.920000 -23.086094 -82.543083 7346.328125
1.880000 5.920000 -5.880000 20.964281 -52.296963 3174.473389
1.880000 5.920000 -5.840000 26.421513 -7.152066 749.248352
1.880000 5.920000 -5.800000 0.686319 18.585449 345.889954
1.880000 5.960000 -6.200000 -14.161337 -17.536324 508.066101
1.880000 5.960000 -6.160000 -5.975361 10.707710 150.360001
1.880000 5.960000 -6.120000 -33.739994 36.425655 2465.215576
1.880000 5.960000 -6.080000 -81.333046 25.607080 7270.787109
1.880000 5.960000 -6.040000 -107.763977 -27.324043 12359.678711
1.880000 5.960000 -6.000000 -83.258568 -89.183807 14885.740234
1.880000 5.960000 -5.960000 -18.491100 -114.385544 13425.973633
1.880000 5.960000 -5.920000 42.339817 -84.914047 9003.055664
1.880000 5.960000 -5.880000 59.467705 -26.018631 4213.376953
1.880000 5.960000 -5.840000 30.791286 17.352453 1249.210938
1.880000 5.960000 -5.800000 -10.446980 20.162163 515.652222
1.880000 6.000000 -6.200000 13.008526 -25.895992 839.824158
1.880000 6.000000 -6.160000 3.520344 8.745388 88.874634
1.880000 6.000000 -6.120000 -38.070892 18.120966 1777.762207
1.880000 6.000000 -6.080000 -75.137299 -18.168737 5975.716797
1.880000 6.000000 -6.040000 -67.548302 -78.785141 10769.871094
1.880000 6.000000 -6.000000 -10.509992 -115.600380 13473.908203
1.880000 6.000000 -5.960000 57.486889 -96.317047 12581.715820
1.880000 6.000000 -5.920000 87.464096 -34.354733 8830.215820
1.880000 6.000000 -5.880000 62.886547 23.306053 4497.889648
1.880000 6.000000 -5.840000 11.743330 38.484234 1618.942017
1.880000 6.000000 -5.800000 -22.406414 13.199379 676.270996
1.880000 6.040000 -6.200000 30.798563 -8.807539 1026.124146
1.880000 6.040000 -6.160000 3.460384 14.464435 221.194122
1.880000 6.040000 -6.120000 -34.625996 -0.049109 1198.962036
1.880000 6.040000 -6.080000 -43.793930 -47.135685 4139.681152
1.880000 6.040000 -6.040000 -5.636553 -87.713181 7725.372559
1.880000 6.040000 -6.000000 55.968323 -82.712769 9973.855469
1.880000 6.040000 -5.960000 93.589783 -30.106628 9665.457031
1.880000 6.040000 -5.920000 78.611649 31.631245 7180.327148
1.880000 6.040000 -5.880000 26.441788 58.027710 4066.383301
1.880000 6.040000 -5.840000 -19.589140 37.635162 1800.139771
1.880000 6.040000 -5.800000 -28.752499 -1.853264 830.140747
1.880000 6.080000 -6.200000 24.200275 12.345505 738.064819
1.880000 6.080000 -6.160000 -6.102247 13.705890 225.088837
1.880000 6.080000 -6.120000 -23.739428 -15.058904 790.330994
1.880000 6.080000 -6.080000 -5.672974 -49.955421 2527.726807
1.880000 6.080000 -6.040000 39.681244 -55.853149 4694.175293
1.880000 6.080000 -6.000000 76.063530 -19.745876 6175.560059
1.880000 6.080000 -5.960000 71.194168 34.419960 6253.342773
1.880000 6.080000 -5.920000 26.876865 65.786774 5050.265137
1.880000 6.080000 -5.880000 -22.423454 53.155888 3328.359619
1.880000 6.080000 -5.840000 -41.378605 12.644356 1872.068726
1.880000 6.080000 -5.800000 -24.528887 -20.060905 1004.106201
1.880000 6.120000 -6.200000 3.567273 15.505907 253.158585
1.880000 6.120000 -6.160000 -12.618105 0.707839 159.717606
1.880000 6.120000 -6.120000 -6.970356 -23.384995 595.443848
1.880000 6.120000 -6.080000 20.957590 -32.592995 1501.523926
1.880000 6.120000 -6.040000 49.035080 -11.792557 2543.503418
1.880000 6.120000 -6.000000 50.239014 28.140709 3315.857910
1.880000 6.120000 -5.960000 17.994080 56.975452 3569.989014
1.880000 6.120000 -5.920000 -25.795010 51.369576 3304.215820
1.880000 6.120000 -5.880000 -49.329727 16.059982 2691.344971
1.880000 6.120000 -5.840000 -38.841782 -20.867287 1944.127686
1.880000 6.120000 -5.800000 -8.957509 -33.899734 1229.428955
1.880000 6.160000 -6.200000 -8.446869 -0.871005 72.108246
1.880000 6.160000 -6.160000 -5.215044 -15.648022 272.057251
1.880000 6.160000 -6.120000 11.624010 -22.008690 619.500000
1.880000 6.160000 -6.080000 30.022968 -9.771692 996.864563
1.880000 6.160000 -6.040000 32.359344 16.784163 1328.835327
1.880000 6.160000 -6.000000 10.868675 38.871223 1629.100098
1.880000 6.160000 -5.960000 -22.942303 37.527023 1934.626709
1.880000 6.160000 -5.920000 -45.687508 10.612777 2199.979492
1.880000 6.160000 -5.880000 -41.318333 -23.925228 2279.621094
1.880000 6.160000 -5.840000 -14.670537 -42.748184 2042.631836
1.880000 6.160000 -5.800000 13.559440 -36.456898 1512.963745
1.880000 6.200000 -6.200000 -0.458270 -18.979612 360.435699
1.880000 6.200000 -6.160000 13.377409 -21.197857 628.304199
1.880000 6.200000 -6.120000 25.818123 -10.979458 787.123901
1.880000 6.200000 -6.080000 26.969296 7.770296 787.720398
1.880000 6.200000 -6.040000 12.290758 23.756012 715.410828
1.880000 6.200000 -6.000000 -12.160723 24.567209 751.430969
1.880000 6.200000 -5.960000 -31.568045 6.212126 1035.131958
1.880000 6.200000 -5.920000 -32.229362 -21.940174 1520.103027
1.880000 6.200000 -5.880000 -12.390984 -42.572067 1965.917358
1.880000 6.200000 -5.840000 15.606028 -43.046982 2096.590820
1.880000 6.200000 -5.800000 34.545685 -24.806801 1808.781738
1.920000 5.800000 -6.200000 48.546986 68.471268 7045.124023
1.920000 5.800000 -6.160000 15.678352 85.522110 7559.841797
1.920000 5.800000 -6.120000 -19.527313 74.922371 5994.677734
1.920000 5.800000 -6.080000 -34.882042 46.672947 3395.120850
1.920000 5.800000 -6.040000 -27.396637 23.769344 1315.557495
1.920000 5.800000 -6.000000 -13.925659 19.108067 559.042175
1.920000 5.800000 -5.960000 -11.595460 24.585117 738.882690
1.920000 5.800000 -5.920000 -19.992189 23.203613 938.095276
1.920000 5.800000 -5.880000 -24.180950 9.494024 674.854797
1.920000 5.800000 -5.840000 -13.731070 -4.771774 211.312103
1.920000 5.800000 -5.800000 4.537749 -5.059345 46.188141
1.920000 5.840000 -6.200000 -6.416979 72.849754 5348.264648
1.920000 5.840000 -6.160000 -25.889706 70.510979 5642.075195
1.920000 5.840000 -6.120000 -40.500771 61.750488 5453.435059
1.920000 5.840000 -6.080000 -50.920296 51.899071 5286.389648
1.920000 5.840000 -6.040000 -61.337616 40.695042 5418.389648
1.920000 5.840000 -6.000000 -70.962952 22.680599 5550.150391
1.920000 5.840000 -5.960000 -71.128441 -3.711731 5073.031738
1.920000 5.840000 -5.920000 -53.676044 -29.009666 3722.678467
1.920000 5.840000 -5.880000 -22.619152 -37.924355 1949.882812
1.920000 5.840000 -5.840000 4.963476 -23.842960 593.122864
1.920000 5.840000 -5.800000 12.419147 2.446092 160.218597
1.920000 5.880000 -6.200000 -44.762833 34.518887 3195.264648
1.920000 5.880000 -6.160000 -42.841824 34.939320 3056.177979
1.920000 5.880000 -6.120000 -52.581356 44.122620 4711.604492
1.920000 5.880000 -6.080000 -80.290482 43.836914 8368.236328
1.920000 5.880000 -6.040000 -111.005898 16.295219 12587.843750
1.920000 5.880000 -6.000000 -117.386017 -35.446018 15035.896484
1.920000 5.880000 -5.960000 -84.018677 -83.977783 14111.406250
1.920000 5.880000 -5.920000 -24.825142 -97.729156 10167.276367
1.920000 5.880000 -5.880000 24.914545 -68.220245 5274.736328
1.920000 5.880000 -5.840000 36.831375 -18.620859 1703.286621
1.920000 5.880000 -5.800000 12.527689 15.508742 397.464081
1.920000 5.920000 -6.200000 -39.400898 -16.072330 1810.750610
1.920000 5.920000 -6.160000 -31.099962 5.188293 994.126038
1.920000 5.920000 -6.120000 -57.896477 26.109549 4033.710449
1.920000 5.920000 -6.080000 -105.697647 10.153332 11275.082031
1.920000 5.920000 -6.040000 -131.167877 -51.247139 19831.281250
1.920000 5.920000 -6.000000 -99.625511 -123.540894 25187.593750
1.920000 5.920000 -5.960000 -19.967777 -154.688065 24327.109375
1.920000 5.920000 -5.920000 58.400848 -120.296112 17881.812500
1.920000 5.920000 -5.880000 86.202461 -45.946213 9541.918945
1.920000 5.920000 -5.840000 55.244957 15.013667 3277.415527
1.920000 5.920000 -5.800000 1.802893 27.180359 742.022339
1.920000 5.960000 -6.200000 0.029787 -39.761089 1580.945068
1.920000 5.960000 -6.160000 -8.821524 -1.441702 79.897789
1.920000 5.960000 -6.120000 -58.381058 8.088339 3473.769043
1.920000 5.960000 -6.080000 -104.275536 -40.181046 12487.904297
1.920000 5.960000 -6.040000 -93.064850 -122.265945 23610.027344
1.920000 5.960000 -6.000000 -14.046272 -175.593582 31030.402344
1.920000 5.960000 -5.960000 84.997993 -153.124146 30671.662109
1.920000 5.960000 -5.920000 136.399063 -66.810516 23068.349609
1.920000 5.960000 -5.880000 110.699867 21.947561 12736.156250
1.920000 5.960000 -5.840000 39.430622 56.028660 4693.984375
1.920000 5.960000 -5.800000 -17.308756 29.195013 1151.941895
1.920000 6.000000 -6.200000 37.024738 -23.185617 1908.404175
1.920000 6.000000 -6.160000 1.636045 9.736101 97.468307
1.920000 6.000000 -6.120000 -53.279713 -10.185438 2942.470947
1.920000 6.000000 -6.080000 -69.289871 -81.185036 11392.096680
1.920000 6.000000 -6.040000 -13.243506 -148.485596 22223.363281
1.920000 6.000000 -6.000000 85.859138 -149.777924 29805.216797
1.920000 6.000000 -5.960000 157.122986 -72.973083 30012.703125
1.920000 6.000000 -5.920000 149.038254 30.059643 23115.982422
1.920000 6.000000 -5.880000 74.034317 88.434891 13301.810547
1.920000 6.000000 -5.840000 -5.852535 73.109283 5379.219238
1.920000 6.000000 -5.800000 -36.335743 16.109537 1579.803467
1.920000 6.040000 -6.200000 42.231323 11.710316 1920.616089
1.920000 6.040000 -6.160000 -6.017225 18.804466 389.814941
1.920000 6.040000 -6.120000 -40.779217 -26.414925 2360.692871
1.920000 6.040000 -6.080000 -17.688541 -91.080322 8608.509766
1.920000 6.040000 -6.040000 59.690056 -114.930252 16771.865234
1.920000 6.040000 -6.000000 135.705002 -65.136215 22658.574219
1.920000 6.040000 -5.960000 149.185410 29.885757 23149.445312
1.920000 6.040000 -5.920000 88.205414 102.759056 18339.619141
1.920000 6.040000 -5.880000 0.255875 105.829208 11199.886719
1.920000 6.040000 -5.840000 -51.665192 50.283653 5197.737793
1.920000 6.040000 -5.800000 -43.550476 -10.216608 2001.022949
1.920000 6.080000 -6.200000 18.371803 31.077219 1303.316650
1.920000 6.080000 -6.160000 -18.598694 11.852432 486.391541
1.920000 6.080000 -6.120000 -21.472868 -35.964394 1754.521729
1.920000 6.080000 -6.080000 23.903315 -69.663963 5424.436523
1.920000 6.080000 -6.040000 86.944580 -50.335392 10093.011719
1.920000 6.080000 -6.000000 114.564720 18.235912 13457.624023
1.920000 6.080000 -5.960000 78.417023 87.995514 13892.439453
1.920000 6.080000 -5.920000 2.079990 107.188660 11493.735352
1.920000 6.080000 -5.880000 -59.193405 65.484131 7792.030273
1.920000 6.080000 -5.840000 -67.098434 0.543884 4502.495605
1.920000 6.080000 -5.800000 -30.390587 -38.863754 2433.979004
1.920000 6.120000 -6.200000 -6.754379 21.020515 487.483704
1.920000 6.120000 -6.160000 -18.739483 -6.351374 391.508148
1.920000 6.120000 -6.120000 0.120735 -35.062000 1229.358398
1.920000 6.120000 -6.080000 40.433071 -35.621902 2903.753174
1.920000 6.120000 -6.040000 68.870049 1.841167 4746.473633
1.920000 6.120000 -6.000000 55.852585 53.421848 5973.405273
1.920000 6.120000 -5.960000 4.193626 78.704086 6211.919434
1.920000 6.120000 -5.920000 -50.283680 55.879719 5650.991211
1.920000 6.120000 -5.880000 -68.886047 1.526775 4747.618652
1.920000 6.120000 -5.840000 -42.969048 -44.442902 3821.510498
1.920000 6.120000 -5.800000 1.567286 -53.999676 2918.421387
1.920000 6.160000 -6.200000 -9.569241 -2.992579 100.525894
1.920000 6.160000 -6.160000 -2.522590 -18.965488 366.053223
1.920000 6.160000 -6.120000 17.462046 -23.904686 876.357056
1.920000 6.160000 -6.080000 36.510460 -8.424549 1403.986694
1.920000 6.160000 -6.040000 35.853214 20.682449 1713.216675
1.920000 6.160000 -6.000000 9.166504 41.372791 1795.732666
1.920000 6.160000 -5.960000 -27.877731 33.552910 1902.965576
1.920000 6.160000 -5.920000 -47.870598 -1.973576 2295.489258
1.920000 6.160000 -5.880000 -34.519764 -41.791866 2938.174316
1.920000 6.160000 -5.840000 3.072337 -58.745453 3460.467529
1.920000 6.160000 -5.800000 38.619537 -44.275177 3451.759766
1.920000 6.200000 -6.200000 8.160410 -15.589993 309.640198
1.920000 6.200000 -6.160000 17.779762 -14.673595 531.434326
1.920000 6.200000 -6.120000 25.574562 -7.030423 703.485107
1.920000 6.200000 -6.080000 26.101740 6.035552 717.728760
1.920000 6.200000 -6.040000 14.969090 17.468124 529.208984
1.920000 6.200000 -6.000000 -4.439823 16.655926 297.131897
1.920000 6.200000 -5.960000 -19.159840 -1.383596 369.013794
1.920000 6.200000 -5.920000 -15.112697 -28.257133 1026.859131
1.920000 6.200000 -5.880000 10.049404 -45.656532 2185.509521
1.920000 6.200000 -5.840000 42.399273 -39.384201 3348.813477
1.920000 6.200000 -5.800000 61.526218 -11.607209 3920.202881
1.960000 5.800000 -6.200000 -8.428881 94.920624 9080.970703
1.960000 5.800000 -6.160000 -51.525436 84.802490 9846.333008
1.960000 5.800000 -6.120000 -76.005600 47.013527 7987.123047
1.960000 5.800000 -6.080000 -67.852257 7.100327 4654.343262
1.960000 5.800000 -6.040000 -40.628979 -10.097446 1752.672241
1.960000 5.800000 -6.000000 -20.624336 -3.407013 436.970978
1.960000 5.800000 -5.960000 -20.181999 6.924164 455.257141
1.960000 5.800000 -5.920000 -27.767097 3.088345 780.549561
1.960000 5.800000 -5.880000 -24.191643 -11.504671 717.593018
1.960000 5.800000 -5.840000 -5.633609 -18.463074 372.622650
1.960000 5.800000 -5.800000 12.400664 -7.095973 204.129303
1.960000 5.840000 -6.200000 -62.410347 57.069771 7152.010254
1.960000 5.840000 -6.160000 -77.076263 37.301029 7332.117188
1.960000 5.840000 -6.120000 -80.835808 16.548285 6808.273438
1.960000 5.840000 -6.080000 -79.296005 -0.052736 6287.859375
1.960000 5.840000 -6.040000 -77.478897 -15.760246 6251.364746
1.960000 5.840000 -6.000000 -71.916985 -35.903618 6461.122559
1.960000 5.840000 -5.960000 -53.835186 -57.249016 6175.676758
1.960000 5.840000 -5.920000 -21.591331 -66.608612 4902.892578
1.960000 5.840000 -5.880000 11.810368 -52.951759 2943.373779
1.960000 5.840000 -5.840000 26.958097 -21.284447 1179.766724
1.960000 5.840000 -5.800000 15.913338 7.880487 315.336395
1.960000 5.880000 -6.200000 -68.445457 -7.744902 4744.764160
1.960000 5.880000 -6.160000 -62.409241 -8.441523 3966.172607
1.960000 5.880000 -6.120000 -73.203835 -5.668636 5390.934570
1.960000 5.880000 -6.080000 -96.258125 -22.122618 9755.037109
1.960000 5.880000 -6.040000 -105.559036 -66.156876 15519.442383
1.960000 5.880000 -6.000000 -76.491333 -117.197151 19586.095703
1.960000 5.880000 -5.960000 -12.373428 -138.791367 19416.144531
1.960000 5.880000 -5.920000 52.319954 -110.255447 14893.641602
1.960000 5.880000 -5.880000 78.350189 -47.599670 8404.480469
1.960000 5.880000 -5.840000 54.807472 7.687113 3062.950928
1.960000 5.880000 -5.800000 7.898687 22.989073 590.886780
1.960000 5.920000 -6.200000 -24.657862 -50.890175 3197.819824
1.960000 5.920000 -6.160000 -26.438160 -24.367380 1292.745605
1.960000 5.920000 -6.120000 -63.578445 -19.301777 4414.777344
1.960000 5.920000 -6.080000 -98.712738 -63.799023 13814.520508
1.960000 5.920000 -6.040000 -82.945549 -138.615097 26094.109375
1.960000 5.920000 -6.000000 -4.335011 -186.808777 34916.312500
1.960000 5.920000 -5.960000 93.923820 -162.790131 35322.312500
1.960000 5.920000 -5.920000 146.788940 -75.509758 27248.714844
1.960000 5.920000 -5.880000 122.937271 16.598040 15389.067383
1.960000 5.920000 -5.840000 50.532505 55.371201 5619.503906
1.960000 5.920000 -5.800000 -10.442268 30.647804 1048.328857
1.960000 5.960000 -6.200000 30.799953 -43.555534 2845.721680
1.960000 5.960000 -6.160000 -0.612762 -10.032047 101.017456
1.960000 5.960000 -6.120000 -55.166313 -30.803787 3992.195312
1.960000 5.960000 -6.080000 -69.564499 -107.207870 16332.747070
1.960000 5.960000 -6.040000 -5.122851 -180.889801 32747.363281
1.960000 5.960000 -6.000000 108.658600 -181.785202 44852.550781
1.960000 5.960000 -5.960000 193.019196 -93.422585 45984.187500
1.960000 5.960000 -5.920000 187.416931 27.990593 35908.578125
1.960000 5.960000 -5.880000 102.264572 101.066513 20672.484375
1.960000 5.960000 -5.840000 6.993486 88.661842 7909.831055
1.960000 5.960000 -5.800000 -33.323040 23.926786 1682.916138
1.960000 6.000000 -6.200000 54.583584 -0.266169 2979.438477
1.960000 6.000000 -6.160000 -0.993589 10.968161 121.287766
1.960000 6.000000 -6.120000 -43.517738 -43.270695 3766.146484
1.960000 6.000000 -6.080000 -14.603574 -124.954033 15826.775391
1.960000 6.000000 -6.040000 85.400757 -157.460678 32087.154297
1.960000 6.000000 -6.000000 187.757751 -95.159393 44308.281250
1.960000 6.000000 -5.960000 212.055573 29.872860 45859.953125
1.960000 6.000000 -5.920000 137.790802 131.879654 36378.546875
1.960000 6.000000 -5.880000 22.181498 145.433655 21642.966797
1.960000 6.000000 -5.840000 -52.410385 79.159866 9013.132812
1.960000 6.000000 -5.800000 -49.519936 -0.028555 2452.224854
1.960000 6.040000 -6.200000 35.529198 37.792168 2690.571777
1.960000 6.040000 -6.160000 -17.178841 15.280842 528.616699
1.960000 6.040000 -6.120000 -24.621872 -52.276176 3339.035156
1.960000 6.040000 -6.080000 39.148014 -104.771729 12509.682617
1.960000 6.040000 -6.040000 134.490326 -82.100250 24828.099609
1.960000 6.040000 -6.000000 184.010971 16.660892 34137.625000
1.960000 6.040000 -5.960000 140.703125 125.501328 35547.953125
1.960000 6.040000 -5.920000 31.831064 166.692383 28799.566406
1.960000 6.040000 -5.880000 -64.692802 117.849411 18073.642578
1.960000 6.040000 -5.840000 -88.805084 27.264160 8629.676758
1.960000 6.040000 -5.800000 -45.715118 -34.558262 3284.145508
1.960000 6.080000 -6.200000 -0.247143 41.665581 1736.081665
1.960000 6.080000 -6.160000 -26.406189 0.437645 697.478333
1.960000 6.080000 -6.120000 -1.482832 -51.010212 2604.240479
1.960000 6.080000 -6.080000 65.829880 -60.661236 8013.358887
1.960000 6.080000 -6.040000 122.236374 -4.538010 14962.325195
1.960000 6.080000 -6.000000 113.801308 84.454086 20083.230469
1.960000 6.080000 -5.960000 36.380493 139.980316 20918.029297
1.960000 6.080000 -5.920000 -57.221981 119.379463 17525.810547
1.960000 6.080000 -5.880000 -102.329071 40.643356 12123.122070
1.960000 6.080000 -5.840000 -77.169067 -35.931774 7246.157227
1.960000 6.080000 -5.800000 -15.760685 -62.176613 4114.330566
1.960000 6.120000 -6.200000 -18.287813 17.661869 646.385742
1.960000 6.120000 -6.160000 -16.676453 -16.676231 556.200745
1.960000 6.120000 -6.120000 17.583195 -37.976471 1751.381104
1.960000 6.120000 -6.080000 61.360012 -19.486717 4144.783203
1.960000 6.120000 -6.040000 74.812424 34.174217 6764.775879
1.960000 6.120000 -6.000000 37.083176 84.029633 8436.140625
1.960000 6.120000 -5.960000 -30.629082 87.771370 8641.954102
1.960000 6.120000 -5.920000 -79.772049 37.693573 7784.384766
1.960000 6.120000 -5.880000 -75.449875 -31.171675 6664.356934
1.960000 6.120000 -5.840000 -25.333458 -71.431313 5744.216797
1.960000 6.120000 -5.800000 30.451557 -63.086914 4907.255859
1.960000 6.160000 -6.200000 -7.928978 -5.042675 88.297264
1.960000 6.160000 -6.160000 3.836411 -18.957687 374.111969
1.960000 6.160000 -6.120000 26.106476 -18.817661 1035.652466
1.960000 6.160000 -6.080000 42.304123 2.359756 1795.207275
1.960000 6.160000 -6.040000 33.981850 32.685051 2223.078613
1.960000 6.160000 -6.000000 0.260868 46.577068 2169.491455
1.960000 6.160000 -5.960000 -35.962780 26.642584 2003.148804
1.960000 6.160000 -5.920000 -44.817230 -17.954037 2330.931641
1.960000 6.160000 -5.880000 -15.568279 -56.209389 3401.866699
1.960000 6.160000 -5.840000 33.013657 -60.710892 4775.713867
1.960000 6.160000 -5.800000 68.624977 -30.146824 5618.218750
1.960000 6.200000 -6.200000 12.990059 -5.758916 201.906738
1.960000 6.200000 -6.160000 17.769108 -5.208895 342.873779
1.960000 6.200000 -6.120000 24.063675 -1.367889 580.931519
1.960000 6.200000 -6.080000 26.632236 8.632105 783.789246
1.960000 6.200000 -6.040000 18.458839 19.106865 705.801025
1.960000 6.200000 -6.000000 1.744202 18.003958 327.184723
1.960000 6.200000 -5.960000 -9.075642 -0.265617 82.437820
1.960000 6.200000 -5.920000 1.077440 -24.929358 622.633728
1.960000 6.200000 -5.880000 31.872158 -34.777138 2225.283691
1.960000 6.200000 -5.840000 64.234703 -16.518684 4398.963867
1.960000 6.200000 -5.800000 75.004883 22.103657 6114.304199
2.000000 5.800000 -6.200000 -65.831818 73.248566 9699.180664
2.000000 5.800000 -6.160000 -97.382980 35.873421 10770.347656
2.000000 5.800000 -6.120000 -94.415054 -14.826792 9134.036133
2.000000 5.800000 -6.080000 -59.538284 -46.884995 5743.009766
2.000000 5.800000 -6.040000 -20.292156 -45.014656 2438.090820
2.000000 5.800000 -6.000000 -2.656982 -23.215401 546.014404
2.000000 5.800000 -5.960000 -7.693565 -8.062847 124.200455
2.000000 5.800000 -5.920000 -15.107689 -11.254387 354.903503
2.000000 5.800000 -5.880000 -8.051777 -20.670784 492.112427
2.000000 5.800000 -5.840000 8.877644 -17.760668 394.253876
2.000000 5.800000 -5.800000 17.309862 -0.096642 299.640656
2.000000 5.840000 -6.200000 -88.643372 6.658653 7901.985352
2.000000 5.840000 -6.160000 -87.733490 -22.287760 8193.909180
2.000000 5.840000 -6.120000 -74.648659 -44.512806 7553.812500
2.000000 5.840000 -6.080000 -58.153580 -57.307686 6666.009766
2.000000 5.840000 -6.040000 -42.811867 -65.737259 6154.243164
2.000000 5.840000 -6.000000 -24.895367 -73.516563 6024.464355
2.000000 5.840000 -5.960000 0.309753 -75.529373 5704.781738
2.000000 5.840000 -5.920000 27.941444 -62.252182 4656.058594
2.000000 5.840000 -5.880000 43.438400 -32.676201 2954.628906
2.000000 5.840000 -5.840000 35.669701 -0.819849 1272.999634
2.000000 5.840000 -5.800000 10.293159 13.859429 298.032928
2.000000 5.880000 -6.200000 -52.922581 -52.955948 5605.131836
2.000000 5.880000 -6.160000 -43.811359 -51.328548 4554.055176
2.000000 5.880000 -6.120000 -50.584770 -54.333332 5510.930176
2.000000 5.880000 -6.080000 -57.553440 -78.674622 9502.094727
2.000000 5.880000 -6.040000 -38.879269 -117.184753 15243.864258
2.000000 5.880000 -6.000000 13.916328 -139.497284 19653.156250
2.000000 5.880000 -5.960000 77.293884 -118.138710 19931.099609
2.000000 5.880000 -5.920000 111.430832 -56.624695 15623.185547
2.000000 5.880000 -5.880000 94.254486 8.827824 8961.838867
2.000000 5.880000 -5.840000 42.015068 38.164234 3221.774902
2.000000 5.880000 -5.800000 -4.118525 21.027409 459.114166
2.000000 5.920000 -6.200000 12.016867 -62.631050 4067.053467
2.000000 5.920000 -6.160000 -1.946880 -39.630737 1574.385620
2.000000 5.920000 -6.120000 -35.177212 -54.068653 4160.855469
2.000000 5.920000 -6.080000 -39.763695 -109.710541 13617.553711
2.000000 5.920000 -6.040000 15.604858 -162.698547 26714.328125
2.000000 5.920000 -6.000000 108.890968 -157.568970 36685.222656
2.000000 5.920000 -5.960000 177.140961 -80.264389 37821.292969
2.000000 5.920000 -5.920000 170.272552 23.836777 29560.933594
2.000000 5.920000 -5.880000 96.024200 86.733971 16743.429688
2.000000 5.920000 -5.840000 12.842300 75.814629 5912.782715
2.000000 5.920000 -5.800000 -22.218655 18.496336 835.783081
2.000000 5.960000 -6.200000 55.566032 -21.846699 3564.862305
2.000000 5.960000 -6.160000 10.154648 -8.728939 179.311249
2.000000 5.960000 -6.120000 -25.930866 -55.952766 3803.122070
2.000000 5.960000 -6.080000 3.750643 -129.686981 16832.779297
2.000000 5.960000 -6.040000 100.646126 -157.156555 34827.828125
2.000000 5.960000 -6.000000 199.591583 -93.555885 48589.503906
2.000000 5.960000 -5.960000 222.417892 31.003979 50430.964844
2.000000 5.960000 -5.920000 148.247894 132.995880 39665.343750
2.000000 5.960000 -5.880000 32.776817 147.384445 22796.494141
2.000000 5.960000 -5.840000 -42.022934 81.826874 8461.564453
2.000000 5.960000 -5.800000 -38.648170 3.065075 1503.075684
2.000000 6.000000 -6.200000 50.192356 30.199060 3431.255859
2.000000 6.000000 -6.160000 -4.952759 10.052483 125.582230
2.000000 6.000000 -6.120000 -12.879480 -60.958389 3881.806396
2.000000 6.000000 -6.080000 57.543663 -117.184021 17043.367188
2.000000 6.000000 -6.040000 164.002777 -90.715157 35126.148438
2.000000 6.000000 -6.000000 220.280518 21.216335 48973.640625
2.000000 6.000000 -5.960000 172.569763 145.730408 51017.671875
2.000000 6.000000 -5.920000 50.044273 195.234009 40620.746094
2.000000 6.000000 -5.880000 -60.169521 143.246521 24139.937500
2.000000 6.000000 -5.840000 -89.638115 43.152069 9897.092773
2.000000 6.000000 -5.800000 -43.143002 -25.263666 2499.571289
2.000000 6.040000 -6.200000 11.790514 52.329369 2877.378906
2.000000 6.040000 -6.160000 -22.652414 4.139063 530.263733
2.000000 6.040000 -6.120000 7.143560 -60.067535 3659.139404
2.000000 6.040000 -6.080000 92.603500 -72.783875 13872.900391
2.000000 6.040000 -6.040000 166.258804 -1.118233 27643.240234
2.000000 6.040000 -6.000000 158.006134 114.624496 38104.710938
2.000000 6.040000 -5.960000 60.562279 189.983521 39761.527344
2.000000 6.040000 -5.920000 -60.233578 169.284058 32285.175781
2.000000 6.040000 -5.880000 -122.151176 73.527122 20327.148438
2.000000 6.040000 -5.840000 -96.355118 -21.963768 9766.715820
2.000000 6.040000 -5.800000 -24.541378 -56.163528 3756.621338
2.000000 6.080000 -6.200000 -20.755388 36.461792 1760.248413
2.000000 6.080000 -6.160000 -22.670340 -13.376438 692.873352
2.000000 6.080000 -6.120000 26.151766 -46.683025 2863.219727
2.000000 6.080000 -6.080000 92.030090 -20.940477 8908.041016
2.000000 6.080000 -6.040000 114.762421 58.902996 16639.976562
2.000000 6.080000 -6.000000 61.817520 135.958862 22306.218750
2.000000 6.080000 -5.960000 -37.428596 147.668518 23206.892578
2.000000 6.080000 -5.920000 -113.442902 81.290329 19477.410156
2.000000 6.080000 -5.880000 -115.794861 -14.694080 13624.366211
2.000000 6.080000 -5.840000 -54.002609 -74.174438 8418.128906
2.000000 6.080000 -5.800000 17.302240 -69.247490 5094.582520
2.000000 6.120000 -6.200000 -23.439962 8.075311 614.642456
2.000000 6.120000 -6.160000 -6.516417 -21.437632 502.035736
2.000000 6.120000 -6.120000 33.935997 -25.064163 1779.864136
2.000000 6.120000 -6.080000 65.329552 11.553925 4401.443359
2.000000 6.120000 -6.040000 53.234192 66.653046 7276.507812
2.000000 6.120000 -6.000000 -4.197342 95.110283 9063.583984
2.000000 6.120000 -5.960000 -68.465164 67.264252 9211.958008
2.000000 6.120000 -5.920000 -90.995682 -2.362732 8285.795898
2.000000 6.120000 -5.880000 -54.745056 -65.534782 7291.829102
2.000000 6.120000 -5.840000 12.248941 -81.117455 6730.078125
2.000000 6.120000 -5.800000 63.490036 -47.558563 6292.801758
2.000000 6.160000 -6.200000 -5.007070 -3.728817 38.974823
2.000000 6.160000 -6.160000 8.823296 -12.512690 234.417938
2.000000 6.160000 -6.120000 28.727705 -6.013577 861.444092
2.000000 6.160000 -6.080000 36.973202 18.060816 1693.210693
2.000000 6.160000 -6.040000 19.594501 42.758690 2212.250000
2.000000 6.160000 -6.000000 -15.769707 43.422447 2134.192627
2.000000 6.160000 -5.960000 -41.169407 11.480186 1826.714722
2.000000 6.160000 -5.920000 -31.327106 -33.411671 2097.727295
2.000000 6.160000 -5.880000 12.530293 -57.381084 3449.597168
2.000000 6.160000 -5.840000 61.832043 -40.912670 5497.047852
2.000000 6.160000 -5.800000 84.483368 5.068596 7163.129883
2.000000 6.200000 -6.200000 8.882711 6.257324 118.056671
2.000000 6.200000 -6.160000 10.471032 3.224212 120.038055
2.000000 6.200000 -6.120000 17.771500 3.786816 330.166168
2.000000 6.200000 -6.080000 22.451345 12.885754 670.105591
2.000000 6.200000 -6.040000 15.646418 23.030199 775.200439
2.000000 6.200000 -6.000000 1.365719 20.753426 432.569855
2.000000 6.200000 -5.960000 -3.847352 2.971497 23.631908
2.000000 6.200000 -5.920000 12.810501 -15.319729 398.803040
2.000000 6.200000 -5.880000 44.646465 -12.682369 2154.149414
2.000000 6.200000 -5.840000 68.005341 17.979967 4948.005859
2.000000 6.200000 -5.800000 62.266777 60.691860 7560.653320
2.040000 5.800000 -6.200000 -88.891800 22.153797 8392.542969
2.040000 5.800000 -6.160000 -94.216095 -26.888010 9599.637695
2.040000 5.800000 -6.120000 -62.784016 -68.554581 8641.562500
2.040000 5.800000 -6.080000 -13.344826 -76.696716 6060.470703
2.040000 5.800000 -6.040000 22.217152 -51.694843 3165.958740
2.040000 5.800000 -6.000000 27.279396 -18.598818 1090.081543
2.040000 5.800000 -5.960000 12.735207 -2.183621 166.953690
2.040000 5.800000 -5.920000 1.866211 -5.093800 29.429539
2.040000 5.800000 -5.880000 5.545642 -10.691101 145.053787
2.040000 5.800000 -5.840000 14.164391 -4.848904 224.141830
2.040000 5.800000 -5.800000 12.732670 8.527966 234.847076
2.040000 5.840000 -6.200000 -72.147430 -42.407272 7003.628906
2.040000 5.840000 -6.160000 -54.348930 -67.686836 7535.313965
2.040000 5.840000 -6.120000 -27.746101 -79.647675 7113.598145
2.040000 5.840000 -6.080000 -2.538597 -78.441284 6159.479492
2.040000 5.840000 -6.040000 16.777660 -70.383949 5235.390137
2.040000 5.840000 -6.000000 32.363495 -59.488277 4586.250977
2.040000 5.840000 -5.960000 45.804745 -43.720421 4009.549805
2.040000 5.840000 -5.920000 52.244061 -20.795059 3161.876465
2.040000 5.840000 -5.880000 44.363670 3.709057 1981.892334
2.040000 5.840000 -5.840000 22.822184 17.175228 815.840515
2.040000 5.840000 -5.800000 0.524357 11.315170 128.308029
2.040000 5.880000 -6.200000 -12.878512 -70.515114 5138.237305
2.040000 5.880000 -6.160000 -3.319988 -65.724319 4330.708496
2.040000 5.880000 -6.120000 -2.769978 -69.807098 4880.703613
2.040000 5.880000 -6.080000 6.828669 -87.307892 7669.298828
2.040000 5.880000 -6.040000 39.492424 -101.454018 11852.569336
2.040000 5.880000 -6.000000 86.136032 -87.816566 15131.166016
2.040000 5.880000 -5.960000 117.110840 -39.781979 15297.554688
2.040000 5.880000 -5.920000 107.287514 19.666725 11897.390625
2.040000 5.880000 -5.880000 60.776104 54.173576 6628.511230
2.040000 5.880000 -5.840000 10.344004 44.982925 2130.461914
2.040000 5.880000 -5.800000 -9.747606 7.556290 152.113342
2.040000 5.920000 -6.200000 42.919579 -44.276367 3802.486816
2.040000 5.920000 -6.160000 22.913616 -32.604355 1588.077759
2.040000 5.920000 -6.120000 6.009406 -57.678875 3362.965576
2.040000 5.920000 -6.080000 29.691235 -99.348190 10751.631836
2.040000 5.920000 -6.040000 95.832359 -109.917297 21265.652344
2.040000 5.920000 -6.000000 160.803787 -59.332176 29378.164062
2.040000 5.920000 -5.960000 171.215088 31.237465 30290.384766
2.040000 5.920000 -5.920000 113.282211 102.960403 23433.703125
2.040000 5.920000 -5.880000 27.766932 109.818604 12831.128906
2.040000 5.920000 -5.840000 -25.208200 58.428974 4049.398438
2.040000 5.920000 -5.800000 -18.134861 -0.534750 329.159119
2.040000 5.960000 -6.200000 55.938793 9.736523 3223.948486
2.040000 5.960000 -6.160000 14.977175 -1.356148 226.154907
2.040000 5.960000 -6.120000 9.997681 -54.173714 3034.744873
2.040000 5.960000 -6.080000 67.945969 -95.578171 13751.841797
2.040000 5.960000 -6.040000 154.610626 -69.195541 28692.468750
2.040000 5.960000 -6.000000 198.348557 27.343992 40089.843750
2.040000 5.960000 -5.960000 154.403687 132.598419 41422.835938
2.040000 5.960000 -5.920000 48.361488 172.637024 32142.376953
2.040000 5.960000 -5.880000 -44.839176 125.961624 17876.882812
2.040000 5.960000 -5.840000 -66.819901 39.937454 6059.899414
2.040000 5.960000 -5.800000 -23.355667 -15.438976 783.849182
2.040000 6.000000 -6.200000 26.004869 47.241566 2908.018799
2.040000 6.000000 -6.160000 -7.013952 5.396137 78.313828
2.040000 6.000000 -6.120000 20.793705 -53.363724 3280.065186
2.040000 6.000000 -6.080000 102.329201 -63.218403 14467.832031
2.040000 6.000000 -6.040000 172.229736 8.362797 29733.017578
2.040000 6.000000 -6.000000 162.182312 122.138962 41221.027344
2.040000 6.000000 -5.960000 65.519699 195.596893 42550.976562
2.040000 6.000000 -5.920000 -52.745388 174.900513 33372.265625
2.040000 6.000000 -5.880000 -112.228485 81.877304 19299.125000
2.040000 6.000000 -5.840000 -86.039627 -8.667873 7477.949219
2.040000 6.000000 -5.800000 -17.191040 -37.329685 1689.037231
2.040000 6.040000 -6.200000 -13.507347 45.919022 2291.005127
2.040000 6.040000 -6.160000 -17.453314 -7.464088 360.330780
2.040000 6.040000 -6.120000 36.000141 -43.412334 3180.640869
2.040000 6.040000 -6.080000 108.877769 -13.146151 12027.190430
2.040000 6.040000 -6.040000 133.031296 77.684464 23732.203125
2.040000 6.040000 -6.000000 72.291473 164.751221 32369.021484
2.040000 6.040000 -5.960000 -39.575516 178.341400 33371.875000
2.040000 6.040000 -5.920000 -124.808067 105.525909 26712.771484
2.040000 6.040000 -5.880000 -128.629730 1.298886 16547.294922
2.040000 6.040000 -5.840000 -63.657959 -61.656445 7853.852539
2.040000 6.040000 -5.800000 8.759674 -54.950970 3096.341064
2.040000 6.080000 -6.200000 -30.192982 20.105885 1315.862793
2.040000 6.080000 -6.160000 -9.502401 -18.855112 445.810883
2.040000 6.080000 -6.120000 43.212082 -22.710203 2383.037354
2.040000 6.080000 -6.080000 82.979843 27.048388 7617.269531
2.040000 6.080000 -6.040000 64.726929 99.922928 14174.166992
2.040000 6.080000 -6.000000 -11.873100 136.636749 18810.572266
2.040000 6.080000 -5.960000 -95.732727 100.850464 19335.570312
2.040000 6.080000 -5.920000 -126.065369 13.456959 16073.567383
2.040000 6.080000 -5.880000 -84.354416 -64.596268 11288.345703
2.040000 6.080000 -5.840000 -7.430932 -84.871704 7258.424805
2.040000 6.080000 -5.800000 48.873772 -49.096939 4799.155273
2.040000 6.120000 -6.200000 -20.416353 0.124249 416.842926
2.040000 6.120000 -6.160000 3.432482 -15.539772 253.266449
2.040000 6.120000 -6.120000 35.491631 -2.466627 1265.740112
2.040000 6.120000 -6.080000 44.719528 38.111076 3452.290283
2.040000 6.120000 -6.040000 12.639446 75.490219 5858.528320
2.040000 6.120000 -6.000000 -44.020500 73.273407 7306.796875
2.040000 6.120000 -5.960000 -82.557350 23.616901 7373.474609
2.040000 6.120000 -5.920000 -70.102028 -41.894974 6669.483398
2.040000 6.120000 -5.880000 -12.787323 -77.420105 6157.388184
2.040000 6.120000 -5.840000 49.828121 -61.095287 6215.475586
2.040000 6.120000 -5.800000 79.199387 -10.445065 6381.642578
2.040000 6.160000 -6.200000 -5.327375 0.996855 29.374647
2.040000 6.160000 -6.160000 6.141687 -3.177795 47.818710
2.040000 6.160000 -6.120000 19.543850 5.878656 416.520660
2.040000 6.160000 -6.080000 19.434153 25.776985 1042.139160
2.040000 6.160000 -6.040000 -0.823711 38.624687 1492.544922
2.040000 6.160000 -6.000000 -27.236118 26.761688 1457.994141
2.040000 6.160000 -5.960000 -34.155838 -7.322136 1220.234863
2.040000 6.160000 -5.920000 -7.903038 -38.571217 1550.196777
2.040000 6.160000 -5.880000 38.107563 -39.510765 3013.287109
2.040000 6.160000 -5.840000 72.828323 -4.508330 5324.290039
2.040000 6.160000 -5.800000 73.292610 45.294289 7423.378906
2.040000 6.200000 -6.200000 -4.266526 12.159632 166.059891
2.040000 6.200000 -6.160000 -2.247886 4.026521 21.265860
2.040000 6.200000 -6.120000 7.894913 2.674770 69.484047
2.040000 6.200000 -6.080000 14.417743 11.760559 346.182068
2.040000 6.200000 -6.040000 9.232794 21.166630 533.270691
2.040000 6.200000 -6.000000 -0.784390 18.536667 344.223297
2.040000 6.200000 -5.960000 0.232285 5.233711 27.445690
2.040000 6.200000 -5.920000 19.098759 -1.896359 368.358765
2.040000 6.200000 -5.880000 43.123837 13.389194 2038.935791
2.040000 6.200000 -5.840000 49.600609 48.946735 4856.003418
2.040000 6.200000 -5.800000 26.602846 83.621284 7700.230469
2.080000 5.800000 -6.200000 -72.097878 -22.428885 5701.158691
2.080000 5.800000 -6.160000 -52.444714 -62.821991 6697.050781
2.080000 5.800000 -6.120000 -7.273378 -80.289757 6499.346680
2.080000 5.800000 -6.080000 37.118134 -62.308159 5260.062500
2.080000 5.800000 -6.040000 54.977642 -22.645775 3535.372070
2.080000 5.800000 -6.000000 42.443344 11.151697 1925.797852
2.080000 5.800000 -5.960000 17.883739 21.848396 797.180542
2.080000 5.800000 -5.920000 2.400370 14.423634 213.802979
2.080000 5.800000 -5.880000 1.327133 5.852169 36.009167
2.080000 5.800000 -5.840000 4.485819 5.871427 54.596222
2.080000 5.800000 -5.800000 1.804052 9.526649 94.011650
2.080000 5.840000 -6.200000 -32.814125 -61.142696 4815.196289
2.080000 5.840000 -6.160000 -5.821501 -73.615593 5453.145020
2.080000 5.840000 -6.120000 23.755655 -69.585419 5406.461426
2.080000 5.840000 -6.080000 45.371506 -52.121387 4775.212402
2.080000 5.840000 -6.040000 54.707134 -29.637283 3871.239258
2.080000 5.840000 -6.000000 53.908009 -8.853180 2984.452393
2.080000 5.840000 -5.960000 46.393036 7.964809 2215.751953
2.080000 5.840000 -5.920000 33.428688 19.783180 1508.851318
2.080000 5.840000 -5.880000 16.514996 23.473671 823.758301
2.080000 5.840000 -5.840000 1.407127 16.106018 261.383820
2.080000 5.840000 -5.800000 -3.322391 0.829296 11.726014
2.080000 5.880000 -6.200000 20.590363 -55.791340 3536.636719
2.080000 5.880000 -6.160000 29.083326 -48.917660 3238.777344
2.080000 5.880000 -6.120000 35.350563 -48.164841 3569.514160
2.080000 5.880000 -6.080000 50.136375 -49.633018 4977.092773
2.080000 5.880000 -6.040000 73.983551 -39.496574 7033.545410
2.080000 5.880000 -6.000000 91.947067 -9.099770 8537.068359
2.080000 5.880000 -5.960000 85.508720 31.829540 8324.861328
2.080000 5.880000 -5.920000 51.725365 59.291828 6191.034180
2.080000 5.880000 -5.880000 10.149883 55.160854 3145.739990
2.080000 5.880000 -5.840000 -11.547105 24.838095 750.266602
2.080000 5.880000 -5.800000 -1.292631 -5.590596 32.925663
2.080000 5.920000 -6.200000 48.263893 -14.439446 2537.900879
2.080000 5.920000 -6.160000 32.407402 -13.996504 1246.141846
2.080000 5.920000 -6.120000 32.811722 -34.780121 2286.266113
2.080000 5.920000 -6.080000 64.567169 -49.208736 6590.418945
2.080000 5.920000 -6.040000 109.197601 -27.016182 12653.990234
2.080000 5.920000 -6.000000 127.090149 32.049706 17179.089844
2.080000 5.920000 -5.960000 94.228333 91.973991 17338.193359
2.080000 5.920000 -5.920000 27.801067 110.178802 12912.267578
2.080000 5.920000 -5.880000 -26.209845 76.205322 6494.207031
2.080000 5.920000 -5.840000 -33.162033 21.713760 1571.207886
2.080000 5.920000 -5.800000 0.550674 -8.355980 70.125648
2.080000 5.960000 -6.200000 35.321625 27.560081 2007.175293
2.080000 5.960000 -6.160000 13.549622 4.060366 200.078812
2.080000 5.960000 -6.120000 32.017967 -31.856695 2039.999268
2.080000 5.960000 -6.080000 86.664627 -34.642746 8710.877930
2.080000 5.960000 -6.040000 132.072540 18.425756 17782.664062
2.080000 5.960000 -6.000000 120.542221 99.259766 24382.927734
2.080000 5.960000 -5.960000 48.546791 149.104126 24588.832031
2.080000 5.960000 -5.920000 -35.984810 130.578690 18345.701172
2.080000 5.960000 -5.880000 -74.984756 61.795322 9441.375977
2.080000 5.960000 -5.840000 -51.020168 -0.854692 2603.788086
2.080000 5.960000 -5.800000 0.928324 -14.088039 199.334641
2.080000 6.000000 -6.200000 1.066219 40.946045 1677.715454
2.080000 6.000000 -6.160000 -3.342712 0.105762 11.184912
2.080000 6.000000 -6.120000 39.224354 -27.329809 2285.468262
2.080000 6.000000 -6.080000 97.660797 -0.536333 9537.918945
2.080000 6.000000 -6.040000 115.336334 75.778137 19044.796875
2.080000 6.000000 -6.000000 62.602547 147.757446 25751.341797
2.080000 6.000000 -5.960000 -31.372952 157.619995 25828.324219
2.080000 6.000000 -5.920000 -101.120743 96.099274 19460.474609
2.080000 6.000000 -5.880000 -102.037315 11.027226 10533.212891
2.080000 6.000000 -5.840000 -47.488491 -36.433716 3582.572266
2.080000 6.000000 -5.800000 8.550428 -24.864017 691.329163
2.080000 6.040000 -6.200000 -23.527895 26.086914 1234.088867
2.080000 6.040000 -6.160000 -4.774498 -10.222321 127.291664
2.080000 6.040000 -6.120000 45.045906 -12.528317 2186.092285
2.080000 6.040000 -6.080000 81.686325 36.932816 8036.688477
2.080000 6.040000 -6.040000 61.724045 107.693024 15407.644531
2.080000 6.040000 -6.000000 -13.822798 142.273880 20432.927734
2.080000 6.040000 -5.960000 -94.634415 107.049767 20415.324219
2.080000 6.040000 -5.920000 -123.072060 24.170135 15730.926758
2.080000 6.040000 -5.880000 -84.039085 -47.354008 9304.969727
2.080000 6.040000 -5.840000 -15.204345 -63.391304 4249.629395
2.080000 6.040000 -5.800000 30.426983 -29.464176 1793.938965
2.080000 6.080000 -6.200000 -25.050661 5.863723 661.918884
2.080000 6.080000 -6.160000 2.373552 -11.304812 133.432526
2.080000 6.080000 -6.120000 37.838848 5.981769 1467.560059
2.080000 6.080000 -6.080000 44.872883 53.670921 4894.143555
2.080000 6.080000 -6.040000 4.738808 94.789200 9007.448242
2.080000 6.080000 -6.000000 -60.587677 89.505821 11682.158203
2.080000 6.080000 -5.960000 -102.948715 32.640488 11663.838867
2.080000 6.080000 -5.920000 -89.110199 -38.556358 9427.220703
2.080000 6.080000 -5.880000 -29.685804 -75.542076 6587.852539
2.080000 6.080000 -5.840000 31.691872 -59.231113 4512.699219
2.080000 6.080000 -5.800000 57.377571 -12.008459 3436.388672
2.080000 6.120000 -6.200000 -14.956083 -0.761630 224.264511
2.080000 6.120000 -6.160000 3.737754 -3.653881 27.321648
2.080000 6.120000 -6.120000 19.264765 13.892921 564.144409
2.080000 6.120000 -6.080000 11.669531 41.701233 1875.170776
2.080000 6.120000 -6.040000 -21.336205 53.661942 3334.837646
2.080000 6.120000 -6.000000 -56.473324 31.278336 4167.570801
2.080000 6.120000 -5.960000 -62.488956 -15.912067 4158.063477
2.080000 6.120000 -5.920000 -28.324167 -54.971432 3824.116699
2.080000 6.120000 -5.880000 25.473124 -56.763916 3871.021973
2.080000 6.120000 -5.840000 63.764481 -20.317011 4478.689941
2.080000 6.120000 -5.800000 65.854095 28.486198 5148.225098
2.080000 6.160000 -6.200000 -11.534178 4.231940 150.946579
2.080000 6.160000 -6.160000 -4.436303 0.501377 19.932159
2.080000 6.160000 -6.120000 3.547279 6.151771 50.427471
2.080000 6.160000 -6.080000 1.408501 17.158754 296.406738
2.080000 6.160000 -6.040000 -11.914860 19.767429 532.715149
2.080000 6.160000 -6.000000 -22.654037 5.428169 542.670471
2.080000 6.160000 -5.960000 -14.232527 -17.043707 493.052765
2.080000 6.160000 -5.920000 15.001633 -26.462708 925.323853
2.080000 6.160000 -5.880000 46.934959 -8.227058 2270.574951
2.080000 6.160000 -5.840000 57.940659 31.296726 4336.604980
2.080000 6.160000 -5.800000 38.704166 69.353355 6307.900391
2.080000 6.200000 -6.200000 -18.872021 5.631483 387.866760
2.080000 6.200000 -6.160000 -12.314648 -6.026680 187.971420
2.080000 6.200000 -6.120000 1.780573 -6.918212 51.032097
2.080000 6.200000 -6.080000 10.347441 3.269119 117.756668
2.080000 6.200000 -6.040000 7.851343 13.286131 238.164856
2.080000 6.200000 -6.000000 2.342815 13.927507 199.464249
2.080000 6.200000 -5.960000 5.654598 9.446939 121.219124
2.080000 6.200000 -5.920000 18.525709 13.625607 528.859070
2.080000 6.200000 -5.880000 27.353191 34.213703 1918.774658
2.080000 6.200000 -5.840000 16.812147 62.526512 4192.212891
2.080000 6.200000 -5.800000 -14.618759 79.540009 6540.320801
2.120000 5.800000 -6.200000 -37.939125 -37.623337 2854.892578
2.120000 5.800000 -6.160000 -7.756218 -57.444084 3359.981689
2.120000 5.800000 -6.120000 31.557880 -51.119999 3609.154297
2.120000 5.800000 -6.080000 56.732639 -19.042202 3581.197754
2.120000 5.800000 -6.040000 53.367725 19.816204 3240.795898
2.120000 5.800000 -6.000000 27.265278 42.970531 2589.861816
2.120000 5.800000 -5.960000 -1.815890 41.794765 1750.099854
2.120000 5.800000 -5.920000 -17.284126 25.504942 949.243103
2.120000 5.800000 -5.880000 -17.182245 9.725607 389.816986
2.120000 5.800000 -5.840000 -10.708811 2.486782 120.862709
2.120000 5.800000 -5.800000 -6.082868 0.893525 37.799664
2.120000 5.840000 -6.200000 -1.622534 -49.123657 2415.766357
2.120000 5.840000 -6.160000 23.796265 -47.956627 2866.100342
2.120000 5.840000 -6.120000 45.384018 -31.440210 3048.195801
2.120000 5.840000 -6.080000 53.590172 -5.595612 2903.217285
2.120000 5.840000 -6.040000 46.060768 18.774696 2474.083740
2.120000 5.840000 -6.000000 28.144476 32.982395 1879.949951
2.120000 5.840000 -5.960000 8.345419 34.463120 1257.352661
2.120000 5.840000 -5.920000 -6.430555 25.874786 710.856628
2.120000 5.840000 -5.880000 -12.495609 12.131781 303.320374
2.120000 5.840000 -5.840000 -8.855660 -1.259329 80.008629
2.120000 5.840000 -5.800000 2.708865 -8.628704 81.792488
2.120000 5.880000 -6.200000 28.828434 -29.698862 1713.101074
2.120000 5.880000 -6.160000 36.109238 -21.661581 1773.101196
2.120000 5.880000 -6.120000 42.285240 -13.706472 1975.908936
2.120000 5.880000 -6.080000 48.887436 -2.807076 2397.861084
2.120000 5.880000 -6.040000 51.770317 14.316460 2885.126709
2.120000 5.880000 -6.000000 43.645672 34.442299 3091.216797
2.120000 5.880000 -5.960000 22.560310 46.947830 2713.066406
2.120000 5.880000 -5.920000 -2.316595 42.024387 1771.415649
2.120000 5.880000 -5.880000 -15.422100 21.259663 689.814453
2.120000 5.880000 -5.840000 -7.699512 -0.564450 59.601097
2.120000 5.880000 -5.800000 14.094629 -6.223846 237.394836
2.120000 5.920000 -6.200000 33.101025 2.365057 1101.271362
2.120000 5.920000 -6.160000 27.154181 -0.433683 737.537659
2.120000 5.920000 -6.120000 34.489746 -7.667916 1248.339600
2.120000 5.920000 -6.080000 53.617134 -2.118792 2879.286377
2.120000 5.920000 -6.040000 66.330780 24.335131 4991.971191
2.120000 5.920000 -6.000000 53.953117 58.661228 6352.078613
2.120000 5.920000 -5.960000 17.455750 75.465683 5999.772461
2.120000 5.920000 -5.920000 -19.713484 60.329350 4028.251709
2.120000 5.920000 -5.880000 -31.167873 25.126743 1602.789551
2.120000 5.920000 -5.840000 -11.800857 -1.021933 140.304565
2.120000 5.920000 -5.800000 17.106562 2.325973 298.044617
2.120000 5.960000 -6.200000 14.847812 22.498520 726.640930
2.120000 5.960000 -6.160000 12.168663 4.636859 169.576813
2.120000 5.960000 -6.120000 33.422852 -6.795928 1163.271729
2.120000 5.960000 -6.080000 62.519997 10.133650 4011.440918
2.120000 5.960000 -6.040000 68.945312 52.887318 7550.524414
2.120000 5.960000 -6.000000 36.862984 91.671196 9762.488281
2.120000 5.960000 -5.960000 -16.514658 94.621979 9226.053711
2.120000 5.960000 -5.920000 -53.625004 57.982803 6237.646484
2.120000 5.960000 -5.880000 -49.966988 11.079262 2619.449951
2.120000 5.960000 -5.840000 -16.108700 -9.945570 358.404572
2.120000 5.960000 -5.800000 13.253569 5.438744 205.237030
2.120000 6.000000 -6.200000 -6.168409 21.837723 514.935425
2.120000 6.000000 -6.160000 5.051870 0.321767 25.624929
2.120000 6.000000 -6.120000 36.319550 0.245899 1319.170166
2.120000 6.000000 -6.080000 59.037571 33.726166 4622.889160
2.120000 6.000000 -6.040000 44.471924 81.013069 8540.869141
2.120000 6.000000 -6.000000 -6.759130 103.986282 10858.832031
2.120000 6.000000 -5.960000 -60.841438 80.416458 10168.487305
2.120000 6.000000 -5.920000 -79.196655 25.942335 6945.115234
2.120000 6.000000 -5.880000 -52.842728 -18.926971 3150.583984
2.120000 6.000000 -5.840000 -9.316696 -25.008991 712.250488
2.120000 6.000000 -5.800000 14.211399 1.152554 203.292252
2.120000 6.040000 -6.200000 -15.170541 10.785711 346.476868
2.120000 6.040000 -6.160000 5.172490 -1.065743 27.890463
2.120000 6.040000 -6.120000 31.464931 13.518688 1172.796875
2.120000 6.040000 -6.080000 35.420963 51.357933 3892.281738
2.120000 6.040000 -6.040000 2.674875 83.584320 6993.493164
2.120000 6.040000 -6.000000 -49.277538 79.383636 8730.037109
2.120000 6.040000 -5.960000 -82.859512 35.414436 8119.880859
2.120000 6.040000 -5.920000 -73.011658 -18.657898 5678.819336
2.120000 6.040000 -5.880000 -29.492651 -45.443966 2934.970459
2.120000 6.040000 -5.840000 12.871772 -32.090797 1195.501831
2.120000 6.040000 -5.800000 26.070795 1.368637 681.559509
2.120000 6.080000 -6.200000 -14.181921 3.660662 214.527328
2.120000 6.080000 -6.160000 2.605838 2.784477 14.543701
2.120000 6.080000 -6.120000 14.752815 20.678688 645.253723
2.120000 6.080000 -6.080000 4.553125 46.287968 2163.306885
2.120000 6.080000 -6.040000 -28.113430 55.398888 3859.401855
2.120000 6.080000 -6.000000 -60.705666 32.844273 4763.923828
2.120000 6.080000 -5.960000 -65.774719 -10.622581 4439.152832
2.120000 6.080000 -5.920000 -35.843117 -45.040764 3313.399414
2.120000 6.080000 -5.880000 8.988856 -46.582718 2250.749268
2.120000 6.080000 -5.840000 38.563927 -17.472237 1792.455444
2.120000 6.080000 -5.800000 38.240120 18.324699 1798.101318
2.120000 6.120000 -6.200000 -14.344937 3.053560 215.101456
2.120000 6.120000 -6.160000 -6.715867 3.112432 54.790108
2.120000 6.120000 -6.120000 -2.855152 11.937399 150.653381
2.120000 6.120000 -6.080000 -11.202492 21.467041 586.329712
2.120000 6.120000 -6.040000 -27.938969 18.182722 1111.197388
2.120000 6.120000 -6.000000 -37.124264 -2.157471 1382.865601
2.120000 6.120000 -5.960000 -24.864378 -26.926300 1343.262939
2.120000 6.120000 -5.920000 6.078640 -35.682037 1310.157593
2.120000 6.120000 -5.880000 36.503220 -18.144375 1661.703369
2.120000 6.120000 -5.840000 46.493835 16.383411 2430.093018
2.120000 6.120000 -5.800000 31.528179 47.314049 3232.645264
2.120000 6.160000 -6.200000 -20.109119 0.266045 404.447449
2.120000 6.160000 -6.160000 -14.740025 -6.893922 264.794495
2.120000 6.160000 -6.120000 -6.344683 -6.843497 87.088455
2.120000 6.160000 -6.080000 -2.790219 -1.882215 11.328058
2.120000 6.160000 -6.040000 -4.581347 -0.099773 20.998690
2.120000 6.160000 -6.000000 -3.732626 -4.872215 37.670979
2.120000 6.160000 -5.960000 6.838085 -9.161680 130.695801
2.120000 6.160000 -5.920000 23.575546 -1.760682 558.906372
2.120000 6.160000 -5.880000 33.347984 20.638847 1538.050049
2.120000 6.160000 -5.840000 24.877762 48.321781 2953.897705
2.120000 6.160000 -5.800000 -0.950474 65.874870 4340.401855
2.120000 6.200000 -6.200000 -23.891144 -10.992990 691.632568
2.120000 6.200000 -6.160000 -10.889419 -21.590128 584.713074
2.120000 6.200000 -6.120000 6.422621 -18.803482 394.820984
2.120000 6.200000 -6.080000 16.201836 -5.521181 292.982910
2.120000 6.200000 -6.040000 15.326657 7.827045 296.169067
2.120000 6.200000 -6.000000 10.533298 14.829298 330.858459
2.120000 6.200000 -5.960000 8.997730 18.934872 439.488525
2.120000 6.200000 -5.920000 9.369862 27.664017 853.092163
2.120000 6.200000 -5.880000 3.156279 42.246098 1794.694946
2.120000 6.200000 -5.840000 -15.430233 54.349552 3191.965820
2.120000 6.200000 -5.800000 -42.061630 53.334068 4613.703613
2.160000 5.800000 -6.200000 -13.159423 -27.292423 918.046753
2.160000 5.800000 -6.160000 10.977437 -28.844696 952.520630
2.160000 5.800000 -6.120000 32.859680 -11.933636 1222.170166
2.160000 5.800000 -6.080000 38.141529 17.420881 1758.263306
2.160000 5.800000 -6.040000 21.755760 43.239529 2342.969971
2.160000 5.800000 -6.000000 -7.182353 50.833340 2635.614502
2.160000 5.800000 -5.960000 -31.816511 37.596088 2425.756348
2.160000 5.800000 -5.920000 -39.947178 14.032411 1792.685547
2.160000 5.800000 -5.880000 -31.723072 -5.385887 1035.361084
2.160000 5.800000 -5.840000 -16.717545 -12.916671 446.316650
2.160000 5.800000 -5.800000 -4.476972 -10.695091 134.428253
2.160000 5.840000 -6.200000 6.442210 -27.693628 808.439148
2.160000 5.840000 -6.160000 23.022488 -19.171932 897.597900
2.160000 5.840000 -6.120000 32.046524 0.031618 1026.980713
2.160000 5.840000 -6.080000 26.679251 22.047054 1197.854980
2.160000 5.840000 -6.040000 8.177946 35.684505 1340.262695
2.160000 5.840000 -6.000000 -14.149920 33.965530 1353.877441
2.160000 5.840000 -5.960000 -28.887106 18.725777 1185.119629
2.160000 5.840000 -5.920000 -29.591618 -1.012224 876.688416
2.160000 5.840000 -5.880000 -17.851254 -15.082659 546.153870
2.160000 5.840000 -5.840000 -0.978525 -17.801462 317.849579
2.160000 5.840000 -5.800000 12.928596 -9.710920 261.450562
2.160000 5.880000 -6.200000 18.633190 -15.270994 580.399048
2.160000 5.880000 -6.160000 24.479218 -6.364191 639.735046
2.160000 5.880000 -6.120000 25.363386 5.407734 672.544922
2.160000 5.880000 -6.080000 19.795593 16.666763 669.646484
2.160000 5.880000 -6.040000 8.652016 23.333805 619.323792
2.160000 5.880000 -6.000000 -4.440862 22.187893 512.023865
2.160000 5.880000 -5.960000 -13.774566 12.887711 355.831726
2.160000 5.880000 -5.920000 -13.969798 -0.473750 195.379700
2.160000 5.880000 -5.880000 -3.717421 -10.129421 116.424385
2.160000 5.880000 -5.840000 11.778342 -8.766890 215.587692
2.160000 5.880000 -5.800000 22.659494 5.042720 538.881714
2.160000 5.920000 -6.200000 18.743624 -0.983388 352.290466
2.160000 5.920000 -6.160000 19.611683 1.489608 386.837036
2.160000 5.920000 -6.120000 21.880852 5.179337 505.597198
2.160000 5.920000 -6.080000 23.186771 12.554562 695.243347
2.160000 5.920000 -6.040000 18.933481 22.146063 848.924805
2.160000 5.920000 -6.000000 7.695397 27.707554 826.927673
2.160000 5.920000 -5.960000 -4.885536 23.510647 576.618958
2.160000 5.920000 -5.920000 -9.375282 11.396310 217.771805
2.160000 5.920000 -5.880000 -1.467770 1.591443 4.687040
2.160000 5.920000 -5.840000 12.040112 4.544566 165.617386
2.160000 5.920000 -5.800000 17.449862 20.585613 728.265137
2.160000 5.960000 -6.200000 12.042209 7.407232 199.881866
2.160000 5.960000 -6.160000 15.139780 4.966351 253.877579
2.160000 5.960000 -6.120000 22.815725 7.591182 578.183350
2.160000 5.960000 -6.080000 27.987715 19.227961 1153.026611
2.160000 5.960000 -6.040000 22.014505 34.860477 1699.891357
2.160000 5.960000 -6.000000 4.478762 42.756153 1848.147949
2.160000 5.960000 -5.960000 -13.772186 35.337578 1438.417480
2.160000 5.960000 -5.920000 -19.383207 18.038580 701.099121
2.160000 5.960000 -5.880000 -9.606663 5.904652 127.152878
2.160000 5.960000 -5.840000 3.765889 9.678456 107.854431
2.160000 5.960000 -5.800000 4.896312 24.780308 638.037537
2.160000 6.000000 -6.200000 5.078353 10.464063 135.286270
2.160000 6.000000 -6.160000 11.397869 8.900500 209.130325
2.160000 6.000000 -6.120000 20.066879 15.695739 649.035889
2.160000 6.000000 -6.080000 21.176754 31.484812 1439.748291
2.160000 6.000000 -6.040000 7.740034 46.333179 2206.671631
2.160000 6.000000 -6.000000 -14.993158 47.145771 2447.518555
2.160000 6.000000 -5.960000 -31.704861 30.710060 1948.305908
2.160000 6.000000 -5.920000 -30.482824 8.712388 1005.108276
2.160000 6.000000 -5.880000 -14.683911 -1.961871 219.466187
2.160000 6.000000 -5.840000 -0.445115 4.926790 24.471386
2.160000 6.000000 -5.800000 -1.356767 18.966873 361.583099
2.160000 6.040000 -6.200000 -1.377443 11.939492 144.448822
2.160000 6.040000 -6.160000 3.567373 13.160659 185.929092
2.160000 6.040000 -6.120000 7.528548 21.388470 514.145691
2.160000 6.040000 -6.080000 2.314710 33.804596 1148.108643
2.160000 6.040000 -6.040000 -14.098518 39.751144 1778.921631
2.160000 6.040000 -6.000000 -32.306816 30.469280 1972.107422
2.160000 6.040000 -5.960000 -38.246319 9.344495 1550.100464
2.160000 6.040000 -5.920000 -26.462524 -9.024777 781.711792
2.160000 6.040000 -5.880000 -6.332849 -11.529840 173.042206
2.160000 6.040000 -5.840000 6.075514 1.244446 38.460514
2.160000 6.040000 -5.800000 2.892045 15.887719 260.783539
2.160000 6.080000 -6.200000 -10.052210 11.371403 230.355728
2.160000 6.080000 -6.160000 -9.171867 10.989350 204.888977
2.160000 6.080000 -6.120000 -8.597482 14.101753 272.776154
2.160000 6.080000 -6.080000 -13.364450 18.189022 509.449036
2.160000 6.080000 -6.040000 -22.849285 16.140837 782.616455
2.160000 6.080000 -6.000000 -28.895824 4.615931 856.275513
2.160000 6.080000 -5.960000 -23.176683 -10.138551 639.948853
2.160000 6.080000 -5.920000 -6.502762 -16.431267 312.272461
2.160000 6.080000 -5.880000 10.253325 -7.948672 168.312073
2.160000 6.080000 -5.840000 15.476671 9.831482 336.185394
2.160000 6.080000 -5.800000 7.165200 24.603020 656.648682
2.160000 6.120000 -6.200000 -19.757507 4.163353 407.692596
2.160000 6.120000 -6.160000 -18.708492 -2.353602 355.547150
2.160000 6.120000 -6.120000 -13.924867 -5.351682 222.542419
2.160000 6.120000 -6.080000 -10.346463 -4.833560 130.412598
2.160000 6.120000 -6.040000 -9.124061 -4.977318 108.022171
2.160000 6.120000 -6.000000 -6.279069 -7.751419 99.511208
2.160000 6.120000 -5.960000 1.795638 -9.220188 88.236191
2.160000 6.120000 -5.920000 12.555001 -3.244494 168.154800
2.160000 6.120000 -5.880000 18.200821 11.352160 460.141418
2.160000 6.120000 -5.840000 12.754128 28.231461 959.683167
2.160000 6.120000 -5.800000 -2.245084 38.616474 1496.272461
2.160000 6.160000 -6.200000 -23.193562 -10.903887 656.836060
2.160000 6.160000 -6.160000 -14.787106 -20.948206 657.485840
2.160000 6.160000 -6.120000 -1.178941 -22.445553 505.192749
2.160000 6.160000 -6.080000 9.715199 -15.444683 332.923309
2.160000 6.160000 -6.040000 14.305469 -5.426720 234.095703
2.160000 6.160000 -6.000000 14.791612 3.265643 229.456207
2.160000 6.160000 -5.960000 14.408427 11.095676 330.716797
2.160000 6.160000 -5.920000 12.661374 20.725014 589.836548
2.160000 6.160000 -5.880000 5.932062 31.941994 1055.480347
2.160000 6.160000 -5.840000 -7.795856 40.304844 1685.255859
2.160000 6.160000 -5.800000 -25.767063 40.802902 2328.818359
2.160000 6.200000 -6.200000 -13.881529 -26.432756 891.387451
2.160000 6.200000 -6.160000 3.150572 -30.986183 970.069641
2.160000 6.200000 -6.120000 20.239094 -22.336529 908.541443
2.160000 6.200000 -6.080000 28.265993 -4.919914 823.171936
2.160000 6.200000 -6.040000 25.260406 12.581352 796.378540
2.160000 6.200000 -6.000000 15.628022 24.574772 848.154541
2.160000 6.200000 -5.960000 4.343365 31.092476 985.606873
2.160000 6.200000 -5.920000 -7.173587 34.492378 1241.184448
2.160000 6.200000 -5.880000 -20.016682 35.216022 1640.835693
2.160000 6.200000 -5.840000 -34.162647 31.287094 2145.968750
2.160000 6.200000 -5.800000 -46.934982 21.108372 2648.456055
2.200000 5.800000 -6.200000 -7.648658 -10.621325 171.314514
2.200000 5.800000 -6.160000 2.284246 -6.037436 41.668419
2.200000 5.800000 -6.120000 8.668922 6.313818 115.014511
2.200000 5.800000 -6.080000 4.647721 22.721222 537.855225
2.200000 5.800000 -6.040000 -11.740172 33.560635 1264.147827
2.200000 5.800000 -6.000000 -33.297768 29.813625 1997.593506
2.200000 5.800000 -5.960000 -47.233189 11.178786 2355.939453
2.200000 5.800000 -5.920000 -44.710350 -12.202499 2147.916260
2.200000 5.800000 -5.880000 -27.924904 -27.063038 1512.208252
2.200000 5.800000 -5.840000 -7.965508 -27.125439 799.238770
2.200000 5.800000 -5.800000 4.640550 -16.742393 301.842438
2.200000 5.840000 -6.200000 -0.741429 -16.148005 261.307770
2.200000 5.840000 -6.160000 6.454294 -8.787016 118.869553
2.200000 5.840000 -6.120000 6.939148 3.939522 63.671616
2.200000 5.840000 -6.080000 -2.985374 14.938393 232.068039
2.200000 5.840000 -6.040000 -19.527212 15.663345 626.652405
2.200000 5.840000 -6.000000 -32.624588 3.328661 1075.443726
2.200000 5.840000 -5.960000 -33.067535 -15.733575 1341.007324
2.200000 5.840000 -5.920000 -19.661072 -30.097134 1292.395264
2.200000 5.840000 -5.880000 -0.151635 -31.481171 991.087097
2.200000 5.840000 -5.840000 14.771185 -20.234142 627.608398
2.200000 5.840000 -5.800000 18.973354 -3.722145 373.842560
2.200000 5.880000 -6.200000 9.343949 -16.981255 375.672394
2.200000 5.880000 -6.160000 13.122273 -8.139816 238.450668
2.200000 5.880000 -6.120000 8.842480 1.388598 80.117653
2.200000 5.880000 -6.080000 -1.494890 4.502145 22.504004
2.200000 5.880000 -6.040000 -10.660423 -1.671882 116.439812
2.200000 5.880000 -6.000000 -11.692431 -13.201522 310.993134
2.200000 5.880000 -5.960000 -3.076072 -22.229141 503.596954
2.200000 5.880000 -5.920000 10.508794 -22.514839 617.352722
2.200000 5.880000 -5.880000 21.704044 -13.110724 642.956665
2.200000 5.880000 -5.840000 24.952671 1.939089 626.395874
2.200000 5.880000 -5.800000 18.799675 16.549358 627.309021
2.200000 5.920000 -6.200000 19.556843 -10.791649 498.929779
2.200000 5.920000 -6.160000 19.398869 -1.477257 378.498383
2.200000 5.920000 -6.120000 12.989400 3.419177 180.415268
2.200000 5.920000 -6.080000 6.882253 1.119208 48.618038
2.200000 5.920000 -6.040000 6.659572 -4.611319 65.614151
2.200000 5.920000 -6.000000 12.332117 -7.538885 208.915909
2.200000 5.920000 -5.960000 19.424826 -4.352294 396.266327
2.200000 5.920000 -5.920000 23.363611 3.841083 560.612244
2.200000 5.920000 -5.880000 22.171028 13.983726 687.099060
2.200000 5.920000 -5.840000 15.687141 23.449690 795.974365
2.200000 5.920000 -5.800000 4.132597 29.836845 907.315735
2.200000 5.960000 -6.200000 24.341089 2.444619 598.464783
2.200000 5.960000 -6.160000 19.418007 10.567376 488.728424
2.200000 5.960000 -6.120000 12.856668 10.925305 284.656189
2.200000 5.960000 -6.080000 11.752913 7.073458 188.164795
2.200000 5.960000 -6.040000 16.237923 6.326189 303.690796
2.200000 5.960000 -6.000000 20.392853 11.924022 558.050720
2.200000 5.960000 -5.960000 19.077805 20.572266 787.180725
2.200000 5.960000 -5.920000 12.558205 27.083088 891.202148
2.200000 5.960000 -5.880000 4.328249 29.729406 902.571350
2.200000 5.960000 -5.840000 -3.949468 30.032028 917.521057
2.200000 5.960000 -5.800000 -13.477654 28.266745 980.656006
2.200000 6.000000 -6.200000 18.303606 17.522255 642.051392
2.200000 6.000000 -6.160000 8.842585 21.279251 530.997803
2.200000 6.000000 -6.120000 3.596232 17.042061 303.364716
2.200000 6.000000 -6.080000 6.208192 13.352226 216.823593
2.200000 6.000000 -6.040000 11.094051 16.763596 404.096100
2.200000 6.000000 -6.000000 10.413507 25.299364 748.498901
2.200000 6.000000 -5.960000 2.482064 31.603275 1004.927673
2.200000 6.000000 -5.920000 -7.532736 31.249397 1033.266968
2.200000 6.000000 -5.880000 -14.343977 26.437542 904.693298
2.200000 6.000000 -5.840000 -18.011347 21.549200 788.776611
2.200000 6.000000 -5.800000 -21.758446 16.973482 761.529053
2.200000 6.040000 -6.200000 1.681543 25.040384 629.848450
2.200000 6.040000 -6.160000 -9.040054 21.126411 528.047852
2.200000 6.040000 -6.120000 -10.408403 12.399910 262.092621
2.200000 6.040000 -6.080000 -4.105714 9.088393 99.455780
2.200000 6.040000 -6.040000 0.834976 14.301723 205.236481
2.200000 6.040000 -6.000000 -1.995040 22.027687 489.199188
2.200000 6.040000 -5.960000 -10.448141 24.551815 711.955261
2.200000 6.040000 -5.920000 -17.574062 20.396175 724.851624
2.200000 6.040000 -5.880000 -19.608919 14.293681 588.819031
2.200000 6.040000 -5.840000 -18.851627 10.512814 465.903107
2.200000 6.040000 -5.800000 -18.941357 8.212358 426.217834
2.200000 6.080000 -6.200000 -16.924648 17.875267 605.968872
2.200000 6.080000 -6.160000 -22.834421 6.229811 560.221313
2.200000 6.080000 -6.120000 -16.939438 -4.397019 306.278320
2.200000 6.080000 -6.080000 -5.812757 -5.394332 62.886971
2.200000 6.080000 -6.040000 0.675392 2.332930 5.898717
2.200000 6.080000 -6.000000 -1.389503 10.894370 120.618019
2.200000 6.080000 -5.960000 -7.901597 13.918468 256.158966
2.200000 6.080000 -5.920000 -12.602366 11.788743 297.794098
2.200000 6.080000 -5.880000 -13.512537 9.061142 264.692932
2.200000 6.080000 -5.840000 -13.232368 8.480410 247.012939
2.200000 6.080000 -5.800000 -14.270622 8.794071 280.986359
2.200000 6.120000 -6.200000 -25.062092 -1.727688 631.093384
2.200000 6.120000 -6.160000 -21.083672 -15.817468 694.713501
2.200000 6.120000 -6.120000 -7.046574 -22.440813 553.244263
2.200000 6.120000 -6.080000 7.561600 -16.922085 343.534760
2.200000 6.120000 -6.040000 14.026536 -3.657702 210.122498
2.200000 6.120000 -6.000000 10.770329 8.891783 195.063782
2.200000 6.120000 -5.960000 2.584203 15.410963 244.175888
2.200000 6.120000 -5.920000 -5.002372 16.404242 294.122864
2.200000 6.120000 -5.880000 -9.998932 15.298701 334.028900
2.200000 6.120000 -5.840000 -13.622128 14.365448 391.928467
2.200000 6.120000 -5.800000 -17.414417 13.560209 487.141205
2.200000 6.160000 -6.200000 -15.968369 -21.742199 727.712036
2.200000 6.160000 -6.160000 -2.732967 -29.960428 905.096375
2.200000 6.160000 -6.120000 14.735102 -26.783543 934.481384
2.200000 6.160000 -6.080000 26.942320 -12.374274 879.011292
2.200000 6.160000 -6.040000 27.973497 6.480952 824.519287
2.200000 6.160000 -6.000000 18.589678 21.634039 813.607788
2.200000 6.160000 -5.960000 4.255262 28.565592 834.100281
2.200000 6.160000 -5.920000 -9.181969 27.708786 852.085327
2.200000 6.160000 -5.880000 -18.576359 22.499212 851.295654
2.200000 6.160000 -5.840000 -24.046165 16.509764 850.790405
2.200000 6.160000 -5.800000 -27.698215 11.497418 899.381775
2.200000 6.200000 -6.200000 4.990319 -28.647675 845.592529
2.200000 6.200000 -6.160000 20.198456 -25.641731 1065.475952
2.200000 6.200000 -6.120000 32.444641 -12.436202 1207.313965
2.200000 6.200000 -6.080000 35.374081 6.993277 1300.231445
2.200000 6.200000 -6.040000 26.972317 25.607082 1383.228516
2.200000 6.200000 -6.000000 10.073826 36.975067 1468.637573
2.200000 6.200000 -5.960000 -9.378798 37.990524 1531.241699
2.200000 6.200000 -5.920000 -25.151960 29.900291 1526.648438
2.200000 6.200000 -5.880000 -33.576435 17.414524 1430.642578
2.200000 6.200000 -5.840000 -35.282505 5.946594 1280.217041
2.200000 6.200000 -5.800000 -34.320164 -1.876561 1181.395142
