#kx 	ky 	kz 	real 	imag 	intensity
5.800000 5.800000 -4.200000 -6.148994 -31.541496 1032.676147
5.800000 5.800000 -4.160000 7.946170 -32.129345 1095.436401
5.800000 5.800000 -4.120000 16.784615 -23.175312 818.818359
5.800000 5.800000 -4.080000 15.533482 -13.683573 428.529205
5.800000 5.800000 -4.040000 9.589561 -12.025784 236.579147
5.800000 5.800000 -4.000000 8.597921 -17.326248 374.123138
5.800000 5.800000 -3.960000 16.090607 -20.731438 688.700134
5.800000 5.800000 -3.920000 25.826408 -15.057367 893.727661
5.800000 5.800000 -3.880000 28.530922 -2.381201 819.683594
5.800000 5.800000 -3.840000 21.498833 8.379016 532.407715
5.800000 5.800000 -3.800000 10.754958 10.796566 232.234955
5.800000 5.840000 -4.200000 11.626683 -32.617184 1199.060425
5.800000 5.840000 -4.160000 23.890667 -30.611715 1507.841064
5.800000 5.840000 -4.120000 31.842228 -22.919167 1539.215698
5.800000 5.840000 -4.080000 34.394958 -14.536285 1394.316772
5.800000 5.840000 -4.040000 34.215942 -8.114452 1236.575073
5.800000 5.840000 -4.000000 33.551689 -2.857454 1133.880859
5.800000 5.840000 -3.960000 32.022678 2.583674 1032.127319
5.800000 5.840000 -3.920000 28.395561 7.479385 862.249146
5.800000 5.840000 -3.880000 23.326082 9.964784 643.403076
5.800000 5.840000 -3.840000 19.176872 9.873236 465.233215
5.800000 5.840000 -3.800000 17.135399 9.435860 382.657349
5.800000 5.880000 -4.200000 22.453583 -22.044868 990.139648
5.800000 5.880000 -4.160000 34.539936 -20.181488 1600.299683
5.800000 5.880000 -4.120000 44.983089 -11.652521 2159.259766
5.800000 5.880000 -4.080000 49.991123 1.948109 2502.907471
5.800000 5.880000 -4.040000 46.874771 16.578814 2472.101074
5.800000 5.880000 -4.000000 36.308708 26.466854 2018.816650
5.800000 5.880000 -3.960000 23.566380 27.515469 1312.475342
5.800000 5.880000 -3.920000 15.839422 21.174877 699.262695
5.800000 5.880000 -3.880000 16.537798 14.377270 480.204651
5.800000 5.880000 -3.840000 21.849361 14.048933 674.767090
5.800000 5.880000 -3.800000 23.813889 20.762310 998.174805
5.800000 5.920000 -4.200000 22.359259 -10.833087 617.292236
5.800000 5.920000 -4.160000 37.095806 -7.227052 1428.329102
5.800000 5.920000 -4.120000 48.347843 7.036736 2387.029541
5.800000 5.920000 -4.080000 48.162704 27.349312 3067.630859
5.800000 5.920000 -4.040000 34.415344 43.232460 3053.461426
5.800000 5.920000 -4.000000 14.615944 45.409645 2275.661621
5.800000 5.920000 -3.960000 1.569947 34.155579 1169.068237
5.800000 5.920000 -3.920000 2.894741 20.369291 423.287537
5.800000 5.920000 -3.880000 13.904536 16.691673 471.948120
5.800000 5.920000 -3.840000 21.497000 26.149899 1145.938232
5.800000 5.920000 -3.800000 16.222023 39.423248 1817.346558
5.800000 5.960000 -4.200000 18.052902 -5.937486 361.161011
5.800000 5.960000 -4.160000 33.524914 4.094781 1140.687012
5.800000 5.960000 -4.120000 38.444302 24.682838 2087.206787
5.800000 5.960000 -4.080000 27.005959 44.223972 2685.081543
5.800000 5.960000 -4.040000 5.372005 49.851173 2513.997803
5.800000 5.960000 -4.000000 -11.547266 38.666359 1628.426636
5.800000 5.960000 -3.960000 -12.358842 21.544052 616.887146
5.800000 5.960000 -3.920000 0.301899 14.267411 203.650162
5.800000 5.960000 -3.880000 11.753782 23.299091 680.999023
5.800000 5.960000 -3.840000 8.755380 39.803829 1661.001465
5.800000 5.960000 -3.800000 -8.270616 48.163055 2388.083008
5.800000 6.000000 -4.200000 16.540382 -4.122773 290.581512
5.800000 6.000000 -4.160000 25.459805 12.855517 813.466003
5.800000 6.000000 -4.120000 18.551643 32.098557 1374.480835
5.800000 6.000000 -4.080000 -0.328439 39.837414 1587.127441
5.800000 6.000000 -4.040000 -17.007603 31.019085 1251.442139
5.800000 6.000000 -4.000000 -18.977638 14.819919 579.780762
5.800000 6.000000 -3.960000 -7.107795 6.994415 99.442596
5.800000 6.000000 -3.920000 4.709595 15.339319 257.474976
5.800000 6.000000 -3.880000 2.403546 32.197159 1042.433960
5.800000 6.000000 -3.840000 -15.037060 41.649265 1960.774414
5.800000 6.000000 -3.800000 -34.968414 34.481144 2411.739258
5.800000 6.040000 -4.200000 16.039139 1.115541 258.498413
5.800000 6.040000 -4.160000 12.641632 17.362528 461.268250
5.800000 6.040000 -4.120000 -2.134915 24.295670 594.837402
5.800000 6.040000 -4.080000 -15.316751 16.562767 508.928131
5.800000 6.040000 -4.040000 -15.104750 2.638048 235.112762
5.800000 6.040000 -4.000000 -2.669667 -2.550323 13.631273
5.800000 6.040000 -3.960000 8.156806 7.900564 128.952393
5.800000 6.040000 -3.920000 3.890265 25.528086 666.817322
5.800000 6.040000 -3.880000 -15.461869 34.089291 1401.149170
5.800000 6.040000 -3.840000 -36.246521 24.786137 1928.162842
5.800000 6.040000 -3.800000 -44.045132 4.034667 1956.252197
5.800000 6.080000 -4.200000 9.115236 8.851377 161.434387
5.800000 6.080000 -4.160000 -3.120345 13.251097 185.328125
5.800000 6.080000 -4.120000 -12.735572 3.980270 178.037354
5.800000 6.080000 -4.080000 -8.137642 -9.794048 162.144592
5.800000 6.080000 -4.040000 8.327420 -12.310259 220.888397
5.800000 6.080000 -4.000000 20.768635 2.865419 439.546814
5.800000 6.080000 -3.960000 14.473408 24.845737 826.790222
5.800000 6.080000 -3.920000 -9.207207 34.512245 1275.867798
5.800000 6.080000 -3.880000 -33.216095 22.312584 1601.160400
5.800000 6.080000 -3.840000 -40.375198 -2.978777 1639.029785
5.800000 6.080000 -3.800000 -28.600105 -23.162319 1354.458984
5.800000 6.120000 -4.200000 -6.011148 9.817515 132.517517
5.800000 6.120000 -4.160000 -14.604986 -2.120990 217.804214
5.800000 6.120000 -4.120000 -6.821747 -18.808174 400.283630
5.800000 6.120000 -4.080000 15.479626 -22.092373 727.691772
5.800000 6.120000 -4.040000 33.941692 -3.160477 1162.027100
5.800000 6.120000 -4.000000 29.655855 26.204939 1566.168579
5.800000 6.120000 -3.960000 2.077276 42.254028 1789.718018
5.800000 6.120000 -3.920000 -28.676928 30.825188 1772.558350
5.800000 6.120000 -3.880000 -39.567513 0.668407 1566.034790
5.800000 6.120000 -3.840000 -25.159920 -25.029812 1259.512939
5.800000 6.120000 -3.800000 -0.691858 -30.154118 909.749451
5.800000 6.160000 -4.200000 -20.057405 -2.964184 411.085876
5.800000 6.160000 -4.160000 -12.926022 -23.654922 726.637390
5.800000 6.160000 -4.120000 13.040906 -31.866514 1185.539917
5.800000 6.160000 -4.080000 39.621761 -14.033249 1766.815918
5.800000 6.160000 -4.040000 43.061745 21.359962 2310.561768
5.800000 6.160000 -4.000000 16.545382 47.948769 2572.834229
5.800000 6.160000 -3.960000 -21.207146 44.232548 2406.261230
5.800000 6.160000 -3.920000 -41.459064 13.466522 1900.201172
5.800000 6.160000 -3.880000 -30.884373 -19.259508 1324.773193
5.800000 6.160000 -3.840000 -2.140425 -30.127747 912.262512
5.800000 6.160000 -3.800000 20.153986 -16.864929 690.609009
5.800000 6.200000 -4.200000 -20.649426 -24.322813 1017.998047
5.800000 6.200000 -4.160000 3.858087 -39.307060 1559.929932
5.800000 6.200000 -4.120000 36.054756 -28.350412 2103.691406
5.800000 6.200000 -4.080000 50.317261 6.964861 2580.335938
5.800000 6.200000 -4.040000 31.957020 42.906006 2862.176270
5.800000 6.200000 -4.000000 -7.568544 52.321648 2794.837891
5.800000 6.200000 -3.960000 -38.781376 28.727652 2329.272949
5.800000 6.200000 -3.920000 -39.569820 -7.627078 1623.942993
5.800000 6.200000 -3.880000 -13.813167 -28.110699 981.014954
5.800000 6.200000 -3.840000 14.346704 -20.674175 633.249390
5.800000 6.200000 -3.800000 23.823944 2.505976 573.860229
5.840000 5.800000 -4.200000 28.292299 -16.159412 1061.580811
5.840000 5.800000 -4.160000 30.564049 -4.634232 955.637146
5.840000 5.800000 -4.120000 24.046116 3.238701 588.704895
5.840000 5.800000 -4.080000 16.250977 1.951477 267.902496
5.840000 5.800000 -4.040000 15.773675 -4.480888 268.887177
5.840000 5.800000 -4.000000 23.091093 -6.445702 574.745667
5.840000 5.800000 -3.960000 29.763802 1.008469 886.900940
5.840000 5.800000 -3.920000 27.312210 12.670097 906.488220
5.840000 5.800000 -3.880000 16.240734 18.500761 606.039612
5.840000 5.800000 -3.840000 5.462958 14.097891 228.594452
5.840000 5.800000 -3.800000 2.846920 4.901585 32.130489
5.840000 5.840000 -4.200000 31.507311 -0.702557 993.204224
5.840000 5.840000 -4.160000 33.174950 4.098402 1117.374146
5.840000 5.840000 -4.120000 34.686188 8.956726 1283.354492
5.840000 5.840000 -4.080000 35.849075 15.845081 1536.222900
5.840000 5.840000 -4.040000 33.462246 25.390062 1764.377197
5.840000 5.840000 -4.000000 24.426512 33.868984 1743.762451
5.840000 5.840000 -3.960000 10.590993 35.160248 1348.412109
5.840000 5.840000 -3.920000 -0.698194 26.844612 721.120667
5.840000 5.840000 -3.880000 -2.452585 14.121977 205.445404
5.840000 5.840000 -3.840000 4.992067 6.267956 64.208008
5.840000 5.840000 -3.800000 13.529889 8.188427 250.108231
5.840000 5.880000 -4.200000 21.445953 10.566402 571.577759
5.840000 5.880000 -4.160000 30.434729 12.421825 1080.574463
5.840000 5.880000 -4.120000 38.925949 25.137684 2147.132568
5.840000 5.880000 -4.080000 35.638302 45.935707 3380.177734
5.840000 5.880000 -4.040000 15.535818 61.771614 4057.093994
5.840000 5.880000 -4.000000 -12.573494 59.088417 3649.533691
5.840000 5.880000 -3.960000 -30.778103 36.866116 2306.402100
5.840000 5.880000 -3.920000 -26.904411 9.869728 821.258911
5.840000 5.880000 -3.880000 -5.926989 -2.844640 43.221169
5.840000 5.880000 -3.840000 13.756901 5.592381 220.527039
5.840000 5.880000 -3.800000 16.642265 24.134201 859.424683
5.840000 5.920000 -4.200000 8.426913 8.812975 148.681396
5.840000 5.920000 -4.160000 24.916334 17.800062 937.665955
5.840000 5.920000 -4.120000 28.873398 43.363548 2714.070312
5.840000 5.920000 -4.080000 7.938548 68.325874 4731.445801
5.840000 5.920000 -4.040000 -29.685312 70.031807 5785.671875
5.840000 5.920000 -4.000000 -58.308624 41.568047 5127.798340
5.840000 5.920000 -3.960000 -56.018532 1.110926 3139.310059
5.840000 5.920000 -3.920000 -25.078243 -21.894182 1108.273438
5.840000 5.920000 -3.880000 8.917295 -12.298986 230.783218
5.840000 5.920000 -3.840000 19.550571 17.631775 693.104370
5.840000 5.920000 -3.800000 2.562784 40.424519 1640.709595
5.840000 5.960000 -4.200000 4.731030 -0.874617 23.147594
5.840000 5.960000 -4.160000 18.557926 21.135651 791.112366
5.840000 5.960000 -4.120000 6.114294 51.223137 2661.194336
5.840000 5.960000 -4.080000 -31.261599 61.917870 4811.109863
5.840000 5.960000 -4.040000 -67.439842 37.433933 5949.431641
5.840000 5.960000 -4.000000 -72.371262 -8.541249 5310.552734
5.840000 5.960000 -3.960000 -39.951630 -41.757332 3339.807617
5.840000 5.960000 -3.920000 4.476596 -37.108589 1397.087280
5.840000 5.960000 -3.880000 25.925213 -1.254751 673.691040
5.840000 5.960000 -3.840000 10.674320 33.998272 1269.823608
5.840000 5.960000 -3.800000 -23.327587 41.166344 2238.844238
5.840000 6.000000 -4.200000 10.996398 -5.618277 152.485794
5.840000 6.000000 -4.160000 10.209326 23.061205 636.049500
5.840000 6.000000 -4.120000 -18.318104 41.222179 2034.821045
5.840000 6.000000 -4.080000 -54.664177 27.111786 3723.221191
5.840000 6.000000 -4.040000 -66.972816 -14.240904 4688.161133
5.840000 6.000000 -4.000000 -40.750027 -51.544525 4317.402832
5.840000 6.000000 -3.960000 5.400400 -53.950245 2939.793213
5.840000 6.000000 -3.920000 34.772720 -19.468691 1588.171997
5.840000 6.000000 -3.880000 25.216669 22.787949 1155.170898
5.840000 6.000000 -3.840000 -11.860091 39.233063 1679.894897
5.840000 6.000000 -3.800000 -44.117386 21.331945 2401.395752
5.840000 6.040000 -4.200000 15.860662 0.266109 251.631393
5.840000 6.040000 -4.160000 -1.132657 20.549992 423.585052
5.840000 6.040000 -4.120000 -30.870848 16.484121 1224.735474
5.840000 6.040000 -4.080000 -45.975143 -14.104294 2312.645020
5.840000 6.040000 -4.040000 -28.281284 -47.592255 3064.853760
5.840000 6.040000 -4.000000 11.821157 -53.998470 3055.574463
5.840000 6.040000 -3.960000 42.273369 -25.022076 2413.142090
5.840000 6.040000 -3.920000 37.785522 16.929169 1714.342529
5.840000 6.040000 -3.880000 2.702312 38.501728 1489.685547
5.840000 6.040000 -3.840000 -33.889328 25.067999 1776.891113
5.840000 6.040000 -3.800000 -45.396244 -8.350521 2130.550293
5.840000 6.080000 -4.200000 9.461478 8.411431 160.271744
5.840000 6.080000 -4.160000 -11.511909 9.458717 221.991394
5.840000 6.080000 -4.120000 -24.272696 -10.820121 706.238770
5.840000 6.080000 -4.080000 -12.209316 -36.096004 1451.988892
5.840000 6.080000 -4.040000 19.446350 -41.527325 2102.679199
5.840000 6.080000 -4.000000 45.333614 -17.296024 2354.289062
5.840000 6.080000 -3.960000 42.117603 20.153666 2180.062744
5.840000 6.080000 -3.920000 10.316080 41.557743 1833.467529
5.840000 6.080000 -3.880000 -25.770016 30.818083 1613.847900
5.840000 6.080000 -3.840000 -40.042187 -1.623163 1606.011353
5.840000 6.080000 -3.800000 -26.789700 -30.293501 1635.384155
5.840000 6.120000 -4.200000 -4.429541 5.749493 52.677502
5.840000 6.120000 -4.160000 -12.809240 -8.910344 243.470886
5.840000 6.120000 -4.120000 -2.111710 -27.023842 734.747314
5.840000 6.120000 -4.080000 23.777529 -28.955181 1403.773438
5.840000 6.120000 -4.040000 44.296322 -6.422812 2003.416748
5.840000 6.120000 -4.000000 39.585426 27.073187 2299.963379
5.840000 6.120000 -3.960000 9.483145 46.189224 2223.374268
5.840000 6.120000 -3.920000 -24.886778 35.851929 1904.712524
5.840000 6.120000 -3.880000 -39.253300 4.426251 1560.413208
5.840000 6.120000 -3.840000 -26.678318 -24.667051 1320.196045
5.840000 6.120000 -3.800000 -0.951288 -33.969650 1154.842041
5.840000 6.160000 -4.200000 -11.537217 -10.278559 238.756149
5.840000 6.160000 -4.160000 -0.254406 -25.334984 641.926086
5.840000 6.160000 -4.120000 23.677837 -25.246134 1198.007202
5.840000 6.160000 -4.080000 42.027481 -3.062675 1775.689209
5.840000 6.160000 -4.040000 36.879265 29.083740 2205.944092
5.840000 6.160000 -4.000000 7.629988 47.888863 2351.560059
5.840000 6.160000 -3.960000 -26.422501 38.547588 2184.065186
5.840000 6.160000 -3.920000 -41.749138 7.878531 1805.061768
5.840000 6.160000 -3.880000 -30.125740 -21.818649 1383.613770
5.840000 6.160000 -3.840000 -3.750614 -32.115742 1045.488037
5.840000 6.160000 -3.800000 17.800735 -22.247475 811.816284
5.840000 6.200000 -4.200000 -2.351617 -27.687742 772.141174
5.840000 6.200000 -4.160000 20.976727 -28.993675 1280.656250
5.840000 6.200000 -4.120000 40.428207 -9.005270 1715.534790
5.840000 6.200000 -4.080000 38.541710 22.481514 1990.881836
5.840000 6.200000 -4.040000 12.431511 43.912918 2082.886719
5.840000 6.200000 -4.000000 -21.642822 39.187992 2004.110474
5.840000 6.200000 -3.960000 -40.605339 11.575041 1782.775146
5.840000 6.200000 -3.920000 -33.282467 -18.919041 1465.652832
5.840000 6.200000 -3.880000 -8.376422 -32.435646 1122.235596
5.840000 6.200000 -3.840000 14.979902 -24.447079 822.057129
5.840000 6.200000 -3.800000 23.821354 -5.890406 602.153809
5.880000 5.800000 -4.200000 38.143303 27.340714 2202.426025
5.880000 5.800000 -4.160000 20.798746 36.679905 1778.003174
5.880000 5.800000 -4.120000 3.687351 30.062578 917.355164
5.880000 5.800000 -4.080000 -0.304304 14.809521 219.414505
5.880000 5.800000 -4.040000 9.300468 5.927576 121.634872
5.880000 5.800000 -4.000000 19.817223 11.331673 521.129150
5.880000 5.800000 -3.960000 18.316898 23.855803 904.608032
5.880000 5.800000 -3.920000 4.945804 28.876640 858.321350
5.880000 5.800000 -3.880000 -7.465961 19.665823 442.485168
5.880000 5.800000 -3.840000 -7.084991 4.184258 67.705116
5.880000 5.800000 -3.800000 4.766573 -3.765387 36.898357
5.880000 5.840000 -4.200000 14.999666 39.783825 1807.742676
5.880000 5.840000 -4.160000 7.290308 36.785767 1406.341187
5.880000 5.840000 -4.120000 6.519631 34.204746 1212.470337
5.880000 5.840000 -4.080000 6.843132 38.312386 1514.667358
5.880000 5.840000 -4.040000 -0.634850 46.061699 2122.083252
5.880000 5.840000 -4.000000 -17.257196 46.701454 2478.836670
5.880000 5.840000 -3.960000 -32.878136 32.788563 2156.061523
5.880000 5.840000 -3.920000 -34.273788 9.684267 1268.477661
5.880000 5.840000 -3.880000 -18.456745 -7.317477 394.196899
5.880000 5.840000 -3.840000 2.957756 -6.735729 54.118370
5.880000 5.840000 -3.800000 13.861738 7.988037 255.956512
5.880000 5.880000 -4.200000 -10.187860 30.461754 1031.710938
5.880000 5.880000 -4.160000 -1.791110 30.129299 910.982727
5.880000 5.880000 -4.120000 1.237421 45.194237 2044.050293
5.880000 5.880000 -4.080000 -15.930807 63.166794 4243.834473
5.880000 5.880000 -4.040000 -49.599457 62.093410 6315.697754
5.880000 5.880000 -4.000000 -76.572235 32.126869 6895.442871
5.880000 5.880000 -3.960000 -73.557343 -11.648270 5546.364746
5.880000 5.880000 -3.920000 -39.520569 -39.684669 3136.748535
5.880000 5.880000 -3.880000 1.333128 -33.595325 1130.423096
5.880000 5.880000 -3.840000 20.242008 -2.600126 416.499542
5.880000 5.880000 -3.800000 8.960484 25.423717 726.655701
5.880000 5.920000 -4.200000 -18.751629 6.286325 391.141479
5.880000 5.920000 -4.160000 -4.247159 22.784935 537.191589
5.880000 5.920000 -4.120000 -16.843636 51.540745 2940.156494
5.880000 5.920000 -4.080000 -58.744102 60.112152 7064.340820
5.880000 5.920000 -4.040000 -100.326485 27.104668 10800.066406
5.880000 5.920000 -4.000000 -104.004318 -33.195877 11918.865234
5.880000 5.920000 -3.960000 -59.714275 -78.923424 9794.701172
5.880000 5.920000 -3.920000 2.863880 -76.650574 5883.512207
5.880000 5.920000 -3.880000 39.092216 -31.538868 2522.901611
5.880000 5.920000 -3.840000 28.347881 17.830406 1121.525757
5.880000 5.920000 -3.800000 -10.064149 34.930702 1321.441040
5.880000 5.960000 -4.200000 -6.251364 -13.016352 208.504959
5.880000 5.960000 -4.160000 -3.993902 19.350697 390.400726
5.880000 5.960000 -4.120000 -39.873913 41.899960 3345.535645
5.880000 5.960000 -4.080000 -89.770935 20.705753 8487.548828
5.880000 5.960000 -4.040000 -107.503136 -41.835278 13307.114258
5.880000 5.960000 -4.000000 -67.558769 -102.434395 15056.993164
5.880000 5.960000 -3.960000 7.402576 -113.009720 12825.995117
5.880000 5.960000 -3.920000 63.533546 -64.579826 8207.065430
5.880000 5.960000 -3.880000 62.888054 3.916864 3970.249023
5.880000 5.960000 -3.840000 15.673511 41.011589 1927.609375
5.880000 5.960000 -3.800000 -32.793926 27.775629 1846.927246
5.880000 6.000000 -4.200000 13.229094 -13.394397 354.418762
5.880000 6.000000 -4.160000 -6.518534 18.150528 371.932922
5.880000 6.000000 -4.120000 -52.790630 15.878830 3038.987793
5.880000 6.000000 -4.080000 -82.790298 -33.049126 7946.478027
5.880000 6.000000 -4.040000 -59.079689 -96.484207 12799.611328
5.880000 6.000000 -4.000000 11.730080 -121.552139 14912.517578
5.880000 6.000000 -3.960000 79.709091 -82.744286 13200.156250
5.880000 6.000000 -3.920000 94.392426 -7.275469 8962.862305
5.880000 6.000000 -3.880000 49.471619 48.325840 4782.828125
5.880000 6.000000 -3.840000 -13.716305 48.277039 2518.809326
5.880000 6.000000 -3.800000 -46.049637 5.904665 2155.434082
5.880000 6.040000 -4.200000 21.136292 0.487543 446.980530
5.880000 6.040000 -4.160000 -12.131122 13.194016 321.246155
5.880000 6.040000 -4.120000 -45.358391 -14.343699 2263.125244
5.880000 6.040000 -4.080000 -39.984035 -66.783562 6058.767090
5.880000 6.040000 -4.040000 12.828234 -99.199104 10005.025391
5.880000 6.040000 -4.000000 77.971085 -76.855133 11986.201172
5.880000 6.040000 -3.960000 104.480957 -9.740490 11011.147461
5.880000 6.040000 -3.920000 71.142555 53.466000 7919.875977
5.880000 6.040000 -3.880000 5.564187 67.928848 4645.288574
5.880000 6.040000 -3.840000 -41.772110 30.910662 2700.378174
5.880000 6.040000 -3.800000 -42.393311 -20.321609 2210.160645
5.880000 6.080000 -4.200000 12.617537 11.125801 282.985657
5.880000 6.080000 -4.160000 -14.535881 1.482553 213.489807
5.880000 6.080000 -4.120000 -20.340464 -32.833164 1491.751221
5.880000 6.080000 -4.080000 10.854024 -62.066154 3970.017334
5.880000 6.080000 -4.040000 60.855770 -53.687275 6585.748047
5.880000 6.080000 -4.000000 89.392464 -4.469114 8010.985840
5.880000 6.080000 -3.960000 69.584732 52.435886 7591.557617
5.880000 6.080000 -3.920000 13.504174 74.913719 5794.428223
5.880000 6.080000 -3.880000 -37.719715 48.573738 3782.184814
5.880000 6.080000 -3.840000 -49.964455 -2.326916 2501.861328
5.880000 6.080000 -3.800000 -23.482197 -39.067825 2077.708496
5.880000 6.120000 -4.200000 0.122449 6.574188 43.234947
5.880000 6.120000 -4.160000 -7.071471 -12.000388 194.015015
5.880000 6.120000 -4.120000 8.813988 -31.381056 1062.457031
5.880000 6.120000 -4.080000 40.435516 -28.917101 2471.229736
5.880000 6.120000 -4.040000 62.017498 2.710571 3853.517334
5.880000 6.120000 -4.000000 50.877975 44.753849 4591.475586
5.880000 6.120000 -3.960000 9.358904 65.892258 4429.378418
5.880000 6.120000 -3.920000 -34.883263 49.069801 3624.687500
5.880000 6.120000 -3.880000 -51.728352 6.437222 2717.260010
5.880000 6.120000 -3.840000 -33.293728 -31.778389 2118.338379
5.880000 6.120000 -3.800000 2.370618 -43.146797 1867.265991
5.880000 6.160000 -4.200000 -0.714689 -7.893483 62.817856
5.880000 6.160000 -4.160000 9.443693 -17.645321 400.540710
5.880000 6.160000 -4.120000 27.983166 -14.224635 985.397827
5.880000 6.160000 -4.080000 39.957191 6.685347 1641.270996
5.880000 6.160000 -4.040000 31.214781 34.204586 2144.316406
5.880000 6.160000 -4.000000 1.965460 48.461903 2352.418945
5.880000 6.160000 -3.960000 -30.704788 36.588146 2281.476318
5.880000 6.160000 -3.920000 -45.307053 4.271834 2070.977539
5.880000 6.160000 -3.880000 -32.845192 -28.160694 1871.831299
5.880000 6.160000 -3.840000 -3.014252 -41.718258 1749.498779
5.880000 6.160000 -3.800000 25.137453 -32.212723 1669.551025
5.880000 6.200000 -4.200000 12.537080 -16.555780 431.272247
5.880000 6.200000 -4.160000 25.737545 -10.270816 767.910889
5.880000 6.200000 -4.120000 31.473532 6.702752 1035.510132
5.880000 6.200000 -4.080000 22.377459 25.593613 1155.783691
5.880000 6.200000 -4.040000 0.419306 33.788300 1141.824951
5.880000 6.200000 -4.000000 -22.696274 23.881187 1085.431885
5.880000 6.200000 -3.960000 -32.979855 -0.082878 1087.677612
5.880000 6.200000 -3.920000 -23.958429 -24.778858 1187.998169
5.880000 6.200000 -3.880000 -0.952398 -36.664688 1345.206421
5.880000 6.200000 -3.840000 23.279060 -30.592518 1477.816895
5.880000 6.200000 -3.800000 37.268799 -11.534031 1521.997314
5.920000 5.800000 -4.200000 7.692553 67.258545 4582.887207
5.920000 5.800000 -4.160000 -22.483597 58.254921 3899.147949
5.920000 5.800000 -4.120000 -35.873238 31.554089 2282.549805
5.920000 5.800000 -4.080000 -25.843113 7.774094 728.303040
5.920000 5.800000 -4.040000 -6.023254 3.450012 48.182178
5.920000 5.800000 -4.000000 3.126434 15.539627 251.254608
5.920000 5.800000 -3.960000 -5.407943 25.583076 683.739624
5.920000 5.800000 -3.920000 -19.103003 19.382313 740.598755
5.920000 5.800000 -3.880000 -20.164713 1.517786 408.919342
5.920000 5.800000 -3.840000 -4.664382 -10.443871 130.830887
5.920000 5.800000 -3.800000 13.898092 -5.167413 219.859116
5.920000 5.840000 -4.200000 -31.887836 54.017021 3934.672852
5.920000 5.840000 -4.160000 -39.625523 37.273731 2959.513184
5.920000 5.840000 -4.120000 -36.036465 26.755302 2014.473022
5.920000 5.840000 -4.080000 -33.711578 26.678516 1848.213623
5.920000 5.840000 -4.040000 -41.648247 27.381882 2484.343750
5.920000 5.840000 -4.000000 -54.269257 15.972778 3200.281738
5.920000 5.840000 -3.960000 -55.877205 -8.244083 3190.226807
5.920000 5.840000 -3.920000 -37.191563 -30.200195 2295.264160
5.920000 5.840000 -3.880000 -6.990950 -32.554359 1108.659790
5.920000 5.840000 -3.840000 14.260416 -13.180481 377.084534
5.920000 5.840000 -3.800000 13.433710 11.624119 315.584717
5.920000 5.880000 -4.200000 -49.611931 15.897970 2714.089111
5.920000 5.880000 -4.160000 -39.068909 14.026110 1723.111328
5.920000 5.880000 -4.120000 -42.054356 26.204872 2455.264160
5.920000 5.880000 -4.080000 -66.529060 29.528965 5298.075684
5.920000 5.880000 -4.040000 -94.031555 4.011097 8858.022461
5.920000 5.880000 -4.000000 -94.632042 -43.895184 10882.010742
5.920000 5.880000 -3.960000 -56.462360 -82.525497 9998.455078
5.920000 5.880000 -3.920000 -0.465069 -82.340782 6780.220703
5.920000 5.880000 -3.880000 35.949821 -43.675461 3199.935547
5.920000 5.880000 -3.840000 31.757713 2.688921 1015.782654
5.920000 5.880000 -3.800000 0.054680 23.329208 544.254944
5.920000 5.920000 -4.200000 -34.303143 -21.016823 1618.412354
5.920000 5.920000 -4.160000 -27.082245 0.921537 734.297241
5.920000 5.920000 -4.120000 -55.082954 18.589756 3379.710938
5.920000 5.920000 -4.080000 -98.444016 -3.229465 9701.654297
5.920000 5.920000 -4.040000 -112.003189 -65.418152 16824.250000
5.920000 5.920000 -4.000000 -68.331665 -126.496460 20670.570312
5.920000 5.920000 -3.960000 11.866611 -137.259476 18980.980469
5.920000 5.920000 -3.920000 74.233047 -86.407410 12976.785156
5.920000 5.920000 -3.880000 78.182571 -12.271749 6263.110352
5.920000 5.920000 -3.840000 31.882217 31.517412 2009.822998
5.920000 5.920000 -3.800000 -18.562572 23.089783 877.707153
5.920000 5.960000 -4.200000 -0.320136 -32.600784 1062.913696
5.920000 5.960000 -4.160000 -15.892279 -0.167667 252.592621
5.920000 5.960000 -4.120000 -64.127060 -2.663939 4119.376465
5.920000 5.960000 -4.080000 -96.406090 -59.092808 12786.093750
5.920000 5.960000 -4.040000 -66.496429 -134.446503 22497.636719
5.920000 5.960000 -4.000000 20.961033 -165.746887 27911.396484
5.920000 5.960000 -3.960000 107.854111 -119.764290 25975.994141
5.920000 5.960000 -3.920000 132.155609 -26.242113 18153.753906
5.920000 5.960000 -3.880000 82.925827 47.313850 9115.292969
5.920000 5.960000 -3.840000 7.623196 55.399208 3127.185303
5.920000 5.960000 -3.800000 -33.989677 11.050621 1277.414429
5.920000 6.000000 -4.200000 25.625965 -16.684221 935.053345
5.920000 6.000000 -4.160000 -12.475744 2.725517 163.072647
5.920000 6.000000 -4.120000 -56.431236 -30.499039 4114.675781
5.920000 6.000000 -4.080000 -51.684383 -101.623627 12998.636719
5.920000 6.000000 -4.040000 20.008804 -150.718781 23116.501953
5.920000 6.000000 -4.000000 115.147522 -125.644386 29045.464844
5.920000 6.000000 -3.960000 162.469482 -33.511189 27519.332031
5.920000 6.000000 -3.920000 126.474899 61.602894 19790.816406
5.920000 6.000000 -3.880000 39.119789 94.624741 10484.199219
5.920000 6.000000 -3.840000 -30.995903 55.317352 4020.755615
5.920000 6.000000 -3.800000 -40.550270 -9.024476 1725.765625
5.920000 6.040000 -4.200000 27.956417 7.479105 837.498291
5.920000 6.040000 -4.160000 -13.587280 1.088663 185.799362
5.920000 6.040000 -4.120000 -30.534172 -48.972050 3330.597412
5.920000 6.040000 -4.080000 10.641201 -101.902176 10497.289062
5.920000 6.040000 -4.040000 91.675362 -101.983200 18804.945312
5.920000 6.040000 -4.000000 151.238770 -32.393288 23922.490234
5.920000 6.040000 -3.960000 138.207199 63.437859 23125.591797
5.920000 6.040000 -3.920000 59.157803 117.196022 17234.552734
5.920000 6.040000 -3.880000 -26.816267 95.373329 9815.184570
5.920000 6.040000 -3.840000 -61.120018 25.957664 4409.457031
5.920000 6.040000 -3.800000 -34.526138 -31.891117 2209.097656
5.920000 6.080000 -4.200000 13.604043 18.741409 536.310425
5.920000 6.080000 -4.160000 -11.073189 -5.551484 153.434479
5.920000 6.080000 -4.120000 1.103970 -46.920273 2202.730713
5.920000 6.080000 -4.080000 53.239796 -62.895931 6790.374023
5.920000 6.080000 -4.040000 107.277924 -24.821936 12124.681641
5.920000 6.080000 -4.000000 114.120758 50.172470 15540.824219
5.920000 6.080000 -3.960000 59.146374 108.864388 15349.748047
5.920000 6.080000 -3.920000 -21.546028 107.401245 11999.258789
5.920000 6.080000 -3.880000 -71.578850 49.687447 7592.374023
5.920000 6.080000 -3.840000 -62.554295 -18.050411 4238.856934
5.920000 6.080000 -3.800000 -14.246939 -49.791794 2682.197998
5.920000 6.120000 -4.200000 1.697908 12.728219 164.890442
5.920000 6.120000 -4.160000 -1.383884 -10.117332 104.275551
5.920000 6.120000 -4.120000 22.227804 -27.284422 1238.515015
5.920000 6.120000 -4.080000 57.540024 -14.229641 3513.336914
5.920000 6.120000 -4.040000 71.775009 30.098213 6057.554199
5.920000 6.120000 -4.000000 43.464199 76.258728 7704.530273
5.920000 6.120000 -3.960000 -14.742794 87.025360 7790.763184
5.920000 6.120000 -3.920000 -63.574432 50.319923 6573.803223
5.920000 6.120000 -3.880000 -69.690773 -9.165760 4940.814941
5.920000 6.120000 -3.840000 -33.007687 -51.089424 3699.636475
5.920000 6.120000 -3.800000 16.345459 -52.912243 3066.879639
5.920000 6.160000 -4.200000 3.673109 2.230759 18.468014
5.920000 6.160000 -4.160000 10.550556 -6.182243 149.534363
5.920000 6.160000 -4.120000 25.571545 -3.651651 667.238403
5.920000 6.160000 -4.080000 35.004009 15.229782 1457.226929
5.920000 6.160000 -4.040000 24.151661 40.432510 2218.090576
5.920000 6.160000 -4.000000 -7.370346 51.236156 2679.465820
5.920000 6.160000 -3.960000 -41.039658 33.459152 2803.768555
5.920000 6.160000 -3.920000 -52.422966 -6.234276 2787.033691
5.920000 6.160000 -3.880000 -31.245642 -43.410759 2860.784180
5.920000 6.160000 -3.840000 9.753530 -54.634304 3080.038574
5.920000 6.160000 -3.800000 45.289444 -35.172630 3288.247559
5.920000 6.200000 -4.200000 14.067472 1.314622 199.621979
5.920000 6.200000 -4.160000 16.476349 5.051284 296.985535
5.920000 6.200000 -4.120000 16.571175 11.589743 408.925964
5.920000 6.200000 -4.080000 11.066708 19.364231 497.445465
5.920000 6.200000 -4.040000 -1.626740 22.789351 522.000793
5.920000 6.200000 -4.000000 -16.934650 15.121077 515.429321
5.920000 6.200000 -3.960000 -24.385494 -4.722965 616.958740
5.920000 6.200000 -3.920000 -14.723537 -27.899780 995.180298
5.920000 6.200000 -3.880000 11.322683 -39.660881 1701.188599
5.920000 6.200000 -3.840000 41.019821 -29.873600 2575.057617
5.920000 6.200000 -3.800000 57.452854 -1.439126 3302.901611
5.960000 5.800000 -4.200000 -45.316994 71.605026 7180.909668
5.960000 5.800000 -4.160000 -70.844086 38.874023 6530.074219
5.960000 5.800000 -4.120000 -66.096214 -0.696621 4369.194824
5.960000 5.800000 -4.080000 -38.294434 -21.463730 1927.155273
5.960000 5.800000 -4.040000 -12.072348 -15.442150 384.201599
5.960000 5.800000 -4.000000 -6.040692 1.672966 39.288776
5.960000 5.800000 -3.960000 -16.095348 7.792816 319.788239
5.960000 5.800000 -3.920000 -22.340706 -3.046741 508.389771
5.960000 5.800000 -3.880000 -11.604809 -16.325851 401.205017
5.960000 5.800000 -3.840000 8.799926 -14.490812 287.422333
5.960000 5.800000 -3.800000 20.179878 3.502906 419.497833
5.960000 5.840000 -4.200000 -76.158401 26.747011 6515.504883
5.960000 5.840000 -4.160000 -73.115341 -0.429531 5346.037598
5.960000 5.840000 -4.120000 -59.539074 -14.349642 3750.813477
5.960000 5.840000 -4.080000 -50.577515 -16.635723 2834.832275
5.960000 5.840000 -4.040000 -50.689766 -20.452652 2987.763428
5.960000 5.840000 -4.000000 -49.341309 -34.493156 3624.342529
5.960000 5.840000 -3.960000 -33.534115 -51.551228 3782.065918
5.960000 5.840000 -3.920000 -4.268913 -54.697861 3010.079590
5.960000 5.840000 -3.880000 21.279259 -35.476173 1711.365723
5.960000 5.840000 -3.840000 25.474569 -4.876421 672.733154
5.960000 5.840000 -3.800000 8.039770 15.504053 305.013550
5.960000 5.880000 -4.200000 -65.305016 -26.342020 4958.646973
5.960000 5.880000 -4.160000 -51.545055 -27.580441 3417.573486
5.960000 5.880000 -4.120000 -55.725391 -22.347393 3604.725342
5.960000 5.880000 -4.080000 -72.446320 -34.830441 6461.628906
5.960000 5.880000 -4.040000 -74.983978 -71.288017 10704.578125
5.960000 5.880000 -4.000000 -42.619953 -108.625374 13615.931641
5.960000 5.880000 -3.960000 14.765839 -113.636719 13131.333984
5.960000 5.880000 -3.920000 61.273891 -75.393158 9438.618164
5.960000 5.880000 -3.880000 66.293137 -18.298714 4729.622559
5.960000 5.880000 -3.840000 32.453529 18.446341 1393.499023
5.960000 5.880000 -3.800000 -7.433899 15.575111 297.846954
5.960000 5.920000 -4.200000 -22.042934 -53.441540 3341.889160
5.960000 5.920000 -4.160000 -24.135674 -32.387001 1631.448608
5.960000 5.920000 -4.120000 -54.388729 -34.256142 4131.617188
5.960000 5.920000 -4.080000 -74.507599 -78.420685 11701.185547
5.960000 5.920000 -4.040000 -44.681606 -138.255722 21111.089844
5.960000 5.920000 -4.000000 33.009583 -160.884399 26973.421875
5.960000 5.920000 -3.960000 109.623291 -116.963432 25697.710938
5.960000 5.920000 -3.920000 131.076843 -31.485390 18172.468750
5.960000 5.920000 -3.880000 87.036301 36.396324 8900.009766
5.960000 5.920000 -3.840000 19.175508 45.747288 2460.514648
5.960000 5.920000 -3.800000 -18.654026 7.625820 406.125824
5.960000 5.960000 -4.200000 21.969988 -41.799324 2229.863770
5.960000 5.960000 -4.160000 -7.284149 -22.058601 539.640747
5.960000 5.960000 -4.120000 -45.577927 -52.117092 4793.539062
5.960000 5.960000 -4.080000 -37.505959 -120.208992 15856.899414
5.960000 5.960000 -4.040000 37.235130 -166.710663 29178.900391
5.960000 5.960000 -4.000000 135.596603 -137.998230 37429.953125
5.960000 5.960000 -3.960000 184.803986 -40.522522 35794.585938
5.960000 5.960000 -3.920000 147.977280 60.222534 25524.029297
5.960000 5.960000 -3.880000 57.757378 97.034866 12751.679688
5.960000 5.960000 -3.840000 -14.937073 59.236824 3732.117432
5.960000 5.960000 -3.800000 -25.292099 -3.921434 655.067871
5.960000 6.000000 -4.200000 39.720806 -7.857779 1639.487061
5.960000 6.000000 -4.160000 -3.832602 -11.031670 136.386566
5.960000 6.000000 -4.120000 -22.716127 -65.690132 4831.215820
5.960000 6.000000 -4.080000 25.271351 -126.249741 16577.638672
5.960000 6.000000 -4.040000 121.488556 -126.280396 30706.207031
5.960000 6.000000 -4.000000 194.330093 -43.520203 39658.191406
5.960000 6.000000 -3.960000 182.009308 72.433128 38373.945312
5.960000 6.000000 -3.920000 90.377838 140.742752 27976.675781
5.960000 6.000000 -3.880000 -11.658215 120.539833 14665.765625
5.960000 6.000000 -3.840000 -54.676834 43.845436 4911.978516
5.960000 6.000000 -3.800000 -27.552917 -19.762426 1149.716797
5.960000 6.040000 -4.200000 28.935493 20.284323 1248.716553
5.960000 6.040000 -4.160000 -5.358475 -7.146835 79.790504
5.960000 6.040000 -4.120000 7.352064 -62.337624 3940.031982
5.960000 6.040000 -4.080000 76.668777 -87.563591 13545.484375
5.960000 6.040000 -4.040000 153.738815 -39.652466 25207.941406
5.960000 6.040000 -4.000000 170.129974 62.730118 32879.277344
5.960000 6.040000 -3.960000 101.470299 148.682602 32402.738281
5.960000 6.040000 -3.920000 -6.936878 156.282288 24472.275391
5.960000 6.040000 -3.880000 -79.243874 87.013779 13850.988281
5.960000 6.040000 -3.840000 -75.238998 1.016150 5661.939453
5.960000 6.040000 -3.800000 -19.766474 -40.051704 1994.852539
5.960000 6.080000 -4.200000 8.337643 27.286211 814.053589
5.960000 6.080000 -4.160000 -3.657528 -7.370808 67.706314
5.960000 6.080000 -4.120000 28.765287 -40.778049 2490.291016
5.960000 6.080000 -4.080000 87.698921 -29.010328 8532.699219
5.960000 6.080000 -4.040000 120.665649 37.321144 15953.067383
5.960000 6.080000 -4.000000 87.319382 115.949203 21068.892578
5.960000 6.080000 -3.960000 0.434242 145.985107 21311.841797
5.960000 6.080000 -3.920000 -81.080124 102.058151 16989.851562
5.960000 6.080000 -3.880000 -102.591873 17.252296 10822.734375
5.960000 6.080000 -3.840000 -59.500656 -47.333321 5780.771484
5.960000 6.080000 -3.800000 4.572536 -55.802086 3134.781006
5.960000 6.120000 -4.200000 -3.010357 19.300421 381.568512
5.960000 6.120000 -4.160000 1.286646 -4.886951 25.537752
5.960000 6.120000 -4.120000 31.064760 -13.680281 1152.169434
5.960000 6.120000 -4.080000 61.340000 13.212341 3937.161621
5.960000 6.120000 -4.040000 57.157562 64.022308 7365.842773
5.960000 6.120000 -4.000000 7.867992 98.948822 9852.774414
5.960000 6.120000 -3.960000 -57.584641 83.916771 10358.015625
5.960000 6.120000 -3.920000 -92.360802 22.874874 9053.777344
5.960000 6.120000 -3.880000 -71.681107 -43.396202 7021.411621
5.960000 6.120000 -3.840000 -13.224554 -71.731888 5320.352539
5.960000 6.120000 -3.800000 40.612999 -51.396988 4291.065918
5.960000 6.160000 -4.200000 -1.709335 12.068336 148.566574
5.960000 6.160000 -4.160000 3.830387 2.021503 18.758343
5.960000 6.160000 -4.120000 18.399099 3.649229 351.843719
5.960000 6.160000 -4.080000 25.858973 22.399994 1170.446167
5.960000 6.160000 -4.040000 10.688660 45.016930 2140.771484
5.960000 6.160000 -4.000000 -23.837044 47.866211 2859.378662
5.960000 6.160000 -3.960000 -53.430626 18.929447 3213.155762
5.960000 6.160000 -3.920000 -51.794449 -27.705173 3450.241699
5.960000 6.160000 -3.880000 -14.318338 -60.682114 3887.333740
5.960000 6.160000 -3.840000 36.363869 -56.781639 4546.485352
5.960000 6.160000 -3.800000 68.616264 -19.507776 5088.745117
5.960000 6.200000 -4.200000 2.260456 13.560923 189.008286
5.960000 6.200000 -4.160000 0.683148 8.760499 77.213036
5.960000 6.200000 -4.120000 4.343801 6.470436 60.735153
5.960000 6.200000 -4.080000 6.710119 10.760873 160.822083
5.960000 6.200000 -4.040000 0.400299 16.073938 258.531738
5.960000 6.200000 -4.000000 -12.189875 11.248680 275.125854
5.960000 6.200000 -3.960000 -17.587980 -7.753929 369.460449
5.960000 6.200000 -3.920000 -3.062243 -29.758924 894.970886
5.960000 6.200000 -3.880000 29.080967 -35.243931 2087.837402
5.960000 6.200000 -3.840000 59.785599 -13.368023 3753.021973
5.960000 6.200000 -3.800000 67.461914 26.849812 5272.022461
6.000000 5.800000 -4.200000 -84.483505 36.375202 8460.618164
6.000000 5.800000 -4.160000 -89.724312 -10.315754 8156.866699
6.000000 5.800000 -4.120000 -62.211910 -47.089066 6087.702148
6.000000 5.800000 -4.080000 -21.892479 -53.577526 3349.832031
6.000000 5.800000 -4.040000 4.160637 -34.264847 1191.390625
6.000000 5.800000 -4.000000 5.689095 -12.292137 183.462433
6.000000 5.800000 -3.960000 -4.253281 -6.108818 55.408054
6.000000 5.800000 -3.920000 -5.911541 -13.052372 205.310730
6.000000 5.800000 -3.880000 5.891047 -15.954203 289.240997
6.000000 5.800000 -3.840000 18.137224 -4.066256 345.493317
6.000000 5.800000 -3.800000 16.063320 15.035415 484.093933
6.000000 5.840000 -4.200000 -86.417763 -23.894045 8038.955078
6.000000 5.840000 -4.160000 -67.851761 -51.297356 7235.280273
6.000000 5.840000 -4.120000 -43.189251 -60.871723 5570.678223
6.000000 5.840000 -4.080000 -25.672886 -58.745049 4110.077637
6.000000 5.840000 -4.040000 -15.868931 -56.910454 3490.622803
6.000000 5.840000 -4.000000 -4.351791 -59.033546 3503.897705
6.000000 5.840000 -3.960000 14.591988 -56.703506 3428.213623
6.000000 5.840000 -3.920000 33.609505 -40.344448 2757.273193
6.000000 5.840000 -3.880000 38.386261 -12.799923 1637.343018
6.000000 5.840000 -3.840000 23.296766 10.106407 644.878784
6.000000 5.840000 -3.800000 -0.475150 13.990232 195.952377
6.000000 5.880000 -4.200000 -44.907547 -66.703918 6466.100586
6.000000 5.880000 -4.160000 -28.558437 -65.307304 5080.628418
6.000000 5.880000 -4.120000 -27.111435 -65.055458 4967.242188
6.000000 5.880000 -4.080000 -26.075714 -80.748192 7200.213379
6.000000 5.880000 -4.040000 -4.276310 -103.898247 10813.132812
6.000000 5.880000 -4.000000 40.392723 -108.307808 13362.153320
6.000000 5.880000 -3.960000 83.268204 -76.743721 12823.192383
6.000000 5.880000 -3.920000 93.511024 -21.715595 9215.878906
6.000000 5.880000 -3.880000 63.611313 22.292849 4543.370117
6.000000 5.880000 -3.840000 18.033323 29.026119 1167.716309
6.000000 5.880000 -3.800000 -8.479733 3.765129 86.082062
6.000000 5.920000 -4.200000 10.891855 -66.805634 4581.625000
6.000000 5.920000 -4.160000 3.431337 -52.514526 2769.549561
6.000000 5.920000 -4.120000 -13.908073 -68.385902 4870.066406
6.000000 5.920000 -4.080000 -2.234352 -109.579727 12012.708984
6.000000 5.920000 -4.040000 54.259590 -135.095886 21195.001953
6.000000 5.920000 -4.000000 125.293167 -106.462585 27032.660156
6.000000 5.920000 -3.960000 157.871017 -28.792358 25752.257812
6.000000 5.920000 -3.920000 125.332596 48.693924 18079.357422
6.000000 5.920000 -3.880000 53.488331 75.466507 8556.195312
6.000000 5.920000 -3.840000 -2.656132 44.454262 1983.236450
6.000000 5.920000 -3.800000 -8.666052 -4.789924 98.043823
6.000000 5.960000 -4.200000 45.449688 -31.506287 3058.320312
6.000000 5.960000 -4.160000 15.544483 -29.744953 1126.393188
6.000000 5.960000 -4.120000 3.559374 -71.129196 5072.031250
6.000000 5.960000 -4.080000 47.311871 -117.613823 16071.424805
6.000000 5.960000 -4.040000 131.195419 -111.393242 29620.691406
6.000000 5.960000 -4.000000 192.369537 -33.434402 38123.898438
6.000000 5.960000 -3.960000 176.991211 71.444412 36430.191406
6.000000 5.960000 -3.920000 92.071014 131.286377 25713.183594
6.000000 5.960000 -3.880000 0.635822 111.251144 12377.221680
6.000000 5.960000 -3.840000 -35.521149 42.607376 3077.140625
6.000000 5.960000 -3.800000 -9.003055 -10.633240 194.120789
6.000000 6.000000 -4.200000 44.559311 9.698186 2079.586914
6.000000 6.000000 -4.160000 12.689890 -12.950209 328.741211
6.000000 6.000000 -4.120000 26.300566 -64.605103 4865.539062
6.000000 6.000000 -4.080000 96.650146 -86.496460 16822.888672
6.000000 6.000000 -4.040000 174.038986 -34.119015 31453.675781
6.000000 6.000000 -4.000000 188.367752 72.970200 40807.058594
6.000000 6.000000 -3.960000 115.607346 161.522858 39454.691406
6.000000 6.000000 -3.920000 3.764395 168.772568 28498.349609
6.000000 6.000000 -3.880000 -69.101974 98.520691 14481.409180
6.000000 6.000000 -3.840000 -63.955959 14.326376 4295.609863
6.000000 6.000000 -3.800000 -9.779056 -21.424887 554.655701
6.000000 6.040000 -4.200000 21.231312 31.730103 1457.567993
6.000000 6.040000 -4.160000 6.569403 -5.666557 75.266922
6.000000 6.040000 -4.120000 43.995113 -43.387119 3818.012207
6.000000 6.040000 -4.080000 113.341537 -28.240936 13643.854492
6.000000 6.040000 -4.040000 152.088394 51.610146 25794.486328
6.000000 6.040000 -4.000000 112.263329 145.911667 33893.269531
6.000000 6.040000 -3.960000 9.567753 182.702820 33471.863281
6.000000 6.040000 -3.920000 -86.171875 133.243332 25179.376953
6.000000 6.040000 -3.880000 -112.107193 37.905113 14004.820312
6.000000 6.040000 -3.840000 -65.764885 -32.142845 5358.182617
6.000000 6.040000 -3.800000 -0.070389 -38.470478 1479.982666
6.000000 6.080000 -4.200000 -1.574167 31.183100 974.863708
6.000000 6.080000 -4.160000 2.961118 -2.281603 13.973930
6.000000 6.080000 -4.120000 44.655170 -15.117886 2222.634766
6.000000 6.080000 -4.080000 88.125198 22.634159 8278.355469
6.000000 6.080000 -4.040000 83.628387 94.722122 15965.987305
6.000000 6.080000 -4.000000 16.270287 145.499725 21434.892578
6.000000 6.080000 -3.960000 -73.708313 128.363586 21910.126953
6.000000 6.080000 -3.920000 -122.966637 49.813824 17602.210938
6.000000 6.080000 -3.880000 -100.259552 -34.862595 11267.377930
6.000000 6.080000 -3.840000 -31.528275 -70.490112 5962.888184
6.000000 6.080000 -3.800000 27.820271 -47.581573 3037.973633
6.000000 6.120000 -4.200000 -11.673779 21.337076 591.547913
6.000000 6.120000 -4.160000 -0.328743 1.427845 2.146813
6.000000 6.120000 -4.120000 28.200752 4.405741 814.692932
6.000000 6.120000 -4.080000 43.321938 39.133278 3408.203613
6.000000 6.120000 -4.040000 18.171391 80.846794 6866.403320
6.000000 6.120000 -4.000000 -40.180614 89.169914 9565.754883
6.000000 6.120000 -3.960000 -90.910812 45.840248 10366.103516
6.000000 6.120000 -3.920000 -93.460899 -24.917202 9355.806641
6.000000 6.120000 -3.880000 -43.703598 -75.098724 7549.822754
6.000000 6.120000 -3.840000 22.718004 -73.659256 5941.793945
6.000000 6.120000 -3.800000 62.458138 -30.401260 4825.255859
6.000000 6.160000 -4.200000 -12.785071 14.784973 382.053467
6.000000 6.160000 -4.160000 -6.055059 3.603339 49.647800
6.000000 6.160000 -4.120000 8.124153 6.181836 104.216965
6.000000 6.160000 -4.080000 11.477200 24.044930 709.884766
6.000000 6.160000 -4.040000 -7.760334 39.308617 1605.390137
6.000000 6.160000 -4.000000 -38.686466 29.778168 2383.381836
6.000000 6.160000 -3.960000 -53.453911 -7.604866 2915.154541
6.000000 6.160000 -3.920000 -32.041931 -49.263508 3453.578613
6.000000 6.160000 -3.880000 17.411938 -63.185120 4295.535156
6.000000 6.160000 -3.840000 63.433372 -36.520920 5357.570312
6.000000 6.160000 -3.800000 77.139267 13.637567 6136.449707
6.000000 6.200000 -4.200000 -13.810308 12.908018 357.341522
6.000000 6.200000 -4.160000 -11.863849 1.071188 141.898346
6.000000 6.200000 -4.120000 -1.262165 -3.475733 13.673779
6.000000 6.200000 -4.080000 6.336815 2.986372 49.073643
6.000000 6.200000 -4.040000 2.112715 10.698616 118.923950
6.000000 6.200000 -4.000000 -8.189920 6.274143 106.439667
6.000000 6.200000 -3.960000 -7.989506 -11.210705 189.512100
6.000000 6.200000 -3.920000 12.920231 -25.581997 821.370911
6.000000 6.200000 -3.880000 45.041985 -17.271839 2327.096924
6.000000 6.200000 -3.840000 64.592499 17.204008 4468.168945
6.000000 6.200000 -3.800000 53.692238 59.569092 6431.333008
6.040000 5.800000 -4.200000 -86.132111 -12.065926 7564.326660
6.040000 5.800000 -4.160000 -68.148811 -55.088058 7678.954102
6.040000 5.800000 -4.120000 -25.806799 -75.234505 6326.221191
6.040000 5.800000 -4.080000 15.585464 -62.655502 4168.618652
6.040000 5.800000 -4.040000 33.742531 -31.284533 2117.280273
6.040000 5.800000 -4.000000 27.174374 -5.247731 765.985291
6.040000 5.800000 -3.960000 12.809254 2.691481 171.321045
6.040000 5.800000 -3.920000 7.165173 -0.562157 51.655720
6.040000 5.800000 -3.880000 11.068501 -0.083977 122.518776
6.040000 5.800000 -3.840000 12.734291 9.492445 252.268677
6.040000 5.800000 -3.800000 3.736524 19.393301 390.061737
6.040000 5.840000 -4.200000 -59.321632 -63.084976 7498.770508
6.040000 5.840000 -4.160000 -29.330488 -80.645691 7364.004883
6.040000 5.840000 -4.120000 1.574739 -79.051895 6251.682129
6.040000 5.840000 -4.080000 22.766310 -65.487274 4806.887695
6.040000 5.840000 -4.040000 33.707333 -49.843643 3620.572998
6.040000 5.840000 -4.000000 39.824127 -35.742344 2863.476074
6.040000 5.840000 -3.960000 43.521084 -20.384201 2309.600342
6.040000 5.840000 -3.920000 40.919121 -2.324409 1679.777222
6.040000 5.840000 -3.880000 27.995003 12.836739 948.502014
6.040000 5.840000 -3.840000 8.608391 16.350662 341.448547
6.040000 5.840000 -3.800000 -5.854252 6.155676 72.164612
6.040000 5.880000 -4.200000 -4.852028 -79.128860 6284.918457
6.040000 5.880000 -4.160000 12.606611 -73.931030 5624.724121
6.040000 5.880000 -4.120000 21.957169 -71.325905 5569.501953
6.040000 5.880000 -4.080000 35.790199 -74.572296 6841.965820
6.040000 5.880000 -4.040000 61.468040 -71.229294 8851.932617
6.040000 5.880000 -4.000000 88.445251 -47.087868 10039.830078
6.040000 5.880000 -3.960000 95.456581 -4.882675 9135.799805
6.040000 5.880000 -3.920000 71.796097 33.103424 6250.516602
6.040000 5.880000 -3.880000 30.813025 43.403801 2833.332520
6.040000 5.880000 -3.840000 0.451852 23.317463 543.908264
6.040000 5.880000 -3.800000 -1.165996 -5.813312 35.154137
6.040000 5.920000 -4.200000 41.507694 -53.678673 4604.288574
6.040000 5.920000 -4.160000 35.729538 -46.473118 3436.350586
6.040000 5.920000 -4.120000 35.812943 -61.139156 5020.563477
6.040000 5.920000 -4.080000 64.307785 -77.886482 10201.794922
6.040000 5.920000 -4.040000 112.587372 -63.692940 16732.707031
6.040000 5.920000 -4.000000 143.271881 -8.435604 20597.992188
6.040000 5.920000 -3.960000 124.874817 58.890755 19061.839844
6.040000 5.920000 -3.920000 64.502792 93.230774 12852.587891
6.040000 5.920000 -3.880000 4.415201 74.584656 5582.365234
6.040000 5.920000 -3.840000 -15.584604 26.367725 938.136841
6.040000 5.920000 -3.800000 6.859073 -7.323717 100.683716
6.040000 5.960000 -4.200000 54.894917 -9.117432 3096.579590
6.040000 5.960000 -4.160000 36.540600 -18.551769 1679.383545
6.040000 5.960000 -4.120000 48.315575 -48.861984 4721.888184
6.040000 5.960000 -4.080000 99.315262 -57.419037 13160.466797
6.040000 5.960000 -4.040000 152.619354 -11.840268 23432.859375
6.040000 5.960000 -4.000000 156.313232 71.657005 29568.552734
6.040000 5.960000 -3.960000 94.613777 136.704330 27639.839844
6.040000 5.960000 -3.920000 7.012012 136.996674 18817.255859
6.040000 5.960000 -3.880000 -45.848743 79.200577 8374.838867
6.040000 5.960000 -3.840000 -36.592133 15.661160 1584.256104
6.040000 5.960000 -3.800000 7.614883 -5.322144 86.311661
6.040000 6.000000 -4.200000 37.457245 25.258368 2041.030273
6.040000 6.000000 -4.160000 25.752472 -1.671835 665.984863
6.040000 6.000000 -4.120000 57.755421 -29.450899 4203.043945
6.040000 6.000000 -4.080000 116.041672 -11.414230 13595.954102
6.040000 6.000000 -4.040000 145.457306 61.980392 24999.396484
6.040000 6.000000 -4.000000 104.903183 144.941284 32012.654297
6.040000 6.000000 -3.960000 11.025664 173.994919 30395.796875
6.040000 6.000000 -3.920000 -72.403824 126.649406 21282.386719
6.040000 6.000000 -3.880000 -91.211914 42.664001 10139.830078
6.040000 6.000000 -3.840000 -48.012363 -13.565123 2489.199463
6.040000 6.000000 -3.800000 5.785761 -11.496411 165.642517
6.040000 6.040000 -4.200000 9.588652 35.968441 1385.671021
6.040000 6.040000 -4.160000 13.908544 5.425056 222.878830
6.040000 6.040000 -4.120000 55.337830 -4.227358 3080.145996
6.040000 6.040000 -4.080000 97.018394 37.448029 10814.923828
6.040000 6.040000 -4.040000 88.224693 112.257095 20385.251953
6.040000 6.040000 -4.000000 15.939596 162.345001 26609.970703
6.040000 6.040000 -3.960000 -76.129822 141.943451 25943.693359
6.040000 6.040000 -3.920000 -123.614822 61.629295 19078.794922
6.040000 6.040000 -3.880000 -98.865196 -19.983475 10173.666016
6.040000 6.040000 -3.840000 -33.296124 -49.417591 3550.730225
6.040000 6.040000 -3.800000 15.946201 -23.607342 811.587891
6.040000 6.080000 -4.200000 -10.759398 29.350470 977.214722
6.040000 6.080000 -4.160000 3.465819 7.845846 73.569206
6.040000 6.080000 -4.120000 36.945374 15.051390 1591.504883
6.040000 6.080000 -4.080000 51.616909 59.613453 6218.068848
6.040000 6.080000 -4.040000 17.009312 109.281975 12231.866211
6.040000 6.080000 -4.000000 -54.720860 116.314850 16523.517578
6.040000 6.080000 -3.960000 -113.496620 63.109463 16864.287109
6.040000 6.080000 -3.920000 -114.678001 -17.788635 13467.479492
6.040000 6.080000 -3.880000 -59.351883 -70.986435 8561.719727
6.040000 6.080000 -3.840000 8.118560 -66.752174 4521.764160
6.040000 6.080000 -3.800000 41.835213 -23.383347 2296.965820
6.040000 6.120000 -4.200000 -19.755400 18.394901 728.648193
6.040000 6.120000 -4.160000 -6.890437 6.304455 87.224274
6.040000 6.120000 -4.120000 11.949234 16.548618 416.640991
6.040000 6.120000 -4.080000 10.102722 45.599350 2181.365723
6.040000 6.120000 -4.040000 -23.929451 64.767807 4767.487305
6.040000 6.120000 -4.000000 -69.247429 46.074425 6918.059082
6.040000 6.120000 -3.960000 -87.478485 -8.000565 7716.494141
6.040000 6.120000 -3.920000 -57.728275 -62.194267 7200.680664
6.040000 6.120000 -3.880000 2.781055 -78.062744 6101.526367
6.040000 6.120000 -3.840000 53.335205 -47.270466 5079.140625
6.040000 6.120000 -3.800000 65.097870 3.593096 4250.642578
6.040000 6.160000 -4.200000 -22.853294 9.476074 612.069031
6.040000 6.160000 -4.160000 -14.996864 -1.106671 226.130661
6.040000 6.160000 -4.120000 -3.119267 1.757792 12.819654
6.040000 6.160000 -4.080000 -3.279444 14.488863 220.681900
6.040000 6.160000 -4.040000 -19.793610 19.030277 753.938477
6.040000 6.160000 -4.000000 -36.793190 1.387703 1355.664429
6.040000 6.160000 -3.960000 -31.494020 -30.915131 1947.618652
6.040000 6.160000 -3.920000 2.665813 -52.004864 2711.612305
6.040000 6.160000 -3.880000 46.642025 -40.306751 3800.112793
6.040000 6.160000 -3.840000 70.720436 1.208142 5002.839355
6.040000 6.160000 -3.800000 59.653740 47.130417 5779.844727
6.040000 6.200000 -4.200000 -23.862423 1.411358 571.407166
6.040000 6.200000 -4.160000 -15.708169 -12.059484 392.177704
6.040000 6.200000 -4.120000 -0.427075 -14.191420 201.578781
6.040000 6.200000 -4.080000 8.879938 -5.106922 104.933960
6.040000 6.200000 -4.040000 6.546382 3.298481 53.735096
6.040000 6.200000 -4.000000 1.332750 0.676697 2.234142
6.040000 6.200000 -3.960000 7.271702 -8.901030 132.105972
6.040000 6.200000 -3.920000 27.219025 -9.282194 827.034424
6.040000 6.200000 -3.880000 46.831001 11.386620 2322.797607
6.040000 6.200000 -3.840000 46.372955 46.814766 4342.073242
6.040000 6.200000 -3.800000 19.152538 75.846588 6119.524902
6.080000 5.800000 -4.200000 -57.401245 -41.418453 5010.391113
6.080000 5.800000 -4.160000 -26.654259 -67.816849 5309.574707
6.080000 5.800000 -4.120000 16.001543 -67.672295 4835.588867
6.080000 5.800000 -4.080000 47.092583 -40.028400 3819.984375
6.080000 5.800000 -4.040000 51.234943 -2.678236 2632.192383
6.080000 5.800000 -4.000000 32.749237 22.428686 1575.558594
6.080000 5.800000 -3.960000 9.831850 26.519670 799.958191
6.080000 5.800000 -3.920000 -2.406144 18.059755 331.944275
6.080000 5.800000 -3.880000 -3.313558 11.209328 136.628693
6.080000 5.800000 -3.840000 -2.674400 11.542938 140.391846
6.080000 5.800000 -3.800000 -7.560732 13.242677 232.533157
6.080000 5.840000 -4.200000 -19.513758 -69.494370 5210.253906
6.080000 5.840000 -4.160000 12.427234 -73.498337 5556.441406
6.080000 5.840000 -4.120000 40.981346 -59.190392 5182.973145
6.080000 5.840000 -4.080000 55.996941 -33.478432 4256.462891
6.080000 5.840000 -4.040000 55.247520 -7.281240 3105.304932
6.080000 5.840000 -4.000000 43.672367 11.420959 2037.713989
6.080000 5.840000 -3.960000 28.152285 20.511627 1213.277954
6.080000 5.840000 -3.920000 13.347328 21.570396 643.433167
6.080000 5.840000 -3.880000 1.646408 16.561628 276.998199
6.080000 5.840000 -3.840000 -4.838880 7.297917 76.674355
6.080000 5.840000 -3.800000 -4.158388 -2.879857 25.585766
6.080000 5.880000 -4.200000 26.310936 -62.253700 4567.788574
6.080000 5.880000 -4.160000 42.964272 -52.953651 4650.017578
6.080000 5.880000 -4.120000 55.061073 -41.827843 4781.290039
6.080000 5.880000 -4.080000 66.159500 -28.210646 5172.919922
6.080000 5.880000 -4.040000 74.187416 -7.703960 5563.123535
6.080000 5.880000 -4.000000 70.973152 18.885033 5393.833008
6.080000 5.880000 -3.960000 51.213303 41.141884 4315.457031
6.080000 5.880000 -3.920000 21.487900 45.997414 2577.491699
6.080000 5.880000 -3.880000 -1.689167 30.365829 924.936890
6.080000 5.880000 -3.840000 -4.908078 6.401396 65.067101
6.080000 5.880000 -3.800000 10.028874 -7.404284 155.401749
6.080000 5.920000 -4.200000 52.204792 -27.755714 3495.719971
6.080000 5.920000 -4.160000 52.105827 -22.274084 3211.152100
6.080000 5.920000 -4.120000 60.389042 -23.992132 4222.458984
6.080000 5.920000 -4.080000 81.239021 -15.991407 6855.503906
6.080000 5.920000 -4.040000 98.272797 14.442965 9866.142578
6.080000 5.920000 -4.000000 88.920158 57.497787 11212.790039
6.080000 5.920000 -3.960000 49.070930 85.270729 9679.053711
6.080000 5.920000 -3.920000 1.704430 77.084473 5944.921387
6.080000 5.920000 -3.880000 -21.667820 40.641335 2121.212402
6.080000 5.920000 -3.840000 -9.593552 6.651656 136.280762
6.080000 5.920000 -3.800000 19.070219 1.049467 364.774628
6.080000 5.960000 -4.200000 48.408707 9.968027 2442.764404
6.080000 5.960000 -4.160000 43.471832 2.461499 1895.859131
6.080000 5.960000 -4.120000 60.894562 -6.019162 3744.377930
6.080000 5.960000 -4.080000 91.141876 11.415428 8437.153320
6.080000 5.960000 -4.040000 101.613953 59.511757 13867.044922
6.080000 5.960000 -4.000000 68.861969 109.178421 16661.898438
6.080000 5.960000 -3.960000 6.019202 121.552582 14811.260742
6.080000 5.960000 -3.920000 -44.977055 85.529160 9338.172852
6.080000 5.960000 -3.880000 -50.966675 30.346107 3518.488281
6.080000 5.960000 -3.840000 -17.991405 -0.893883 324.489685
6.080000 5.960000 -3.800000 16.070028 9.150526 341.977936
6.080000 6.000000 -4.200000 25.588320 31.734659 1661.850708
6.080000 6.000000 -4.160000 27.514034 15.863535 1008.673828
6.080000 6.000000 -4.120000 54.180321 13.596491 3120.371582
6.080000 6.000000 -4.080000 79.643867 46.839066 8537.042969
6.080000 6.000000 -4.040000 67.514015 101.751266 14911.462891
6.080000 6.000000 -4.000000 9.885976 135.436798 18440.859375
6.080000 6.000000 -3.960000 -58.798927 115.503464 16798.363281
6.080000 6.000000 -3.920000 -90.400238 53.207336 11003.223633
6.080000 6.000000 -3.880000 -67.414062 -4.843362 4568.113770
6.080000 6.000000 -3.840000 -18.362486 -19.497387 717.328979
6.080000 6.000000 -3.800000 11.109247 6.278658 162.836914
6.080000 6.040000 -4.200000 0.743934 34.393959 1183.497925
6.080000 6.040000 -4.160000 10.667783 20.211670 522.313171
6.080000 6.040000 -4.120000 35.723194 29.231974 2130.654785
6.080000 6.040000 -4.080000 43.678268 68.427467 6590.109375
6.080000 6.040000 -4.040000 9.502375 109.350082 12047.735352
6.080000 6.040000 -4.000000 -54.158215 111.442757 15352.600586
6.080000 6.040000 -3.960000 -102.897926 62.344116 14474.772461
6.080000 6.040000 -3.920000 -100.193840 -6.478806 10080.780273
6.080000 6.040000 -3.880000 -51.790649 -46.840065 4876.263184
6.080000 6.040000 -3.840000 0.305921 -37.511673 1407.219238
6.080000 6.040000 -3.800000 18.111103 -0.880806 328.787872
6.080000 6.080000 -4.200000 -16.503660 25.701405 932.932983
6.080000 6.080000 -4.160000 -5.410442 17.118847 322.327820
6.080000 6.080000 -4.120000 9.529829 30.152824 1000.010437
6.080000 6.080000 -4.080000 2.163603 59.242599 3514.366699
6.080000 6.080000 -4.040000 -36.162937 74.701530 6888.077148
6.080000 6.080000 -4.000000 -81.535248 50.942524 9243.136719
6.080000 6.080000 -3.960000 -96.148010 -4.994591 9269.385742
6.080000 6.080000 -3.920000 -64.029221 -55.658047 7197.559570
6.080000 6.080000 -3.880000 -7.556087 -66.190521 4438.279297
6.080000 6.080000 -3.840000 32.819565 -35.548660 2340.831055
6.080000 6.080000 -3.800000 35.339077 5.211494 1276.010010
6.080000 6.120000 -4.200000 -25.561029 13.119925 825.498657
6.080000 6.120000 -4.160000 -17.761650 5.856763 349.777893
6.080000 6.120000 -4.120000 -9.976425 12.891381 265.716766
6.080000 6.120000 -4.080000 -18.257694 25.790974 998.517700
6.080000 6.120000 -4.040000 -41.792606 23.717354 2309.134766
6.080000 6.120000 -4.000000 -59.065575 -3.907024 3504.007080
6.080000 6.120000 -3.960000 -47.392262 -42.447697 4047.833496
6.080000 6.120000 -3.920000 -6.720474 -62.487000 3949.789795
6.080000 6.120000 -3.880000 37.512062 -46.667118 3584.974609
6.080000 6.120000 -3.840000 56.485416 -5.948290 3225.984375
6.080000 6.120000 -3.800000 43.039047 31.151525 2822.777100
6.080000 6.160000 -4.200000 -27.958744 -0.524809 781.966797
6.080000 6.160000 -4.160000 -20.376591 -10.968167 535.506165
6.080000 6.160000 -4.120000 -10.085585 -11.061864 224.083847
6.080000 6.160000 -4.080000 -7.772487 -5.612164 91.907928
6.080000 6.160000 -4.040000 -12.873156 -6.794750 211.886765
6.080000 6.160000 -4.000000 -12.727077 -19.143345 528.446167
6.080000 6.160000 -3.960000 3.624039 -31.814995 1025.327515
6.080000 6.160000 -3.920000 31.515190 -27.779522 1764.909058
6.080000 6.160000 -3.880000 52.220676 -1.233859 2728.521484
6.080000 6.160000 -3.840000 49.340088 35.021843 3660.973877
6.080000 6.160000 -3.800000 23.523418 60.082642 4163.274902
6.080000 6.200000 -4.200000 -23.270893 -13.157579 714.656372
6.080000 6.200000 -4.160000 -10.652352 -24.408573 709.251038
6.080000 6.200000 -4.120000 6.511673 -23.543253 596.686646
6.080000 6.200000 -4.080000 17.334713 -12.791363 464.111237
6.080000 6.200000 -4.040000 18.767178 -1.863342 355.678986
6.080000 6.200000 -4.000000 17.563250 3.144840 318.357758
6.080000 6.200000 -3.960000 21.249161 6.333113 491.635132
6.080000 6.200000 -3.920000 28.188961 16.718016 1074.109619
6.080000 6.200000 -3.880000 27.954054 36.768173 2133.327637
6.080000 6.200000 -3.840000 11.928573 57.368431 3433.427734
6.080000 6.200000 -3.800000 -16.989168 64.841934 4493.108398
6.120000 5.800000 -4.200000 -25.735636 -40.150887 2274.416748
6.120000 5.800000 -4.160000 2.835829 -49.297359 2438.271729
6.120000 5.800000 -4.120000 34.310226 -36.028774 2475.264160
6.120000 5.800000 -4.080000 49.694733 -3.355633 2480.826660
6.120000 5.800000 -4.040000 38.791115 30.676899 2445.822754
6.120000 5.800000 -4.000000 9.585751 46.390789 2243.991943
6.120000 5.800000 -3.960000 -17.971846 38.148342 1778.283203
6.120000 5.800000 -3.920000 -28.526920 17.663887 1125.798096
6.120000 5.800000 -3.880000 -22.723637 2.135915 520.925781
6.120000 5.800000 -3.840000 -13.254354 -0.965908 176.610870
6.120000 5.800000 -3.800000 -10.681404 2.090805 118.463860
6.120000 5.840000 -4.200000 4.619070 -50.287090 2550.127197
6.120000 5.840000 -4.160000 30.088352 -44.671242 2900.828857
6.120000 5.840000 -4.120000 49.098740 -22.814579 2931.191406
6.120000 5.840000 -4.080000 50.714951 7.135944 2622.927734
6.120000 5.840000 -4.040000 33.633801 30.696829 2073.527832
6.120000 5.840000 -4.000000 7.877930 37.134293 1441.017456
6.120000 5.840000 -3.960000 -12.463299 26.791779 873.133179
6.120000 5.840000 -3.920000 -19.171648 9.536730 458.501312
6.120000 5.840000 -3.880000 -14.093271 -3.735878 212.577087
6.120000 5.840000 -3.840000 -4.917762 -8.564018 97.526794
6.120000 5.840000 -3.800000 2.241826 -7.367443 59.304993
6.120000 5.880000 -4.200000 33.141273 -36.444710 2426.561035
6.120000 5.880000 -4.160000 46.924545 -23.959534 2775.972168
6.120000 5.880000 -4.120000 53.666180 -5.419937 2909.434570
6.120000 5.880000 -4.080000 50.569134 14.824277 2776.996582
6.120000 5.880000 -4.040000 37.492207 30.965816 2364.547363
6.120000 5.880000 -4.000000 18.064205 37.395657 1724.750732
6.120000 5.880000 -3.960000 -0.501795 31.590343 998.201599
6.120000 5.880000 -3.920000 -10.269205 16.679640 383.666962
6.120000 5.880000 -3.880000 -7.313358 1.020535 54.526703
6.120000 5.880000 -3.840000 5.026628 -6.298547 64.938690
6.120000 5.880000 -3.800000 17.663841 -1.444032 314.096527
6.120000 5.920000 -4.200000 44.491638 -8.725491 2055.640137
6.120000 5.920000 -4.160000 47.748039 0.715268 2280.386963
6.120000 5.920000 -4.120000 50.758259 10.855544 2694.243652
6.120000 5.920000 -4.080000 51.508423 25.607487 3308.861084
6.120000 5.920000 -4.040000 43.072922 43.647602 3760.389648
6.120000 5.920000 -4.000000 22.248747 55.396145 3563.739746
6.120000 5.920000 -3.960000 -3.021952 50.616608 2571.173096
6.120000 5.920000 -3.920000 -17.425007 30.004375 1203.893433
6.120000 5.920000 -3.880000 -11.675087 7.904986 198.796478
6.120000 5.920000 -3.840000 7.414999 1.210318 56.447083
6.120000 5.920000 -3.800000 21.540371 14.023019 660.632629
6.120000 5.960000 -4.200000 36.565926 17.286230 1635.880615
6.120000 5.960000 -4.160000 36.125641 19.983080 1704.385376
6.120000 5.960000 -4.120000 41.930382 25.720552 2419.703613
6.120000 5.960000 -4.080000 45.619377 42.855080 3917.685547
6.120000 5.960000 -4.040000 33.351700 65.864326 5450.445312
6.120000 5.960000 -4.000000 2.964857 76.614868 5878.628418
6.120000 5.960000 -3.960000 -28.801147 61.912472 4662.660156
6.120000 5.960000 -3.920000 -39.541122 29.451992 2430.920166
6.120000 5.960000 -3.880000 -23.079269 3.707774 546.400269
6.120000 5.960000 -3.840000 2.847603 3.672349 21.594994
6.120000 5.960000 -3.800000 12.622921 24.389221 754.172241
6.120000 6.000000 -4.200000 17.239046 31.718740 1303.263184
6.120000 6.000000 -4.160000 17.641825 30.227757 1224.951294
6.120000 6.000000 -4.120000 25.024769 36.996719 1994.996338
6.120000 6.000000 -4.080000 24.397373 57.383621 3888.111816
6.120000 6.000000 -4.040000 2.249368 77.519463 6014.326660
6.120000 6.000000 -4.000000 -34.690777 75.455017 6896.909180
6.120000 6.000000 -3.960000 -61.093147 44.814648 5740.725098
6.120000 6.000000 -3.920000 -56.330887 5.202612 3200.235840
6.120000 6.000000 -3.880000 -26.072842 -14.143248 879.824524
6.120000 6.000000 -3.840000 1.594986 -2.316881 7.911916
6.120000 6.000000 -3.800000 3.073790 22.579601 519.286621
6.120000 6.040000 -4.200000 -4.224498 32.906166 1100.662231
6.120000 6.040000 -4.160000 -3.405479 29.877270 904.248535
6.120000 6.040000 -4.120000 1.062743 37.107899 1378.125488
6.120000 6.040000 -4.080000 -6.793427 53.405174 2898.263184
6.120000 6.040000 -4.040000 -33.324699 60.616348 4784.877441
6.120000 6.040000 -4.000000 -63.052719 42.088509 5747.087891
6.120000 6.040000 -3.960000 -70.697586 3.372319 5009.520996
6.120000 6.040000 -3.920000 -46.801373 -28.937227 3027.731445
6.120000 6.040000 -3.880000 -9.540488 -31.568808 1087.610474
6.120000 6.040000 -3.840000 11.482777 -7.550367 188.862213
6.120000 6.040000 -3.800000 3.788868 16.849728 298.268860
6.120000 6.080000 -4.200000 -21.541689 23.280125 1006.008606
6.120000 6.080000 -4.160000 -21.436834 17.605536 769.492798
6.120000 6.080000 -4.120000 -19.651733 20.236137 795.691895
6.120000 6.080000 -4.080000 -28.093306 26.248699 1478.228027
6.120000 6.080000 -4.040000 -46.067379 20.546835 2544.375732
6.120000 6.080000 -4.000000 -56.907295 -3.717449 3252.259521
6.120000 6.080000 -3.960000 -44.312435 -33.415131 3080.162842
6.120000 6.080000 -3.920000 -11.397236 -45.444168 2195.069336
6.120000 6.080000 -3.880000 19.275124 -29.482433 1240.744263
6.120000 6.080000 -3.840000 26.530376 0.735118 704.401306
6.120000 6.080000 -3.800000 10.861061 20.569098 541.050415
6.120000 6.120000 -4.200000 -30.346861 6.414976 962.083862
6.120000 6.120000 -4.160000 -28.368565 -3.842822 819.542725
6.120000 6.120000 -4.120000 -23.114742 -7.400467 589.058228
6.120000 6.120000 -4.080000 -22.574690 -8.109131 575.374634
6.120000 6.120000 -4.040000 -24.764845 -14.825405 833.090210
6.120000 6.120000 -4.000000 -19.109770 -28.283577 1165.144043
6.120000 6.120000 -3.960000 0.325018 -37.027546 1371.144775
6.120000 6.120000 -3.920000 25.032658 -28.436756 1435.283081
6.120000 6.120000 -3.880000 38.018417 -3.194159 1455.602661
6.120000 6.120000 -3.840000 30.131504 23.292437 1450.445068
6.120000 6.120000 -3.800000 9.202293 35.071217 1314.672485
6.120000 6.160000 -4.200000 -27.443047 -11.947105 895.854126
6.120000 6.160000 -4.160000 -19.132040 -24.414398 962.097778
6.120000 6.160000 -4.120000 -5.570395 -28.290310 831.370911
6.120000 6.160000 -4.080000 5.600642 -24.914680 652.108521
6.120000 6.160000 -4.040000 12.883827 -19.897211 561.892029
6.120000 6.160000 -4.000000 20.102514 -15.018147 629.655823
6.120000 6.160000 -3.960000 28.872704 -6.233479 872.489258
6.120000 6.160000 -3.920000 34.176418 9.964019 1267.309204
6.120000 6.160000 -3.880000 28.810259 29.842686 1720.616943
6.120000 6.160000 -3.840000 11.736367 43.896667 2064.659668
6.120000 6.160000 -3.800000 -9.534157 45.323112 2145.084717
6.120000 6.200000 -4.200000 -13.811589 -23.577026 746.636169
6.120000 6.200000 -4.160000 1.106216 -31.769787 1010.543030
6.120000 6.200000 -4.120000 19.744389 -28.098867 1179.387207
6.120000 6.200000 -4.080000 32.825172 -13.678607 1264.596191
6.120000 6.200000 -4.040000 35.817089 4.556493 1303.625488
6.120000 6.200000 -4.000000 30.551804 20.221264 1342.312256
6.120000 6.200000 -3.960000 21.172184 31.368073 1432.217407
6.120000 6.200000 -3.920000 9.775217 39.002441 1616.745361
6.120000 6.200000 -3.880000 -3.886994 43.347126 1894.082153
6.120000 6.200000 -3.840000 -19.532026 42.582188 2194.742676
6.120000 6.200000 -3.800000 -34.456326 34.970390 2410.166504
6.160000 5.800000 -4.200000 -12.909213 -22.222401 660.482849
6.160000 5.800000 -4.160000 4.608555 -23.641418 580.155457
6.160000 5.800000 -4.120000 22.570255 -8.880182 588.274048
6.160000 5.800000 -4.080000 24.952126 18.654751 970.608276
6.160000 5.800000 -4.040000 4.691491 41.402843 1736.205566
6.160000 5.800000 -4.000000 -26.835165 41.967705 2481.414307
6.160000 5.800000 -3.960000 -47.885437 19.574987 2676.195312
6.160000 5.800000 -3.920000 -45.382885 -8.345828 2129.259033
6.160000 5.800000 -3.880000 -26.204239 -22.034702 1172.190186
6.160000 5.800000 -3.840000 -9.218341 -17.082069 376.774902
6.160000 5.800000 -3.800000 -6.364591 -6.256798 79.655540
6.160000 5.840000 -4.200000 4.399282 -29.309238 878.385132
6.160000 5.840000 -4.160000 20.827583 -22.045897 919.809814
6.160000 5.840000 -4.120000 29.334888 -1.343132 862.339722
6.160000 5.840000 -4.080000 19.568062 22.015217 867.578857
6.160000 5.840000 -4.040000 -5.314720 31.659140 1030.547363
6.160000 5.840000 -4.000000 -29.249893 20.038195 1257.085449
6.160000 5.840000 -3.960000 -36.326321 -4.221834 1337.425415
6.160000 5.840000 -3.920000 -24.193310 -23.614901 1142.979736
6.160000 5.840000 -3.880000 -4.908033 -26.866032 745.872437
6.160000 5.840000 -3.840000 7.133410 -17.240557 348.122314
6.160000 5.840000 -3.800000 7.777623 -6.676923 105.072723
6.160000 5.880000 -4.200000 22.958485 -22.447124 1030.965454
6.160000 5.880000 -4.160000 32.711708 -9.278552 1156.147339
6.160000 5.880000 -4.120000 30.931168 9.216129 1041.674194
6.160000 5.880000 -4.080000 16.414543 22.127501 759.063477
6.160000 5.880000 -4.040000 -2.648091 21.329479 461.959076
6.160000 5.880000 -4.000000 -14.641445 8.043081 279.063080
6.160000 5.880000 -3.960000 -13.240428 -8.242115 243.241394
6.160000 5.880000 -3.920000 -1.462285 -17.237110 299.256256
6.160000 5.880000 -3.880000 11.833600 -14.985741 364.606506
6.160000 5.880000 -3.840000 19.035995 -5.059883 387.971527
6.160000 5.880000 -3.800000 18.200954 5.889693 365.963226
6.160000 5.920000 -4.200000 33.210381 -4.368477 1122.012939
6.160000 5.920000 -4.160000 34.272621 9.565904 1266.119019
6.160000 5.920000 -4.120000 26.749098 20.908211 1152.667480
6.160000 5.920000 -4.080000 15.048336 25.189957 860.986328
6.160000 5.920000 -4.040000 4.507027 22.274849 516.482178
6.160000 5.920000 -4.000000 -1.338015 14.834174 221.843002
6.160000 5.920000 -3.960000 -1.063911 6.468984 42.979664
6.160000 5.920000 -3.920000 4.844940 1.133252 24.757706
6.160000 5.920000 -3.880000 13.319444 2.401842 183.176422
6.160000 5.920000 -3.840000 18.634264 11.134554 471.214111
6.160000 5.920000 -3.800000 15.270651 23.114840 767.488647
6.160000 5.960000 -4.200000 29.751926 17.092304 1177.323975
6.160000 5.960000 -4.160000 23.240076 27.153728 1277.426025
6.160000 5.960000 -4.120000 14.786715 30.991203 1179.101685
6.160000 5.960000 -4.080000 7.899821 31.554554 1058.097046
6.160000 5.960000 -4.040000 1.441711 31.012367 963.845459
6.160000 5.960000 -4.000000 -5.452165 27.622274 792.716125
6.160000 5.960000 -3.960000 -9.317816 19.814331 479.429413
6.160000 5.960000 -3.920000 -5.731959 11.613244 167.722778
6.160000 5.960000 -3.880000 3.403048 10.856379 129.441681
6.160000 5.960000 -3.840000 8.505737 20.392105 488.185516
6.160000 5.960000 -3.800000 0.897474 32.250687 1040.912231
6.160000 6.000000 -4.200000 13.040025 32.381020 1218.572632
6.160000 6.000000 -4.160000 1.817009 35.244892 1245.503906
6.160000 6.000000 -4.120000 -4.936468 32.753708 1097.174072
6.160000 6.000000 -4.080000 -8.525249 31.526756 1066.616211
6.160000 6.000000 -4.040000 -14.349304 31.136761 1175.400391
6.160000 6.000000 -4.000000 -22.104366 25.779114 1153.165649
6.160000 6.000000 -3.960000 -24.379747 14.232211 796.927917
6.160000 6.000000 -3.920000 -16.256332 4.713732 286.487610
6.160000 6.000000 -3.880000 -4.086228 6.896591 64.260223
6.160000 6.000000 -3.840000 -1.204991 19.432259 379.064667
6.160000 6.000000 -3.800000 -13.376230 28.393078 985.090393
6.160000 6.040000 -4.200000 -10.326022 33.769135 1246.981201
6.160000 6.040000 -4.160000 -21.943539 27.513927 1238.535034
6.160000 6.040000 -4.120000 -24.792835 19.322950 988.061096
6.160000 6.040000 -4.080000 -24.603909 15.425781 843.307007
6.160000 6.040000 -4.040000 -27.114702 12.421869 889.509949
6.160000 6.040000 -4.000000 -29.406548 4.581269 885.733093
6.160000 6.040000 -3.960000 -24.039154 -5.747423 610.913818
6.160000 6.040000 -3.920000 -10.725060 -8.704748 190.799545
6.160000 6.040000 -3.880000 -0.154754 1.009647 1.043337
6.160000 6.040000 -3.840000 -3.408909 15.182528 242.129807
6.160000 6.040000 -3.800000 -18.174007 18.616491 676.868286
6.160000 6.080000 -4.200000 -29.328901 19.434505 1237.884521
6.160000 6.080000 -4.160000 -35.749939 4.819688 1301.287476
6.160000 6.080000 -4.120000 -31.288378 -7.249614 1031.519531
6.160000 6.080000 -4.080000 -23.863350 -12.341521 721.772583
6.160000 6.080000 -4.040000 -18.370495 -14.493327 547.531616
6.160000 6.080000 -4.000000 -12.229127 -17.268219 447.742920
6.160000 6.080000 -3.960000 -2.080709 -17.300989 303.653564
6.160000 6.080000 -3.920000 8.139716 -8.961252 146.559021
6.160000 6.080000 -3.880000 9.397725 5.885001 122.950470
6.160000 6.080000 -3.840000 -1.453712 16.413155 271.504913
6.160000 6.080000 -3.800000 -15.373150 13.482083 418.100311
6.160000 6.120000 -4.200000 -33.719872 -3.781712 1151.331177
6.160000 6.120000 -4.160000 -30.360836 -21.884867 1400.727783
6.160000 6.120000 -4.120000 -16.265556 -32.509918 1321.463135
6.160000 6.120000 -4.080000 -0.368991 -32.582405 1061.749268
6.160000 6.120000 -4.040000 11.696604 -25.803875 802.650513
6.160000 6.120000 -4.000000 19.521509 -15.840153 631.999756
6.160000 6.120000 -3.960000 23.270267 -3.264898 552.164917
6.160000 6.120000 -3.920000 20.538074 10.916245 540.976868
6.160000 6.120000 -3.880000 9.714217 21.693100 564.956604
6.160000 6.120000 -3.840000 -4.934458 23.062197 556.213806
6.160000 6.120000 -3.800000 -14.582195 15.150130 442.166870
6.160000 6.160000 -4.200000 -21.104053 -22.718884 961.528687
6.160000 6.160000 -4.160000 -8.103809 -36.757847 1416.811035
6.160000 6.160000 -4.120000 12.787668 -39.122162 1694.067993
6.160000 6.160000 -4.080000 31.578283 -27.986031 1780.405884
6.160000 6.160000 -4.040000 40.863609 -8.340643 1739.400879
6.160000 6.160000 -4.000000 38.554287 12.530979 1643.458374
6.160000 6.160000 -3.960000 26.701445 28.576168 1529.564453
6.160000 6.160000 -3.920000 9.661001 36.023651 1391.038452
6.160000 6.160000 -3.880000 -6.916096 33.938599 1199.660889
6.160000 6.160000 -3.840000 -17.730429 25.122049 945.485474
6.160000 6.160000 -3.800000 -20.868618 15.443214 673.992065
6.160000 6.200000 -4.200000 -0.186033 -26.220013 687.523682
6.160000 6.200000 -4.160000 16.343075 -30.942440 1224.530640
6.160000 6.200000 -4.120000 36.018791 -22.505596 1803.855103
6.160000 6.200000 -4.080000 48.157990 -1.018158 2320.228516
6.160000 6.200000 -4.040000 45.043907 25.460903 2677.211182
6.160000 6.200000 -4.000000 26.837566 45.585350 2798.279053
6.160000 6.200000 -3.960000 1.513330 51.400078 2644.258301
6.160000 6.200000 -3.920000 -20.083439 42.845825 2239.109375
6.160000 6.200000 -3.880000 -30.832340 27.132763 1686.820068
6.160000 6.200000 -3.840000 -31.221573 13.393993 1154.185669
6.160000 6.200000 -3.800000 -27.714968 6.318902 808.047974
6.200000 5.800000 -4.200000 -19.270981 -9.326188 458.348480
6.200000 5.800000 -4.160000 -11.366777 -14.096775 327.922699
6.200000 5.800000 -4.120000 -0.843091 -6.029237 37.062496
6.200000 5.800000 -4.080000 -3.245692 11.578333 144.592316
6.200000 5.800000 -4.040000 -23.173037 21.392426 994.625488
6.200000 5.800000 -4.000000 -46.303913 9.599991 2236.212402
6.200000 5.800000 -3.960000 -51.994148 -18.095306 3030.831543
6.200000 5.800000 -3.920000 -34.154465 -40.265812 2787.863037
6.200000 5.800000 -3.880000 -8.003524 -40.529266 1706.677856
6.200000 5.800000 -3.840000 5.228015 -23.556517 582.241638
6.200000 5.800000 -3.800000 -0.348488 -9.131834 83.511841
6.200000 5.840000 -4.200000 -7.406621 -23.556414 609.762634
6.200000 5.840000 -4.160000 3.835186 -21.199070 464.109222
6.200000 5.840000 -4.120000 7.811677 -7.733884 120.835266
6.200000 5.840000 -4.080000 -3.433206 4.496850 32.008560
6.200000 5.840000 -4.040000 -22.367151 1.330167 502.058807
6.200000 5.840000 -4.000000 -31.791292 -18.031507 1335.821533
6.200000 5.840000 -3.960000 -21.559464 -38.719738 1964.028564
6.200000 5.840000 -3.920000 1.059842 -44.007812 1937.810791
6.200000 5.840000 -3.880000 18.396423 -31.207987 1312.366821
6.200000 5.840000 -3.840000 19.558363 -13.292169 559.211304
6.200000 5.840000 -3.800000 9.918672 -4.874963 122.145309
6.200000 5.880000 -4.200000 13.561630 -24.216873 770.374756
6.200000 5.880000 -4.160000 20.637177 -13.398290 605.407227
6.200000 5.880000 -4.120000 15.275681 -1.201816 234.790787
6.200000 5.880000 -4.080000 1.826323 0.628002 3.729843
6.200000 5.880000 -4.040000 -7.047859 -10.446162 158.794617
6.200000 5.880000 -4.000000 -2.275227 -24.947006 627.529785
6.200000 5.880000 -3.960000 13.188722 -30.172184 1084.302979
6.200000 5.880000 -3.920000 27.530392 -21.666195 1227.346436
6.200000 5.880000 -3.880000 31.136734 -6.261940 1008.708130
6.200000 5.880000 -3.840000 24.310307 5.481314 621.035828
6.200000 5.880000 -3.800000 14.794065 8.951056 298.985779
6.200000 5.920000 -4.200000 29.833889 -7.314824 943.567566
6.200000 5.920000 -4.160000 26.172358 6.661696 729.370483
6.200000 5.920000 -4.120000 14.263624 10.910938 322.499542
6.200000 5.920000 -4.080000 5.994868 3.738590 49.915497
6.200000 5.920000 -4.040000 8.644835 -6.183302 112.966385
6.200000 5.920000 -4.000000 19.012859 -8.861088 440.007690
6.200000 5.920000 -3.960000 27.971310 -1.824094 785.721497
6.200000 5.920000 -3.920000 29.340157 9.573513 952.496948
6.200000 5.920000 -3.880000 23.814903 18.763065 919.202209
6.200000 5.920000 -3.840000 15.512085 23.386204 787.539307
6.200000 5.920000 -3.800000 6.880167 24.514786 648.311462
6.200000 5.960000 -4.200000 28.265213 18.361443 1136.064819
6.200000 5.960000 -4.160000 13.273499 26.264107 865.989014
6.200000 5.960000 -4.120000 1.315469 19.480953 381.238007
6.200000 5.960000 -4.080000 1.938459 8.403925 74.383575
6.200000 5.960000 -4.040000 11.338755 5.113179 154.711960
6.200000 5.960000 -4.000000 18.689070 11.919412 491.353699
6.200000 5.960000 -3.960000 17.859951 21.803360 794.364380
6.200000 5.960000 -3.920000 11.469233 27.928947 911.569397
6.200000 5.960000 -3.880000 4.618743 30.011742 922.037415
6.200000 5.960000 -3.840000 -2.091062 31.014500 966.271729
6.200000 5.960000 -3.800000 -11.291437 30.233959 1041.588867
6.200000 6.000000 -4.200000 7.057261 35.798866 1331.363770
6.200000 6.000000 -4.160000 -12.542505 30.306351 1075.789307
6.200000 6.000000 -4.120000 -17.555279 14.155308 508.560547
6.200000 6.000000 -4.080000 -7.971999 4.080612 80.204170
6.200000 6.000000 -4.040000 3.452265 7.449189 67.408546
6.200000 6.000000 -4.000000 5.990544 17.806410 352.954865
6.200000 6.000000 -3.960000 0.249629 25.056576 627.894287
6.200000 6.000000 -3.920000 -6.687050 26.483330 746.083374
6.200000 6.000000 -3.880000 -11.802466 26.229263 827.272461
6.200000 6.000000 -3.840000 -18.424252 26.105968 1020.974609
6.200000 6.000000 -3.800000 -28.227350 21.292316 1250.145996
6.200000 6.040000 -4.200000 -21.088297 32.039494 1471.245483
6.200000 6.040000 -4.160000 -34.867409 12.802684 1379.644897
6.200000 6.040000 -4.120000 -28.252407 -7.082558 848.361084
6.200000 6.040000 -4.080000 -11.071597 -12.472792 278.150787
6.200000 6.040000 -4.040000 1.067621 -3.621803 14.257275
6.200000 6.040000 -4.000000 1.683725 8.449210 74.224083
6.200000 6.040000 -3.960000 -4.474671 15.320346 254.735687
6.200000 6.040000 -3.920000 -11.047257 17.320055 422.026215
6.200000 6.040000 -3.880000 -17.587557 17.637260 620.395142
6.200000 6.040000 -3.840000 -26.141573 14.730755 900.376953
6.200000 6.040000 -3.800000 -33.365353 4.325029 1131.952637
6.200000 6.080000 -4.200000 -37.371960 8.800819 1474.117798
6.200000 6.080000 -4.160000 -37.585430 -16.842554 1696.336182
6.200000 6.080000 -4.120000 -18.944485 -32.810444 1435.418701
6.200000 6.080000 -4.080000 3.460701 -30.021231 913.250732
6.200000 6.080000 -4.040000 15.655149 -14.357486 451.221100
6.200000 6.080000 -4.000000 14.618673 2.351206 219.233780
6.200000 6.080000 -3.960000 5.666425 12.956515 199.979660
6.200000 6.080000 -3.920000 -5.777794 16.745865 313.806885
6.200000 6.080000 -3.880000 -17.272715 14.311113 503.154663
6.200000 6.080000 -3.840000 -25.880682 5.080846 695.624695
6.200000 6.080000 -3.800000 -26.177515 -8.816817 762.998535
6.200000 6.120000 -4.200000 -31.167540 -17.851231 1290.082031
6.200000 6.120000 -4.160000 -17.660374 -39.316635 1857.686646
6.200000 6.120000 -4.120000 8.312908 -44.782764 2074.600342
6.200000 6.120000 -4.080000 31.106646 -31.037037 1930.921143
6.200000 6.120000 -4.040000 39.252083 -6.740935 1586.166138
6.200000 6.120000 -4.000000 31.244621 15.759777 1224.596924
6.200000 6.120000 -3.960000 13.136495 27.952642 953.917725
6.200000 6.120000 -3.920000 -6.679240 27.274294 788.499329
6.200000 6.120000 -3.880000 -20.643404 15.934345 680.053467
6.200000 6.120000 -3.840000 -23.621786 -0.007030 557.988831
6.200000 6.120000 -3.800000 -15.341690 -11.868935 376.239075
6.200000 6.160000 -4.200000 -8.538139 -29.651344 952.102051
6.200000 6.160000 -4.160000 11.389026 -39.821190 1715.437012
6.200000 6.160000 -4.120000 36.483566 -32.815090 2407.880859
6.200000 6.160000 -4.080000 52.634995 -9.043404 2852.225830
6.200000 6.160000 -4.040000 50.241112 21.066801 2967.979248
6.200000 6.160000 -4.000000 29.702534 43.424870 2767.959717
6.200000 6.160000 -3.960000 0.891938 48.204075 2324.428467
6.200000 6.160000 -3.920000 -22.479158 35.087269 1736.428955
6.200000 6.160000 -3.880000 -30.564711 13.236799 1109.414429
6.200000 6.160000 -3.840000 -23.065159 -4.218337 549.795898
6.200000 6.160000 -3.800000 -9.219060 -8.496264 157.177551
6.200000 6.200000 -4.200000 12.688755 -20.409388 577.547607
6.200000 6.200000 -4.160000 29.517160 -19.920372 1268.083984
6.200000 6.200000 -4.120000 46.343594 -4.789395 2170.666992
6.200000 6.200000 -4.080000 50.673523 22.614399 3079.217041
6.200000 6.200000 -4.040000 35.004124 50.020653 3727.354492
6.200000 6.200000 -4.000000 3.729203 62.210121 3884.006104
6.200000 6.200000 -3.960000 -27.965984 51.745190 3459.660889
6.200000 6.200000 -3.920000 -43.907722 25.267273 2566.323242
6.200000 6.200000 -3.880000 -38.624741 -0.588649 1492.217163
6.200000 6.200000 -3.840000 -21.309338 -11.504595 586.443542
6.200000 6.200000 -3.800000 -8.034051 -6.170115 102.616287
