#kx 	ky 	kz 	real 	imag 	intensity
0.800000 0.800000 6.800000 -14.939650 2.841431 231.266861
0.800000 0.800000 6.840000 -17.327795 -1.459353 302.382172
0.800000 0.800000 6.880000 -17.595825 -9.434581 398.624390
0.800000 0.800000 6.920000 -12.016485 -18.840876 499.374512
0.800000 0.800000 6.960000 0.226843 -24.344868 592.724060
0.800000 0.800000 7.000000 14.947889 -21.085567 668.040527
0.800000 0.800000 7.040000 24.904366 -9.054505 702.211487
0.800000 0.800000 7.080000 25.074390 5.829395 662.706909
0.800000 0.800000 7.120000 16.910114 15.833273 536.644531
0.800000 0.800000 7.160000 7.147087 17.566938 359.678162
0.800000 0.800000 7.200000 1.778244 14.348376 209.038055
0.800000 0.840000 6.800000 -15.560037 -5.684400 274.427155
0.800000 0.840000 6.840000 -14.892576 -7.532340 278.524963
0.800000 0.840000 6.880000 -13.682689 -11.606512 321.927094
0.800000 0.840000 6.920000 -8.649297 -16.480391 346.413605
0.800000 0.840000 6.960000 0.563926 -17.626053 310.995758
0.800000 0.840000 7.000000 9.463624 -11.781960 228.374756
0.800000 0.840000 7.040000 12.032073 -1.235021 146.296051
0.800000 0.840000 7.080000 6.741982 7.125756 96.230713
0.800000 0.840000 7.120000 -1.192980 8.083071 66.759232
0.800000 0.840000 7.160000 -4.559953 3.479793 32.902126
0.800000 0.840000 7.200000 -1.579149 0.501873 2.745589
0.800000 0.880000 6.800000 -9.324429 -14.487305 296.826965
0.800000 0.880000 6.840000 -8.077070 -12.540828 222.511414
0.800000 0.880000 6.880000 -8.417987 -12.993956 239.705383
0.800000 0.880000 6.920000 -6.796680 -15.335075 281.359406
0.800000 0.880000 6.960000 -2.484359 -16.077473 264.657166
0.800000 0.880000 7.000000 1.339361 -13.272058 177.941422
0.800000 0.880000 7.040000 1.543308 -9.389677 90.547836
0.800000 0.880000 7.080000 -0.561405 -8.563549 73.649551
0.800000 0.880000 7.120000 -0.124681 -11.048058 122.075127
0.800000 0.880000 7.160000 5.193645 -11.720526 164.344681
0.800000 0.880000 7.200000 10.949793 -5.546016 150.656250
0.800000 0.920000 6.800000 3.193740 -17.094170 302.410614
0.800000 0.920000 6.840000 2.191386 -12.016380 149.195572
0.800000 0.920000 6.880000 -1.662167 -11.256277 129.466568
0.800000 0.920000 6.920000 -3.726713 -14.605055 227.196014
0.800000 0.920000 6.960000 -2.132017 -18.733820 355.501526
0.800000 0.920000 7.000000 1.752772 -21.245884 454.459778
0.800000 0.920000 7.040000 6.492758 -22.227070 536.198547
0.800000 0.920000 7.080000 12.567734 -21.797684 633.086914
0.800000 0.920000 7.120000 20.140070 -17.707836 719.189880
0.800000 0.920000 7.160000 25.637394 -7.420002 712.332397
0.800000 0.920000 7.200000 22.828588 6.860104 568.205505
0.800000 0.960000 6.800000 15.234175 -9.464190 321.650970
0.800000 0.960000 6.840000 10.381689 -3.664070 121.204872
0.800000 0.960000 6.880000 3.436528 -4.703496 33.932602
0.800000 0.960000 6.920000 0.233024 -11.392512 129.843643
0.800000 0.960000 6.960000 3.369278 -19.204327 380.158173
0.800000 0.960000 7.000000 11.849414 -23.859341 709.676758
0.800000 0.960000 7.040000 22.982826 -22.803928 1048.229492
0.800000 0.960000 7.080000 33.319016 -14.763105 1328.105957
0.800000 0.960000 7.120000 38.216496 -0.196492 1460.539062
0.800000 0.960000 7.160000 32.890694 16.700241 1360.695801
0.800000 0.960000 7.200000 16.436365 27.610954 1032.518921
0.800000 1.000000 6.800000 18.735596 5.046721 376.491943
0.800000 1.000000 6.840000 10.523944 8.867980 189.394470
0.800000 1.000000 6.880000 2.841267 4.447406 27.852219
0.800000 1.000000 6.920000 1.696692 -4.995927 27.838055
0.800000 1.000000 6.960000 8.888525 -13.205946 253.402878
0.800000 1.000000 7.000000 21.615475 -14.507685 677.701660
0.800000 1.000000 7.040000 34.038712 -6.207457 1197.166382
0.800000 1.000000 7.080000 39.398590 10.138196 1655.031982
0.800000 1.000000 7.120000 32.785561 28.363480 1879.379883
0.800000 1.000000 7.160000 14.554584 39.322788 1758.117554
0.800000 1.000000 7.200000 -7.752543 35.589756 1326.732666
0.800000 1.040000 6.800000 11.569818 17.728977 448.177307
0.800000 1.040000 6.840000 1.948153 18.154732 333.389587
0.800000 1.040000 6.880000 -4.079332 10.983011 137.267487
0.800000 1.040000 6.920000 -1.856489 1.444577 5.533355
0.800000 1.040000 6.960000 8.098947 -3.392140 77.099548
0.800000 1.040000 7.000000 20.227121 1.352046 410.964478
0.800000 1.040000 7.040000 26.594419 15.319819 941.959961
0.800000 1.040000 7.080000 21.189489 32.210625 1486.518799
0.800000 1.040000 7.120000 4.104693 42.374111 1812.413818
0.800000 1.040000 7.160000 -17.044916 38.331482 1759.831665
0.800000 1.040000 7.200000 -30.580082 20.354906 1349.463623
0.800000 1.080000 6.800000 -0.698136 22.101185 488.949768
0.800000 1.080000 6.840000 -9.880386 19.345755 471.880249
0.800000 1.080000 6.880000 -13.405797 11.172199 304.533447
0.800000 1.080000 6.920000 -9.014248 3.823067 95.872513
0.800000 1.080000 6.960000 0.038129 3.420003 11.697873
0.800000 1.080000 7.000000 6.557992 11.740583 180.848557
0.800000 1.080000 7.040000 3.901708 24.233997 602.509949
0.800000 1.080000 7.080000 -9.042279 32.163635 1116.262207
0.800000 1.080000 7.120000 -25.942490 28.280573 1472.803589
0.800000 1.080000 7.160000 -36.387600 12.511034 1480.583374
0.800000 1.080000 7.200000 -32.982471 -6.875242 1135.112305
0.800000 1.120000 6.800000 -10.621990 19.077631 476.782654
0.800000 1.120000 6.840000 -18.593431 13.917920 539.424194
0.800000 1.120000 6.880000 -20.161581 5.870643 440.953796
0.800000 1.120000 6.920000 -15.700919 0.990281 247.499512
0.800000 1.120000 6.960000 -10.396494 2.837975 116.141182
0.800000 1.120000 7.000000 -10.530781 9.284583 197.100830
0.800000 1.120000 7.040000 -18.244503 13.536078 516.087280
0.800000 1.120000 7.080000 -28.993589 9.363615 928.305542
0.800000 1.120000 7.120000 -34.410004 -3.373880 1195.431396
0.800000 1.120000 7.160000 -28.885700 -17.663042 1146.366699
0.800000 1.120000 7.200000 -14.555454 -24.265821 800.691345
0.800000 1.160000 6.800000 -15.931112 14.237104 456.495483
0.800000 1.160000 6.840000 -22.459867 6.815297 550.893921
0.800000 1.160000 6.880000 -22.548885 -1.162436 509.803497
0.800000 1.160000 6.920000 -19.031334 -4.816201 385.387482
0.800000 1.160000 6.960000 -17.497097 -3.982275 322.006927
0.800000 1.160000 7.000000 -20.843626 -3.555707 447.099823
0.800000 1.160000 7.040000 -25.936375 -8.752030 749.293579
0.800000 1.160000 7.080000 -26.014957 -19.397846 1053.054443
0.800000 1.160000 7.120000 -17.234995 -28.955271 1135.452759
0.800000 1.160000 7.160000 -3.221784 -29.851635 901.500000
0.800000 1.160000 7.200000 7.095082 -20.539845 472.225403
0.800000 1.200000 6.800000 -20.053665 10.549927 513.450439
0.800000 1.200000 6.840000 -24.133326 0.527643 582.695801
0.800000 1.200000 6.880000 -22.141060 -7.550241 547.232666
0.800000 1.200000 6.920000 -19.045757 -10.982102 483.347443
0.800000 1.200000 6.960000 -19.065813 -12.999538 532.493225
0.800000 1.200000 7.000000 -20.533300 -18.773701 774.068237
0.800000 1.200000 7.040000 -17.218967 -28.630795 1116.215210
0.800000 1.200000 7.080000 -5.483244 -35.966927 1323.685669
0.800000 1.200000 7.120000 10.069617 -33.041176 1193.116577
0.800000 1.200000 7.160000 19.074244 -19.418764 740.915161
0.800000 1.200000 7.200000 14.593565 -4.279803 231.288849
0.840000 0.800000 6.800000 -24.123457 -5.169652 608.666443
0.840000 0.800000 6.840000 -17.859631 -12.045652 464.064148
0.840000 0.800000 6.880000 -9.797827 -15.245086 328.410034
0.840000 0.800000 6.920000 -1.893743 -15.463472 242.705231
0.840000 0.800000 6.960000 5.824707 -13.616081 219.324890
0.840000 0.800000 7.000000 13.591793 -8.823574 262.592285
0.840000 0.800000 7.040000 19.366795 0.334251 375.184448
0.840000 0.800000 7.080000 19.335058 12.527776 530.789673
0.840000 0.800000 7.120000 11.782483 22.738400 655.861694
0.840000 0.800000 7.160000 0.018265 25.802773 665.783386
0.840000 0.800000 7.200000 -9.530124 21.132517 537.406555
0.840000 0.840000 6.800000 -14.509845 -20.554771 633.034241
0.840000 0.840000 6.840000 -2.196743 -19.148117 371.476074
0.840000 0.840000 6.880000 5.680986 -10.692377 146.600525
0.840000 0.840000 6.920000 5.781825 -0.965029 34.360783
0.840000 0.840000 6.960000 0.715603 4.239919 18.488998
0.840000 0.840000 7.000000 -3.933510 3.907948 30.744553
0.840000 0.840000 7.040000 -4.851333 1.567276 25.991783
0.840000 0.840000 7.080000 -3.150251 1.031772 10.988636
0.840000 0.840000 7.120000 -1.922672 2.959760 12.456849
0.840000 0.840000 7.160000 -2.718834 5.462750 37.233700
0.840000 0.840000 7.200000 -4.833200 6.914896 71.175606
0.840000 0.880000 6.800000 5.102855 -24.980759 650.077454
0.840000 0.880000 6.840000 16.695679 -11.501511 411.030457
0.840000 0.880000 6.880000 14.643909 7.352612 268.504974
0.840000 0.880000 6.920000 -1.296677 18.585728 347.110626
0.840000 0.880000 6.960000 -20.292820 13.645132 597.988159
0.840000 0.880000 7.000000 -28.645323 -3.993624 836.503540
0.840000 0.880000 7.040000 -20.740160 -21.479410 891.519287
0.840000 0.880000 7.080000 -2.979630 -26.878201 731.315857
0.840000 0.880000 7.120000 12.108719 -17.897030 466.924744
0.840000 0.880000 7.160000 15.634531 -2.087662 248.796890
0.840000 0.880000 7.200000 7.615283 10.130378 160.617096
0.840000 0.920000 6.800000 22.922274 -12.839784 690.290649
0.840000 0.920000 6.840000 24.746397 10.304166 718.559998
0.840000 0.920000 6.880000 6.030367 29.701885 918.567261
0.840000 0.920000 6.920000 -24.152491 28.325500 1385.676758
0.840000 0.920000 6.960000 -44.816467 2.786798 2016.281982
0.840000 0.920000 7.000000 -39.398251 -31.448910 2541.256104
0.840000 0.920000 7.040000 -9.874368 -51.005157 2699.029297
0.840000 0.920000 7.080000 24.109804 -42.793915 2412.601807
0.840000 0.920000 7.120000 40.521400 -13.776410 1831.773315
0.840000 0.920000 7.160000 31.270437 15.545431 1219.500732
0.840000 0.920000 7.200000 6.344337 27.278467 784.365356
0.840000 0.960000 6.800000 25.986061 9.378881 763.238770
0.840000 0.960000 6.840000 12.876362 32.894505 1247.849121
0.840000 0.960000 6.880000 -19.105921 39.741474 1944.421021
0.840000 0.960000 6.920000 -49.856350 17.340809 2786.359131
0.840000 0.960000 6.960000 -54.529800 -24.875668 3592.297852
0.840000 0.960000 7.000000 -24.698559 -59.316002 4128.407227
0.840000 0.960000 7.040000 22.253229 -61.020615 4218.721680
0.840000 0.960000 7.080000 55.213928 -28.072233 3836.628174
0.840000 0.960000 7.120000 53.365288 16.463600 3118.904053
0.840000 0.960000 7.160000 21.595604 42.805904 2298.715576
0.840000 0.960000 7.200000 -15.172519 36.968170 1596.850952
0.840000 1.000000 6.800000 11.420366 26.573956 836.599854
0.840000 1.000000 6.840000 -13.071033 39.627335 1741.177612
0.840000 1.000000 6.880000 -45.332287 27.570137 2815.128418
0.840000 1.000000 6.920000 -60.493549 -10.162972 3762.755371
0.840000 1.000000 6.960000 -40.988731 -51.590111 4341.615723
0.840000 1.000000 7.000000 5.928271 -66.712608 4485.716797
0.840000 1.000000 7.040000 50.334610 -41.904549 4289.564453
0.840000 1.000000 7.080000 61.960503 7.213153 3891.133545
0.840000 1.000000 7.120000 34.267044 46.900166 3373.855957
0.840000 1.000000 7.160000 -10.620865 51.569046 2772.169189
0.840000 1.000000 7.200000 -40.233414 22.802078 2138.662354
0.840000 1.040000 6.800000 -10.197027 27.252922 846.701111
0.840000 1.040000 6.840000 -35.455841 25.186436 1891.473267
0.840000 1.040000 6.880000 -54.615593 0.167359 2982.891113
0.840000 1.040000 6.920000 -48.444786 -36.511791 3680.008057
0.840000 1.040000 6.960000 -13.727620 -59.712139 3753.987061
0.840000 1.040000 7.000000 29.848064 -49.571060 3348.197021
0.840000 1.040000 7.040000 52.476719 -9.583979 2845.658447
0.840000 1.040000 7.080000 37.836433 33.488190 2553.054688
0.840000 1.040000 7.120000 -2.786169 49.740162 2481.846436
0.840000 1.040000 7.160000 -38.962372 29.817862 2407.171387
0.840000 1.040000 7.200000 -45.367741 -8.298777 2127.101562
0.840000 1.080000 6.800000 -23.753643 13.296882 741.042603
0.840000 1.080000 6.840000 -39.714558 0.891514 1578.040894
0.840000 1.080000 6.880000 -42.068756 -23.512302 2322.608643
0.840000 1.080000 6.920000 -23.615353 -45.015892 2584.115479
0.840000 1.080000 6.960000 7.551332 -46.668930 2235.011719
0.840000 1.080000 7.000000 31.186144 -23.833958 1540.633057
0.840000 1.080000 7.040000 29.886814 9.436741 982.273743
0.840000 1.080000 7.080000 4.060661 29.613342 893.438965
0.840000 1.080000 7.120000 -26.820129 22.237200 1213.812378
0.840000 1.080000 7.160000 -39.211891 -5.863906 1571.957764
0.840000 1.080000 7.200000 -24.467300 -31.904005 1616.514404
0.840000 1.120000 6.800000 -22.780277 -2.561529 525.502441
0.840000 1.120000 6.840000 -26.967178 -15.508458 967.740967
0.840000 1.120000 6.880000 -20.218693 -29.025572 1251.279297
0.840000 1.120000 6.920000 -4.911207 -34.210533 1194.480591
0.840000 1.120000 6.960000 9.836771 -26.598915 804.264343
0.840000 1.120000 7.000000 13.950861 -10.701693 309.152740
0.840000 1.120000 7.040000 4.458151 2.036942 24.024239
0.840000 1.120000 7.080000 -10.992882 1.735243 123.854523
0.840000 1.120000 7.120000 -19.333515 -11.439306 504.642548
0.840000 1.120000 7.160000 -12.660219 -26.463051 860.574158
0.840000 1.120000 7.200000 4.649409 -30.071949 925.939148
0.840000 1.160000 6.800000 -14.026711 -9.253042 282.367432
0.840000 1.160000 6.840000 -11.743099 -16.021454 394.587341
0.840000 1.160000 6.880000 -7.006729 -18.855436 404.621704
0.840000 1.160000 6.920000 -3.519094 -18.319279 347.980011
0.840000 1.160000 6.960000 -2.728278 -17.289995 306.387451
0.840000 1.160000 7.000000 -3.182959 -18.280743 344.316772
0.840000 1.160000 7.040000 -2.055073 -21.448080 464.243469
0.840000 1.160000 7.080000 2.527554 -24.433207 603.370117
0.840000 1.160000 7.120000 9.800543 -23.950998 669.700989
0.840000 1.160000 7.160000 16.356089 -18.178490 597.979126
0.840000 1.160000 7.200000 17.988272 -8.561825 396.882751
0.840000 1.200000 6.800000 -9.034872 -7.373686 136.000168
0.840000 1.200000 6.840000 -7.011120 -8.498951 121.387970
0.840000 1.200000 6.880000 -9.057234 -8.493084 154.165955
0.840000 1.200000 6.920000 -13.721067 -13.385368 367.435791
0.840000 1.200000 6.960000 -14.016718 -24.718815 807.488220
0.840000 1.200000 7.000000 -4.211544 -36.379410 1341.198486
0.840000 1.200000 7.040000 13.612951 -38.995075 1705.928223
0.840000 1.200000 7.080000 29.778660 -28.221237 1683.206787
0.840000 1.200000 7.120000 34.289711 -9.282867 1261.955933
0.840000 1.200000 7.160000 24.842697 6.510431 659.545349
0.840000 1.200000 7.200000 8.558378 10.243286 178.170746
0.880000 0.800000 6.800000 -24.729889 -23.398708 1159.066895
0.880000 0.800000 6.840000 -8.955729 -24.367769 673.993286
0.880000 0.800000 6.880000 1.576435 -16.556299 276.596191
0.880000 0.800000 6.920000 3.648594 -8.014797 77.549217
0.880000 0.800000 6.960000 2.411865 -4.772651 28.595295
0.880000 0.800000 7.000000 4.767557 -4.601646 43.904751
0.880000 0.800000 7.040000 10.856669 -0.371490 118.005280
0.880000 0.800000 7.080000 13.464272 10.717058 296.141968
0.880000 0.800000 7.120000 6.334629 22.561428 549.145569
0.880000 0.800000 7.160000 -7.898156 25.840000 730.086487
0.880000 0.800000 7.200000 -19.289890 17.858938 691.041504
0.880000 0.840000 6.800000 0.908301 -33.865330 1147.685547
0.880000 0.840000 6.840000 19.584398 -17.350609 684.592285
0.880000 0.840000 6.880000 19.714819 8.175567 455.513977
0.880000 0.840000 6.920000 0.774071 24.027359 577.913147
0.880000 0.840000 6.960000 -21.628754 18.941441 826.581177
0.880000 0.840000 7.000000 -29.549641 -0.423145 873.360352
0.880000 0.840000 7.040000 -18.855579 -16.064014 613.585449
0.880000 0.840000 7.080000 -1.708412 -15.594921 246.120239
0.880000 0.840000 7.120000 6.325947 -2.495793 46.246590
0.880000 0.840000 7.160000 0.729615 9.636034 93.385490
0.880000 0.840000 7.200000 -10.146529 11.397045 232.844696
0.880000 0.880000 6.800000 27.820841 -20.984354 1214.342285
0.880000 0.880000 6.840000 35.076233 14.476371 1439.907471
0.880000 0.880000 6.880000 9.358759 47.350346 2329.641602
0.880000 0.880000 6.920000 -36.403809 49.236271 3749.447754
0.880000 0.880000 6.960000 -69.120560 13.934509 4971.822266
0.880000 0.880000 7.000000 -63.503105 -34.280754 5207.814453
0.880000 0.880000 7.040000 -24.511639 -60.450413 4255.072754
0.880000 0.880000 7.080000 17.366436 -48.594074 2662.977051
0.880000 0.880000 7.120000 33.115814 -13.369411 1275.398315
0.880000 0.880000 7.160000 18.415457 15.827194 589.629150
0.880000 0.880000 7.200000 -7.491571 21.115517 501.988708
0.880000 0.920000 6.800000 36.098343 9.247602 1388.608521
0.880000 0.920000 6.840000 18.442646 52.040222 3048.315918
0.880000 0.920000 6.880000 -35.601845 69.316307 6072.241699
0.880000 0.920000 6.920000 -91.709564 35.488976 9670.112305
0.880000 0.920000 6.960000 -105.073463 -34.876415 12256.796875
0.880000 0.920000 7.000000 -60.244587 -94.154999 12494.574219
0.880000 0.920000 7.040000 12.785259 -100.579117 10279.622070
0.880000 0.920000 7.080000 62.920567 -53.439167 6814.742188
0.880000 0.920000 7.120000 60.470860 8.086166 3722.110840
0.880000 0.920000 7.160000 18.647408 40.152016 1959.910156
0.880000 0.920000 7.200000 -23.410997 29.450338 1415.397217
0.880000 0.960000 6.800000 17.765152 35.833794 1599.661377
0.880000 0.960000 6.840000 -25.360477 65.415771 4922.376953
0.880000 0.960000 6.880000 -89.331879 47.875214 10272.220703
0.880000 0.960000 6.920000 -124.343666 -22.443949 15965.078125
0.880000 0.960000 6.960000 -93.182053 -104.085793 19516.746094
0.880000 0.960000 7.000000 -8.176603 -138.515686 19253.453125
0.880000 0.960000 7.040000 74.262367 -99.780182 15470.984375
0.880000 0.960000 7.080000 99.362778 -17.678230 10185.481445
0.880000 0.960000 7.120000 58.570740 47.740433 5709.680664
0.880000 0.960000 7.160000 -7.262230 56.414917 3235.382812
0.880000 0.960000 7.200000 -46.505814 17.183826 2458.074707
0.880000 1.000000 6.800000 -14.719535 38.829895 1724.425415
0.880000 1.000000 6.840000 -66.962196 39.948334 6079.804688
0.880000 1.000000 6.880000 -112.031082 -10.461482 12660.405273
0.880000 1.000000 6.920000 -103.873314 -91.237152 19113.882812
0.880000 1.000000 6.960000 -31.660130 -146.728760 22531.691406
0.880000 1.000000 7.000000 63.167206 -131.815674 21365.466797
0.880000 1.000000 7.040000 116.907974 -52.900635 16465.951172
0.880000 1.000000 7.080000 96.017326 34.624092 10418.155273
0.880000 1.000000 7.120000 24.279675 71.875969 5755.657227
0.880000 1.000000 7.160000 -39.742996 43.733643 3492.137207
0.880000 1.000000 7.200000 -52.849800 -14.095541 2991.785645
0.880000 1.040000 6.800000 -37.530830 16.267538 1673.196045
0.880000 1.040000 6.840000 -75.936043 -8.512626 5838.747559
0.880000 1.040000 6.880000 -84.807831 -67.625351 11765.556641
0.880000 1.040000 6.920000 -40.178905 -124.411011 17092.443359
0.880000 1.040000 6.960000 40.622093 -132.807327 19287.941406
0.880000 1.040000 7.000000 106.281357 -77.884804 17361.769531
0.880000 1.040000 7.040000 111.739395 6.868992 12532.875000
0.880000 1.040000 7.080000 56.435951 64.321877 7322.320312
0.880000 1.040000 7.120000 -14.886105 60.082199 3831.466797
0.880000 1.040000 7.160000 -50.043648 8.992418 2585.230225
0.880000 1.040000 7.200000 -31.499275 -41.181320 2688.105469
0.880000 1.080000 6.800000 -35.219185 -13.976000 1435.719604
0.880000 1.080000 6.840000 -47.331612 -45.675705 4326.551758
0.880000 1.080000 6.880000 -27.893642 -85.488708 8086.374512
0.880000 1.080000 6.920000 22.652946 -102.682793 11056.912109
0.880000 1.080000 6.960000 76.467598 -76.623589 11718.467773
0.880000 1.080000 7.000000 97.177277 -17.548244 9751.363281
0.880000 1.080000 7.040000 69.766357 37.586929 6280.122070
0.880000 1.080000 7.080000 14.786919 53.474960 3078.224365
0.880000 1.080000 7.120000 -27.379295 25.087421 1379.004517
0.880000 1.080000 7.160000 -29.308887 -19.052275 1222.000000
0.880000 1.080000 7.200000 2.446602 -41.804726 1753.620972
0.880000 1.120000 6.800000 -13.240593 -29.860350 1066.953857
0.880000 1.120000 6.840000 -5.752352 -48.262253 2362.334717
0.880000 1.120000 6.880000 16.746731 -58.702374 3726.421875
0.880000 1.120000 6.920000 44.437920 -50.364101 4511.271484
0.880000 1.120000 6.960000 61.000328 -23.557663 4276.003418
0.880000 1.120000 7.000000 55.109005 8.027786 3101.447754
0.880000 1.120000 7.040000 30.138725 25.856737 1576.913574
0.880000 1.120000 7.080000 3.125309 20.503511 430.161530
0.880000 1.120000 7.120000 -7.763009 -0.442280 60.459919
0.880000 1.120000 7.160000 2.422546 -18.027954 330.875885
0.880000 1.120000 7.200000 21.544691 -17.285721 762.969849
0.880000 1.160000 6.800000 8.441913 -24.010168 647.754028
0.880000 1.160000 6.840000 17.395245 -23.112062 836.761963
0.880000 1.160000 6.880000 22.431295 -17.263088 801.177246
0.880000 1.160000 6.920000 22.714123 -11.731010 653.547974
0.880000 1.160000 6.960000 21.617479 -9.001236 548.337646
0.880000 1.160000 7.000000 21.917046 -7.394518 535.035767
0.880000 1.160000 7.040000 22.976738 -4.394518 547.242249
0.880000 1.160000 7.080000 22.529560 0.060032 507.584686
0.880000 1.160000 7.120000 19.886557 4.052761 411.899994
0.880000 1.160000 7.160000 16.339912 6.559851 310.024384
0.880000 1.160000 7.200000 12.669443 8.420609 231.421432
0.880000 1.200000 6.800000 14.243479 -8.229845 270.607056
0.880000 1.200000 6.840000 11.599186 1.962679 138.393219
0.880000 1.200000 6.880000 -1.118464 3.051559 10.562979
0.880000 1.200000 6.920000 -9.704012 -10.891819 212.799561
0.880000 1.200000 6.960000 -0.998432 -29.461727 868.990234
0.880000 1.200000 7.000000 22.681328 -34.688911 1717.763184
0.880000 1.200000 7.040000 44.003609 -18.386751 2274.390137
0.880000 1.200000 7.080000 46.026707 9.334698 2205.594238
0.880000 1.200000 7.120000 27.427549 28.862617 1585.321045
0.880000 1.200000 7.160000 2.882451 28.306534 809.568359
0.880000 1.200000 7.200000 -10.825399 12.384789 270.572266
0.920000 0.800000 6.800000 -8.654484 -40.025013 1676.901855
0.920000 0.800000 6.840000 9.489338 -28.227392 886.833191
0.920000 0.800000 6.880000 12.801926 -10.140947 266.728119
0.920000 0.800000 6.920000 3.793358 -0.168599 14.417989
0.920000 0.800000 6.960000 -4.145569 -3.169666 27.232525
0.920000 0.800000 7.000000 -0.838608 -9.891666 98.548325
0.920000 0.800000 7.040000 9.959196 -7.371552 153.525360
0.920000 0.800000 7.080000 14.861557 6.671257 265.371552
0.920000 0.800000 7.120000 5.612175 21.031620 473.825562
0.920000 0.800000 7.160000 -11.652405 22.862156 658.456665
0.920000 0.800000 7.200000 -22.641598 11.270782 639.672485
0.920000 0.840000 6.800000 25.347164 -31.551510 1637.976562
0.920000 0.840000 6.840000 34.997135 3.115757 1234.507324
0.920000 0.840000 6.880000 13.068516 34.781853 1380.563354
0.920000 0.840000 6.920000 -26.218025 37.385666 2085.072754
0.920000 0.840000 6.960000 -51.845173 8.067734 2753.010254
0.920000 0.840000 7.000000 -43.830421 -28.628059 2740.671631
0.920000 0.840000 7.040000 -11.393101 -42.868893 1967.544678
0.920000 0.840000 7.080000 16.654003 -26.344193 971.372314
0.920000 0.840000 7.120000 19.226311 2.461088 375.707977
0.920000 0.840000 7.160000 0.481620 18.328323 336.159393
0.920000 0.840000 7.200000 -18.427622 12.985214 508.193024
0.920000 0.880000 6.800000 42.357262 1.993162 1798.110229
0.920000 0.880000 6.840000 24.444489 51.486462 3248.388672
0.920000 0.880000 6.880000 -34.413570 72.493973 6439.669922
0.920000 0.880000 6.920000 -95.096237 37.318707 10435.979492
0.920000 0.880000 6.960000 -108.847755 -36.152946 13154.869141
0.920000 0.880000 7.000000 -61.654400 -95.445122 12911.037109
0.920000 0.880000 7.040000 11.398014 -98.293419 9791.511719
0.920000 0.880000 7.080000 56.724377 -48.836628 5602.670898
0.920000 0.880000 7.120000 48.463669 9.103138 2431.594482
0.920000 0.880000 7.160000 6.386679 33.301788 1149.798828
0.920000 0.880000 7.200000 -28.582619 17.764666 1132.549438
0.920000 0.920000 6.800000 26.760983 38.273888 2181.040771
0.920000 0.920000 6.840000 -27.228792 78.277664 6868.799805
0.920000 0.920000 6.880000 -108.845154 58.195038 15233.929688
0.920000 0.920000 6.920000 -153.995728 -28.936821 24552.023438
0.920000 0.920000 6.960000 -116.249908 -129.647263 30322.453125
0.920000 0.920000 7.000000 -13.172096 -170.928955 29390.210938
0.920000 0.920000 7.040000 84.129585 -123.546516 22341.529297
0.920000 0.920000 7.080000 110.948868 -27.494572 13065.602539
0.920000 0.920000 7.120000 62.240944 44.639992 5866.664062
0.920000 0.920000 7.160000 -9.758050 50.349010 2630.242432
0.920000 0.920000 7.200000 -47.190933 6.804789 2273.289307
0.920000 0.960000 6.800000 -12.531715 49.528572 2610.123291
0.920000 0.960000 6.840000 -87.999969 53.944118 10653.962891
0.920000 0.960000 6.880000 -154.689545 -17.084026 24220.718750
0.920000 0.960000 6.920000 -144.736130 -132.807968 38586.503906
0.920000 0.960000 6.960000 -43.009453 -212.201813 46879.421875
0.920000 0.960000 7.000000 89.718239 -191.601440 44760.476562
0.920000 0.960000 7.040000 163.479950 -82.820442 33584.917969
0.920000 0.960000 7.080000 134.763794 34.935760 19381.787109
0.920000 0.960000 7.120000 40.596359 82.913643 8522.736328
0.920000 0.960000 7.160000 -39.226784 46.532284 3703.994141
0.920000 0.960000 7.200000 -52.763954 -22.440567 3287.614014
0.920000 1.000000 6.800000 -46.813999 25.686552 2851.349609
0.920000 1.000000 6.840000 -111.711548 -12.090118 12625.640625
0.920000 1.000000 6.880000 -128.932053 -109.224907 28553.554688
0.920000 1.000000 6.920000 -56.629368 -203.850403 44761.875000
0.920000 1.000000 6.960000 75.877151 -218.338531 53429.058594
0.920000 1.000000 7.000000 182.769852 -129.093903 50070.054688
0.920000 1.000000 7.040000 191.576141 6.964274 36749.917969
0.920000 1.000000 7.080000 104.847290 97.687141 20535.730469
0.920000 1.000000 7.120000 -4.115402 92.259476 8528.747070
0.920000 1.000000 7.160000 -56.465382 18.550385 3532.456055
0.920000 1.000000 7.200000 -31.778946 -50.082016 3518.109619
0.920000 1.040000 6.800000 -50.330860 -16.043634 2790.593750
0.920000 1.040000 6.840000 -77.936569 -74.989769 11697.574219
0.920000 1.040000 6.880000 -42.948776 -154.267822 25643.158203
0.920000 1.040000 6.920000 56.317169 -189.815109 39201.402344
0.920000 1.040000 6.960000 163.025787 -138.347031 45717.308594
0.920000 1.040000 7.000000 203.338547 -21.242271 41797.800781
0.920000 1.040000 7.040000 148.921082 86.834763 29717.763672
0.920000 1.040000 7.080000 42.549530 118.097748 15757.541016
0.920000 1.040000 7.120000 -38.131954 66.536880 5881.202148
0.920000 1.040000 7.160000 -45.403694 -12.076100 2207.327637
0.920000 1.040000 7.200000 4.314194 -52.440002 2768.566162
0.920000 1.080000 6.800000 -21.518606 -44.920364 2480.889648
0.920000 1.080000 6.840000 -11.197514 -91.334953 8467.458008
0.920000 1.080000 6.880000 43.793671 -123.632660 17202.919922
0.920000 1.080000 6.920000 119.199989 -104.398926 25107.773438
0.920000 1.080000 6.960000 165.309723 -30.128704 28235.042969
0.920000 1.080000 7.000000 146.384552 58.982475 24907.369141
0.920000 1.080000 7.040000 72.659073 107.856865 16912.445312
0.920000 1.080000 7.080000 -5.713734 90.654701 8250.920898
0.920000 1.080000 7.120000 -38.989639 30.972467 2479.485840
0.920000 1.080000 7.160000 -16.907259 -19.998146 685.781250
0.920000 1.080000 7.200000 27.681171 -26.783756 1483.616943
0.920000 1.120000 6.800000 16.468254 -42.098461 2043.483765
0.920000 1.120000 6.840000 39.908646 -55.761791 4702.077148
0.920000 1.120000 6.880000 74.657990 -48.473495 7923.495117
0.920000 1.120000 6.920000 100.727264 -14.932838 10368.970703
0.920000 1.120000 6.960000 99.140930 32.001831 10853.041016
0.920000 1.120000 7.000000 66.874977 67.848450 9075.674805
0.920000 1.120000 7.040000 21.169182 73.492378 5849.264160
0.920000 1.120000 7.080000 -11.929073 49.656097 2608.030762
0.920000 1.120000 7.120000 -16.615480 16.550762 550.001953
0.920000 1.120000 7.160000 1.384600 -1.814405 5.209183
0.920000 1.120000 7.200000 20.699223 4.015867 444.585022
0.920000 1.160000 6.800000 36.372013 -14.993914 1547.740723
0.920000 1.160000 6.840000 44.610451 -3.088720 1999.632446
0.920000 1.160000 6.880000 43.188347 10.351974 1972.396606
0.920000 1.160000 6.920000 36.348934 18.420090 1660.544678
0.920000 1.160000 6.960000 30.504421 21.802814 1405.882446
0.920000 1.160000 7.000000 26.651245 25.409060 1355.909180
0.920000 1.160000 7.040000 20.640831 30.724239 1370.022827
0.920000 1.160000 7.080000 10.070366 33.527126 1225.480469
0.920000 1.160000 7.120000 -1.291906 29.476286 870.520447
0.920000 1.160000 7.160000 -7.237553 20.326944 465.566833
0.920000 1.160000 7.200000 -6.517657 12.710215 204.029419
0.920000 1.200000 6.800000 29.454430 11.775551 1006.227051
0.920000 1.200000 6.840000 13.490113 25.094629 811.723572
0.920000 1.200000 6.880000 -7.538330 16.810692 339.425781
0.920000 1.200000 6.920000 -10.430901 -7.552731 165.847427
0.920000 1.200000 6.960000 11.630119 -23.467865 686.000366
0.920000 1.200000 7.000000 39.809959 -11.715611 1722.088379
0.920000 1.200000 7.040000 46.847347 21.219921 2644.958984
0.920000 1.200000 7.080000 23.684059 48.209854 2885.124512
0.920000 1.200000 7.120000 -11.704559 47.175072 2362.483887
0.920000 1.200000 7.160000 -31.957794 21.260195 1473.296509
0.920000 1.200000 7.200000 -25.831793 -6.330379 707.355164
0.960000 0.800000 6.800000 17.690018 -40.032967 1915.575195
0.960000 0.800000 6.840000 27.421906 -16.894911 1037.398926
0.960000 0.800000 6.880000 17.603645 2.876593 318.163116
0.960000 0.800000 6.920000 0.134220 5.297626 28.082861
0.960000 0.800000 6.960000 -6.934996 -6.649277 92.307045
0.960000 0.800000 7.000000 2.668129 -16.076584 265.575470
0.960000 0.800000 7.040000 17.357681 -9.560883 392.699585
0.960000 0.800000 7.080000 20.015762 9.167287 484.669891
0.960000 0.800000 7.120000 5.723761 23.480524 584.096436
0.960000 0.800000 7.160000 -13.626789 21.223978 636.146606
0.960000 0.800000 7.200000 -22.184620 6.631260 536.130981
0.960000 0.840000 6.800000 41.799675 -9.979704 1846.807251
0.960000 0.840000 6.840000 29.194614 30.826258 1802.583740
0.960000 0.840000 6.880000 -14.467800 48.348148 2546.860596
0.960000 0.840000 6.920000 -57.498520 23.778107 3871.478271
0.960000 0.840000 6.960000 -64.640068 -26.093536 4859.210938
0.960000 0.840000 7.000000 -29.919193 -61.630539 4693.481445
0.960000 0.840000 7.040000 17.258949 -55.798035 3411.291992
0.960000 0.840000 7.080000 39.292519 -17.728897 1858.215820
0.960000 0.840000 7.120000 23.935574 18.249928 905.971558
0.960000 0.840000 7.160000 -8.343378 25.769396 733.673706
0.960000 0.840000 7.200000 -27.979052 8.127014 848.875671
0.960000 0.880000 6.800000 33.719048 30.702030 2079.588867
0.960000 0.880000 6.840000 -15.965902 69.187057 5041.759277
0.960000 0.880000 6.880000 -90.126480 52.069054 10833.968750
0.960000 0.880000 6.920000 -129.978699 -24.851883 17512.078125
0.960000 0.880000 6.960000 -95.714798 -111.424217 21576.679688
0.960000 0.880000 7.000000 -6.497284 -143.262421 20566.335938
0.960000 0.880000 7.040000 73.131958 -98.539810 15058.376953
0.960000 0.880000 7.080000 89.199181 -16.618217 8232.659180
0.960000 0.880000 7.120000 43.070271 39.149277 3387.714111
0.960000 0.880000 7.160000 -16.450825 37.113853 1648.067749
0.960000 0.880000 7.200000 -42.074032 -1.779356 1773.390259
0.960000 0.920000 6.800000 -4.900249 51.281651 2653.820068
0.960000 0.920000 6.840000 -85.128479 57.100716 10507.349609
0.960000 0.920000 6.880000 -155.597519 -16.797131 24492.732422
0.960000 0.920000 6.920000 -145.176285 -136.543442 39720.265625
0.960000 0.920000 6.960000 -40.196114 -216.710129 48579.007812
0.960000 0.920000 7.000000 93.868614 -193.107269 46101.734375
0.960000 0.920000 7.040000 164.609802 -81.766693 33782.179688
0.960000 0.920000 7.080000 131.549576 34.002144 18461.437500
0.960000 0.920000 7.120000 37.031185 76.618134 7241.646973
0.960000 0.920000 7.160000 -37.857204 37.293045 2823.939209
0.960000 0.920000 7.200000 -46.266766 -28.139313 2932.434570
0.960000 0.960000 6.800000 -46.880348 33.459305 3317.291992
0.960000 0.960000 6.840000 -126.006134 -10.843357 15995.124023
0.960000 0.960000 6.880000 -147.594666 -127.122581 37944.335938
0.960000 0.960000 6.920000 -61.493679 -239.730072 61251.980469
0.960000 0.960000 6.960000 95.246681 -255.565277 74385.539062
0.960000 0.960000 7.000000 219.021881 -148.988708 70168.218750
0.960000 0.960000 7.040000 225.905334 9.427511 51122.097656
0.960000 0.960000 7.080000 123.423988 111.203827 27599.771484
0.960000 0.960000 7.120000 0.070135 101.431183 10288.290039
0.960000 0.960000 7.160000 -55.374462 17.831974 3384.310303
0.960000 0.960000 7.200000 -26.158110 -54.649391 3670.802734
0.960000 1.000000 6.800000 -59.963474 -11.715477 3732.870605
0.960000 1.000000 6.840000 -100.818977 -92.220367 18669.062500
0.960000 1.000000 6.880000 -54.200455 -202.619476 43992.339844
0.960000 1.000000 6.920000 82.395271 -252.021194 70303.664062
0.960000 1.000000 6.960000 228.198090 -180.329071 84592.937500
0.960000 1.000000 7.000000 280.594177 -19.729345 79122.343750
0.960000 1.000000 7.040000 203.603821 125.001686 57079.937500
0.960000 1.000000 7.080000 59.791153 163.270859 30232.355469
0.960000 1.000000 7.120000 -45.199417 92.346405 10570.845703
0.960000 1.000000 7.160000 -52.371437 -9.342121 2830.042480
0.960000 1.000000 7.200000 10.132708 -57.994030 3465.979492
0.960000 1.040000 6.800000 -33.279373 -51.291542 3738.338867
0.960000 1.040000 6.840000 -22.079132 -128.962646 17118.851562
0.960000 1.040000 6.880000 66.605301 -186.216049 39112.683594
0.960000 1.040000 6.920000 192.020752 -156.343170 61315.156250
0.960000 1.040000 6.960000 267.686523 -32.955021 72742.109375
0.960000 1.040000 7.000000 233.092834 113.593597 67235.773438
0.960000 1.040000 7.040000 108.827377 189.818665 47874.523438
0.960000 1.040000 7.080000 -18.421556 156.255035 24754.990234
0.960000 1.040000 7.120000 -68.560608 57.213310 7973.919922
0.960000 1.040000 7.160000 -31.293991 -22.787647 1498.590820
0.960000 1.040000 7.200000 36.086975 -32.433414 2354.196289
0.960000 1.080000 6.800000 13.581684 -56.879513 3419.741211
0.960000 1.080000 6.840000 55.371136 -96.501709 12378.542969
0.960000 1.080000 6.880000 133.422745 -91.656364 26202.517578
0.960000 1.080000 6.920000 197.621429 -20.439484 39472.003906
0.960000 1.080000 6.960000 195.120026 87.222610 45679.609375
0.960000 1.080000 7.000000 116.779587 166.955154 41511.496094
0.960000 1.080000 7.040000 9.193047 170.491684 29151.925781
0.960000 1.080000 7.080000 -61.266270 104.924713 14762.750977
0.960000 1.080000 7.120000 -61.177315 25.022358 4368.782227
0.960000 1.080000 7.160000 -12.778288 -13.776484 353.076141
0.960000 1.080000 7.200000 31.421257 1.486971 989.506470
0.960000 1.120000 6.800000 47.196098 -27.080584 2960.829590
0.960000 1.120000 6.840000 80.430557 -24.022503 7046.155273
0.960000 1.120000 6.880000 110.724846 8.554916 12333.177734
0.960000 1.120000 6.920000 113.687126 62.097717 16780.888672
0.960000 1.120000 6.960000 78.909294 110.267723 18385.648438
0.960000 1.120000 7.000000 20.058357 126.314713 16357.744141
0.960000 1.120000 7.040000 -33.000484 102.550720 11605.682617
0.960000 1.120000 7.080000 -54.978073 56.232742 6184.709961
0.960000 1.120000 7.120000 -42.614731 16.632429 2092.652832
0.960000 1.120000 7.160000 -15.031288 3.578074 238.742233
0.960000 1.120000 7.200000 2.695176 14.637609 221.523590
0.960000 1.160000 6.800000 47.599182 13.566782 2449.739746
0.960000 1.160000 6.840000 47.296745 32.996681 3325.763184
0.960000 1.160000 6.880000 35.173141 47.604950 3503.381104
0.960000 1.160000 6.920000 20.155212 52.496544 3162.119873
0.960000 1.160000 6.960000 8.723831 52.284115 2809.733887
0.960000 1.160000 7.000000 -1.120926 52.501694 2757.684326
0.960000 1.160000 7.040000 -14.364405 51.483540 2856.891113
0.960000 1.160000 7.080000 -29.686001 42.752777 2709.058594
0.960000 1.160000 7.120000 -38.536926 24.825428 2101.396484
0.960000 1.160000 7.160000 -34.470322 5.908279 1223.110840
0.960000 1.160000 7.200000 -21.712990 -3.267445 482.130127
0.960000 1.200000 6.800000 22.174765 36.879608 1851.825684
0.960000 1.200000 6.840000 -5.312769 40.990860 1708.476074
0.960000 1.200000 6.880000 -23.988369 18.891090 932.315125
0.960000 1.200000 6.920000 -13.674324 -8.273827 255.443344
0.960000 1.200000 6.960000 16.105957 -11.128288 383.240662
0.960000 1.200000 7.000000 33.564323 16.565048 1400.964600
0.960000 1.200000 7.040000 16.667294 49.351509 2713.370117
0.960000 1.200000 7.080000 -23.516869 54.526421 3526.173828
0.960000 1.200000 7.120000 -53.023823 24.701496 3421.689941
0.960000 1.200000 7.160000 -48.303078 -15.306505 2567.476318
0.960000 1.200000 7.200000 -18.056631 -33.884983 1474.233887
1.000000 0.800000 6.800000 36.750793 -19.938610 1748.168945
1.000000 0.800000 6.840000 32.172413 4.802963 1058.132690
1.000000 0.800000 6.880000 12.304123 16.104019 410.730896
1.000000 0.800000 6.920000 -5.053503 7.620789 83.614311
1.000000 0.800000 6.960000 -5.012972 -8.793861 102.461884
1.000000 0.800000 7.000000 9.991516 -14.437050 308.258789
1.000000 0.800000 7.040000 22.905411 -2.036223 528.804016
1.000000 0.800000 7.080000 19.180748 17.591846 677.374146
1.000000 0.800000 7.120000 0.734887 26.981457 728.539062
1.000000 0.800000 7.160000 -17.124012 19.240007 663.409668
1.000000 0.800000 7.200000 -21.608370 3.462896 478.913300
1.000000 0.840000 6.800000 36.364155 17.553024 1630.460449
1.000000 0.840000 6.840000 3.225204 45.301445 2062.622803
1.000000 0.840000 6.880000 -44.692257 35.908901 3286.847168
1.000000 0.840000 6.920000 -69.130463 -10.607346 4891.536621
1.000000 0.840000 6.960000 -47.314919 -60.357559 5881.736328
1.000000 0.840000 7.000000 5.075958 -74.136597 5522.000000
1.000000 0.840000 7.040000 46.707497 -42.706245 4005.413574
1.000000 0.840000 7.080000 47.477333 5.711079 2286.713623
1.000000 0.840000 7.120000 13.688309 32.590725 1249.525146
1.000000 0.840000 7.160000 -21.874498 23.383320 1025.273315
1.000000 0.840000 7.200000 -32.621490 -4.072680 1080.748291
1.000000 0.880000 6.800000 4.759938 42.921200 1864.886353
1.000000 0.880000 6.840000 -58.967381 48.237831 5804.040039
1.000000 0.880000 6.880000 -113.901611 -8.530525 13046.346680
1.000000 0.880000 6.920000 -105.637886 -99.235893 21007.125000
1.000000 0.880000 6.960000 -26.111969 -157.562897 25507.900391
1.000000 0.880000 7.000000 72.324860 -136.512817 23866.634766
1.000000 0.880000 7.040000 119.876495 -51.897675 17063.742188
1.000000 0.880000 7.080000 89.582962 31.299919 9004.791992
1.000000 0.880000 7.120000 17.394707 56.681694 3515.390381
1.000000 0.880000 7.160000 -35.192974 22.365477 1738.760010
1.000000 0.880000 7.200000 -36.776093 -26.692778 2064.985352
1.000000 0.920000 6.800000 -37.238270 33.734726 2524.720459
1.000000 0.920000 6.840000 -109.142685 -6.226841 11950.899414
1.000000 0.920000 6.880000 -128.511139 -110.592873 28745.896484
1.000000 0.920000 6.920000 -51.262886 -210.252411 46833.960938
1.000000 0.920000 6.960000 87.339615 -222.221695 57010.687500
1.000000 0.920000 7.000000 193.799973 -126.166344 53476.375000
1.000000 0.920000 7.040000 195.367920 12.356567 38321.308594
1.000000 0.920000 7.080000 102.638123 97.207733 19983.927734
1.000000 0.920000 7.120000 -3.797419 83.525269 6990.891113
1.000000 0.920000 7.160000 -47.650436 8.847891 2348.849365
1.000000 0.920000 7.200000 -19.143591 -51.538315 3022.675049
1.000000 0.960000 6.800000 -57.387375 -6.599445 3336.863525
1.000000 0.960000 6.840000 -100.164948 -89.456482 18035.478516
1.000000 0.960000 6.880000 -52.317593 -203.101044 43987.164062
1.000000 0.960000 6.920000 87.919907 -252.900848 71688.750000
1.000000 0.960000 6.960000 235.714066 -177.850311 87191.851562
1.000000 0.960000 7.000000 285.680878 -13.661758 81800.203125
1.000000 0.960000 7.040000 203.912292 130.611664 58639.628906
1.000000 0.960000 7.080000 57.932438 164.352264 30367.833984
1.000000 0.960000 7.120000 -44.364399 89.433243 9966.504883
1.000000 0.960000 7.160000 -47.313221 -11.565972 2372.312500
1.000000 0.960000 7.200000 15.505877 -56.205925 3399.538086
1.000000 1.000000 6.800000 -38.335541 -49.324898 3902.559082
1.000000 1.000000 6.840000 -27.312172 -142.123199 20944.958984
1.000000 1.000000 6.880000 77.338425 -211.439789 50688.015625
1.000000 1.000000 6.920000 226.141388 -175.953156 82099.437500
1.000000 1.000000 6.960000 314.045471 -28.921398 99461.000000
1.000000 1.000000 7.000000 269.544128 143.132233 93140.875000
1.000000 1.000000 7.040000 120.711014 228.351410 66715.515625
1.000000 1.000000 7.080000 -26.818623 183.441010 34369.843750
1.000000 1.000000 7.120000 -80.276779 65.673241 10757.335938
1.000000 1.000000 7.160000 -33.359871 -24.563343 1716.238770
1.000000 1.000000 7.200000 42.829460 -32.228218 2873.020752
1.000000 1.040000 6.800000 7.453308 -62.807869 4000.380127
1.000000 1.040000 6.840000 62.431690 -123.598267 19174.248047
1.000000 1.040000 6.880000 173.787308 -121.665688 45004.570312
1.000000 1.040000 6.920000 267.031128 -21.831623 71782.242188
1.000000 1.040000 6.960000 262.552002 131.531235 86234.015625
1.000000 1.040000 7.000000 147.954071 242.014252 80461.304688
1.000000 1.040000 7.040000 -5.237404 240.008698 57631.605469
1.000000 1.040000 7.080000 -99.479294 140.728088 29700.523438
1.000000 1.040000 7.120000 -91.058372 27.543591 9050.276367
1.000000 1.040000 7.160000 -18.735897 -21.993111 834.730774
1.000000 1.040000 7.200000 40.864971 2.969013 1678.760986
1.000000 1.080000 6.800000 47.708939 -37.757767 3701.791748
1.000000 1.080000 6.840000 107.919182 -47.623825 13914.578125
1.000000 1.080000 6.880000 174.066772 3.458107 30311.201172
1.000000 1.080000 6.920000 188.701675 105.203186 46676.035156
1.000000 1.080000 6.960000 122.867363 200.024261 55106.093750
1.000000 1.080000 7.000000 6.250031 226.083389 51152.761719
1.000000 1.080000 7.040000 -92.530174 168.289658 36883.242188
1.000000 1.080000 7.080000 -120.079926 70.759491 19426.093750
1.000000 1.080000 7.120000 -78.607689 -0.763716 6179.752441
1.000000 1.080000 7.160000 -17.577156 -11.752029 447.066620
1.000000 1.080000 7.200000 12.471924 19.973166 554.476196
1.000000 1.120000 6.800000 56.380653 6.726371 3224.022217
1.000000 1.120000 6.840000 84.545387 29.877672 8040.597656
1.000000 1.120000 6.880000 91.903496 78.308411 14578.459961
1.000000 1.120000 6.920000 61.489063 129.070251 20440.033203
1.000000 1.120000 6.960000 0.100067 152.040161 23116.220703
1.000000 1.120000 7.000000 -63.930458 131.627304 21412.851562
1.000000 1.120000 7.040000 -99.743401 78.610527 16128.361328
1.000000 1.120000 7.080000 -95.025040 22.415474 9532.210938
1.000000 1.120000 7.120000 -62.825844 -9.860901 4044.323975
1.000000 1.120000 7.160000 -29.636509 -11.056202 1000.562256
1.000000 1.120000 7.200000 -15.357094 4.792641 258.809723
1.000000 1.160000 6.800000 32.752399 40.469425 2710.494141
1.000000 1.160000 6.840000 21.245783 59.143761 3949.367676
1.000000 1.160000 6.880000 0.464172 66.913902 4477.685547
1.000000 1.160000 6.920000 -18.604065 63.317345 4355.197266
1.000000 1.160000 6.960000 -31.926750 55.586063 4109.127930
1.000000 1.160000 7.000000 -43.607567 47.531555 4160.868652
1.000000 1.160000 7.040000 -56.414387 35.011238 4408.369629
1.000000 1.160000 7.080000 -64.571228 13.493061 4351.505859
1.000000 1.160000 7.120000 -58.821831 -12.095543 3606.310059
1.000000 1.160000 7.160000 -38.545723 -28.605923 2304.071533
1.000000 1.160000 7.200000 -15.976852 -27.383509 1005.116394
1.000000 1.200000 6.800000 -1.876043 46.385925 2155.173584
1.000000 1.200000 6.840000 -29.810915 35.428711 2143.884277
1.000000 1.200000 6.880000 -35.845165 5.659888 1316.910156
1.000000 1.200000 6.920000 -13.833160 -13.090767 362.724487
1.000000 1.200000 6.960000 11.427044 -0.641342 130.988647
1.000000 1.200000 7.000000 9.096863 29.950027 979.757080
1.000000 1.200000 7.040000 -24.210476 43.878220 2511.445312
1.000000 1.200000 7.080000 -58.710957 20.447790 3865.088379
1.000000 1.200000 7.120000 -60.827808 -24.476830 4299.137207
1.000000 1.200000 7.160000 -27.246893 -53.761879 3632.732910
1.000000 1.200000 7.200000 12.284676 -46.123085 2278.252197
1.040000 0.800000 6.800000 34.795326 7.281185 1263.730347
1.040000 0.800000 6.840000 19.870190 22.962101 922.082520
1.040000 0.800000 6.880000 -0.459870 22.078957 487.691803
1.040000 0.800000 6.920000 -10.453930 7.264565 162.058548
1.040000 0.800000 6.960000 -3.676636 -6.681274 58.157078
1.040000 0.800000 7.000000 10.948013 -6.498789 162.093246
1.040000 0.800000 7.040000 17.824055 7.323040 371.323853
1.040000 0.800000 7.080000 9.377666 21.769554 561.854126
1.040000 0.800000 7.120000 -7.716543 24.148121 642.676758
1.040000 0.800000 7.160000 -20.100101 13.421856 584.160278
1.040000 0.800000 7.200000 -20.503700 -0.636727 420.807159
1.040000 0.840000 6.800000 12.208200 30.851635 1100.863525
1.040000 0.840000 6.840000 -24.691061 35.077789 1840.099854
1.040000 0.840000 6.880000 -55.847839 5.126358 3145.260742
1.040000 0.840000 6.920000 -52.449741 -42.232571 4534.565430
1.040000 0.840000 6.960000 -12.032043 -71.188698 5212.600586
1.040000 0.840000 7.000000 36.188309 -58.381115 4717.948242
1.040000 0.840000 7.040000 55.980606 -14.516361 3344.553223
1.040000 0.840000 7.080000 35.667320 25.288303 1911.656006
1.040000 0.840000 7.120000 -3.541378 32.956970 1098.703247
1.040000 0.840000 7.160000 -29.220816 10.217143 958.246094
1.040000 0.840000 7.200000 -26.778591 -17.733135 1031.557007
1.040000 0.880000 6.800000 -23.033962 27.645279 1294.824951
1.040000 0.880000 6.840000 -71.346786 0.812202 5091.023438
1.040000 0.880000 6.880000 -84.379974 -68.077194 11754.484375
1.040000 0.880000 6.920000 -33.949135 -132.905746 18816.480469
1.040000 0.880000 6.960000 55.524319 -139.598236 22570.617188
1.040000 0.880000 7.000000 122.299614 -76.387825 20792.294922
1.040000 0.880000 7.040000 119.943443 12.301125 14537.747070
1.040000 0.880000 7.080000 57.551155 63.684547 7367.857422
1.040000 0.880000 7.120000 -10.901867 50.350651 2654.038574
1.040000 0.880000 7.160000 -36.330772 -0.941883 1320.812134
1.040000 0.880000 7.200000 -14.533627 -40.333004 1837.977539
1.040000 0.920000 6.800000 -43.727188 -3.879782 1927.119751
1.040000 0.920000 6.840000 -76.037888 -67.830521 10382.740234
1.040000 0.920000 6.880000 -38.687565 -154.830963 25469.355469
1.040000 0.920000 6.920000 69.037384 -191.982605 41623.480469
1.040000 0.920000 6.960000 181.086533 -133.148270 50520.792969
1.040000 0.920000 7.000000 216.681000 -7.360825 47004.839844
1.040000 0.920000 7.040000 151.544495 100.678650 33101.925781
1.040000 0.920000 7.080000 39.627045 122.447647 16563.728516
1.040000 0.920000 7.120000 -35.893661 61.979103 5129.764160
1.040000 0.920000 7.160000 -34.359299 -15.500308 1420.820923
1.040000 0.920000 7.200000 15.695148 -47.479790 2500.667969
1.040000 0.960000 6.800000 -31.557537 -41.685768 2733.581543
1.040000 0.960000 6.840000 -21.512859 -123.028145 15598.727539
1.040000 0.960000 6.880000 71.166809 -183.522064 38745.062500
1.040000 0.960000 6.920000 202.207153 -150.848236 63642.921875
1.040000 0.960000 6.960000 277.843414 -19.939571 77594.546875
1.040000 0.960000 7.000000 235.508575 130.928604 72606.585938
1.040000 0.960000 7.040000 102.464653 202.447144 51483.851562
1.040000 0.960000 7.080000 -25.944454 158.592209 25824.603516
1.040000 0.960000 7.120000 -68.734024 53.206413 7555.288574
1.040000 0.960000 7.160000 -23.903566 -24.127045 1153.494751
1.040000 0.960000 7.200000 43.031925 -27.611280 2614.129395
1.040000 1.000000 6.800000 6.702168 -57.166866 3312.969482
1.040000 1.000000 6.840000 61.446461 -119.583794 18075.951172
1.040000 1.000000 6.880000 174.998688 -118.167358 44588.066406
1.040000 1.000000 6.920000 269.857880 -15.652536 73068.273438
1.040000 1.000000 6.960000 263.069946 141.214417 89147.312500
1.040000 1.000000 7.000000 143.158508 251.492538 83742.859375
1.040000 1.000000 7.040000 -13.393717 244.238266 59831.722656
1.040000 1.000000 7.080000 -105.305511 138.705963 30328.593750
1.040000 1.000000 7.120000 -90.720406 23.676647 8790.776367
1.040000 1.000000 7.160000 -14.143080 -22.445053 703.807129
1.040000 1.000000 7.200000 44.509979 6.412020 2022.252319
1.040000 1.040000 6.800000 44.223671 -38.331562 3425.041504
1.040000 1.040000 6.840000 116.070557 -55.377552 16539.046875
1.040000 1.040000 6.880000 199.136795 3.541216 39668.003906
1.040000 1.040000 6.920000 218.964981 127.800087 64278.527344
1.040000 1.040000 6.960000 137.246460 243.589981 78172.671875
1.040000 1.040000 7.000000 -7.080975 271.372528 73693.187500
1.040000 1.040000 7.040000 -124.935249 194.047028 53263.066406
1.040000 1.040000 7.080000 -150.087875 71.591797 27651.755859
1.040000 1.040000 7.120000 -90.789345 -11.687870 8379.311523
1.040000 1.040000 7.160000 -13.983101 -16.934935 482.319153
1.040000 1.040000 7.200000 18.577318 26.465467 1045.537720
1.040000 1.080000 6.800000 55.853104 1.351393 3121.395264
1.040000 1.080000 6.840000 106.690941 25.171541 12016.563477
1.040000 1.080000 6.880000 130.682846 99.087036 26896.246094
1.040000 1.080000 6.920000 88.807137 185.537018 42310.691406
1.040000 1.080000 6.960000 -11.639565 225.365143 50924.929688
1.040000 1.080000 7.000000 -116.376129 186.312408 48255.714844
1.040000 1.080000 7.040000 -165.393707 91.485329 35724.644531
1.040000 1.080000 7.080000 -140.104797 0.989346 19630.332031
1.040000 1.080000 7.120000 -74.408432 -36.684158 6882.342285
1.040000 1.080000 7.160000 -21.797815 -19.598171 859.233032
1.040000 1.080000 7.200000 -10.913870 15.333496 354.228668
1.040000 1.120000 6.800000 36.993439 35.470879 2626.697754
1.040000 1.120000 6.840000 47.246178 68.774193 6962.090820
1.040000 1.120000 6.880000 27.264683 111.393471 13151.868164
1.040000 1.120000 6.920000 -24.213753 135.841644 19039.259766
1.040000 1.120000 6.960000 -85.827759 121.867607 22218.117188
1.040000 1.120000 7.000000 -127.229721 71.966637 21366.599609
1.040000 1.120000 7.040000 -129.814804 10.149895 16954.902344
1.040000 1.120000 7.080000 -98.390366 -34.768223 10889.493164
1.040000 1.120000 7.120000 -55.614178 -47.940189 5391.198242
1.040000 1.120000 7.160000 -24.955032 -35.422634 1877.516724
1.040000 1.120000 7.200000 -15.944290 -15.940834 508.330566
1.040000 1.160000 6.800000 3.853885 45.998177 2130.684814
1.040000 1.160000 6.840000 -14.562000 56.556931 3410.738037
1.040000 1.160000 6.880000 -36.423199 53.575287 4196.960938
1.040000 1.160000 6.920000 -52.220249 41.149288 4420.218262
1.040000 1.160000 6.960000 -61.406090 26.641800 4480.493164
1.040000 1.160000 7.000000 -68.177071 11.113388 4771.620117
1.040000 1.160000 7.040000 -71.689247 -9.571701 5230.965820
1.040000 1.160000 7.080000 -64.317589 -34.826218 5349.618164
1.040000 1.160000 7.120000 -41.465935 -54.121365 4648.545898
1.040000 1.160000 7.160000 -11.228149 -55.147945 3167.367188
1.040000 1.160000 7.200000 9.377569 -37.628078 1503.811157
1.040000 1.200000 6.800000 -22.655678 34.347095 1693.002686
1.040000 1.200000 6.840000 -40.145370 13.455778 1792.708740
1.040000 1.200000 6.880000 -32.198158 -12.164831 1184.704590
1.040000 1.200000 6.920000 -8.321264 -16.623489 345.583832
1.040000 1.200000 6.960000 2.814655 3.050446 17.227503
1.040000 1.200000 7.000000 -14.975018 21.244667 675.587036
1.040000 1.200000 7.040000 -45.353069 10.396671 2164.991699
1.040000 1.200000 7.080000 -54.483948 -27.960743 3750.303711
1.040000 1.200000 7.120000 -26.550781 -62.103058 4561.733887
1.040000 1.200000 7.160000 18.274597 -61.680809 4138.482910
1.040000 1.200000 7.200000 43.454170 -28.875488 2722.058594
1.080000 0.800000 6.800000 14.345366 22.572718 715.317078
1.080000 0.800000 6.840000 -0.512888 25.960714 674.221741
1.080000 0.800000 6.880000 -13.262947 17.923107 497.143524
1.080000 0.800000 6.920000 -15.613567 4.311771 262.374878
1.080000 0.800000 6.960000 -7.502892 -4.578604 77.256989
1.080000 0.800000 7.000000 2.837173 -2.808531 15.937399
1.080000 0.800000 7.040000 6.147038 6.450027 79.388931
1.080000 0.800000 7.080000 -0.176356 14.272541 203.736526
1.080000 0.800000 7.120000 -10.727360 13.827612 306.279114
1.080000 0.800000 7.160000 -17.453259 5.474077 334.581757
1.080000 0.800000 7.200000 -16.267523 -4.731369 287.018158
1.080000 0.840000 6.800000 -11.845705 20.718138 569.561951
1.080000 0.840000 6.840000 -34.492081 8.554817 1262.888550
1.080000 0.840000 6.880000 -41.791965 -21.964355 2229.001221
1.080000 0.840000 6.920000 -21.624958 -51.165466 3085.543945
1.080000 0.840000 6.960000 15.812935 -55.854259 3369.747070
1.080000 0.840000 7.000000 44.282108 -30.612301 2898.018066
1.080000 0.840000 7.040000 43.622395 6.026176 1939.228149
1.080000 0.840000 7.080000 17.057564 27.134586 1027.246216
1.080000 0.840000 7.120000 -12.544600 20.198502 565.346436
1.080000 0.840000 7.160000 -23.359627 -4.013905 561.783630
1.080000 0.840000 7.200000 -12.262350 -23.610123 707.803101
1.080000 0.880000 6.800000 -27.545433 -3.140714 768.614929
1.080000 0.880000 6.840000 -44.071678 -37.980057 3384.797607
1.080000 0.880000 6.880000 -23.702213 -85.036880 7793.065918
1.080000 0.880000 6.920000 34.445480 -105.525238 12322.067383
1.080000 0.880000 6.960000 95.210869 -74.305321 14586.390625
1.080000 0.880000 7.000000 114.802948 -6.587791 13223.116211
1.080000 0.880000 7.040000 79.529884 51.745964 9002.647461
1.080000 0.880000 7.080000 18.461090 62.880131 4294.722656
1.080000 0.880000 7.120000 -22.529589 28.446621 1316.792603
1.080000 0.880000 7.160000 -20.278038 -15.629242 655.472046
1.080000 0.880000 7.200000 9.887907 -33.891560 1246.408569
1.080000 0.920000 6.800000 -17.609808 -32.098648 1340.428589
1.080000 0.920000 6.840000 -9.549929 -82.151833 6840.125000
1.080000 0.920000 6.880000 49.869347 -119.140785 16681.478516
1.080000 0.920000 6.920000 133.240829 -97.198868 27200.738281
1.080000 0.920000 6.960000 180.947449 -12.812679 32906.144531
1.080000 0.920000 7.000000 152.815964 83.897888 30391.574219
1.080000 0.920000 7.040000 66.512581 128.879807 21033.927734
1.080000 0.920000 7.080000 -15.990192 98.934135 10043.649414
1.080000 0.920000 7.120000 -41.964375 29.501200 2631.329590
1.080000 0.920000 7.160000 -10.484531 -20.519650 530.981445
1.080000 0.920000 7.200000 34.833359 -21.147049 1660.560547
1.080000 0.960000 6.800000 12.820606 -43.032745 2016.185059
1.080000 0.960000 6.840000 53.078110 -86.047623 10221.478516
1.080000 0.960000 6.880000 135.783768 -82.991592 25324.835938
1.080000 0.960000 6.920000 204.282486 -5.964767 41766.914062
1.080000 0.960000 6.960000 197.107758 110.448494 51050.339844
1.080000 0.960000 7.000000 106.125488 190.892563 47702.585938
1.080000 0.960000 7.040000 -10.684660 182.757660 33514.523438
1.080000 0.960000 7.080000 -77.159172 101.755539 16307.726562
1.080000 0.960000 7.120000 -62.955757 15.794027 4212.878418
1.080000 0.960000 7.160000 -3.449440 -16.330940 278.598267
1.080000 0.960000 7.200000 40.151482 8.090076 1677.590820
1.080000 1.000000 6.800000 41.753006 -26.348253 2437.543945
1.080000 1.000000 6.840000 100.979378 -39.766232 11778.188477
1.080000 1.000000 6.880000 170.448349 10.914742 29171.771484
1.080000 1.000000 6.920000 185.673874 117.504074 48281.996094
1.080000 1.000000 6.960000 113.162445 215.815216 59381.945312
1.080000 1.000000 7.000000 -12.369921 236.460297 56066.488281
1.080000 1.000000 7.040000 -112.215446 165.806137 40083.984375
1.080000 1.000000 7.080000 -129.261520 58.472496 20127.574219
1.080000 1.000000 7.120000 -73.548820 -11.035522 5531.211914
1.080000 1.000000 7.160000 -6.204302 -10.929560 157.948639
1.080000 1.000000 7.200000 19.290474 29.409977 1237.069092
1.080000 1.040000 6.800000 48.794037 6.213848 2419.469971
1.080000 1.040000 6.840000 99.802017 27.200516 10700.310547
1.080000 1.040000 6.880000 125.704887 101.088608 26020.625000
1.080000 1.040000 6.920000 83.200928 189.611542 42874.929688
1.080000 1.040000 6.960000 -21.038843 229.071411 52916.343750
1.080000 1.040000 7.000000 -128.183868 184.749771 50563.578125
1.080000 1.040000 7.040000 -173.558655 83.310478 37063.242188
1.080000 1.040000 7.080000 -139.712692 -8.721651 19595.703125
1.080000 1.040000 7.120000 -67.155701 -40.619671 6159.845703
1.080000 1.040000 7.160000 -14.728779 -15.285999 450.598694
1.080000 1.040000 7.200000 -9.363564 23.316532 631.336975
1.080000 1.080000 6.800000 31.337082 32.613815 2045.673584
1.080000 1.080000 6.840000 52.776730 70.102280 7699.712891
1.080000 1.080000 6.880000 34.956676 128.460480 17724.064453
1.080000 1.080000 6.920000 -31.298428 166.229065 28611.693359
1.080000 1.080000 6.960000 -115.671402 147.981415 35278.375000
1.080000 1.080000 7.000000 -168.938965 75.953255 34309.269531
1.080000 1.080000 7.040000 -161.797043 -9.377235 26266.214844
1.080000 1.080000 7.080000 -107.215408 -61.183891 15238.612305
1.080000 1.080000 7.120000 -46.927814 -61.912338 6035.357422
1.080000 1.080000 7.160000 -16.048307 -31.585825 1255.212524
1.080000 1.080000 7.200000 -18.463865 -4.616479 362.226196
1.080000 1.120000 6.800000 3.898029 39.142960 1547.365845
1.080000 1.120000 6.840000 -3.982935 66.110619 4386.477539
1.080000 1.120000 6.880000 -36.727734 85.938698 8734.386719
1.080000 1.120000 6.920000 -82.904060 79.438263 13183.520508
1.080000 1.120000 6.960000 -119.294083 42.320259 16022.082031
1.080000 1.120000 7.000000 -126.612869 -10.905396 16149.746094
1.080000 1.120000 7.040000 -102.131462 -56.579876 13632.118164
1.080000 1.120000 7.080000 -60.168335 -77.127777 9568.921875
1.080000 1.120000 7.120000 -21.480957 -70.550362 5438.785156
1.080000 1.120000 7.160000 -0.329939 -48.716209 2373.377930
1.080000 1.120000 7.200000 1.971216 -27.592537 765.233765
1.080000 1.160000 6.800000 -16.870842 28.885899 1119.020508
1.080000 1.160000 6.840000 -34.269478 29.676054 2055.065186
1.080000 1.160000 6.880000 -49.287125 19.089073 2793.613281
1.080000 1.160000 6.920000 -56.708046 3.545181 3228.370850
1.080000 1.160000 6.960000 -58.730255 -12.119034 3596.114014
1.080000 1.160000 7.000000 -57.551037 -29.214466 4165.606934
1.080000 1.160000 7.040000 -49.232365 -49.354725 4859.714844
1.080000 1.160000 7.080000 -28.151936 -66.469444 5210.718750
1.080000 1.160000 7.120000 2.570684 -68.727325 4730.053711
1.080000 1.160000 7.160000 28.347761 -50.765060 3380.687012
1.080000 1.160000 7.200000 34.398315 -22.710699 1699.020020
1.080000 1.200000 6.800000 -25.550737 13.974627 848.130371
1.080000 1.200000 6.840000 -30.327816 -6.148939 957.585876
1.080000 1.200000 6.880000 -16.434711 -19.785149 661.551880
1.080000 1.200000 6.920000 -1.072840 -13.761703 190.535461
1.080000 1.200000 6.960000 -4.047493 1.038773 17.461248
1.080000 1.200000 7.000000 -23.380844 0.607457 547.032898
1.080000 1.200000 7.040000 -34.584587 -24.257000 1784.495605
1.080000 1.200000 7.080000 -16.595068 -54.301678 3224.068359
1.080000 1.200000 7.120000 23.227654 -59.626804 4094.879639
1.080000 1.200000 7.160000 53.587906 -31.308891 3851.910156
1.080000 1.200000 7.200000 50.321960 7.433585 2587.558105
1.120000 0.800000 6.800000 -7.975455 16.950878 350.940155
1.120000 0.800000 6.840000 -14.666549 14.020910 411.693573
1.120000 0.800000 6.880000 -19.434763 7.178246 429.237244
1.120000 0.800000 6.920000 -19.441574 -1.832206 381.331757
1.120000 0.800000 6.960000 -13.807289 -9.116690 273.755249
1.120000 0.800000 7.000000 -5.065428 -10.865364 143.714691
1.120000 0.800000 7.040000 1.738750 -6.309380 42.831524
1.120000 0.800000 7.080000 2.423850 0.921041 6.723364
1.120000 0.800000 7.120000 -2.771716 4.940423 32.090191
1.120000 0.800000 7.160000 -8.746853 2.225265 81.459244
1.120000 0.800000 7.200000 -9.405315 -5.012341 113.583527
1.120000 0.840000 6.800000 -17.640358 -2.711047 318.531982
1.120000 0.840000 6.840000 -21.737276 -13.527907 655.513428
1.120000 0.840000 6.880000 -16.566364 -28.646717 1095.078857
1.120000 0.840000 6.920000 0.420624 -38.178757 1457.794312
1.120000 0.840000 6.960000 21.447952 -32.958252 1546.260986
1.120000 0.840000 7.000000 33.105114 -13.860813 1288.070801
1.120000 0.840000 7.040000 27.458220 7.096817 804.318604
1.120000 0.840000 7.080000 9.463959 15.875448 341.596375
1.120000 0.840000 7.120000 -6.641632 8.038569 108.729874
1.120000 0.840000 7.160000 -9.158797 -7.754103 144.009674
1.120000 0.840000 7.200000 1.652359 -17.587090 312.036011
1.120000 0.880000 6.800000 -6.231518 -24.100813 619.680969
1.120000 0.880000 6.840000 -0.862694 -41.083973 1688.637085
1.120000 0.880000 6.880000 22.316181 -54.415001 3459.004395
1.120000 0.880000 6.920000 55.634594 -46.627106 5269.294922
1.120000 0.880000 6.960000 77.174332 -13.777561 6145.698730
1.120000 0.880000 7.000000 69.180901 26.785675 5503.469727
1.120000 0.880000 7.040000 35.396996 48.885208 3642.710938
1.120000 0.880000 7.080000 -0.327946 39.719337 1577.733276
1.120000 0.880000 7.120000 -13.935366 10.896194 312.921448
1.120000 0.880000 7.160000 -1.176280 -12.445673 156.278412
1.120000 0.880000 7.200000 20.900808 -13.882763 629.574890
1.120000 0.920000 6.800000 19.945356 -28.080408 1186.326538
1.120000 0.920000 6.840000 39.195637 -43.005646 3385.783691
1.120000 0.920000 6.880000 76.603058 -38.714005 7366.802734
1.120000 0.920000 6.920000 108.042793 -1.145573 11674.557617
1.120000 0.920000 6.960000 104.490143 55.501953 13998.657227
1.120000 0.920000 7.000000 60.227364 95.943634 12832.515625
1.120000 0.920000 7.040000 1.900127 93.318634 8711.977539
1.120000 0.920000 7.080000 -32.523453 53.371410 3906.282227
1.120000 0.920000 7.120000 -25.903748 9.428286 759.896729
1.120000 0.920000 7.160000 5.317389 -7.279091 81.259781
1.120000 0.920000 7.200000 29.097763 6.602579 890.273865
1.120000 0.960000 6.800000 40.541843 -8.803645 1721.145264
1.120000 0.960000 6.840000 69.847977 -11.095875 5001.858398
1.120000 0.960000 6.880000 104.305382 19.037703 11242.046875
1.120000 0.960000 6.920000 109.586113 78.666832 18197.585938
1.120000 0.960000 6.960000 66.531342 133.262970 22185.439453
1.120000 0.960000 7.000000 -6.138531 143.741638 20699.339844
1.120000 0.960000 7.040000 -63.667107 101.787018 14414.097656
1.120000 0.960000 7.080000 -72.676102 38.767990 6784.772949
1.120000 0.960000 7.120000 -38.837376 -1.422148 1510.364258
1.120000 0.960000 7.160000 1.366608 0.281871 1.947068
1.120000 0.960000 7.200000 15.527903 25.983614 916.263916
1.120000 1.000000 6.800000 38.940437 20.013168 1916.884521
1.120000 1.000000 6.840000 66.535675 35.051918 5655.632812
1.120000 1.000000 6.880000 79.059547 82.188545 13005.369141
1.120000 1.000000 6.920000 48.229084 138.025925 21377.201172
1.120000 1.000000 6.960000 -22.154850 161.109100 26446.980469
1.120000 1.000000 7.000000 -93.085075 128.425079 25157.832031
1.120000 1.000000 7.040000 -121.153053 58.405518 18089.267578
1.120000 1.000000 7.080000 -95.311020 -3.266376 9094.859375
1.120000 1.000000 7.120000 -44.563660 -22.295362 2483.002930
1.120000 1.000000 7.160000 -9.950668 -2.293610 104.276443
1.120000 1.000000 7.200000 -8.909212 24.745354 691.706604
1.120000 1.040000 6.800000 17.095779 37.272659 1681.516846
1.120000 1.040000 6.840000 30.888668 63.558098 4993.741699
1.120000 1.040000 6.880000 15.962464 106.574013 11612.820312
1.120000 1.040000 6.920000 -36.664978 133.953339 19287.816406
1.120000 1.040000 6.960000 -103.176918 116.528664 24224.406250
1.120000 1.040000 7.000000 -143.101120 56.175793 23633.648438
1.120000 1.040000 7.040000 -132.747726 -12.760608 17784.792969
1.120000 1.040000 7.080000 -84.795692 -51.191116 9810.839844
1.120000 1.040000 7.120000 -35.836784 -46.478897 3444.562988
1.120000 1.040000 7.160000 -14.483150 -18.556425 554.102539
1.120000 1.040000 7.200000 -20.505049 2.454446 426.481323
1.120000 1.080000 6.800000 -7.349418 33.488426 1175.488647
1.120000 1.080000 6.840000 -10.883221 57.638603 3440.653076
1.120000 1.080000 6.880000 -40.538391 78.976921 7880.715332
1.120000 1.080000 6.920000 -87.340904 73.821915 13078.109375
1.120000 1.080000 6.960000 -124.559120 34.264908 16689.058594
1.120000 1.080000 7.000000 -128.055283 -22.740150 16915.271484
1.120000 1.080000 7.040000 -95.663712 -67.393448 13693.422852
1.120000 1.080000 7.080000 -48.296867 -79.701309 8684.886719
1.120000 1.080000 7.120000 -12.483685 -62.834869 4104.062988
1.120000 1.080000 7.160000 -0.709621 -36.698280 1347.267334
1.120000 1.080000 7.200000 -6.202865 -19.711739 427.028168
1.120000 1.120000 6.800000 -18.616411 17.645554 657.936340
1.120000 1.120000 6.840000 -31.929632 28.343044 1822.829590
1.120000 1.120000 6.880000 -55.743530 26.870562 3829.368164
1.120000 1.120000 6.920000 -77.913589 7.225044 6122.728516
1.120000 1.120000 6.960000 -85.282074 -25.640236 7930.454102
1.120000 1.120000 7.000000 -71.968452 -58.786251 8635.281250
1.120000 1.120000 7.040000 -42.465805 -78.955345 8037.291016
1.120000 1.120000 7.080000 -8.552137 -79.484512 6390.926758
1.120000 1.120000 7.120000 17.137316 -62.931717 4254.088379
1.120000 1.120000 7.160000 27.124466 -38.911476 2249.839600
1.120000 1.120000 7.200000 22.140339 -18.865095 846.086426
1.120000 1.160000 6.800000 -16.820858 5.565413 313.915070
1.120000 1.160000 6.840000 -27.124264 0.984205 736.694397
1.120000 1.160000 6.880000 -32.606049 -9.314697 1149.917969
1.120000 1.160000 6.920000 -33.065285 -20.331413 1506.679443
1.120000 1.160000 6.960000 -31.010395 -31.509710 1954.506348
1.120000 1.160000 7.000000 -24.951218 -45.000782 2647.633789
1.120000 1.160000 7.040000 -9.568623 -58.216228 3480.687744
1.120000 1.160000 7.080000 15.850023 -61.547699 4039.342285
1.120000 1.160000 7.120000 41.042206 -46.790112 3873.777100
1.120000 1.160000 7.160000 50.562458 -18.315107 2892.005371
1.120000 1.160000 7.200000 38.273361 6.768489 1510.662720
1.120000 1.200000 6.800000 -14.319134 2.799401 212.874237
1.120000 1.200000 6.840000 -12.455387 -9.541245 246.172028
1.120000 1.200000 6.880000 -2.502469 -12.558750 163.984543
1.120000 1.200000 6.920000 1.048412 -5.609802 32.569050
1.120000 1.200000 6.960000 -7.558575 -2.859268 65.307465
1.120000 1.200000 7.000000 -15.848885 -15.888549 503.633118
1.120000 1.200000 7.040000 -5.900967 -36.927628 1398.471069
1.120000 1.200000 7.080000 23.537292 -43.613945 2456.180176
1.120000 1.200000 7.120000 51.185265 -22.600538 3130.715820
1.120000 1.200000 7.160000 52.833424 13.419503 2971.453613
1.120000 1.200000 7.200000 26.952124 35.650742 1997.392334
1.160000 0.800000 6.800000 -15.991370 -1.724166 258.696686
1.160000 0.800000 6.840000 -14.815948 -1.949806 223.314041
1.160000 0.800000 6.880000 -17.474648 -3.591145 318.259644
1.160000 0.800000 6.920000 -19.468887 -10.829472 496.315033
1.160000 0.800000 6.960000 -14.143393 -20.885382 636.234741
1.160000 0.800000 7.000000 -0.653805 -25.298763 640.454895
1.160000 0.800000 7.040000 13.199234 -18.264563 507.814026
1.160000 0.800000 7.080000 17.481173 -3.618562 318.685394
1.160000 0.800000 7.120000 9.977516 7.656353 158.170563
1.160000 0.800000 7.160000 -1.000353 7.746638 61.011112
1.160000 0.800000 7.200000 -4.557332 -0.191604 20.805988
1.160000 0.840000 6.800000 -3.358830 -19.478584 390.696991
1.160000 0.840000 6.840000 -0.255054 -16.732056 280.026764
1.160000 0.840000 6.880000 -0.110289 -17.268881 298.226410
1.160000 0.840000 6.920000 3.321090 -21.273708 463.600311
1.160000 0.840000 6.960000 12.658087 -22.505005 666.702393
1.160000 0.840000 7.000000 22.676390 -15.300034 748.309692
1.160000 0.840000 7.040000 24.940020 -1.853717 625.440857
1.160000 0.840000 7.080000 16.870594 8.610762 358.762146
1.160000 0.840000 7.120000 5.449771 8.721148 105.758423
1.160000 0.840000 7.160000 0.869099 0.795181 1.387646
1.160000 0.840000 7.200000 6.213842 -5.092912 64.549591
1.160000 0.880000 6.800000 21.532585 -19.265188 834.799683
1.160000 0.880000 6.840000 23.925745 -12.987062 741.105042
1.160000 0.880000 6.880000 25.704453 -9.769855 756.168945
1.160000 0.880000 6.920000 30.120676 -5.822289 941.154175
1.160000 0.880000 6.960000 33.976536 3.237512 1164.886475
1.160000 0.880000 7.000000 30.922630 15.625599 1200.368408
1.160000 0.880000 7.040000 19.395336 23.538311 930.231140
1.160000 0.880000 7.080000 6.189400 20.889751 474.690369
1.160000 0.880000 7.120000 0.856829 10.472555 110.408562
1.160000 0.880000 7.160000 6.189929 2.319450 43.695065
1.160000 0.880000 7.200000 14.941796 4.133875 240.346207
1.160000 0.920000 6.800000 38.025276 3.325593 1456.981201
1.160000 0.920000 6.840000 37.396465 11.690538 1535.164307
1.160000 0.920000 6.880000 37.160477 19.515823 1761.768311
1.160000 0.920000 6.920000 35.107620 30.248495 2147.516602
1.160000 0.920000 6.960000 26.041996 41.892876 2433.198730
1.160000 0.920000 7.000000 9.378349 46.921154 2289.548096
1.160000 0.920000 7.040000 -7.328756 39.795097 1637.360474
1.160000 0.920000 7.080000 -13.967637 24.142736 777.966553
1.160000 0.920000 7.120000 -7.607221 11.130102 181.748978
1.160000 0.920000 7.160000 3.949989 9.615206 108.054588
1.160000 0.920000 7.200000 9.228575 17.842972 403.538239
1.160000 0.960000 6.800000 29.840794 32.526878 1948.470703
1.160000 0.960000 6.840000 25.605417 40.336082 2282.636963
1.160000 0.960000 6.880000 19.967335 49.999001 2898.594727
1.160000 0.960000 6.920000 7.708791 60.145592 3676.917725
1.160000 0.960000 6.960000 -12.344904 63.178455 4143.914062
1.160000 0.960000 7.000000 -32.623829 52.606598 3831.768311
1.160000 0.960000 7.040000 -41.680637 31.369495 2721.320801
1.160000 0.960000 7.080000 -34.753342 11.539425 1340.953125
1.160000 0.960000 7.120000 -19.056213 4.393323 382.440582
1.160000 0.960000 7.160000 -7.701096 10.440160 168.303802
1.160000 0.960000 7.200000 -7.799707 19.609997 445.387390
1.160000 1.000000 6.800000 1.219659 45.053547 2031.309692
1.160000 1.000000 6.840000 -5.189039 50.184361 2545.395996
1.160000 1.000000 6.880000 -16.137117 56.932678 3501.736328
1.160000 1.000000 6.920000 -34.730270 58.823814 4666.432617
1.160000 1.000000 6.960000 -55.561348 48.080002 5398.750000
1.160000 1.000000 7.000000 -67.091324 24.806980 5116.631836
1.160000 1.000000 7.040000 -61.693184 -0.448525 3806.250000
1.160000 1.000000 7.080000 -43.392387 -14.574793 2095.323975
1.160000 1.000000 7.120000 -24.981670 -12.983766 792.662048
1.160000 1.000000 7.160000 -16.926018 -2.929863 295.074188
1.160000 1.000000 7.200000 -18.953810 4.255242 377.354004
1.160000 1.040000 6.800000 -25.708961 31.473850 1651.553955
1.160000 1.040000 6.840000 -32.117008 33.589149 2159.733154
1.160000 1.040000 6.880000 -44.529526 34.459110 3170.309082
1.160000 1.040000 6.920000 -61.088585 26.645088 4441.775879
1.160000 1.040000 6.960000 -72.889580 7.069998 5362.875488
1.160000 1.040000 7.000000 -70.965668 -18.110168 5364.104004
1.160000 1.040000 7.040000 -54.536598 -37.159348 4355.057617
1.160000 1.040000 7.080000 -32.356850 -41.969059 2808.367676
1.160000 1.040000 7.120000 -15.660708 -34.154457 1411.784790
1.160000 1.040000 7.160000 -9.505308 -22.465351 595.042847
1.160000 1.040000 7.200000 -10.535942 -14.564528 323.131531
1.160000 1.080000 6.800000 -31.284586 5.231246 1006.091248
1.160000 1.080000 6.840000 -36.476074 5.321636 1358.823853
1.160000 1.080000 6.880000 -45.802109 1.315788 2099.564453
1.160000 1.080000 6.920000 -54.529125 -10.658609 3087.031494
1.160000 1.080000 6.960000 -55.777245 -29.138599 3960.159180
1.160000 1.080000 7.000000 -45.734604 -47.397079 4338.137207
1.160000 1.080000 7.040000 -26.746004 -57.670223 4041.203613
1.160000 1.080000 7.080000 -5.953344 -56.102058 3182.883301
1.160000 1.080000 7.120000 9.142134 -44.724205 2083.833008
1.160000 1.080000 7.160000 14.723543 -29.576557 1091.555420
1.160000 1.080000 7.200000 11.823428 -16.884644 424.884644
1.160000 1.120000 6.800000 -16.803846 -10.648910 395.768555
1.160000 1.120000 6.840000 -20.759211 -11.958796 573.957642
1.160000 1.120000 6.880000 -24.965425 -17.183319 918.538940
1.160000 1.120000 6.920000 -26.823343 -26.146065 1403.108398
1.160000 1.120000 6.960000 -24.002628 -37.582161 1988.544922
1.160000 1.120000 7.000000 -14.429447 -48.752602 2585.025146
1.160000 1.120000 7.040000 2.193617 -54.819721 3010.013916
1.160000 1.120000 7.080000 21.918369 -50.535686 3034.270508
1.160000 1.120000 7.120000 36.536140 -34.666470 2536.653809
1.160000 1.120000 7.160000 38.350471 -13.294459 1647.501343
1.160000 1.120000 7.200000 26.776821 2.676677 724.162781
1.160000 1.160000 6.800000 -2.085918 -6.462371 46.113293
1.160000 1.160000 6.840000 -4.421396 -9.655416 112.775810
1.160000 1.160000 6.880000 -4.486038 -12.774324 183.307907
1.160000 1.160000 6.920000 -4.991699 -15.821233 275.228455
1.160000 1.160000 6.960000 -5.288013 -22.304111 525.436462
1.160000 1.160000 7.000000 0.495316 -32.552364 1059.901733
1.160000 1.160000 7.040000 16.716057 -39.019142 1801.919922
1.160000 1.160000 7.080000 37.845474 -31.459784 2421.997803
1.160000 1.160000 7.120000 49.623615 -8.534161 2535.334961
1.160000 1.160000 7.160000 41.426178 17.036591 2006.373535
1.160000 1.160000 7.200000 18.171867 27.725590 1098.925049
1.160000 1.200000 6.800000 -4.208514 5.080235 43.520374
1.160000 1.200000 6.840000 -2.824865 -0.037725 7.981287
1.160000 1.200000 6.880000 -0.889565 0.403028 0.953757
1.160000 1.200000 6.920000 -4.564472 0.905955 21.655161
1.160000 1.200000 6.960000 -9.293184 -6.826551 132.965073
1.160000 1.200000 7.000000 -3.421086 -20.757456 442.575806
1.160000 1.200000 7.040000 16.845913 -26.587267 990.667542
1.160000 1.200000 7.080000 38.538864 -12.073715 1631.018555
1.160000 1.200000 7.120000 41.879196 17.075417 2045.436890
1.160000 1.200000 7.160000 20.816669 38.850964 1942.731079
1.160000 1.200000 7.200000 -7.966500 35.380714 1315.260010
1.200000 0.800000 6.800000 -7.016114 -17.082043 341.022034
1.200000 0.800000 6.840000 -4.836690 -10.555371 134.809433
1.200000 0.800000 6.880000 -10.677961 -9.866108 211.358948
1.200000 0.800000 6.920000 -13.388071 -19.797733 571.190674
1.200000 0.800000 6.960000 -2.954952 -31.759827 1017.418335
1.200000 0.800000 7.000000 17.508234 -31.610952 1305.790527
1.200000 0.800000 7.040000 33.066025 -14.557317 1305.277344
1.200000 0.800000 7.080000 31.199038 8.630817 1047.870972
1.200000 0.800000 7.120000 14.460373 21.358318 665.280151
1.200000 0.800000 7.160000 -1.942365 17.216930 300.195465
1.200000 0.800000 7.200000 -5.378969 5.630859 60.639881
1.200000 0.840000 6.800000 16.394712 -17.775118 584.741394
1.200000 0.840000 6.840000 12.011316 -4.429429 163.891556
1.200000 0.840000 6.880000 0.057005 -4.054301 16.440609
1.200000 0.840000 6.920000 -3.557491 -16.251268 276.759460
1.200000 0.840000 6.960000 8.511213 -26.608757 780.466675
1.200000 0.840000 7.000000 27.004440 -21.491501 1191.124390
1.200000 0.840000 7.040000 35.299957 -2.261103 1251.199585
1.200000 0.840000 7.080000 26.303337 16.102476 951.155273
1.200000 0.840000 7.120000 9.163364 20.361532 498.559235
1.200000 0.840000 7.160000 -0.974422 11.948372 143.713089
1.200000 0.840000 7.200000 1.252823 3.922327 16.954216
1.200000 0.880000 6.800000 32.678768 4.171844 1085.306152
1.200000 0.880000 6.840000 16.307119 17.013161 555.369751
1.200000 0.880000 6.880000 -1.277006 10.586513 113.704994
1.200000 0.880000 6.920000 -3.518188 -6.635545 56.408096
1.200000 0.880000 6.960000 10.874649 -16.453676 388.981445
1.200000 0.880000 7.000000 27.420958 -8.763464 828.707214
1.200000 0.880000 7.040000 30.797873 9.450429 1037.819580
1.200000 0.880000 7.080000 19.437275 22.503794 884.228394
1.200000 0.880000 7.120000 5.121849 22.095131 514.428162
1.200000 0.880000 7.160000 -0.659530 14.005628 196.592590
1.200000 0.880000 7.200000 1.918308 9.524628 94.398430
1.200000 0.920000 6.800000 23.885872 34.170849 1738.181641
1.200000 0.920000 6.840000 -1.895138 36.217369 1315.289429
1.200000 0.920000 6.880000 -18.365894 18.284130 671.615479
1.200000 0.920000 6.920000 -13.807176 -3.533693 203.125076
1.200000 0.920000 6.960000 5.133119 -11.132404 150.279343
1.200000 0.920000 7.000000 20.712406 -0.322273 429.107605
1.200000 0.920000 7.040000 20.804941 17.268667 731.052490
1.200000 0.920000 7.080000 8.432447 26.876919 793.474976
1.200000 0.920000 7.120000 -4.059715 24.078152 596.238647
1.200000 0.920000 7.160000 -8.266845 16.047867 325.874756
1.200000 0.920000 7.200000 -6.232831 11.541586 172.056396
1.200000 0.960000 6.800000 -7.888531 47.235638 2293.434570
1.200000 0.960000 6.840000 -32.390625 33.319355 2159.332031
1.200000 0.960000 6.880000 -38.248512 6.504656 1505.259277
1.200000 0.960000 6.920000 -22.839911 -13.764282 711.116943
1.200000 0.960000 6.960000 -0.007899 -14.312498 204.847656
1.200000 0.960000 7.000000 12.501799 1.482680 158.493301
1.200000 0.960000 7.040000 7.832571 18.511438 404.022522
1.200000 0.960000 7.080000 -6.376900 24.093021 621.138550
1.200000 0.960000 7.120000 -17.321793 17.608976 610.120544
1.200000 0.960000 7.160000 -18.707012 7.791509 410.659912
1.200000 0.960000 7.200000 -13.830188 2.742102 198.793213
1.200000 1.000000 6.800000 -39.494823 30.277779 2476.584961
1.200000 1.000000 6.840000 -51.147179 5.663564 2648.109863
1.200000 1.000000 6.880000 -41.781013 -19.902264 2141.753174
1.200000 1.000000 6.920000 -18.236805 -29.979336 1231.341553
1.200000 1.000000 6.960000 2.426953 -20.150478 411.931885
1.200000 1.000000 7.000000 7.020564 -0.984008 50.256592
1.200000 1.000000 7.040000 -3.776504 11.768155 152.751450
1.200000 1.000000 7.080000 -17.934998 10.287122 427.489014
1.200000 1.000000 7.120000 -23.616585 -0.590152 558.091370
1.200000 1.000000 7.160000 -18.520226 -9.885221 440.716370
1.200000 1.000000 7.200000 -9.446836 -10.684467 203.400574
1.200000 1.040000 6.800000 -46.251160 -4.378340 2158.339600
1.200000 1.040000 6.840000 -41.761921 -27.172840 2482.421143
1.200000 1.040000 6.880000 -22.351070 -40.796585 2163.931641
1.200000 1.040000 6.920000 -0.230386 -36.809792 1355.013916
1.200000 1.040000 6.960000 10.331892 -19.937614 504.256470
1.200000 1.040000 7.000000 4.740906 -4.186876 40.006115
1.200000 1.040000 7.040000 -8.662737 -0.941282 75.929016
1.200000 1.040000 7.080000 -16.632105 -9.825834 373.173950
1.200000 1.040000 7.120000 -12.638716 -20.391640 575.556091
1.200000 1.040000 7.160000 -1.526063 -22.310633 500.093201
1.200000 1.040000 7.200000 6.255575 -14.202473 240.842453
1.200000 1.080000 6.800000 -24.811983 -28.930223 1452.592285
1.200000 1.080000 6.840000 -11.781110 -39.950840 1734.864136
1.200000 1.080000 6.880000 6.002504 -38.934929 1551.958740
1.200000 1.080000 6.920000 17.093161 -26.158394 976.437744
1.200000 1.080000 6.960000 14.832340 -11.600224 354.563507
1.200000 1.080000 7.000000 3.799500 -6.582867 57.770340
1.200000 1.080000 7.040000 -4.033640 -13.490671 198.268463
1.200000 1.080000 7.080000 -0.336025 -23.550123 554.721191
1.200000 1.080000 7.120000 11.812883 -25.183847 773.770386
1.200000 1.080000 7.160000 21.022440 -15.026678 667.744019
1.200000 1.080000 7.200000 18.546152 -0.899188 344.768280
1.200000 1.120000 6.800000 3.223370 -25.675550 669.624023
1.200000 1.120000 6.840000 13.266571 -25.258354 813.986328
1.200000 1.120000 6.880000 20.624109 -16.904949 711.131226
1.200000 1.120000 6.920000 18.869778 -6.126631 393.604126
1.200000 1.120000 6.960000 9.660620 -2.277418 98.514206
1.200000 1.120000 7.000000 2.788521 -9.023178 89.193588
1.200000 1.120000 7.040000 7.085716 -19.217136 419.505707
1.200000 1.120000 7.080000 20.790831 -20.734119 862.162354
1.200000 1.120000 7.120000 31.809973 -8.484985 1083.869385
1.200000 1.120000 7.160000 28.869829 9.461078 922.979004
1.200000 1.120000 7.200000 12.835662 18.731710 515.631226
1.200000 1.160000 6.800000 11.858817 -3.739713 154.617004
1.200000 1.160000 6.840000 13.739547 -0.706703 189.274582
1.200000 1.160000 6.880000 11.546699 4.643068 154.884338
1.200000 1.160000 6.920000 4.058523 5.949242 51.865086
1.200000 1.160000 6.960000 -2.011568 -1.479913 6.236548
1.200000 1.160000 7.000000 2.312521 -12.969656 173.559723
1.200000 1.160000 7.040000 17.513254 -16.429607 576.646118
1.200000 1.160000 7.080000 31.897932 -4.137999 1034.601074
1.200000 1.160000 7.120000 31.156643 17.370258 1272.462280
1.200000 1.160000 7.160000 12.930518 31.106504 1134.812988
1.200000 1.160000 7.200000 -8.931549 25.270807 718.386292
1.200000 1.200000 6.800000 -4.006508 10.198209 120.055573
1.200000 1.200000 6.840000 -5.425954 8.215147 96.929611
1.200000 1.200000 6.880000 -9.007214 6.528502 123.751228
1.200000 1.200000 6.920000 -13.094209 -0.208149 171.501617
1.200000 1.200000 6.960000 -9.941275 -11.759701 237.119507
1.200000 1.200000 7.000000 4.542303 -18.487766 362.430023
1.200000 1.200000 7.040000 22.214458 -9.876221 591.021912
1.200000 1.200000 7.080000 27.229126 12.280197 892.228516
1.200000 1.200000 7.120000 11.659696 31.542513 1130.878662
1.200000 1.200000 7.160000 -13.873106 30.826347 1142.726807
1.200000 1.200000 7.200000 -27.847271 10.001186 875.494263
