#kx 	ky 	kz 	real 	imag 	intensity
0.800000 0.800000 6.983333 -80.201248 -26.781385 7149.482910
0.800000 0.800000 6.991667 15.721771 -18.571201 592.063599
0.800000 0.800000 7.000000 -28.946997 58.076557 4210.814941
0.800000 0.800000 7.008333 -85.620422 -4.103104 7347.692383
0.800000 0.800000 7.016667 -40.748150 -28.958536 2499.008545
0.800000 0.900000 6.983333 -16.262505 -47.825703 2551.766846
0.800000 0.900000 6.991667 40.036999 19.043411 1965.612793
0.800000 0.900000 7.000000 -106.328903 -42.144882 13082.027344
0.800000 0.900000 7.008333 79.790848 -104.406731 17267.345703
0.800000 0.900000 7.016667 30.867346 0.394939 952.949036
0.800000 1.000000 6.983333 18.042181 -19.565989 708.348206
0.800000 1.000000 6.991667 -7.095524 11.059865 172.667068
0.800000 1.000000 7.000000 96.898285 -87.253731 17002.490234
0.800000 1.000000 7.008333 92.335571 145.022247 29557.310547
0.800000 1.000000 7.016667 -24.625750 62.550190 4518.954102
0.800000 1.100000 6.983333 -0.050037 23.441166 549.490784
0.800000 1.100000 6.991667 34.349308 14.934597 1402.917236
0.800000 1.100000 7.000000 8.256069 134.919159 18271.341797
0.800000 1.100000 7.008333 -126.572006 42.231575 17803.978516
0.800000 1.100000 7.016667 -94.844238 9.871837 9092.882812
0.800000 1.200000 6.983333 -16.107079 -15.645079 504.206482
0.800000 1.200000 6.991667 -31.312147 43.418907 2865.652100
0.800000 1.200000 7.000000 -95.103638 -86.959846 16606.716797
0.800000 1.200000 7.008333 49.065895 -50.427277 4950.372070
0.800000 1.200000 7.016667 -44.737625 -73.305573 7375.162109
0.900000 0.800000 6.983333 -89.944366 -17.526497 8397.166992
0.900000 0.800000 6.991667 -33.310291 -95.198883 10172.402344
0.900000 0.800000 7.000000 2.948387 14.973278 232.892044
0.900000 0.800000 7.008333 -98.816345 -54.559967 12741.459961
0.900000 0.800000 7.016667 16.567593 -77.642441 6302.833984
0.900000 0.900000 6.983333 252.500519 -124.966187 79373.062500
0.900000 0.900000 6.991667 -568.889465 938.912659 1205192.250000
0.900000 0.900000 7.000000 -1153.258179 -858.054016 2066261.000000
0.900000 0.900000 7.008333 329.579041 -623.310486 497138.312500
0.900000 0.900000 7.016667 -11.652832 -325.355469 105991.968750
0.900000 1.000000 6.983333 247.143555 391.230621 214141.343750
0.900000 1.000000 6.991667 -1618.419922 -689.990173 3095369.500000
0.900000 1.000000 7.000000 1043.041504 -1942.269287 4860345.500000
0.900000 1.000000 7.008333 954.385193 325.060089 1016515.187500
0.900000 1.000000 7.016667 499.880859 -103.416626 260575.875000
0.900000 1.100000 6.983333 -218.810242 285.547089 129415.062500
0.900000 1.100000 6.991667 212.201431 -1051.976318 1151683.625000
0.900000 1.100000 7.000000 1292.983154 431.469421 1857971.250000
0.900000 1.100000 7.008333 -87.367981 657.666504 440158.375000
0.900000 1.100000 7.016667 31.987328 304.726532 93881.445312
0.900000 1.200000 6.983333 -119.031189 67.918404 18781.333984
0.900000 1.200000 6.991667 -96.321960 -116.792587 22918.429688
0.900000 1.200000 7.000000 82.551109 -26.881262 7537.287598
0.900000 1.200000 7.008333 -92.503548 47.691654 10831.400391
0.900000 1.200000 7.016667 2.357341 -134.036438 17971.324219
1.000000 0.800000 6.983333 -96.181824 -126.346275 25214.324219
1.000000 0.800000 6.991667 145.904327 -106.325706 32593.228516
1.000000 0.800000 7.000000 -32.546955 69.084351 5831.951660
1.000000 0.800000 7.008333 -16.078644 -151.076904 23082.753906
1.000000 0.800000 7.016667 91.570480 -8.521240 8457.764648
1.000000 0.900000 6.983333 205.871948 333.905579 153876.187500
1.000000 0.900000 6.991667 -1536.711182 -664.920959 2803601.000000
1.000000 0.900000 7.000000 925.763245 -1998.746704 4852026.000000
1.000000 0.900000 7.008333 1127.659302 214.250122 1317518.625000
1.000000 0.900000 7.016667 532.460938 -56.449188 286701.156250
1.000000 1.000000 6.983333 -574.369873 434.677124 518844.937500
1.000000 1.000000 6.991667 705.085632 -2652.434082 7532552.000000
1.000000 1.000000 7.000000 3301.812500 1013.882751 11929924.000000
1.000000 1.000000 7.008333 -97.402588 1689.975586 2865504.750000
1.000000 1.000000 7.016667 234.933411 812.933411 716054.437500
1.000000 1.100000 6.983333 -473.512085 -285.405396 305669.937500
1.000000 1.100000 6.991667 1719.420410 111.599426 2968861.000000
1.000000 1.100000 7.000000 -312.352722 2202.392578 4948097.000000
1.000000 1.100000 7.008333 -1135.817627 112.242188 1302679.875000
1.000000 1.100000 7.016667 -530.452026 155.680466 305615.750000
1.000000 1.200000 6.983333 -136.124069 -173.574402 48657.835938
1.000000 1.200000 6.991667 119.851845 -112.601257 27043.507812
1.000000 1.200000 7.000000 -46.789814 30.172142 3099.644775
1.000000 1.200000 7.008333 -27.081406 -171.071045 29998.705078
1.000000 1.200000 7.016667 126.782600 -57.194653 19345.056641
1.100000 0.800000 6.983333 43.534233 -84.350517 9010.239258
1.100000 0.800000 6.991667 60.600517 89.652260 11709.950195
1.100000 0.800000 7.000000 -66.945038 -20.530560 4903.142090
1.100000 0.800000 7.008333 70.188759 -30.970800 5885.652344
1.100000 0.800000 7.016667 5.822834 40.946896 1710.553711
1.100000 0.900000 6.983333 -199.257217 111.029724 52031.039062
1.100000 0.900000 6.991667 309.795776 -1033.947266 1165020.375000
1.100000 0.900000 7.000000 1357.163574 348.809753 1963561.250000
1.100000 0.900000 7.008333 42.100403 766.718018 589628.937500
1.100000 0.900000 7.016667 58.029087 338.059753 117651.773438
1.100000 1.000000 6.983333 -287.890503 -374.940765 223461.531250
1.100000 1.000000 6.991667 1743.256348 259.574249 3106321.500000
1.100000 1.000000 7.000000 -287.588531 2171.117432 4796458.000000
1.100000 1.000000 7.008333 -1120.333496 197.572144 1294181.875000
1.100000 1.000000 7.016667 -515.894592 192.489899 303199.562500
1.100000 1.100000 6.983333 196.198837 -333.474091 149698.953125
1.100000 1.100000 6.991667 40.646271 1106.024292 1224941.875000
1.100000 1.100000 7.000000 -1414.321899 -12.606773 2000465.250000
1.100000 1.100000 7.008333 -202.357208 -734.776611 580845.125000
1.100000 1.100000 7.016667 -145.670929 -332.803986 131978.515625
1.100000 1.200000 6.983333 143.816696 -80.258904 27124.734375
1.100000 1.200000 6.991667 70.056564 47.825874 7195.236328
1.100000 1.200000 7.000000 64.579056 -56.120285 7319.940918
1.100000 1.200000 7.008333 136.997879 45.798317 20865.904297
1.100000 1.200000 7.016667 32.822727 64.620125 5253.092285
1.200000 0.800000 6.983333 -57.623505 -33.013844 4410.381836
1.200000 0.800000 6.991667 -21.442959 -86.441040 7931.853516
1.200000 0.800000 7.000000 20.204355 -31.162519 1379.318604
1.200000 0.800000 7.008333 -0.838291 -39.936775 1595.648804
1.200000 0.800000 7.016667 23.215265 -18.174429 869.258423
1.200000 0.900000 6.983333 76.567215 -55.004509 8888.035156
1.200000 0.900000 6.991667 70.251480 64.500641 9095.603516
1.200000 0.900000 7.000000 28.984020 25.367889 1483.603271
1.200000 0.900000 7.008333 -3.773949 63.809395 4085.881592
1.200000 0.900000 7.016667 7.284659 -7.740234 112.977493
1.200000 1.000000 6.983333 88.668945 44.430038 9836.209961
1.200000 1.000000 6.991667 -110.102295 40.816605 13788.510742
1.200000 1.000000 7.000000 12.500879 -16.499485 428.505005
1.200000 1.000000 7.008333 -75.287033 -13.679489 5855.265625
1.200000 1.000000 7.016667 23.693031 -15.508875 801.884949
1.200000 1.100000 6.983333 56.812492 74.331123 8752.775391
1.200000 1.100000 6.991667 5.050018 -75.768692 5766.397461
1.200000 1.100000 7.000000 101.403488 21.023033 10724.634766
1.200000 1.100000 7.008333 38.116730 21.907993 1932.845337
1.200000 1.100000 7.016667 8.498177 28.133823 863.731018
1.200000 1.200000 6.983333 0.116364 114.665848 13148.270508
1.200000 1.200000 6.991667 11.682702 31.626495 1136.720703
1.200000 1.200000 7.000000 34.943569 138.318024 20352.927734
1.200000 1.200000 7.008333 -120.186508 92.684822 23035.273438
1.200000 1.200000 7.016667 -44.835560 -23.784237 2575.917480
